# Acquired on 26/01/2024 15:12:08 
# SPIDER: Creep_6mm_HM077x145x38AA-1
# CREEP MEASUREMENT

# time [ms]		force [N]		stiffness [N/mm]
0.000			-30.743			-5.124
104.000			-31.458			-5.243
204.000			-31.562			-5.260
304.000			-31.421			-5.237
405.000			-31.325			-5.221
504.000			-31.261			-5.210
603.000			-31.161			-5.193
705.000			-31.119			-5.187
804.000			-31.083			-5.180
904.000			-31.049			-5.175
1005.000			-31.016			-5.169
1104.000			-30.987			-5.165
1204.000			-30.959			-5.160
1303.000			-30.933			-5.155
1404.000			-30.885			-5.148
1505.000			-30.864			-5.144
1604.000			-30.842			-5.140
1704.000			-30.822			-5.137
1804.000			-30.803			-5.134
1904.000			-30.786			-5.131
2004.000			-30.767			-5.128
2105.000			-30.733			-5.122
2204.000			-30.718			-5.120
2304.000			-30.703			-5.117
2405.000			-30.689			-5.115
2503.000			-30.675			-5.112
2604.000			-30.661			-5.110
2705.000			-30.646			-5.108
2804.000			-30.621			-5.103
2904.000			-30.609			-5.101
3005.000			-30.597			-5.099
3104.000			-30.585			-5.097
3203.000			-30.574			-5.096
3305.000			-30.563			-5.094
3404.000			-30.552			-5.092
3504.000			-30.531			-5.088
3605.000			-30.520			-5.087
3703.000			-30.510			-5.085
3804.000			-30.501			-5.083
3905.000			-30.492			-5.082
4004.000			-30.482			-5.080
4104.000			-30.473			-5.079
4205.000			-30.463			-5.077
4304.000			-30.446			-5.074
4403.000			-30.438			-5.073
4505.000			-30.430			-5.072
4604.000			-30.421			-5.070
4705.000			-30.413			-5.069
4804.000			-30.404			-5.067
4903.000			-30.397			-5.066
5005.000			-30.383			-5.064
5104.000			-30.376			-5.063
5204.000			-30.368			-5.061
5305.000			-30.361			-5.060
5404.000			-30.354			-5.059
5504.000			-30.348			-5.058
5604.000			-30.341			-5.057
5704.000			-30.328			-5.055
5804.000			-30.321			-5.053
5905.000			-30.314			-5.052
6004.000			-30.307			-5.051
6103.000			-30.301			-5.050
6205.000			-30.296			-5.049
6304.000			-30.290			-5.048
6404.000			-30.277			-5.046
6505.000			-30.271			-5.045
6604.000			-30.265			-5.044
6704.000			-30.259			-5.043
6804.000			-30.254			-5.042
6904.000			-30.248			-5.041
7004.000			-30.243			-5.041
7105.000			-30.238			-5.040
7204.000			-30.226			-5.038
7303.000			-30.220			-5.037
7405.000			-30.215			-5.036
7504.000			-30.209			-5.035
7604.000			-30.205			-5.034
7705.000			-30.198			-5.033
7804.000			-30.192			-5.032
7905.000			-30.182			-5.030
8003.000			-30.178			-5.030
8104.000			-30.173			-5.029
8205.000			-30.168			-5.028
8304.000			-30.163			-5.027
8404.000			-30.158			-5.026
8504.000			-30.153			-5.026
8604.000			-30.146			-5.024
8704.000			-30.140			-5.023
8805.000			-30.135			-5.023
8904.000			-30.130			-5.022
9004.000			-30.126			-5.021
9105.000			-30.122			-5.020
9203.000			-30.117			-5.019
9304.000			-30.113			-5.019
9405.000			-30.104			-5.017
9504.000			-30.101			-5.017
9604.000			-30.097			-5.016
9704.000			-30.093			-5.015
9804.000			-30.087			-5.015
9904.000			-30.084			-5.014
10005.000			-30.081			-5.014
10104.000			-30.073			-5.012
10204.000			-30.068			-5.011
10305.000			-30.065			-5.011
10403.000			-30.062			-5.010
10504.000			-30.057			-5.010
10605.000			-30.053			-5.009
10704.000			-30.050			-5.008
10804.000			-30.041			-5.007
10904.000			-30.037			-5.006
11004.000			-30.034			-5.006
11103.000			-30.031			-5.005
11204.000			-30.028			-5.005
11304.000			-30.025			-5.004
11405.000			-30.022			-5.004
11504.000			-30.014			-5.002
11603.000			-30.010			-5.002
11705.000			-30.006			-5.001
11804.000			-30.002			-5.000
11904.000			-29.999			-5.000
12005.000			-29.996			-4.999
12104.000			-29.993			-4.999
12204.000			-29.990			-4.998
12304.000			-29.984			-4.997
12404.000			-29.980			-4.997
12504.000			-29.977			-4.996
12605.000			-29.975			-4.996
12704.000			-29.972			-4.995
12804.000			-29.969			-4.995
12905.000			-29.965			-4.994
13003.000			-29.958			-4.993
13104.000			-29.956			-4.993
13205.000			-29.952			-4.992
13304.000			-29.949			-4.992
13404.000			-29.947			-4.991
13505.000			-29.943			-4.991
13604.000			-29.940			-4.990
13703.000			-29.936			-4.989
13805.000			-29.933			-4.989
13904.000			-29.930			-4.988
14004.000			-29.927			-4.988
14105.000			-29.924			-4.987
14204.000			-29.921			-4.987
14305.000			-29.918			-4.986
14404.000			-29.916			-4.986
14504.000			-29.911			-4.985
14604.000			-29.907			-4.984
14704.000			-29.905			-4.984
14804.000			-29.903			-4.984
14905.000			-29.900			-4.983
15004.000			-29.897			-4.983
15104.000			-29.893			-4.982
15205.000			-29.889			-4.982
15303.000			-29.886			-4.981
15404.000			-29.884			-4.981
15505.000			-29.881			-4.980
15604.000			-29.879			-4.980
15704.000			-29.876			-4.979
15805.000			-29.875			-4.979
15904.000			-29.868			-4.978
16003.000			-29.865			-4.978
16105.000			-29.863			-4.977
16204.000			-29.861			-4.977
16304.000			-29.858			-4.976
16405.000			-29.855			-4.976
16504.000			-29.853			-4.975
16604.000			-29.849			-4.975
16704.000			-29.847			-4.974
16804.000			-29.844			-4.974
16903.000			-29.843			-4.974
17005.000			-29.840			-4.973
17104.000			-29.837			-4.973
17204.000			-29.835			-4.972
17305.000			-29.833			-4.972
17404.000			-29.827			-4.971
17505.000			-29.825			-4.971
17603.000			-29.823			-4.970
17704.000			-29.820			-4.970
17805.000			-29.818			-4.970
17904.000			-29.816			-4.969
18004.000			-29.814			-4.969
18105.000			-29.809			-4.968
18204.000			-29.808			-4.968
18303.000			-29.805			-4.968
18405.000			-29.803			-4.967
18504.000			-29.800			-4.967
18604.000			-29.799			-4.967
18705.000			-29.797			-4.966
18804.000			-29.790			-4.965
18904.000			-29.788			-4.965
19004.000			-29.786			-4.964
19104.000			-29.784			-4.964
19204.000			-29.782			-4.964
19305.000			-29.782			-4.964
19404.000			-29.779			-4.963
19504.000			-29.774			-4.962
19605.000			-29.772			-4.962
19703.000			-29.769			-4.962
19804.000			-29.768			-4.961
19905.000			-29.767			-4.961
20004.000			-29.764			-4.961
20104.000			-29.762			-4.960
20205.000			-29.759			-4.960
20304.000			-29.754			-4.959
20403.000			-29.753			-4.959
20505.000			-29.751			-4.958
20604.000			-29.749			-4.958
20705.000			-29.747			-4.958
20804.000			-29.745			-4.958
20904.000			-29.743			-4.957
21005.000			-29.738			-4.956
21103.000			-29.737			-4.956
21204.000			-29.735			-4.956
21305.000			-29.733			-4.955
21404.000			-29.732			-4.955
21504.000			-29.730			-4.955
21605.000			-29.728			-4.955
21704.000			-29.724			-4.954
21803.000			-29.723			-4.954
21905.000			-29.722			-4.954
22004.000			-29.719			-4.953
22104.000			-29.716			-4.953
22205.000			-29.715			-4.953
22304.000			-29.712			-4.952
22404.000			-29.708			-4.951
22504.000			-29.707			-4.951
22604.000			-29.704			-4.951
22704.000			-29.702			-4.950
22805.000			-29.700			-4.950
22904.000			-29.698			-4.950
23004.000			-29.697			-4.950
23105.000			-29.696			-4.949
23203.000			-29.692			-4.949
23304.000			-29.692			-4.949
23405.000			-29.688			-4.948
23504.000			-29.687			-4.948
23604.000			-29.685			-4.947
23704.000			-29.684			-4.947
23804.000			-29.683			-4.947
23903.000			-29.678			-4.946
24004.000			-29.676			-4.946
24103.000			-29.676			-4.946
24205.000			-29.674			-4.946
24304.000			-29.672			-4.945
24404.000			-29.669			-4.945
24505.000			-29.668			-4.945
24604.000			-29.664			-4.944
24704.000			-29.663			-4.944
24804.000			-29.662			-4.944
24904.000			-29.660			-4.943
25004.000			-29.658			-4.943
25105.000			-29.656			-4.943
25204.000			-29.655			-4.942
25304.000			-29.653			-4.942
25405.000			-29.650			-4.942
25503.000			-29.647			-4.941
25604.000			-29.645			-4.941
25705.000			-29.644			-4.941
25804.000			-29.644			-4.941
25904.000			-29.642			-4.940
26005.000			-29.640			-4.940
26104.000			-29.637			-4.939
26203.000			-29.634			-4.939
26305.000			-29.633			-4.939
26404.000			-29.631			-4.938
26504.000			-29.630			-4.938
26605.000			-29.628			-4.938
26704.000			-29.627			-4.938
26804.000			-29.624			-4.937
26903.000			-29.622			-4.937
27004.000			-29.621			-4.937
27105.000			-29.619			-4.936
27204.000			-29.617			-4.936
27304.000			-29.615			-4.936
27405.000			-29.615			-4.936
27504.000			-29.613			-4.936
27603.000			-29.609			-4.935
27705.000			-29.608			-4.935
27804.000			-29.606			-4.934
27904.000			-29.604			-4.934
28005.000			-29.603			-4.934
28104.000			-29.602			-4.934
28204.000			-29.601			-4.934
28304.000			-29.598			-4.933
28404.000			-29.596			-4.933
28504.000			-29.595			-4.932
28605.000			-29.593			-4.932
28704.000			-29.591			-4.932
28804.000			-29.590			-4.932
28905.000			-29.588			-4.931
29003.000			-29.585			-4.931
29104.000			-29.584			-4.931
29205.000			-29.583			-4.931
29304.000			-29.581			-4.930
29404.000			-29.579			-4.930
29505.000			-29.578			-4.930
29604.000			-29.576			-4.929
29703.000			-29.575			-4.929
29805.000			-29.573			-4.929
29904.000			-29.570			-4.928
30004.000			-29.570			-4.928
30105.000			-29.569			-4.928
30204.000			-29.566			-4.928
30305.000			-29.565			-4.927
30403.000			-29.564			-4.927
30504.000			-29.561			-4.927
30605.000			-29.559			-4.927
30704.000			-29.558			-4.926
30804.000			-29.556			-4.926
30905.000			-29.556			-4.926
31004.000			-29.555			-4.926
31103.000			-29.553			-4.925
31205.000			-29.550			-4.925
31304.000			-29.549			-4.925
31404.000			-29.547			-4.924
31505.000			-29.545			-4.924
31604.000			-29.544			-4.924
31704.000			-29.543			-4.924
31804.000			-29.542			-4.924
31904.000			-29.539			-4.923
32004.000			-29.537			-4.923
32105.000			-29.535			-4.922
32204.000			-29.534			-4.922
32304.000			-29.533			-4.922
32405.000			-29.531			-4.922
32503.000			-29.531			-4.922
32604.000			-29.529			-4.921
32705.000			-29.527			-4.921
32804.000			-29.525			-4.921
32904.000			-29.524			-4.921
33005.000			-29.523			-4.921
33104.000			-29.522			-4.920
33203.000			-29.520			-4.920
33305.000			-29.518			-4.920
33404.000			-29.516			-4.919
33505.000			-29.514			-4.919
33604.000			-29.514			-4.919
33704.000			-29.513			-4.919
33805.000			-29.511			-4.918
33903.000			-29.510			-4.918
34004.000			-29.508			-4.918
34105.000			-29.507			-4.918
34204.000			-29.506			-4.918
34304.000			-29.503			-4.917
34405.000			-29.502			-4.917
34504.000			-29.501			-4.917
34603.000			-29.500			-4.917
34705.000			-29.498			-4.916
34804.000			-29.496			-4.916
34904.000			-29.495			-4.916
35005.000			-29.493			-4.915
35104.000			-29.491			-4.915
35204.000			-29.490			-4.915
35304.000			-29.489			-4.915
35404.000			-29.488			-4.915
35504.000			-29.487			-4.914
35605.000			-29.485			-4.914
35704.000			-29.484			-4.914
35804.000			-29.483			-4.914
35905.000			-29.481			-4.914
36003.000			-29.480			-4.913
36104.000			-29.479			-4.913
36205.000			-29.478			-4.913
36304.000			-29.475			-4.913
36404.000			-29.474			-4.912
36504.000			-29.474			-4.912
36604.000			-29.473			-4.912
36703.000			-29.471			-4.912
36804.000			-29.470			-4.912
36904.000			-29.469			-4.911
37005.000			-29.466			-4.911
37104.000			-29.466			-4.911
37204.000			-29.465			-4.911
37305.000			-29.464			-4.911
37403.000			-29.462			-4.910
37504.000			-29.460			-4.910
37605.000			-29.460			-4.910
37704.000			-29.459			-4.910
37804.000			-29.456			-4.909
37905.000			-29.454			-4.909
38004.000			-29.453			-4.909
38103.000			-29.453			-4.909
38205.000			-29.451			-4.908
38304.000			-29.450			-4.908
38404.000			-29.449			-4.908
38505.000			-29.446			-4.908
38604.000			-29.445			-4.907
38704.000			-29.444			-4.907
38804.000			-29.443			-4.907
38904.000			-29.443			-4.907
39004.000			-29.442			-4.907
39105.000			-29.441			-4.907
39204.000			-29.439			-4.906
39304.000			-29.437			-4.906
39405.000			-29.436			-4.906
39503.000			-29.435			-4.906
39604.000			-29.435			-4.906
39705.000			-29.432			-4.905
39804.000			-29.432			-4.905
39905.000			-29.430			-4.905
40004.000			-29.428			-4.905
40104.000			-29.428			-4.905
40204.000			-29.427			-4.904
40304.000			-29.425			-4.904
40404.000			-29.424			-4.904
40505.000			-29.423			-4.904
40604.000			-29.423			-4.904
40703.000			-29.420			-4.903
40805.000			-29.419			-4.903
40904.000			-29.419			-4.903
41004.000			-29.418			-4.903
41105.000			-29.416			-4.903
41204.000			-29.415			-4.903
41304.000			-29.413			-4.902
41404.000			-29.411			-4.902
41504.000			-29.410			-4.902
41604.000			-29.408			-4.901
41705.000			-29.408			-4.901
41804.000			-29.408			-4.901
41904.000			-29.408			-4.901
42005.000			-29.405			-4.901
42103.000			-29.403			-4.901
42204.000			-29.401			-4.900
42305.000			-29.400			-4.900
42404.000			-29.400			-4.900
42504.000			-29.400			-4.900
42605.000			-29.398			-4.900
42704.000			-29.397			-4.900
42803.000			-29.396			-4.899
42905.000			-29.394			-4.899
43004.000			-29.393			-4.899
43105.000			-29.391			-4.899
43204.000			-29.391			-4.899
43304.000			-29.390			-4.898
43405.000			-29.388			-4.898
43503.000			-29.387			-4.898
43604.000			-29.386			-4.898
43705.000			-29.385			-4.897
43804.000			-29.382			-4.897
43904.000			-29.381			-4.897
44005.000			-29.381			-4.897
44104.000			-29.380			-4.897
44203.000			-29.379			-4.896
44305.000			-29.378			-4.896
44404.000			-29.376			-4.896
44504.000			-29.376			-4.896
44605.000			-29.375			-4.896
44704.000			-29.373			-4.895
44804.000			-29.371			-4.895
44904.000			-29.371			-4.895
45004.000			-29.370			-4.895
45104.000			-29.369			-4.895
45205.000			-29.368			-4.895
45304.000			-29.367			-4.894
45404.000			-29.366			-4.894
45505.000			-29.366			-4.894
45603.000			-29.364			-4.894
45704.000			-29.363			-4.894
45805.000			-29.362			-4.894
45904.000			-29.361			-4.893
46004.000			-29.360			-4.893
46104.000			-29.359			-4.893
46204.000			-29.358			-4.893
46303.000			-29.359			-4.893
46404.000			-29.358			-4.893
46504.000			-29.355			-4.893
46605.000			-29.354			-4.892
46704.000			-29.353			-4.892
46804.000			-29.352			-4.892
46905.000			-29.350			-4.892
47003.000			-29.349			-4.891
47104.000			-29.349			-4.892
47205.000			-29.348			-4.891
47304.000			-29.346			-4.891
47404.000			-29.345			-4.891
47505.000			-29.344			-4.891
47604.000			-29.343			-4.891
47703.000			-29.343			-4.890
47805.000			-29.342			-4.890
47904.000			-29.340			-4.890
48004.000			-29.340			-4.890
48105.000			-29.338			-4.890
48204.000			-29.337			-4.890
48304.000			-29.337			-4.889
48404.000			-29.336			-4.889
48504.000			-29.335			-4.889
48603.000			-29.335			-4.889
48705.000			-29.331			-4.889
48804.000			-29.331			-4.888
48904.000			-29.329			-4.888
49005.000			-29.329			-4.888
49104.000			-29.329			-4.888
49204.000			-29.327			-4.888
49303.000			-29.326			-4.888
49404.000			-29.324			-4.887
49505.000			-29.324			-4.887
49604.000			-29.323			-4.887
49704.000			-29.322			-4.887
49805.000			-29.321			-4.887
49904.000			-29.321			-4.887
50003.000			-29.319			-4.886
50105.000			-29.318			-4.886
50204.000			-29.317			-4.886
50304.000			-29.315			-4.886
50405.000			-29.314			-4.886
50503.000			-29.314			-4.886
50604.000			-29.313			-4.886
50705.000			-29.313			-4.886
50804.000			-29.311			-4.885
50904.000			-29.309			-4.885
51005.000			-29.309			-4.885
51104.000			-29.308			-4.885
51203.000			-29.307			-4.885
51305.000			-29.307			-4.884
51404.000			-29.305			-4.884
51504.000			-29.304			-4.884
51605.000			-29.303			-4.884
51704.000			-29.302			-4.884
51804.000			-29.302			-4.884
51904.000			-29.301			-4.883
52004.000			-29.300			-4.883
52104.000			-29.300			-4.883
52205.000			-29.299			-4.883
52304.000			-29.296			-4.883
52404.000			-29.295			-4.883
52505.000			-29.294			-4.882
52603.000			-29.293			-4.882
52705.000			-29.293			-4.882
52804.000			-29.292			-4.882
52904.000			-29.290			-4.882
53005.000			-29.289			-4.882
53104.000			-29.289			-4.881
53204.000			-29.289			-4.881
53304.000			-29.286			-4.881
53404.000			-29.285			-4.881
53504.000			-29.285			-4.881
53605.000			-29.285			-4.881
53704.000			-29.284			-4.881
53804.000			-29.282			-4.880
53905.000			-29.281			-4.880
54003.000			-29.280			-4.880
54104.000			-29.280			-4.880
54205.000			-29.277			-4.880
54304.000			-29.277			-4.880
54404.000			-29.277			-4.879
54505.000			-29.275			-4.879
54604.000			-29.274			-4.879
54703.000			-29.273			-4.879
54805.000			-29.273			-4.879
54904.000			-29.273			-4.879
55004.000			-29.271			-4.879
55105.000			-29.270			-4.878
55204.000			-29.268			-4.878
55304.000			-29.268			-4.878
55404.000			-29.267			-4.878
55504.000			-29.266			-4.878
55604.000			-29.265			-4.878
55704.000			-29.264			-4.877
55804.000			-29.263			-4.877
55905.000			-29.262			-4.877
56004.000			-29.262			-4.877
56103.000			-29.261			-4.877
56205.000			-29.260			-4.877
56304.000			-29.259			-4.877
56404.000			-29.258			-4.876
56505.000			-29.257			-4.876
56604.000			-29.257			-4.876
56704.000			-29.255			-4.876
56804.000			-29.254			-4.876
56904.000			-29.253			-4.876
57004.000			-29.253			-4.875
57105.000			-29.253			-4.875
57204.000			-29.252			-4.875
57304.000			-29.251			-4.875
57405.000			-29.249			-4.875
57503.000			-29.249			-4.875
57604.000			-29.248			-4.875
57705.000			-29.247			-4.875
57804.000			-29.247			-4.875
57904.000			-29.246			-4.874
58005.000			-29.245			-4.874
58104.000			-29.244			-4.874
58203.000			-29.243			-4.874
58305.000			-29.242			-4.874
58404.000			-29.241			-4.873
58504.000			-29.241			-4.873
58605.000			-29.240			-4.873
58704.000			-29.239			-4.873
58804.000			-29.236			-4.873
58903.000			-29.235			-4.873
59004.000			-29.235			-4.872
59105.000			-29.235			-4.872
59204.000			-29.234			-4.872
59304.000			-29.234			-4.872
59405.000			-29.232			-4.872
59504.000			-29.232			-4.872
59603.000			-29.230			-4.872
59705.000			-29.228			-4.871
59804.000			-29.228			-4.871
59904.000			-29.228			-4.871
60005.000			-29.228			-4.871
60104.000			-29.226			-4.871
60204.000			-29.225			-4.871
60304.000			-29.223			-4.871
60404.000			-29.223			-4.870
60504.000			-29.223			-4.870
60605.000			-29.222			-4.870
60704.000			-29.221			-4.870
60803.000			-29.220			-4.870
60905.000			-29.221			-4.870
61004.000			-29.218			-4.870
61104.000			-29.218			-4.870
61205.000			-29.216			-4.869
61304.000			-29.216			-4.869
61404.000			-29.216			-4.869
61504.000			-29.215			-4.869
61604.000			-29.215			-4.869
61704.000			-29.212			-4.869
61805.000			-29.212			-4.869
61904.000			-29.211			-4.868
62004.000			-29.210			-4.868
62105.000			-29.209			-4.868
62203.000			-29.209			-4.868
62305.000			-29.208			-4.868
62404.000			-29.208			-4.868
62504.000			-29.206			-4.868
62605.000			-29.204			-4.867
62704.000			-29.204			-4.867
62804.000			-29.204			-4.867
62904.000			-29.203			-4.867
63004.000			-29.201			-4.867
63104.000			-29.201			-4.867
63205.000			-29.200			-4.867
63304.000			-29.199			-4.867
63404.000			-29.199			-4.866
63505.000			-29.198			-4.866
63603.000			-29.197			-4.866
63704.000			-29.196			-4.866
63805.000			-29.196			-4.866
63904.000			-29.194			-4.866
64004.000			-29.194			-4.866
64105.000			-29.194			-4.866
64204.000			-29.193			-4.866
64303.000			-29.191			-4.865
64405.000			-29.190			-4.865
64504.000			-29.189			-4.865
64604.000			-29.189			-4.865
64705.000			-29.189			-4.865
64804.000			-29.188			-4.865
64904.000			-29.186			-4.864
65004.000			-29.186			-4.864
65104.000			-29.186			-4.864
65204.000			-29.184			-4.864
65304.000			-29.184			-4.864
65404.000			-29.183			-4.864
65505.000			-29.182			-4.864
65604.000			-29.182			-4.864
65703.000			-29.181			-4.864
65805.000			-29.180			-4.863
65904.000			-29.179			-4.863
66004.000			-29.179			-4.863
66105.000			-29.178			-4.863
66204.000			-29.176			-4.863
66304.000			-29.175			-4.863
66404.000			-29.174			-4.862
66504.000			-29.174			-4.862
66603.000			-29.174			-4.862
66705.000			-29.173			-4.862
66804.000			-29.171			-4.862
66904.000			-29.171			-4.862
67005.000			-29.170			-4.862
67104.000			-29.170			-4.862
67204.000			-29.169			-4.862
67304.000			-29.169			-4.861
67404.000			-29.168			-4.861
67504.000			-29.167			-4.861
67605.000			-29.165			-4.861
67704.000			-29.165			-4.861
67804.000			-29.165			-4.861
67905.000			-29.164			-4.861
68003.000			-29.163			-4.861
68104.000			-29.162			-4.860
68205.000			-29.162			-4.860
68304.000			-29.160			-4.860
68404.000			-29.160			-4.860
68504.000			-29.159			-4.860
68604.000			-29.158			-4.860
68703.000			-29.158			-4.860
68804.000			-29.156			-4.859
68904.000			-29.156			-4.859
69005.000			-29.156			-4.859
69104.000			-29.154			-4.859
69204.000			-29.154			-4.859
69305.000			-29.153			-4.859
69403.000			-29.152			-4.859
69504.000			-29.151			-4.859
69605.000			-29.150			-4.858
69704.000			-29.151			-4.858
69804.000			-29.150			-4.858
69905.000			-29.148			-4.858
70004.000			-29.147			-4.858
70104.000			-29.147			-4.858
70205.000			-29.147			-4.858
70303.000			-29.146			-4.858
70404.000			-29.145			-4.858
70505.000			-29.143			-4.857
70604.000			-29.144			-4.857
70704.000			-29.143			-4.857
70804.000			-29.142			-4.857
70904.000			-29.142			-4.857
71003.000			-29.142			-4.857
71105.000			-29.141			-4.857
71204.000			-29.139			-4.856
71304.000			-29.139			-4.856
71405.000			-29.138			-4.856
71503.000			-29.137			-4.856
71604.000			-29.137			-4.856
71705.000			-29.137			-4.856
71804.000			-29.136			-4.856
71905.000			-29.134			-4.856
72004.000			-29.133			-4.856
72104.000			-29.133			-4.855
72204.000			-29.133			-4.855
72304.000			-29.132			-4.855
72403.000			-29.132			-4.855
72505.000			-29.132			-4.855
72604.000			-29.131			-4.855
72704.000			-29.129			-4.855
72805.000			-29.128			-4.855
72903.000			-29.127			-4.855
73004.000			-29.127			-4.854
73104.000			-29.127			-4.854
73204.000			-29.125			-4.854
73304.000			-29.125			-4.854
73405.000			-29.123			-4.854
73504.000			-29.123			-4.854
73604.000			-29.122			-4.854
73705.000			-29.121			-4.854
73803.000			-29.120			-4.853
73904.000			-29.120			-4.853
74005.000			-29.119			-4.853
74104.000			-29.118			-4.853
74204.000			-29.118			-4.853
74304.000			-29.118			-4.853
74404.000			-29.117			-4.853
74503.000			-29.117			-4.853
74605.000			-29.116			-4.853
74704.000			-29.115			-4.852
74804.000			-29.115			-4.852
74905.000			-29.113			-4.852
75004.000			-29.112			-4.852
75105.000			-29.113			-4.852
75203.000			-29.112			-4.852
75304.000			-29.111			-4.852
75405.000			-29.110			-4.852
75504.000			-29.109			-4.852
75604.000			-29.108			-4.851
75705.000			-29.108			-4.851
75804.000			-29.107			-4.851
75903.000			-29.105			-4.851
76005.000			-29.106			-4.851
76104.000			-29.106			-4.851
76204.000			-29.105			-4.851
76305.000			-29.104			-4.851
76404.000			-29.103			-4.850
76504.000			-29.102			-4.850
76604.000			-29.102			-4.850
76704.000			-29.102			-4.850
76804.000			-29.101			-4.850
76905.000			-29.100			-4.850
77004.000			-29.098			-4.850
77104.000			-29.097			-4.850
77205.000			-29.097			-4.850
77303.000			-29.097			-4.849
77404.000			-29.097			-4.849
77505.000			-29.095			-4.849
77604.000			-29.095			-4.849
77704.000			-29.094			-4.849
77805.000			-29.094			-4.849
77904.000			-29.093			-4.849
78003.000			-29.092			-4.849
78105.000			-29.092			-4.849
78204.000			-29.092			-4.849
78305.000			-29.092			-4.849
78404.000			-29.090			-4.848
78504.000			-29.089			-4.848
78605.000			-29.087			-4.848
78703.000			-29.087			-4.848
78804.000			-29.087			-4.848
78905.000			-29.086			-4.848
79004.000			-29.087			-4.848
79104.000			-29.086			-4.848
79205.000			-29.085			-4.847
79304.000			-29.084			-4.847
79404.000			-29.083			-4.847
79505.000			-29.083			-4.847
79603.000			-29.083			-4.847
79704.000			-29.082			-4.847
79805.000			-29.081			-4.847
79904.000			-29.080			-4.847
80004.000			-29.079			-4.847
80105.000			-29.078			-4.846
80204.000			-29.077			-4.846
80303.000			-29.077			-4.846
80405.000			-29.077			-4.846
80504.000			-29.077			-4.846
80604.000			-29.076			-4.846
80705.000			-29.075			-4.846
80804.000			-29.074			-4.846
80904.000			-29.073			-4.845
81004.000			-29.073			-4.845
81104.000			-29.072			-4.845
81204.000			-29.071			-4.845
81304.000			-29.071			-4.845
81404.000			-29.070			-4.845
81505.000			-29.069			-4.845
81604.000			-29.067			-4.845
81703.000			-29.067			-4.845
81805.000			-29.068			-4.845
81904.000			-29.067			-4.845
82004.000			-29.066			-4.844
82105.000			-29.065			-4.844
82204.000			-29.065			-4.844
82304.000			-29.064			-4.844
82404.000			-29.064			-4.844
82504.000			-29.063			-4.844
82604.000			-29.063			-4.844
82705.000			-29.062			-4.844
82804.000			-29.061			-4.844
82904.000			-29.061			-4.844
83005.000			-29.060			-4.843
83103.000			-29.059			-4.843
83204.000			-29.059			-4.843
83305.000			-29.059			-4.843
83404.000			-29.057			-4.843
83504.000			-29.057			-4.843
83605.000			-29.056			-4.843
83704.000			-29.054			-4.842
83803.000			-29.055			-4.842
83905.000			-29.054			-4.842
84004.000			-29.053			-4.842
84104.000			-29.052			-4.842
84205.000			-29.052			-4.842
84304.000			-29.053			-4.842
84404.000			-29.052			-4.842
84503.000			-29.052			-4.842
84604.000			-29.050			-4.842
84705.000			-29.049			-4.842
84804.000			-29.049			-4.842
84904.000			-29.049			-4.842
85005.000			-29.048			-4.841
85104.000			-29.048			-4.841
85203.000			-29.046			-4.841
85305.000			-29.046			-4.841
85404.000			-29.045			-4.841
85504.000			-29.044			-4.841
85605.000			-29.044			-4.841
85704.000			-29.043			-4.840
85804.000			-29.042			-4.840
85904.000			-29.041			-4.840
86004.000			-29.042			-4.840
86104.000			-29.042			-4.840
86205.000			-29.040			-4.840
86304.000			-29.039			-4.840
86404.000			-29.039			-4.840
86505.000			-29.038			-4.840
86603.000			-29.038			-4.840
86704.000			-29.037			-4.840
86805.000			-29.037			-4.840
86904.000			-29.036			-4.839
87004.000			-29.036			-4.839
87105.000			-29.036			-4.839
87204.000			-29.034			-4.839
87303.000			-29.033			-4.839
87405.000			-29.033			-4.839
87504.000			-29.032			-4.839
87604.000			-29.032			-4.839
87705.000			-29.031			-4.839
87804.000			-29.031			-4.838
87905.000			-29.031			-4.838
88003.000			-29.030			-4.838
88104.000			-29.028			-4.838
88205.000			-29.028			-4.838
88304.000			-29.027			-4.838
88404.000			-29.027			-4.838
88505.000			-29.026			-4.838
88604.000			-29.025			-4.838
88703.000			-29.025			-4.837
88805.000			-29.024			-4.837
88904.000			-29.024			-4.837
89004.000			-29.024			-4.837
89105.000			-29.024			-4.837
89204.000			-29.021			-4.837
89304.000			-29.021			-4.837
89404.000			-29.022			-4.837
89504.000			-29.021			-4.837
89604.000			-29.020			-4.837
89705.000			-29.020			-4.837
89804.000			-29.019			-4.836
89904.000			-29.018			-4.836
90005.000			-29.018			-4.836
90103.000			-29.016			-4.836
90204.000			-29.016			-4.836
90305.000			-29.015			-4.836
90404.000			-29.015			-4.836
90504.000			-29.015			-4.836
90605.000			-29.015			-4.836
90704.000			-29.014			-4.836
90803.000			-29.013			-4.835
90905.000			-29.011			-4.835
91004.000			-29.011			-4.835
91105.000			-29.011			-4.835
91204.000			-29.011			-4.835
91304.000			-29.011			-4.835
91405.000			-29.010			-4.835
91503.000			-29.009			-4.835
91604.000			-29.008			-4.835
91705.000			-29.008			-4.835
91804.000			-29.007			-4.835
91904.000			-29.006			-4.834
92005.000			-29.006			-4.834
92104.000			-29.006			-4.834
92203.000			-29.006			-4.834
92305.000			-29.004			-4.834
92404.000			-29.004			-4.834
92504.000			-29.004			-4.834
92605.000			-29.003			-4.834
92704.000			-29.002			-4.834
92804.000			-29.002			-4.834
92904.000			-29.002			-4.834
93004.000			-29.001			-4.834
93104.000			-29.000			-4.833
93205.000			-29.000			-4.833
93304.000			-28.999			-4.833
93404.000			-28.999			-4.833
93505.000			-28.999			-4.833
93603.000			-28.998			-4.833
93704.000			-28.998			-4.833
93805.000			-28.997			-4.833
93904.000			-28.995			-4.833
94004.000			-28.995			-4.832
94104.000			-28.995			-4.832
94204.000			-28.995			-4.832
94303.000			-28.994			-4.832
94404.000			-28.992			-4.832
94503.000			-28.992			-4.832
94605.000			-28.992			-4.832
94704.000			-28.992			-4.832
94804.000			-28.991			-4.832
94905.000			-28.990			-4.832
95004.000			-28.990			-4.832
95104.000			-28.989			-4.832
95204.000			-28.989			-4.831
95304.000			-28.989			-4.831
95404.000			-28.989			-4.831
95505.000			-28.988			-4.831
95604.000			-28.987			-4.831
95704.000			-28.986			-4.831
95805.000			-28.986			-4.831
95903.000			-28.984			-4.831
96004.000			-28.983			-4.830
96105.000			-28.984			-4.831
96204.000			-28.984			-4.831
96304.000			-28.982			-4.830
96405.000			-28.982			-4.830
96504.000			-28.982			-4.830
96604.000			-28.981			-4.830
96705.000			-28.980			-4.830
96803.000			-28.980			-4.830
96904.000			-28.979			-4.830
97005.000			-28.979			-4.830
97104.000			-28.978			-4.830
97204.000			-28.978			-4.830
97304.000			-28.977			-4.830
97404.000			-28.976			-4.829
97505.000			-28.975			-4.829
97604.000			-28.975			-4.829
97703.000			-28.975			-4.829
97805.000			-28.974			-4.829
97904.000			-28.973			-4.829
98004.000			-28.973			-4.829
98105.000			-28.973			-4.829
98204.000			-28.973			-4.829
98304.000			-28.971			-4.829
98404.000			-28.971			-4.828
98504.000			-28.972			-4.829
98604.000			-28.971			-4.828
98705.000			-28.969			-4.828
98804.000			-28.969			-4.828
98904.000			-28.969			-4.828
99005.000			-28.968			-4.828
99104.000			-28.967			-4.828
99204.000			-28.967			-4.828
99304.000			-28.967			-4.828
99404.000			-28.967			-4.828
99504.000			-28.965			-4.827
99605.000			-28.965			-4.827
99704.000			-28.965			-4.827
99804.000			-28.964			-4.827
99905.000			-28.964			-4.827
100004.000			-28.963			-4.827
100104.000			-28.963			-4.827
100204.000			-28.961			-4.827
100304.000			-28.960			-4.827
100404.000			-28.960			-4.827
100504.000			-28.959			-4.827
100604.000			-28.960			-4.827
100705.000			-28.960			-4.827
100804.000			-28.959			-4.826
100903.000			-28.958			-4.826
101005.000			-28.957			-4.826
101104.000			-28.956			-4.826
101204.000			-28.957			-4.826
101305.000			-28.956			-4.826
101404.000			-28.956			-4.826
101504.000			-28.955			-4.826
101604.000			-28.955			-4.826
101704.000			-28.955			-4.826
101803.000			-28.953			-4.826
101905.000			-28.953			-4.826
102004.000			-28.953			-4.825
102104.000			-28.951			-4.825
102205.000			-28.951			-4.825
102304.000			-28.951			-4.825
102404.000			-28.950			-4.825
102504.000			-28.949			-4.825
102604.000			-28.949			-4.825
102704.000			-28.948			-4.825
102805.000			-28.949			-4.825
102904.000			-28.948			-4.825
103004.000			-28.947			-4.824
103105.000			-28.946			-4.824
103203.000			-28.945			-4.824
103304.000			-28.945			-4.824
103405.000			-28.945			-4.824
103504.000			-28.945			-4.824
103604.000			-28.945			-4.824
103704.000			-28.944			-4.824
103804.000			-28.943			-4.824
103905.000			-28.943			-4.824
104004.000			-28.942			-4.824
104103.000			-28.942			-4.824
104205.000			-28.941			-4.824
104304.000			-28.941			-4.823
104404.000			-28.940			-4.823
104505.000			-28.941			-4.823
104604.000			-28.939			-4.823
104704.000			-28.938			-4.823
104804.000			-28.937			-4.823
104904.000			-28.938			-4.823
105004.000			-28.938			-4.823
105105.000			-28.937			-4.823
105204.000			-28.937			-4.823
105304.000			-28.936			-4.823
105405.000			-28.935			-4.822
105503.000			-28.934			-4.822
105604.000			-28.934			-4.822
105705.000			-28.933			-4.822
105804.000			-28.933			-4.822
105904.000			-28.933			-4.822
106005.000			-28.933			-4.822
106104.000			-28.931			-4.822
106204.000			-28.931			-4.822
106305.000			-28.931			-4.822
106403.000			-28.931			-4.822
106504.000			-28.930			-4.822
106605.000			-28.930			-4.822
106704.000			-28.929			-4.821
106804.000			-28.928			-4.821
106904.000			-28.927			-4.821
107004.000			-28.927			-4.821
107103.000			-28.926			-4.821
107204.000			-28.926			-4.821
107304.000			-28.926			-4.821
107405.000			-28.926			-4.821
107504.000			-28.924			-4.821
107604.000			-28.923			-4.820
107705.000			-28.923			-4.821
107804.000			-28.923			-4.820
107904.000			-28.923			-4.820
108004.000			-28.922			-4.820
108104.000			-28.923			-4.820
108204.000			-28.921			-4.820
108305.000			-28.921			-4.820
108404.000			-28.920			-4.820
108504.000			-28.920			-4.820
108605.000			-28.920			-4.820
108703.000			-28.920			-4.820
108804.000			-28.919			-4.820
108905.000			-28.919			-4.820
109004.000			-28.918			-4.820
109104.000			-28.918			-4.820
109205.000			-28.917			-4.819
109304.000			-28.916			-4.819
109404.000			-28.916			-4.819
109505.000			-28.915			-4.819
109603.000			-28.915			-4.819
109704.000			-28.914			-4.819
109805.000			-28.913			-4.819
109904.000			-28.913			-4.819
110004.000			-28.912			-4.819
110104.000			-28.912			-4.819
110204.000			-28.911			-4.818
110303.000			-28.910			-4.818
110404.000			-28.910			-4.818
110504.000			-28.910			-4.818
110605.000			-28.909			-4.818
110704.000			-28.910			-4.818
110804.000			-28.910			-4.818
110905.000			-28.908			-4.818
111003.000			-28.907			-4.818
111104.000			-28.907			-4.818
111204.000			-28.907			-4.818
111304.000			-28.906			-4.818
111404.000			-28.906			-4.818
111505.000			-28.905			-4.818
111604.000			-28.905			-4.817
111704.000			-28.904			-4.817
111805.000			-28.904			-4.817
111903.000			-28.904			-4.817
112004.000			-28.903			-4.817
112105.000			-28.903			-4.817
112204.000			-28.903			-4.817
112304.000			-28.902			-4.817
112405.000			-28.902			-4.817
112504.000			-28.901			-4.817
112603.000			-28.900			-4.817
112705.000			-28.901			-4.817
112804.000			-28.900			-4.817
112904.000			-28.900			-4.817
113005.000			-28.900			-4.817
113104.000			-28.899			-4.816
113204.000			-28.898			-4.816
113303.000			-28.897			-4.816
113404.000			-28.897			-4.816
113503.000			-28.897			-4.816
113604.000			-28.896			-4.816
113704.000			-28.895			-4.816
113805.000			-28.895			-4.816
113904.000			-28.895			-4.816
114004.000			-28.893			-4.816
114105.000			-28.893			-4.815
114203.000			-28.893			-4.816
114304.000			-28.893			-4.816
114405.000			-28.892			-4.815
114504.000			-28.893			-4.815
114604.000			-28.892			-4.815
114705.000			-28.892			-4.815
114804.000			-28.889			-4.815
114904.000			-28.890			-4.815
115005.000			-28.890			-4.815
115103.000			-28.889			-4.815
115204.000			-28.887			-4.815
115305.000			-28.887			-4.814
115404.000			-28.887			-4.814
115504.000			-28.886			-4.814
115605.000			-28.886			-4.814
115704.000			-28.887			-4.814
115803.000			-28.886			-4.814
115905.000			-28.884			-4.814
116003.000			-28.884			-4.814
116104.000			-28.883			-4.814
116205.000			-28.883			-4.814
116304.000			-28.883			-4.814
116404.000			-28.882			-4.814
116504.000			-28.883			-4.814
116604.000			-28.882			-4.814
116703.000			-28.881			-4.814
116804.000			-28.881			-4.814
116904.000			-28.880			-4.813
117005.000			-28.880			-4.813
117104.000			-28.879			-4.813
117204.000			-28.878			-4.813
117305.000			-28.878			-4.813
117404.000			-28.878			-4.813
117504.000			-28.878			-4.813
117604.000			-28.877			-4.813
117704.000			-28.877			-4.813
117804.000			-28.875			-4.813
117905.000			-28.875			-4.813
118004.000			-28.875			-4.812
118104.000			-28.875			-4.813
118205.000			-28.875			-4.812
118303.000			-28.874			-4.812
118404.000			-28.874			-4.812
118504.000			-28.873			-4.812
118604.000			-28.873			-4.812
118704.000			-28.872			-4.812
118805.000			-28.872			-4.812
118904.000			-28.873			-4.812
119004.000			-28.871			-4.812
119105.000			-28.871			-4.812
119203.000			-28.870			-4.812
119304.000			-28.871			-4.812
119405.000			-28.870			-4.812
119504.000			-28.869			-4.812
119604.000			-28.868			-4.811
119704.000			-28.867			-4.811
119804.000			-28.868			-4.811
119905.000			-28.867			-4.811
120004.000			-28.867			-4.811
120103.000			-28.866			-4.811
120205.000			-28.866			-4.811
120304.000			-28.867			-4.811
120404.000			-28.866			-4.811
120505.000			-28.865			-4.811
120604.000			-28.863			-4.810
120704.000			-28.863			-4.811
120804.000			-28.863			-4.811
120904.000			-28.864			-4.811
121003.000			-28.864			-4.811
121105.000			-28.862			-4.810
121204.000			-28.861			-4.810
121304.000			-28.862			-4.810
121405.000			-28.861			-4.810
121504.000			-28.860			-4.810
121604.000			-28.859			-4.810
121704.000			-28.859			-4.810
121804.000			-28.859			-4.810
121904.000			-28.859			-4.810
122005.000			-28.858			-4.810
122104.000			-28.858			-4.810
122204.000			-28.857			-4.810
122305.000			-28.857			-4.809
122404.000			-28.855			-4.809
122504.000			-28.855			-4.809
122604.000			-28.856			-4.809
122704.000			-28.854			-4.809
122804.000			-28.855			-4.809
122904.000			-28.855			-4.809
123004.000			-28.854			-4.809
123105.000			-28.854			-4.809
123204.000			-28.853			-4.809
123303.000			-28.853			-4.809
123405.000			-28.853			-4.809
123504.000			-28.851			-4.809
123604.000			-28.852			-4.809
123705.000			-28.851			-4.808
123804.000			-28.851			-4.808
123904.000			-28.852			-4.809
124005.000			-28.850			-4.808
124104.000			-28.850			-4.808
124203.000			-28.848			-4.808
124305.000			-28.848			-4.808
124404.000			-28.848			-4.808
124504.000			-28.847			-4.808
124605.000			-28.847			-4.808
124704.000			-28.847			-4.808
124804.000			-28.846			-4.808
124904.000			-28.846			-4.808
125004.000			-28.846			-4.808
125103.000			-28.845			-4.808
125205.000			-28.844			-4.807
125304.000			-28.844			-4.807
125404.000			-28.844			-4.807
125505.000			-28.843			-4.807
125604.000			-28.842			-4.807
125704.000			-28.842			-4.807
125804.000			-28.842			-4.807
125904.000			-28.842			-4.807
126004.000			-28.842			-4.807
126104.000			-28.841			-4.807
126204.000			-28.840			-4.807
126305.000			-28.840			-4.807
126404.000			-28.839			-4.806
126503.000			-28.838			-4.806
126605.000			-28.838			-4.806
126704.000			-28.839			-4.806
126804.000			-28.838			-4.806
126905.000			-28.837			-4.806
127004.000			-28.836			-4.806
127104.000			-28.836			-4.806
127205.000			-28.835			-4.806
127304.000			-28.835			-4.806
127403.000			-28.835			-4.806
127505.000			-28.835			-4.806
127604.000			-28.835			-4.806
127704.000			-28.834			-4.806
127805.000			-28.833			-4.805
127904.000			-28.832			-4.805
128004.000			-28.832			-4.805
128104.000			-28.832			-4.805
128204.000			-28.831			-4.805
128304.000			-28.830			-4.805
128405.000			-28.831			-4.805
128504.000			-28.830			-4.805
128604.000			-28.829			-4.805
128705.000			-28.830			-4.805
128804.000			-28.830			-4.805
128904.000			-28.829			-4.805
129004.000			-28.830			-4.805
129104.000			-28.830			-4.805
129204.000			-28.828			-4.805
129304.000			-28.826			-4.804
129404.000			-28.827			-4.804
129505.000			-28.826			-4.804
129604.000			-28.826			-4.804
129703.000			-28.826			-4.804
129805.000			-28.826			-4.804
129904.000			-28.826			-4.804
130004.000			-28.826			-4.804
130105.000			-28.824			-4.804
130204.000			-28.824			-4.804
130304.000			-28.823			-4.804
130405.000			-28.822			-4.804
130504.000			-28.822			-4.804
130603.000			-28.822			-4.804
130705.000			-28.822			-4.804
130804.000			-28.821			-4.803
130904.000			-28.820			-4.803
131005.000			-28.820			-4.803
131104.000			-28.819			-4.803
131204.000			-28.820			-4.803
131304.000			-28.819			-4.803
131404.000			-28.819			-4.803
131503.000			-28.818			-4.803
131605.000			-28.817			-4.803
131704.000			-28.817			-4.803
131804.000			-28.816			-4.803
131905.000			-28.816			-4.803
132004.000			-28.816			-4.803
132104.000			-28.815			-4.803
132204.000			-28.815			-4.802
132304.000			-28.816			-4.803
132403.000			-28.815			-4.802
132505.000			-28.815			-4.802
132604.000			-28.815			-4.803
132705.000			-28.814			-4.802
132804.000			-28.813			-4.802
132904.000			-28.812			-4.802
133005.000			-28.811			-4.802
133103.000			-28.811			-4.802
133204.000			-28.811			-4.802
133304.000			-28.811			-4.802
133404.000			-28.811			-4.802
133504.000			-28.812			-4.802
133605.000			-28.809			-4.802
133704.000			-28.808			-4.801
133804.000			-28.808			-4.801
133905.000			-28.809			-4.802
134003.000			-28.809			-4.801
134104.000			-28.808			-4.801
134204.000			-28.808			-4.801
134304.000			-28.807			-4.801
134404.000			-28.805			-4.801
134505.000			-28.805			-4.801
134604.000			-28.806			-4.801
134704.000			-28.805			-4.801
134805.000			-28.805			-4.801
134903.000			-28.805			-4.801
135004.000			-28.805			-4.801
135104.000			-28.804			-4.801
135204.000			-28.803			-4.800
135304.000			-28.803			-4.801
135405.000			-28.802			-4.800
135504.000			-28.801			-4.800
135604.000			-28.800			-4.800
135705.000			-28.800			-4.800
135803.000			-28.802			-4.800
135905.000			-28.801			-4.800
136003.000			-28.800			-4.800
136104.000			-28.800			-4.800
136205.000			-28.800			-4.800
136304.000			-28.799			-4.800
136404.000			-28.799			-4.800
136505.000			-28.798			-4.800
136604.000			-28.798			-4.800
136704.000			-28.797			-4.799
136805.000			-28.796			-4.799
136903.000			-28.796			-4.799
137004.000			-28.797			-4.799
137105.000			-28.797			-4.799
137204.000			-28.796			-4.799
137304.000			-28.796			-4.799
137405.000			-28.794			-4.799
137504.000			-28.793			-4.799
137604.000			-28.793			-4.799
137705.000			-28.793			-4.799
137803.000			-28.794			-4.799
137904.000			-28.794			-4.799
138004.000			-28.792			-4.799
138104.000			-28.792			-4.799
138204.000			-28.792			-4.799
138305.000			-28.791			-4.799
138404.000			-28.791			-4.798
138504.000			-28.790			-4.798
138605.000			-28.790			-4.798
138704.000			-28.790			-4.798
138804.000			-28.789			-4.798
138903.000			-28.788			-4.798
139004.000			-28.788			-4.798
139105.000			-28.788			-4.798
139204.000			-28.787			-4.798
139304.000			-28.787			-4.798
139405.000			-28.785			-4.798
139504.000			-28.786			-4.798
139604.000			-28.785			-4.798
139705.000			-28.785			-4.798
139804.000			-28.785			-4.797
139904.000			-28.784			-4.797
140004.000			-28.784			-4.797
140104.000			-28.784			-4.797
140204.000			-28.784			-4.797
140305.000			-28.783			-4.797
140404.000			-28.782			-4.797
140504.000			-28.782			-4.797
140605.000			-28.782			-4.797
140704.000			-28.782			-4.797
140804.000			-28.781			-4.797
140904.000			-28.780			-4.797
141004.000			-28.782			-4.797
141104.000			-28.782			-4.797
141205.000			-28.781			-4.797
141304.000			-28.780			-4.797
141404.000			-28.779			-4.797
141505.000			-28.779			-4.796
141604.000			-28.779			-4.796
141704.000			-28.779			-4.796
141804.000			-28.778			-4.796
141904.000			-28.777			-4.796
142004.000			-28.777			-4.796
142104.000			-28.776			-4.796
142204.000			-28.775			-4.796
142305.000			-28.776			-4.796
142404.000			-28.775			-4.796
142504.000			-28.775			-4.796
142605.000			-28.775			-4.796
142703.000			-28.774			-4.796
142804.000			-28.773			-4.796
142905.000			-28.773			-4.795
143004.000			-28.773			-4.795
143104.000			-28.772			-4.795
143205.000			-28.771			-4.795
143304.000			-28.771			-4.795
143404.000			-28.771			-4.795
143505.000			-28.771			-4.795
143603.000			-28.770			-4.795
143704.000			-28.770			-4.795
143804.000			-28.768			-4.795
143904.000			-28.768			-4.795
144004.000			-28.769			-4.795
144105.000			-28.769			-4.795
144204.000			-28.768			-4.795
144304.000			-28.768			-4.795
144405.000			-28.768			-4.795
144503.000			-28.767			-4.794
144604.000			-28.767			-4.795
144704.000			-28.768			-4.795
144804.000			-28.766			-4.794
144904.000			-28.765			-4.794
145005.000			-28.765			-4.794
145104.000			-28.766			-4.794
145204.000			-28.765			-4.794
145305.000			-28.764			-4.794
145404.000			-28.764			-4.794
145505.000			-28.764			-4.794
145603.000			-28.764			-4.794
145704.000			-28.763			-4.794
145805.000			-28.762			-4.794
145904.000			-28.762			-4.794
146004.000			-28.760			-4.793
146105.000			-28.761			-4.793
146204.000			-28.761			-4.793
146304.000			-28.761			-4.793
146405.000			-28.761			-4.793
146503.000			-28.760			-4.793
146604.000			-28.760			-4.793
146704.000			-28.760			-4.793
146804.000			-28.759			-4.793
146904.000			-28.759			-4.793
147005.000			-28.758			-4.793
147104.000			-28.758			-4.793
147204.000			-28.758			-4.793
147305.000			-28.758			-4.793
147404.000			-28.757			-4.793
147504.000			-28.757			-4.793
147604.000			-28.755			-4.793
147704.000			-28.755			-4.793
147804.000			-28.756			-4.793
147905.000			-28.755			-4.792
148004.000			-28.755			-4.792
148104.000			-28.755			-4.792
148205.000			-28.753			-4.792
148304.000			-28.752			-4.792
148404.000			-28.753			-4.792
148503.000			-28.753			-4.792
148604.000			-28.753			-4.792
148703.000			-28.753			-4.792
148804.000			-28.752			-4.792
148904.000			-28.751			-4.792
149005.000			-28.751			-4.792
149104.000			-28.751			-4.792
149204.000			-28.751			-4.792
149305.000			-28.750			-4.792
149404.000			-28.749			-4.792
149504.000			-28.750			-4.792
149604.000			-28.748			-4.791
149704.000			-28.748			-4.791
149803.000			-28.748			-4.791
149905.000			-28.747			-4.791
150004.000			-28.748			-4.791
150104.000			-28.747			-4.791
150205.000			-28.747			-4.791
150304.000			-28.746			-4.791
150404.000			-28.746			-4.791
150504.000			-28.746			-4.791
150604.000			-28.746			-4.791
150703.000			-28.745			-4.791
150805.000			-28.745			-4.791
150904.000			-28.745			-4.791
151004.000			-28.745			-4.791
151105.000			-28.742			-4.790
151204.000			-28.742			-4.790
151304.000			-28.742			-4.790
151405.000			-28.743			-4.790
151504.000			-28.742			-4.790
151603.000			-28.742			-4.790
151705.000			-28.741			-4.790
151804.000			-28.740			-4.790
151905.000			-28.740			-4.790
152004.000			-28.741			-4.790
152104.000			-28.740			-4.790
152205.000			-28.738			-4.790
152304.000			-28.739			-4.790
152404.000			-28.738			-4.790
152504.000			-28.737			-4.790
152604.000			-28.737			-4.790
152703.000			-28.737			-4.790
152805.000			-28.737			-4.790
152904.000			-28.737			-4.790
153004.000			-28.737			-4.789
153105.000			-28.736			-4.789
153204.000			-28.736			-4.789
153304.000			-28.736			-4.789
153404.000			-28.736			-4.789
153504.000			-28.736			-4.789
153603.000			-28.736			-4.789
153705.000			-28.735			-4.789
153804.000			-28.734			-4.789
153904.000			-28.734			-4.789
154005.000			-28.732			-4.789
154104.000			-28.732			-4.789
154204.000			-28.731			-4.789
154305.000			-28.731			-4.789
154404.000			-28.731			-4.788
154503.000			-28.731			-4.788
154605.000			-28.730			-4.788
154704.000			-28.731			-4.788
154804.000			-28.731			-4.788
154905.000			-28.730			-4.788
155004.000			-28.730			-4.788
155105.000			-28.730			-4.788
155204.000			-28.729			-4.788
155304.000			-28.729			-4.788
155404.000			-28.728			-4.788
155504.000			-28.728			-4.788
155603.000			-28.727			-4.788
155705.000			-28.726			-4.788
155804.000			-28.727			-4.788
155904.000			-28.726			-4.788
156005.000			-28.725			-4.788
156104.000			-28.726			-4.788
156204.000			-28.726			-4.788
156304.000			-28.725			-4.787
156404.000			-28.724			-4.787
156503.000			-28.724			-4.787
156605.000			-28.724			-4.787
156704.000			-28.723			-4.787
156804.000			-28.723			-4.787
156905.000			-28.724			-4.787
157004.000			-28.723			-4.787
157104.000			-28.723			-4.787
157204.000			-28.722			-4.787
157304.000			-28.721			-4.787
157403.000			-28.721			-4.787
157505.000			-28.722			-4.787
157604.000			-28.721			-4.787
157704.000			-28.722			-4.787
157805.000			-28.721			-4.787
157904.000			-28.720			-4.787
158004.000			-28.719			-4.786
158104.000			-28.718			-4.786
158204.000			-28.718			-4.786
158303.000			-28.718			-4.786
158404.000			-28.718			-4.786
158504.000			-28.719			-4.786
158605.000			-28.718			-4.786
158704.000			-28.717			-4.786
158804.000			-28.716			-4.786
158905.000			-28.716			-4.786
159004.000			-28.716			-4.786
159104.000			-28.715			-4.786
159204.000			-28.714			-4.786
159304.000			-28.715			-4.786
159403.000			-28.715			-4.786
159505.000			-28.714			-4.786
159604.000			-28.714			-4.786
159704.000			-28.713			-4.786
159805.000			-28.713			-4.785
159904.000			-28.713			-4.785
160004.000			-28.713			-4.785
160105.000			-28.713			-4.786
160204.000			-28.713			-4.785
160303.000			-28.711			-4.785
160405.000			-28.711			-4.785
160504.000			-28.710			-4.785
160604.000			-28.710			-4.785
160705.000			-28.710			-4.785
160804.000			-28.710			-4.785
160904.000			-28.710			-4.785
161004.000			-28.709			-4.785
161104.000			-28.709			-4.785
161203.000			-28.710			-4.785
161305.000			-28.708			-4.785
161404.000			-28.708			-4.785
161505.000			-28.709			-4.785
161604.000			-28.708			-4.785
161704.000			-28.707			-4.784
161805.000			-28.705			-4.784
161904.000			-28.706			-4.784
162004.000			-28.706			-4.784
162104.000			-28.705			-4.784
162204.000			-28.705			-4.784
162304.000			-28.705			-4.784
162405.000			-28.704			-4.784
162504.000			-28.703			-4.784
162604.000			-28.704			-4.784
162705.000			-28.703			-4.784
162804.000			-28.703			-4.784
162904.000			-28.703			-4.784
163004.000			-28.703			-4.784
163104.000			-28.702			-4.784
163204.000			-28.702			-4.784
163305.000			-28.702			-4.784
163404.000			-28.701			-4.783
163504.000			-28.701			-4.783
163605.000			-28.701			-4.784
163704.000			-28.701			-4.784
163804.000			-28.700			-4.783
163904.000			-28.700			-4.783
164004.000			-28.700			-4.783
164104.000			-28.699			-4.783
164205.000			-28.698			-4.783
164304.000			-28.699			-4.783
164404.000			-28.699			-4.783
164505.000			-28.699			-4.783
164604.000			-28.698			-4.783
164705.000			-28.698			-4.783
164803.000			-28.697			-4.783
164904.000			-28.696			-4.783
165004.000			-28.696			-4.783
165104.000			-28.695			-4.782
165204.000			-28.694			-4.782
165305.000			-28.695			-4.783
165404.000			-28.695			-4.782
165504.000			-28.695			-4.783
165605.000			-28.695			-4.782
165704.000			-28.694			-4.782
165804.000			-28.694			-4.782
165904.000			-28.693			-4.782
166004.000			-28.693			-4.782
166103.000			-28.693			-4.782
166205.000			-28.692			-4.782
166304.000			-28.692			-4.782
166404.000			-28.692			-4.782
166505.000			-28.692			-4.782
166604.000			-28.691			-4.782
166704.000			-28.691			-4.782
166804.000			-28.690			-4.782
166904.000			-28.690			-4.782
167003.000			-28.689			-4.782
167105.000			-28.690			-4.782
167204.000			-28.690			-4.782
167304.000			-28.689			-4.781
167405.000			-28.688			-4.781
167504.000			-28.688			-4.781
167604.000			-28.686			-4.781
167704.000			-28.687			-4.781
167804.000			-28.687			-4.781
167903.000			-28.687			-4.781
168004.000			-28.687			-4.781
168103.000			-28.687			-4.781
168205.000			-28.685			-4.781
168304.000			-28.685			-4.781
168404.000			-28.685			-4.781
168505.000			-28.685			-4.781
168604.000			-28.684			-4.781
168704.000			-28.683			-4.781
168805.000			-28.684			-4.781
168904.000			-28.683			-4.781
169003.000			-28.683			-4.780
169105.000			-28.683			-4.780
169203.000			-28.683			-4.780
169304.000			-28.682			-4.780
169405.000			-28.682			-4.780
169504.000			-28.681			-4.780
169604.000			-28.681			-4.780
169705.000			-28.682			-4.780
169804.000			-28.681			-4.780
169903.000			-28.680			-4.780
170005.000			-28.680			-4.780
170103.000			-28.681			-4.780
170204.000			-28.680			-4.780
170305.000			-28.679			-4.780
170404.000			-28.678			-4.780
170504.000			-28.679			-4.780
170605.000			-28.679			-4.780
170704.000			-28.678			-4.780
170804.000			-28.678			-4.780
170905.000			-28.677			-4.780
171003.000			-28.677			-4.780
171105.000			-28.675			-4.779
171204.000			-28.676			-4.779
171304.000			-28.676			-4.779
171405.000			-28.675			-4.779
171504.000			-28.674			-4.779
171604.000			-28.675			-4.779
171705.000			-28.676			-4.779
171804.000			-28.675			-4.779
171903.000			-28.674			-4.779
172005.000			-28.674			-4.779
172103.000			-28.674			-4.779
172204.000			-28.674			-4.779
172305.000			-28.673			-4.779
172404.000			-28.672			-4.779
172504.000			-28.672			-4.779
172605.000			-28.672			-4.779
172704.000			-28.672			-4.779
172803.000			-28.672			-4.779
172905.000			-28.670			-4.778
173003.000			-28.670			-4.778
173104.000			-28.670			-4.778
173205.000			-28.670			-4.778
173304.000			-28.669			-4.778
173404.000			-28.669			-4.778
173505.000			-28.669			-4.778
173604.000			-28.668			-4.778
173704.000			-28.668			-4.778
173805.000			-28.667			-4.778
173903.000			-28.668			-4.778
174004.000			-28.667			-4.778
174105.000			-28.667			-4.778
174204.000			-28.666			-4.778
174305.000			-28.667			-4.778
174404.000			-28.667			-4.778
174504.000			-28.666			-4.778
174605.000			-28.665			-4.778
174704.000			-28.665			-4.778
174804.000			-28.665			-4.777
174905.000			-28.665			-4.777
175003.000			-28.664			-4.777
175104.000			-28.663			-4.777
175205.000			-28.664			-4.777
175304.000			-28.663			-4.777
175404.000			-28.663			-4.777
175505.000			-28.663			-4.777
175604.000			-28.663			-4.777
175704.000			-28.663			-4.777
175805.000			-28.662			-4.777
175903.000			-28.662			-4.777
176004.000			-28.661			-4.777
176104.000			-28.661			-4.777
176204.000			-28.661			-4.777
176304.000			-28.660			-4.777
176405.000			-28.659			-4.777
176504.000			-28.660			-4.777
176604.000			-28.660			-4.777
176705.000			-28.660			-4.777
176804.000			-28.660			-4.777
176904.000			-28.659			-4.776
177004.000			-28.658			-4.776
177104.000			-28.657			-4.776
177204.000			-28.657			-4.776
177304.000			-28.658			-4.776
177404.000			-28.657			-4.776
177505.000			-28.657			-4.776
177604.000			-28.656			-4.776
177704.000			-28.656			-4.776
177805.000			-28.657			-4.776
177904.000			-28.657			-4.776
178004.000			-28.655			-4.776
178104.000			-28.654			-4.776
178204.000			-28.654			-4.776
178304.000			-28.653			-4.776
178405.000			-28.653			-4.776
178504.000			-28.654			-4.776
178604.000			-28.654			-4.776
178705.000			-28.653			-4.775
178804.000			-28.652			-4.775
178904.000			-28.652			-4.775
179004.000			-28.652			-4.775
179104.000			-28.652			-4.775
179203.000			-28.652			-4.775
179305.000			-28.652			-4.775
179404.000			-28.650			-4.775
179504.000			-28.651			-4.775
179605.000			-28.651			-4.775
179704.000			-28.652			-4.775
179804.000			-28.651			-4.775
179905.000			-28.649			-4.775
180004.000			-28.649			-4.775
180103.000			-28.649			-4.775
180205.000			-28.648			-4.775
180304.000			-28.648			-4.775
180404.000			-28.649			-4.775
180505.000			-28.648			-4.775
180604.000			-28.647			-4.775
180705.000			-28.647			-4.774
180804.000			-28.647			-4.775
180904.000			-28.646			-4.774
181004.000			-28.645			-4.774
181104.000			-28.646			-4.774
181203.000			-28.645			-4.774
181305.000			-28.645			-4.774
181404.000			-28.644			-4.774
181504.000			-28.644			-4.774
181605.000			-28.644			-4.774
181704.000			-28.644			-4.774
181804.000			-28.644			-4.774
181904.000			-28.643			-4.774
182004.000			-28.642			-4.774
182103.000			-28.642			-4.774
182205.000			-28.643			-4.774
182304.000			-28.643			-4.774
182404.000			-28.642			-4.774
182505.000			-28.641			-4.774
182604.000			-28.641			-4.774
182704.000			-28.641			-4.773
182804.000			-28.640			-4.773
182904.000			-28.640			-4.773
183003.000			-28.640			-4.773
183105.000			-28.639			-4.773
183204.000			-28.639			-4.773
183304.000			-28.638			-4.773
183405.000			-28.639			-4.773
183504.000			-28.638			-4.773
183604.000			-28.638			-4.773
183704.000			-28.638			-4.773
183804.000			-28.637			-4.773
183903.000			-28.637			-4.773
184004.000			-28.637			-4.773
184104.000			-28.637			-4.773
184205.000			-28.637			-4.773
184304.000			-28.636			-4.773
184404.000			-28.636			-4.773
184505.000			-28.635			-4.773
184604.000			-28.635			-4.772
184704.000			-28.635			-4.772
184804.000			-28.634			-4.772
184904.000			-28.634			-4.772
185003.000			-28.634			-4.772
185105.000			-28.633			-4.772
185204.000			-28.633			-4.772
185304.000			-28.633			-4.772
185405.000			-28.633			-4.772
185504.000			-28.632			-4.772
185604.000			-28.631			-4.772
185704.000			-28.631			-4.772
185804.000			-28.631			-4.772
185903.000			-28.633			-4.772
186005.000			-28.631			-4.772
186104.000			-28.630			-4.772
186204.000			-28.630			-4.772
186305.000			-28.631			-4.772
186404.000			-28.630			-4.772
186504.000			-28.629			-4.772
186604.000			-28.629			-4.772
186704.000			-28.629			-4.772
186803.000			-28.629			-4.771
186905.000			-28.628			-4.771
187004.000			-28.628			-4.771
187105.000			-28.627			-4.771
187204.000			-28.627			-4.771
187304.000			-28.627			-4.771
187405.000			-28.626			-4.771
187504.000			-28.626			-4.771
187604.000			-28.626			-4.771
187704.000			-28.627			-4.771
187804.000			-28.627			-4.771
187903.000			-28.626			-4.771
188005.000			-28.626			-4.771
188104.000			-28.625			-4.771
188204.000			-28.624			-4.771
188305.000			-28.624			-4.771
188404.000			-28.625			-4.771
188504.000			-28.623			-4.771
188605.000			-28.622			-4.770
188704.000			-28.622			-4.770
188803.000			-28.622			-4.770
188905.000			-28.622			-4.770
189004.000			-28.623			-4.770
189104.000			-28.622			-4.770
189205.000			-28.621			-4.770
189304.000			-28.621			-4.770
189404.000			-28.620			-4.770
189505.000			-28.621			-4.770
189604.000			-28.620			-4.770
189703.000			-28.619			-4.770
189805.000			-28.619			-4.770
189903.000			-28.620			-4.770
190004.000			-28.620			-4.770
190105.000			-28.619			-4.770
190204.000			-28.619			-4.770
190305.000			-28.619			-4.770
190404.000			-28.618			-4.770
190504.000			-28.618			-4.770
190605.000			-28.618			-4.770
190704.000			-28.617			-4.769
190803.000			-28.616			-4.769
190905.000			-28.617			-4.770
191004.000			-28.616			-4.769
191104.000			-28.616			-4.769
191205.000			-28.615			-4.769
191304.000			-28.616			-4.769
191404.000			-28.616			-4.769
191505.000			-28.615			-4.769
191604.000			-28.616			-4.769
191703.000			-28.615			-4.769
191805.000			-28.614			-4.769
191904.000			-28.615			-4.769
192004.000			-28.615			-4.769
192105.000			-28.613			-4.769
192204.000			-28.612			-4.769
192304.000			-28.612			-4.769
192405.000			-28.612			-4.769
192504.000			-28.612			-4.769
192603.000			-28.612			-4.769
192705.000			-28.612			-4.769
192804.000			-28.612			-4.769
192904.000			-28.611			-4.769
193005.000			-28.611			-4.769
193104.000			-28.612			-4.769
193204.000			-28.611			-4.768
193304.000			-28.609			-4.768
193404.000			-28.610			-4.768
193503.000			-28.610			-4.768
193604.000			-28.609			-4.768
193703.000			-28.609			-4.768
193805.000			-28.609			-4.768
193904.000			-28.609			-4.768
194004.000			-28.609			-4.768
194105.000			-28.609			-4.768
194204.000			-28.609			-4.768
194304.000			-28.608			-4.768
194405.000			-28.607			-4.768
194504.000			-28.607			-4.768
194603.000			-28.607			-4.768
194705.000			-28.606			-4.768
194804.000			-28.606			-4.768
194904.000			-28.606			-4.768
195005.000			-28.606			-4.768
195104.000			-28.606			-4.768
195204.000			-28.605			-4.767
195305.000			-28.604			-4.767
195404.000			-28.603			-4.767
195503.000			-28.604			-4.767
195605.000			-28.604			-4.767
195704.000			-28.603			-4.767
195804.000			-28.603			-4.767
195905.000			-28.603			-4.767
196004.000			-28.602			-4.767
196104.000			-28.602			-4.767
196205.000			-28.602			-4.767
196304.000			-28.602			-4.767
196403.000			-28.603			-4.767
196505.000			-28.603			-4.767
196603.000			-28.603			-4.767
196705.000			-28.600			-4.767
196804.000			-28.599			-4.766
196904.000			-28.599			-4.767
197005.000			-28.599			-4.766
197104.000			-28.600			-4.767
197204.000			-28.599			-4.766
197305.000			-28.599			-4.767
197404.000			-28.600			-4.767
197503.000			-28.600			-4.767
197605.000			-28.598			-4.766
197704.000			-28.598			-4.766
197804.000			-28.598			-4.766
197905.000			-28.598			-4.766
198004.000			-28.598			-4.766
198104.000			-28.597			-4.766
198205.000			-28.596			-4.766
198304.000			-28.596			-4.766
198404.000			-28.596			-4.766
198505.000			-28.596			-4.766
198603.000			-28.595			-4.766
198704.000			-28.595			-4.766
198804.000			-28.595			-4.766
198904.000			-28.594			-4.766
199004.000			-28.594			-4.766
199105.000			-28.595			-4.766
199204.000			-28.595			-4.766
199304.000			-28.595			-4.766
199405.000			-28.594			-4.766
199504.000			-28.593			-4.765
199604.000			-28.592			-4.765
199703.000			-28.592			-4.765
199804.000			-28.592			-4.765
199903.000			-28.592			-4.765
200004.000			-28.591			-4.765
200104.000			-28.591			-4.765
200205.000			-28.591			-4.765
200304.000			-28.591			-4.765
200404.000			-28.591			-4.765
200505.000			-28.591			-4.765
200603.000			-28.590			-4.765
200704.000			-28.590			-4.765
200805.000			-28.589			-4.765
200904.000			-28.589			-4.765
201004.000			-28.588			-4.765
201105.000			-28.588			-4.765
201204.000			-28.586			-4.764
201304.000			-28.587			-4.764
201405.000			-28.587			-4.764
201503.000			-28.587			-4.764
201604.000			-28.587			-4.764
201704.000			-28.587			-4.765
201804.000			-28.587			-4.765
201904.000			-28.586			-4.764
202005.000			-28.585			-4.764
202104.000			-28.585			-4.764
202204.000			-28.585			-4.764
202305.000			-28.584			-4.764
202403.000			-28.583			-4.764
202504.000			-28.584			-4.764
202604.000			-28.583			-4.764
202704.000			-28.583			-4.764
202804.000			-28.583			-4.764
202904.000			-28.583			-4.764
203004.000			-28.583			-4.764
203105.000			-28.583			-4.764
203204.000			-28.582			-4.764
203303.000			-28.582			-4.764
203405.000			-28.582			-4.764
203503.000			-28.582			-4.764
203604.000			-28.582			-4.764
203705.000			-28.581			-4.764
203804.000			-28.581			-4.763
203904.000			-28.581			-4.764
204005.000			-28.580			-4.763
204104.000			-28.580			-4.763
204203.000			-28.579			-4.763
204305.000			-28.579			-4.763
204403.000			-28.580			-4.763
204504.000			-28.580			-4.763
204605.000			-28.580			-4.763
204704.000			-28.579			-4.763
204804.000			-28.579			-4.763
204905.000			-28.577			-4.763
205004.000			-28.576			-4.763
205104.000			-28.577			-4.763
205205.000			-28.577			-4.763
205303.000			-28.577			-4.763
205404.000			-28.577			-4.763
205505.000			-28.577			-4.763
205604.000			-28.577			-4.763
205704.000			-28.576			-4.763
205805.000			-28.575			-4.763
205904.000			-28.575			-4.763
206004.000			-28.575			-4.762
206105.000			-28.575			-4.762
206203.000			-28.574			-4.762
206305.000			-28.574			-4.762
206404.000			-28.574			-4.762
206504.000			-28.572			-4.762
206605.000			-28.573			-4.762
206704.000			-28.573			-4.762
206804.000			-28.572			-4.762
206905.000			-28.572			-4.762
207004.000			-28.573			-4.762
207103.000			-28.572			-4.762
207205.000			-28.570			-4.762
207304.000			-28.570			-4.762
207404.000			-28.570			-4.762
207505.000			-28.571			-4.762
207604.000			-28.571			-4.762
207704.000			-28.571			-4.762
207805.000			-28.570			-4.762
207904.000			-28.570			-4.762
208003.000			-28.570			-4.762
208105.000			-28.569			-4.762
208204.000			-28.569			-4.761
208304.000			-28.569			-4.761
208405.000			-28.568			-4.761
208504.000			-28.568			-4.761
208604.000			-28.568			-4.761
208705.000			-28.568			-4.761
208804.000			-28.567			-4.761
208904.000			-28.566			-4.761
209005.000			-28.566			-4.761
209103.000			-28.565			-4.761
209204.000			-28.564			-4.761
209305.000			-28.566			-4.761
209404.000			-28.565			-4.761
209505.000			-28.565			-4.761
209604.000			-28.565			-4.761
209704.000			-28.566			-4.761
209805.000			-28.566			-4.761
209904.000			-28.565			-4.761
210003.000			-28.563			-4.761
210105.000			-28.563			-4.761
210204.000			-28.564			-4.761
210304.000			-28.564			-4.761
210405.000			-28.564			-4.761
210504.000			-28.563			-4.760
210604.000			-28.563			-4.760
210705.000			-28.563			-4.761
210804.000			-28.563			-4.761
210903.000			-28.563			-4.761
211005.000			-28.562			-4.760
211104.000			-28.561			-4.760
211204.000			-28.561			-4.760
211305.000			-28.561			-4.760
211404.000			-28.561			-4.760
211504.000			-28.561			-4.760
211605.000			-28.560			-4.760
211704.000			-28.560			-4.760
211803.000			-28.560			-4.760
211905.000			-28.559			-4.760
212004.000			-28.558			-4.760
212104.000			-28.558			-4.760
212205.000			-28.558			-4.760
212304.000			-28.558			-4.760
212404.000			-28.558			-4.760
212504.000			-28.557			-4.760
212604.000			-28.557			-4.759
212703.000			-28.557			-4.760
212804.000			-28.558			-4.760
212904.000			-28.557			-4.760
213005.000			-28.557			-4.759
213104.000			-28.557			-4.759
213204.000			-28.556			-4.759
213305.000			-28.555			-4.759
213404.000			-28.556			-4.759
213504.000			-28.557			-4.759
213604.000			-28.555			-4.759
213704.000			-28.555			-4.759
213804.000			-28.555			-4.759
213905.000			-28.554			-4.759
214004.000			-28.554			-4.759
214104.000			-28.553			-4.759
214205.000			-28.554			-4.759
214304.000			-28.554			-4.759
214404.000			-28.553			-4.759
214504.000			-28.553			-4.759
214604.000			-28.552			-4.759
214704.000			-28.552			-4.759
214805.000			-28.552			-4.759
214904.000			-28.553			-4.759
215004.000			-28.553			-4.759
215105.000			-28.552			-4.759
215204.000			-28.551			-4.759
215304.000			-28.550			-4.758
215404.000			-28.550			-4.758
215504.000			-28.550			-4.758
215604.000			-28.549			-4.758
215704.000			-28.549			-4.758
215804.000			-28.550			-4.758
215905.000			-28.550			-4.758
216004.000			-28.549			-4.758
216104.000			-28.549			-4.758
216205.000			-28.549			-4.758
216303.000			-28.548			-4.758
216404.000			-28.547			-4.758
216505.000			-28.547			-4.758
216604.000			-28.546			-4.758
216704.000			-28.546			-4.758
216805.000			-28.547			-4.758
216904.000			-28.546			-4.758
217004.000			-28.546			-4.758
217105.000			-28.547			-4.758
217203.000			-28.546			-4.758
217304.000			-28.546			-4.758
217404.000			-28.544			-4.757
217504.000			-28.545			-4.758
217604.000			-28.545			-4.757
217705.000			-28.543			-4.757
217804.000			-28.545			-4.758
217904.000			-28.545			-4.758
218005.000			-28.543			-4.757
218103.000			-28.543			-4.757
218204.000			-28.543			-4.757
218304.000			-28.543			-4.757
218404.000			-28.542			-4.757
218504.000			-28.542			-4.757
218605.000			-28.542			-4.757
218704.000			-28.541			-4.757
218804.000			-28.541			-4.757
218905.000			-28.541			-4.757
219003.000			-28.540			-4.757
219105.000			-28.541			-4.757
219203.000			-28.541			-4.757
219304.000			-28.540			-4.757
219405.000			-28.540			-4.757
219504.000			-28.540			-4.757
219604.000			-28.539			-4.757
219705.000			-28.539			-4.756
219804.000			-28.538			-4.756
219904.000			-28.539			-4.756
220005.000			-28.539			-4.756
220103.000			-28.539			-4.756
220204.000			-28.537			-4.756
220305.000			-28.538			-4.756
220404.000			-28.539			-4.756
220504.000			-28.538			-4.756
220605.000			-28.536			-4.756
220704.000			-28.536			-4.756
220804.000			-28.537			-4.756
220905.000			-28.538			-4.756
221003.000			-28.537			-4.756
221104.000			-28.536			-4.756
221205.000			-28.535			-4.756
221304.000			-28.535			-4.756
221404.000			-28.536			-4.756
221505.000			-28.535			-4.756
221604.000			-28.536			-4.756
221703.000			-28.534			-4.756
221805.000			-28.534			-4.756
221903.000			-28.534			-4.756
222004.000			-28.534			-4.756
222105.000			-28.533			-4.756
222204.000			-28.533			-4.755
222305.000			-28.534			-4.756
222404.000			-28.533			-4.755
222504.000			-28.533			-4.756
222604.000			-28.533			-4.756
222704.000			-28.533			-4.755
222803.000			-28.532			-4.755
222905.000			-28.532			-4.755
223004.000			-28.532			-4.755
223104.000			-28.529			-4.755
223205.000			-28.531			-4.755
223304.000			-28.532			-4.755
223404.000			-28.531			-4.755
223504.000			-28.531			-4.755
223604.000			-28.530			-4.755
223703.000			-28.528			-4.755
223805.000			-28.529			-4.755
223904.000			-28.529			-4.755
224004.000			-28.529			-4.755
224105.000			-28.528			-4.755
224204.000			-28.528			-4.755
224304.000			-28.528			-4.755
224404.000			-28.528			-4.755
224504.000			-28.528			-4.755
224603.000			-28.527			-4.754
224705.000			-28.527			-4.754
224804.000			-28.527			-4.755
224904.000			-28.526			-4.754
225005.000			-28.526			-4.754
225104.000			-28.527			-4.754
225204.000			-28.527			-4.755
225303.000			-28.526			-4.754
225404.000			-28.526			-4.754
225503.000			-28.526			-4.754
225604.000			-28.526			-4.754
225704.000			-28.526			-4.754
225805.000			-28.525			-4.754
225904.000			-28.524			-4.754
226004.000			-28.523			-4.754
226105.000			-28.522			-4.754
226203.000			-28.523			-4.754
226304.000			-28.525			-4.754
226404.000			-28.524			-4.754
226504.000			-28.523			-4.754
226604.000			-28.522			-4.754
226705.000			-28.522			-4.754
226804.000			-28.522			-4.754
226904.000			-28.521			-4.754
227005.000			-28.521			-4.754
227103.000			-28.521			-4.753
227204.000			-28.521			-4.754
227305.000			-28.521			-4.754
227404.000			-28.521			-4.753
227504.000			-28.521			-4.754
227605.000			-28.520			-4.753
227704.000			-28.520			-4.753
227804.000			-28.520			-4.753
227905.000			-28.519			-4.753
228003.000			-28.519			-4.753
228104.000			-28.519			-4.753
228204.000			-28.519			-4.753
228304.000			-28.519			-4.753
228404.000			-28.519			-4.753
228504.000			-28.519			-4.753
228604.000			-28.519			-4.753
228705.000			-28.517			-4.753
228804.000			-28.517			-4.753
228904.000			-28.518			-4.753
229005.000			-28.518			-4.753
229103.000			-28.517			-4.753
229204.000			-28.517			-4.753
229305.000			-28.516			-4.753
229404.000			-28.515			-4.753
229504.000			-28.516			-4.753
229605.000			-28.515			-4.753
229704.000			-28.515			-4.753
229804.000			-28.515			-4.752
229905.000			-28.514			-4.752
230003.000			-28.515			-4.753
230104.000			-28.514			-4.752
230204.000			-28.515			-4.752
230304.000			-28.515			-4.752
230404.000			-28.514			-4.752
230505.000			-28.514			-4.752
230604.000			-28.514			-4.752
230704.000			-28.513			-4.752
230805.000			-28.513			-4.752
230903.000			-28.513			-4.752
231004.000			-28.514			-4.752
231105.000			-28.513			-4.752
231204.000			-28.511			-4.752
231304.000			-28.512			-4.752
231405.000			-28.511			-4.752
231504.000			-28.511			-4.752
231604.000			-28.511			-4.752
231705.000			-28.510			-4.752
231803.000			-28.510			-4.752
231905.000			-28.510			-4.752
232004.000			-28.510			-4.752
232104.000			-28.509			-4.752
232205.000			-28.509			-4.751
232304.000			-28.508			-4.751
232404.000			-28.508			-4.751
232505.000			-28.509			-4.752
232604.000			-28.509			-4.751
232703.000			-28.508			-4.751
232805.000			-28.507			-4.751
232904.000			-28.507			-4.751
233004.000			-28.508			-4.751
233105.000			-28.508			-4.751
233204.000			-28.507			-4.751
233304.000			-28.507			-4.751
233405.000			-28.506			-4.751
233504.000			-28.506			-4.751
233603.000			-28.507			-4.751
233705.000			-28.506			-4.751
233804.000			-28.506			-4.751
233904.000			-28.506			-4.751
234005.000			-28.504			-4.751
234104.000			-28.505			-4.751
234204.000			-28.505			-4.751
234305.000			-28.504			-4.751
234404.000			-28.505			-4.751
234503.000			-28.504			-4.751
234605.000			-28.504			-4.751
234704.000			-28.504			-4.751
234804.000			-28.504			-4.751
234905.000			-28.503			-4.751
235004.000			-28.502			-4.750
235105.000			-28.502			-4.750
235204.000			-28.502			-4.750
235304.000			-28.502			-4.750
235404.000			-28.501			-4.750
235504.000			-28.502			-4.750
235604.000			-28.502			-4.750
235705.000			-28.502			-4.750
235804.000			-28.501			-4.750
235904.000			-28.501			-4.750
236005.000			-28.501			-4.750
236103.000			-28.501			-4.750
236204.000			-28.501			-4.750
236304.000			-28.500			-4.750
236404.000			-28.499			-4.750
236504.000			-28.499			-4.750
236605.000			-28.499			-4.750
236704.000			-28.499			-4.750
236804.000			-28.499			-4.750
236905.000			-28.498			-4.750
237004.000			-28.498			-4.750
237104.000			-28.497			-4.750
237204.000			-28.498			-4.750
237304.000			-28.497			-4.750
237404.000			-28.497			-4.750
237505.000			-28.497			-4.749
237604.000			-28.496			-4.749
237704.000			-28.497			-4.749
237805.000			-28.497			-4.749
237904.000			-28.497			-4.749
238004.000			-28.496			-4.749
238104.000			-28.496			-4.749
238204.000			-28.495			-4.749
238303.000			-28.495			-4.749
238404.000			-28.495			-4.749
238504.000			-28.495			-4.749
238605.000			-28.493			-4.749
238704.000			-28.495			-4.749
238804.000			-28.494			-4.749
238905.000			-28.493			-4.749
239004.000			-28.493			-4.749
239104.000			-28.492			-4.749
239204.000			-28.493			-4.749
239304.000			-28.492			-4.749
239404.000			-28.491			-4.748
239505.000			-28.492			-4.749
239604.000			-28.491			-4.749
239704.000			-28.491			-4.749
239805.000			-28.491			-4.748
239904.000			-28.491			-4.748
240004.000			-28.491			-4.748
240104.000			-28.490			-4.748
240204.000			-28.490			-4.748
240303.000			-28.491			-4.748
240405.000			-28.490			-4.748
240504.000			-28.490			-4.748
240604.000			-28.490			-4.748
240705.000			-28.489			-4.748
240804.000			-28.489			-4.748
240904.000			-28.489			-4.748
241005.000			-28.489			-4.748
241104.000			-28.488			-4.748
241203.000			-28.488			-4.748
241305.000			-28.487			-4.748
241404.000			-28.487			-4.748
241505.000			-28.488			-4.748
241604.000			-28.488			-4.748
241704.000			-28.487			-4.748
241805.000			-28.486			-4.748
241904.000			-28.486			-4.748
242004.000			-28.486			-4.748
242104.000			-28.485			-4.748
242204.000			-28.486			-4.748
242303.000			-28.486			-4.748
242405.000			-28.485			-4.748
242504.000			-28.485			-4.747
242604.000			-28.485			-4.748
242705.000			-28.485			-4.748
242804.000			-28.485			-4.748
242904.000			-28.484			-4.747
243004.000			-28.484			-4.747
243104.000			-28.484			-4.747
243203.000			-28.483			-4.747
243305.000			-28.483			-4.747
243404.000			-28.482			-4.747
243504.000			-28.483			-4.747
243605.000			-28.483			-4.747
243704.000			-28.483			-4.747
243804.000			-28.481			-4.747
243905.000			-28.482			-4.747
244004.000			-28.482			-4.747
244103.000			-28.481			-4.747
244205.000			-28.481			-4.747
244304.000			-28.481			-4.747
244404.000			-28.480			-4.747
244505.000			-28.481			-4.747
244604.000			-28.480			-4.747
244705.000			-28.480			-4.747
244804.000			-28.480			-4.747
244904.000			-28.480			-4.747
245004.000			-28.479			-4.747
245104.000			-28.479			-4.747
245204.000			-28.478			-4.746
245305.000			-28.479			-4.746
245404.000			-28.479			-4.747
245504.000			-28.478			-4.746
245605.000			-28.478			-4.746
245704.000			-28.478			-4.746
245804.000			-28.477			-4.746
245904.000			-28.477			-4.746
246004.000			-28.477			-4.746
246103.000			-28.477			-4.746
246205.000			-28.476			-4.746
246304.000			-28.476			-4.746
246404.000			-28.475			-4.746
246505.000			-28.476			-4.746
246604.000			-28.475			-4.746
246704.000			-28.474			-4.746
246805.000			-28.474			-4.746
246904.000			-28.474			-4.746
247003.000			-28.474			-4.746
247105.000			-28.474			-4.746
247204.000			-28.475			-4.746
247304.000			-28.474			-4.746
247405.000			-28.473			-4.746
247504.000			-28.473			-4.746
247604.000			-28.474			-4.746
247704.000			-28.473			-4.745
247804.000			-28.472			-4.745
247903.000			-28.473			-4.745
248004.000			-28.473			-4.746
248103.000			-28.473			-4.745
248205.000			-28.473			-4.745
248304.000			-28.473			-4.745
248404.000			-28.472			-4.745
248505.000			-28.471			-4.745
248604.000			-28.472			-4.745
248704.000			-28.471			-4.745
248804.000			-28.471			-4.745
248904.000			-28.470			-4.745
249003.000			-28.471			-4.745
249105.000			-28.471			-4.745
249204.000			-28.471			-4.745
249304.000			-28.471			-4.745
249405.000			-28.471			-4.745
249504.000			-28.470			-4.745
249604.000			-28.470			-4.745
249705.000			-28.469			-4.745
249804.000			-28.469			-4.745
249903.000			-28.469			-4.745
250005.000			-28.467			-4.745
250104.000			-28.468			-4.745
250204.000			-28.469			-4.745
250305.000			-28.467			-4.744
250404.000			-28.466			-4.744
250504.000			-28.467			-4.745
250605.000			-28.467			-4.744
250704.000			-28.466			-4.744
250803.000			-28.466			-4.744
250905.000			-28.467			-4.744
251003.000			-28.466			-4.744
251105.000			-28.466			-4.744
251204.000			-28.466			-4.744
251304.000			-28.466			-4.744
251405.000			16.722			2.787
251581.000			-28.465			-4.744
251669.000			-28.465			-4.744
251757.000			-28.465			-4.744
251844.000			-28.465			-4.744
251932.000			-28.464			-4.744
252020.000			-28.464			-4.744
252108.000			-28.465			-4.744
252204.000			-28.465			-4.744
252305.000			-28.464			-4.744
252404.000			-28.462			-4.744
252504.000			-28.463			-4.744
252605.000			-28.462			-4.744
252704.000			-28.462			-4.744
252804.000			-28.462			-4.744
252905.000			-28.463			-4.744
253004.000			-28.461			-4.744
253103.000			-28.461			-4.744
253205.000			-28.461			-4.743
253304.000			-28.461			-4.744
253404.000			-28.461			-4.744
253505.000			-28.461			-4.743
253604.000			-28.460			-4.743
253704.000			-28.460			-4.743
253805.000			-28.461			-4.743
253904.000			-28.461			-4.743
254003.000			-28.460			-4.743
254105.000			-28.459			-4.743
254204.000			-28.460			-4.743
254305.000			-28.460			-4.743
254404.000			-28.459			-4.743
254504.000			-28.458			-4.743
254605.000			-28.458			-4.743
254704.000			-28.458			-4.743
254804.000			-28.458			-4.743
254904.000			-28.458			-4.743
255004.000			-28.457			-4.743
255103.000			-28.456			-4.743
255205.000			-28.456			-4.743
255304.000			-28.456			-4.743
255404.000			-28.455			-4.743
255505.000			-28.456			-4.743
255604.000			-28.456			-4.743
255704.000			-28.456			-4.743
255804.000			-28.455			-4.742
255904.000			-28.454			-4.742
256003.000			-28.456			-4.743
256105.000			-28.455			-4.742
256204.000			-28.455			-4.742
256304.000			-28.454			-4.742
256405.000			-28.453			-4.742
256504.000			-28.453			-4.742
256604.000			-28.453			-4.742
256705.000			-28.453			-4.742
256804.000			-28.452			-4.742
256903.000			-28.452			-4.742
257005.000			-28.453			-4.742
257104.000			-28.452			-4.742
257204.000			-28.452			-4.742
257305.000			-28.452			-4.742
257404.000			-28.451			-4.742
257505.000			-28.451			-4.742
257604.000			-28.451			-4.742
257704.000			-28.450			-4.742
257804.000			-28.449			-4.742
257904.000			-28.449			-4.742
258003.000			-28.449			-4.741
258105.000			-28.449			-4.742
258204.000			-28.449			-4.741
258304.000			-28.449			-4.742
258405.000			-28.449			-4.742
258504.000			-28.448			-4.741
258604.000			-28.448			-4.741
258705.000			-28.447			-4.741
258804.000			-28.447			-4.741
258903.000			-28.447			-4.741
259005.000			-28.447			-4.741
259104.000			-28.447			-4.741
259204.000			-28.447			-4.741
259305.000			-28.447			-4.741
259404.000			-28.447			-4.741
259504.000			-28.446			-4.741
259605.000			-28.445			-4.741
259704.000			-28.444			-4.741
259803.000			-28.444			-4.741
259905.000			-28.445			-4.741
260003.000			-28.445			-4.741
260104.000			-28.445			-4.741
260205.000			-28.446			-4.741
260304.000			-28.445			-4.741
260404.000			-28.445			-4.741
260504.000			-28.444			-4.741
260604.000			-28.444			-4.741
260703.000			-28.444			-4.741
260804.000			-28.444			-4.741
260903.000			-28.443			-4.741
261005.000			-28.443			-4.740
261104.000			-28.443			-4.740
261204.000			-28.442			-4.740
261305.000			-28.443			-4.740
261404.000			-28.443			-4.741
261504.000			-28.443			-4.741
261604.000			-28.442			-4.740
261704.000			-28.441			-4.740
261803.000			-28.443			-4.740
261905.000			-28.442			-4.740
262004.000			-28.442			-4.740
262104.000			-28.442			-4.740
262205.000			-28.441			-4.740
262304.000			-28.441			-4.740
262404.000			-28.440			-4.740
262504.000			-28.441			-4.740
262604.000			-28.441			-4.740
262703.000			-28.440			-4.740
262805.000			-28.440			-4.740
262904.000			-28.440			-4.740
263004.000			-28.440			-4.740
263105.000			-28.440			-4.740
263204.000			-28.440			-4.740
263304.000			-28.440			-4.740
263404.000			-28.439			-4.740
263504.000			-28.439			-4.740
263603.000			-28.439			-4.740
263705.000			-28.439			-4.740
263804.000			-28.438			-4.740
263905.000			-28.438			-4.740
264004.000			-28.438			-4.740
264104.000			-28.438			-4.740
264205.000			-28.438			-4.740
264304.000			-28.437			-4.740
264404.000			-28.437			-4.739
264504.000			-28.439			-4.740
264604.000			-28.438			-4.740
264704.000			-28.437			-4.739
264805.000			-28.436			-4.739
264904.000			-28.436			-4.739
265004.000			-28.437			-4.739
265105.000			-28.435			-4.739
265204.000			-28.435			-4.739
265304.000			-28.436			-4.739
265404.000			-28.435			-4.739
265504.000			-28.435			-4.739
265604.000			-28.434			-4.739
265705.000			-28.435			-4.739
265804.000			-28.436			-4.739
265904.000			-28.435			-4.739
266005.000			-28.435			-4.739
266104.000			-28.434			-4.739
266204.000			-28.433			-4.739
266304.000			-28.434			-4.739
266404.000			-28.433			-4.739
266503.000			-28.433			-4.739
266605.000			-28.433			-4.739
266704.000			-28.433			-4.739
266804.000			-28.432			-4.739
266905.000			-28.432			-4.739
267004.000			-28.433			-4.739
267105.000			-28.433			-4.739
267203.000			-28.433			-4.739
267304.000			-28.432			-4.739
267404.000			-28.431			-4.738
267504.000			-28.430			-4.738
267604.000			-28.429			-4.738
267705.000			-28.430			-4.738
267804.000			-28.430			-4.738
267904.000			-28.430			-4.738
268005.000			-28.430			-4.738
268104.000			-28.430			-4.738
268204.000			-28.429			-4.738
268304.000			-28.430			-4.738
268404.000			-28.430			-4.738
268504.000			-28.430			-4.738
268605.000			-28.429			-4.738
268704.000			-28.429			-4.738
268804.000			-28.428			-4.738
268905.000			-28.427			-4.738
269004.000			-28.427			-4.738
269104.000			-28.428			-4.738
269204.000			-28.428			-4.738
269304.000			-28.428			-4.738
269403.000			-28.427			-4.738
269505.000			-28.427			-4.738
269604.000			-28.427			-4.738
269704.000			-28.427			-4.738
269805.000			-28.426			-4.738
269904.000			-28.426			-4.738
270004.000			-28.426			-4.738
270103.000			-28.426			-4.738
270204.000			-28.426			-4.738
270303.000			-28.426			-4.738
270404.000			-28.424			-4.737
270504.000			-28.424			-4.737
270605.000			-28.425			-4.737
270704.000			-28.425			-4.738
270804.000			-28.426			-4.738
270905.000			-28.425			-4.737
271003.000			-28.424			-4.737
271104.000			-28.424			-4.737
271204.000			-28.422			-4.737
271304.000			-28.422			-4.737
271404.000			-28.423			-4.737
271505.000			-28.422			-4.737
271604.000			-28.421			-4.737
271704.000			-28.421			-4.737
271805.000			-28.423			-4.737
271903.000			-28.422			-4.737
272004.000			-28.421			-4.737
272104.000			-28.421			-4.737
272204.000			-28.421			-4.737
272304.000			-28.421			-4.737
272405.000			-28.420			-4.737
272504.000			-28.421			-4.737
272604.000			-28.420			-4.737
272705.000			-28.418			-4.736
272803.000			-28.420			-4.737
272904.000			-28.420			-4.737
273005.000			-28.420			-4.737
273104.000			-28.420			-4.737
273204.000			-28.419			-4.737
273304.000			-28.418			-4.736
273404.000			-28.418			-4.736
273505.000			-28.419			-4.737
273604.000			-28.419			-4.737
273703.000			-28.419			-4.737
273805.000			-28.419			-4.736
273903.000			-28.418			-4.736
274004.000			-28.418			-4.736
274105.000			-28.417			-4.736
274204.000			-28.417			-4.736
274304.000			-28.416			-4.736
274405.000			-28.415			-4.736
274504.000			-28.416			-4.736
274603.000			-28.417			-4.736
274705.000			-28.417			-4.736
274803.000			-28.415			-4.736
274904.000			-28.414			-4.736
275005.000			-28.415			-4.736
275104.000			-28.415			-4.736
275204.000			-28.415			-4.736
275305.000			-28.415			-4.736
275404.000			-28.415			-4.736
275503.000			-28.415			-4.736
275605.000			-28.414			-4.736
275703.000			-28.414			-4.736
275804.000			-28.414			-4.736
275905.000			-28.414			-4.736
276004.000			-28.414			-4.736
276104.000			-28.413			-4.736
276205.000			-28.414			-4.736
276304.000			-28.413			-4.735
276404.000			-28.412			-4.735
276505.000			-28.412			-4.735
276603.000			-28.412			-4.735
276705.000			-28.412			-4.735
276804.000			-28.411			-4.735
276904.000			-28.411			-4.735
277005.000			-28.411			-4.735
277104.000			-28.411			-4.735
277204.000			-28.410			-4.735
277305.000			-28.410			-4.735
277404.000			-28.411			-4.735
277503.000			-28.410			-4.735
277605.000			-28.410			-4.735
277704.000			-28.410			-4.735
277804.000			-28.410			-4.735
277905.000			-28.410			-4.735
278004.000			-28.410			-4.735
278104.000			-28.410			-4.735
278205.000			-28.409			-4.735
278304.000			-28.409			-4.735
278403.000			-28.408			-4.735
278505.000			-28.409			-4.735
278603.000			-28.409			-4.735
278704.000			-28.408			-4.735
278805.000			-28.407			-4.734
278904.000			-28.408			-4.735
279004.000			-28.408			-4.735
279105.000			-28.406			-4.734
279204.000			-28.406			-4.734
279304.000			-28.406			-4.734
279405.000			-28.405			-4.734
279503.000			-28.406			-4.734
279604.000			-28.406			-4.734
279705.000			-28.406			-4.734
279804.000			-28.405			-4.734
279905.000			-28.405			-4.734
280004.000			-28.404			-4.734
280104.000			-28.403			-4.734
280205.000			-28.403			-4.734
280304.000			-28.404			-4.734
280403.000			-28.404			-4.734
280505.000			-28.405			-4.734
280604.000			-28.403			-4.734
280704.000			-28.403			-4.734
280805.000			-28.403			-4.734
280904.000			-28.403			-4.734
281004.000			-28.403			-4.734
281105.000			-28.403			-4.734
281204.000			-28.403			-4.734
281303.000			-28.402			-4.734
281405.000			-28.403			-4.734
281504.000			-28.402			-4.734
281604.000			-28.402			-4.734
281705.000			-28.402			-4.734
281804.000			-28.401			-4.733
281904.000			-28.400			-4.733
282005.000			-28.400			-4.733
282104.000			-28.401			-4.734
282203.000			-28.401			-4.734
282305.000			-28.400			-4.733
282404.000			-28.400			-4.733
282504.000			-28.401			-4.733
282605.000			-28.400			-4.733
282704.000			-28.400			-4.733
282804.000			-28.399			-4.733
282904.000			-28.399			-4.733
283004.000			-28.398			-4.733
283103.000			-28.397			-4.733
283204.000			-28.398			-4.733
283304.000			-28.398			-4.733
283405.000			-28.398			-4.733
283504.000			-28.398			-4.733
283604.000			-28.399			-4.733
283705.000			-28.398			-4.733
283804.000			-28.397			-4.733
283904.000			-28.397			-4.733
284004.000			-28.397			-4.733
284104.000			-28.397			-4.733
284203.000			-28.396			-4.733
284305.000			-28.396			-4.733
284404.000			-28.396			-4.733
284504.000			-28.397			-4.733
284605.000			-28.396			-4.733
284704.000			-28.395			-4.733
284804.000			-28.396			-4.733
284904.000			-28.395			-4.733
285004.000			-28.395			-4.733
285103.000			-28.395			-4.733
285205.000			-28.395			-4.733
285304.000			-28.395			-4.732
285404.000			-28.394			-4.732
285505.000			-28.395			-4.733
285604.000			-28.394			-4.732
285704.000			-28.394			-4.732
285805.000			-28.394			-4.732
285904.000			-28.394			-4.732
286003.000			-28.394			-4.732
286105.000			-28.393			-4.732
286204.000			-28.393			-4.732
286305.000			-28.393			-4.732
286404.000			-28.393			-4.732
286504.000			-28.393			-4.732
286605.000			-28.393			-4.732
286704.000			-28.392			-4.732
286804.000			-28.392			-4.732
286905.000			-28.392			-4.732
287004.000			-28.391			-4.732
287103.000			-28.392			-4.732
287205.000			-28.391			-4.732
287304.000			-28.390			-4.732
287404.000			-28.390			-4.732
287505.000			-28.390			-4.732
287604.000			-28.391			-4.732
287704.000			-28.391			-4.732
287805.000			-28.390			-4.732
287904.000			-28.389			-4.731
288003.000			-28.388			-4.731
288105.000			-28.390			-4.732
288203.000			-28.390			-4.732
288304.000			-28.389			-4.731
288405.000			-28.389			-4.731
288504.000			-28.388			-4.731
288604.000			-28.388			-4.731
288705.000			-28.388			-4.731
288804.000			-28.389			-4.731
288904.000			-28.388			-4.731
289005.000			-28.388			-4.731
289103.000			-28.388			-4.731
289204.000			-28.389			-4.731
289303.000			-28.388			-4.731
289404.000			-28.388			-4.731
289505.000			-28.386			-4.731
289604.000			-28.386			-4.731
289704.000			-28.387			-4.731
289805.000			-28.387			-4.731
289904.000			-28.387			-4.731
290004.000			-28.387			-4.731
290105.000			-28.385			-4.731
290203.000			-28.384			-4.731
290304.000			-28.386			-4.731
290405.000			-28.385			-4.731
290504.000			-28.384			-4.731
290604.000			-28.386			-4.731
290705.000			-28.385			-4.731
290804.000			-28.385			-4.731
290904.000			-28.384			-4.731
291005.000			-28.384			-4.731
291103.000			-28.383			-4.731
291204.000			-28.383			-4.730
291304.000			-28.384			-4.731
291404.000			-28.384			-4.731
291504.000			-28.383			-4.731
291605.000			-28.384			-4.731
291704.000			-28.383			-4.731
291804.000			-28.382			-4.730
291905.000			-28.382			-4.730
292004.000			-28.382			-4.730
292104.000			-28.382			-4.730
292204.000			-28.381			-4.730
292304.000			-28.380			-4.730
292404.000			-28.380			-4.730
292504.000			-28.380			-4.730
292604.000			-28.380			-4.730
292705.000			-28.380			-4.730
292804.000			-28.380			-4.730
292904.000			-28.379			-4.730
293005.000			-28.379			-4.730
293103.000			-28.379			-4.730
293204.000			-28.379			-4.730
293305.000			-28.378			-4.730
293404.000			-28.378			-4.730
293504.000			-28.378			-4.730
293605.000			-28.378			-4.730
293704.000			-28.377			-4.730
293804.000			-28.377			-4.730
293905.000			-28.378			-4.730
294003.000			-28.377			-4.729
294104.000			-28.376			-4.729
294204.000			-28.376			-4.729
294304.000			-28.376			-4.729
294404.000			-28.378			-4.730
294505.000			-28.377			-4.729
294604.000			-28.377			-4.730
294704.000			-28.377			-4.730
294805.000			-28.377			-4.729
294904.000			-28.376			-4.729
295004.000			-28.376			-4.729
295104.000			-28.376			-4.729
295204.000			-28.375			-4.729
295304.000			-28.375			-4.729
295405.000			-28.374			-4.729
295504.000			-28.374			-4.729
295604.000			-28.374			-4.729
295705.000			-28.374			-4.729
295804.000			-28.374			-4.729
295905.000			-28.374			-4.729
296003.000			-28.373			-4.729
296104.000			-28.374			-4.729
296204.000			-28.374			-4.729
296304.000			-28.373			-4.729
296404.000			-28.373			-4.729
296505.000			-28.373			-4.729
296604.000			-28.373			-4.729
296704.000			-28.373			-4.729
296805.000			-28.373			-4.729
296904.000			-28.373			-4.729
297004.000			-28.372			-4.729
297104.000			-28.372			-4.729
297204.000			-28.372			-4.729
297304.000			-28.372			-4.729
297405.000			-28.371			-4.729
297504.000			-28.371			-4.729
297604.000			-28.371			-4.729
297705.000			-28.371			-4.729
297804.000			-28.371			-4.729
297904.000			-28.371			-4.729
298004.000			-28.370			-4.728
298104.000			-28.369			-4.728
298203.000			-28.370			-4.728
298305.000			-28.370			-4.728
298404.000			-28.370			-4.728
298504.000			-28.370			-4.728
298605.000			-28.369			-4.728
298704.000			-28.368			-4.728
298804.000			-28.368			-4.728
298904.000			-28.368			-4.728
299004.000			-28.368			-4.728
299103.000			-28.367			-4.728
299204.000			-28.368			-4.728
299303.000			-28.367			-4.728
299405.000			-28.368			-4.728
299504.000			-28.368			-4.728
299604.000			-28.368			-4.728
299705.000			-28.368			-4.728
299804.000			-28.368			-4.728
299904.000			-28.367			-4.728
