# Acquired on 19/12/2023 17:41:32 
# SPIDER: Creep_-1mm_07714532B-2
# CREEP MEASUREMENT

# time [ms]		force [N]		stiffness [N/mm]
1.000			1.551			-1.551
101.000			2.523			-2.523
201.000			2.946			-2.946
300.000			3.008			-3.008
400.000			2.990			-2.990
501.000			2.966			-2.966
601.000			2.957			-2.957
701.000			2.949			-2.949
801.000			2.944			-2.944
900.000			2.938			-2.938
1000.000			2.932			-2.932
1101.000			2.927			-2.927
1200.000			2.920			-2.920
1300.000			2.917			-2.917
1402.000			2.913			-2.913
1501.000			2.911			-2.911
1600.000			2.908			-2.908
1701.000			2.905			-2.905
1800.000			2.903			-2.903
1900.000			2.902			-2.902
2001.000			2.898			-2.898
2101.000			2.895			-2.895
2201.000			2.894			-2.894
2301.000			2.892			-2.892
2400.000			2.889			-2.889
2500.000			2.888			-2.888
2601.000			2.887			-2.887
2700.000			2.883			-2.883
2800.000			2.882			-2.882
2902.000			2.880			-2.880
3001.000			2.879			-2.879
3101.000			2.878			-2.878
3200.000			2.876			-2.876
3300.000			2.875			-2.875
3401.000			2.873			-2.873
3500.000			2.872			-2.872
3600.000			2.871			-2.871
3702.000			2.870			-2.870
3801.000			2.870			-2.870
3900.000			2.869			-2.869
4001.000			2.868			-2.868
4100.000			2.867			-2.867
4200.000			2.864			-2.864
4301.000			2.863			-2.863
4401.000			2.863			-2.863
4501.000			2.863			-2.863
4601.000			2.862			-2.862
4700.000			2.862			-2.862
4800.000			2.860			-2.860
4901.000			2.858			-2.858
5000.000			2.858			-2.858
5100.000			2.856			-2.856
5202.000			2.856			-2.856
5301.000			2.856			-2.856
5400.000			2.855			-2.855
5501.000			2.854			-2.854
5600.000			2.853			-2.853
5700.000			2.852			-2.852
5801.000			2.851			-2.851
5901.000			2.850			-2.850
6002.000			2.850			-2.850
6101.000			2.850			-2.850
6200.000			2.850			-2.850
6301.000			2.850			-2.850
6400.000			2.848			-2.848
6500.000			2.847			-2.847
6601.000			2.847			-2.847
6701.000			2.846			-2.846
6801.000			2.846			-2.846
6901.000			2.845			-2.845
7000.000			2.845			-2.845
7100.000			2.843			-2.843
7201.000			2.844			-2.844
7300.000			2.845			-2.845
7400.000			2.845			-2.845
7502.000			2.843			-2.843
7601.000			2.843			-2.843
7700.000			2.842			-2.842
7801.000			2.841			-2.841
7900.000			2.841			-2.841
8000.000			2.841			-2.841
8101.000			2.840			-2.840
8200.000			2.839			-2.839
8301.000			2.838			-2.838
8402.000			2.839			-2.839
8500.000			2.840			-2.840
8600.000			2.836			-2.836
8701.000			2.837			-2.837
8800.000			2.837			-2.837
8900.000			2.837			-2.837
9001.000			2.836			-2.836
9101.000			2.835			-2.835
9202.000			2.835			-2.835
9300.000			2.835			-2.835
9400.000			2.834			-2.834
9501.000			2.834			-2.834
9600.000			2.833			-2.833
9700.000			2.832			-2.832
9801.000			2.832			-2.832
9901.000			2.832			-2.832
10001.000			2.833			-2.833
10101.000			2.832			-2.832
10200.000			2.832			-2.832
10300.000			2.830			-2.830
10401.000			2.829			-2.829
10500.000			2.829			-2.829
10600.000			2.830			-2.830
10702.000			2.830			-2.830
10801.000			2.829			-2.829
10900.000			2.829			-2.829
11001.000			2.829			-2.829
11100.000			2.829			-2.829
11200.000			2.829			-2.829
11301.000			2.828			-2.828
11401.000			2.827			-2.827
11501.000			2.826			-2.826
11602.000			2.826			-2.826
11700.000			2.826			-2.826
11800.000			2.826			-2.826
11901.000			2.826			-2.826
12000.000			2.824			-2.824
12100.000			2.824			-2.824
12202.000			2.825			-2.825
12301.000			2.825			-2.825
12402.000			2.823			-2.823
12500.000			2.823			-2.823
12600.000			2.823			-2.823
12701.000			2.823			-2.823
12800.000			2.822			-2.822
12900.000			2.822			-2.822
13002.000			2.822			-2.822
13101.000			2.821			-2.821
13201.000			2.822			-2.822
13301.000			2.823			-2.823
13400.000			2.822			-2.822
13500.000			2.820			-2.820
13601.000			2.821			-2.821
13700.000			2.821			-2.821
13801.000			2.820			-2.820
13902.000			2.820			-2.820
14000.000			2.819			-2.819
14100.000			2.820			-2.820
14201.000			2.820			-2.820
14300.000			2.819			-2.819
14400.000			2.818			-2.818
14501.000			2.818			-2.818
14601.000			2.819			-2.819
14701.000			2.819			-2.819
14801.000			2.818			-2.818
14900.000			2.817			-2.817
15000.000			2.817			-2.817
15101.000			2.817			-2.817
15200.000			2.817			-2.817
15300.000			2.817			-2.817
15402.000			2.817			-2.817
15501.000			2.817			-2.817
15602.000			2.817			-2.817
15700.000			2.816			-2.816
15800.000			2.816			-2.816
15901.000			2.816			-2.816
16000.000			2.816			-2.816
16100.000			2.815			-2.815
16201.000			2.815			-2.815
16301.000			2.814			-2.814
16401.000			2.814			-2.814
16501.000			2.814			-2.814
16600.000			2.814			-2.814
16700.000			2.814			-2.814
16801.000			2.813			-2.813
16900.000			2.813			-2.813
17000.000			2.813			-2.813
17102.000			2.813			-2.813
17201.000			2.813			-2.813
17300.000			2.812			-2.812
17401.000			2.812			-2.812
17500.000			2.813			-2.813
17600.000			2.813			-2.813
17701.000			2.812			-2.812
17800.000			2.812			-2.812
17901.000			2.811			-2.811
18002.000			2.811			-2.811
18100.000			2.811			-2.811
18200.000			2.811			-2.811
18301.000			2.810			-2.810
18400.000			2.810			-2.810
18500.000			2.810			-2.810
18601.000			2.811			-2.811
18701.000			2.810			-2.810
18802.000			2.808			-2.808
18900.000			2.809			-2.809
19000.000			2.810			-2.810
19101.000			2.809			-2.809
19200.000			2.808			-2.808
19300.000			2.808			-2.808
19401.000			2.809			-2.809
19501.000			2.809			-2.809
19601.000			2.809			-2.809
19701.000			2.808			-2.808
19800.000			2.808			-2.808
19900.000			2.809			-2.809
20001.000			2.808			-2.808
20100.000			2.807			-2.807
20200.000			2.808			-2.808
20302.000			2.808			-2.808
20401.000			2.807			-2.807
20500.000			2.807			-2.807
20601.000			2.807			-2.807
20700.000			2.807			-2.807
20800.000			2.806			-2.806
20901.000			2.807			-2.807
21001.000			2.806			-2.806
21101.000			2.804			-2.804
21202.000			2.805			-2.805
21300.000			2.805			-2.805
21400.000			2.805			-2.805
21501.000			2.805			-2.805
21600.000			2.805			-2.805
21700.000			2.804			-2.804
21802.000			2.804			-2.804
21901.000			2.804			-2.804
22000.000			2.803			-2.803
22100.000			2.804			-2.804
22200.000			2.803			-2.803
22301.000			2.803			-2.803
22400.000			2.802			-2.802
22500.000			2.803			-2.803
22602.000			2.802			-2.802
22701.000			2.802			-2.802
22800.000			2.802			-2.802
22901.000			2.802			-2.802
23000.000			2.802			-2.802
23100.000			2.804			-2.804
23201.000			2.801			-2.801
23300.000			2.802			-2.802
23401.000			2.803			-2.803
23502.000			2.802			-2.802
23600.000			2.800			-2.800
23700.000			2.801			-2.801
23801.000			2.802			-2.802
23900.000			2.802			-2.802
24000.000			2.801			-2.801
24101.000			2.802			-2.802
24201.000			2.802			-2.802
24301.000			2.801			-2.801
24401.000			2.801			-2.801
24500.000			2.800			-2.800
24600.000			2.800			-2.800
24701.000			2.799			-2.799
24800.000			2.799			-2.799
24900.000			2.799			-2.799
25002.000			2.799			-2.799
25101.000			2.799			-2.799
25200.000			2.799			-2.799
25300.000			2.800			-2.800
25400.000			2.799			-2.799
25501.000			2.798			-2.798
25600.000			2.798			-2.798
25700.000			2.798			-2.798
25802.000			2.798			-2.798
25901.000			2.798			-2.798
26001.000			2.798			-2.798
26101.000			2.798			-2.798
26200.000			2.798			-2.798
26300.000			2.798			-2.798
26401.000			2.797			-2.797
26500.000			2.797			-2.797
26600.000			2.797			-2.797
26702.000			2.797			-2.797
26801.000			2.797			-2.797
26900.000			2.796			-2.796
27001.000			2.797			-2.797
27100.000			2.797			-2.797
27200.000			2.796			-2.796
27301.000			2.796			-2.796
27400.000			2.796			-2.796
27501.000			2.796			-2.796
27602.000			2.795			-2.795
27701.000			2.795			-2.795
27800.000			2.796			-2.796
27901.000			2.795			-2.795
28000.000			2.795			-2.795
28100.000			2.794			-2.794
28201.000			2.795			-2.795
28300.000			2.795			-2.795
28402.000			2.796			-2.796
28501.000			2.795			-2.795
28600.000			2.794			-2.794
28701.000			2.795			-2.795
28800.000			2.794			-2.794
28900.000			2.794			-2.794
29001.000			2.794			-2.794
29100.000			2.794			-2.794
29201.000			2.793			-2.793
29302.000			2.794			-2.794
29400.000			2.794			-2.794
29500.000			2.793			-2.793
29601.000			2.793			-2.793
29700.000			2.793			-2.793
29800.000			2.793			-2.793
29901.000			2.792			-2.792
30001.000			2.792			-2.792
30101.000			2.793			-2.793
30201.000			2.794			-2.794
30300.000			2.793			-2.793
30400.000			2.792			-2.792
30501.000			2.792			-2.792
30600.000			2.791			-2.791
30700.000			2.792			-2.792
30802.000			2.793			-2.793
30901.000			2.793			-2.793
31000.000			2.793			-2.793
31101.000			2.791			-2.791
31200.000			2.791			-2.791
31300.000			2.792			-2.792
31401.000			2.792			-2.792
31500.000			2.792			-2.792
31602.000			2.792			-2.792
31701.000			2.792			-2.792
31800.000			2.792			-2.792
31901.000			2.791			-2.791
32000.000			2.791			-2.791
32100.000			2.791			-2.791
32201.000			2.791			-2.791
32300.000			2.791			-2.791
32401.000			2.791			-2.791
32502.000			2.791			-2.791
32600.000			2.791			-2.791
32700.000			2.789			-2.789
32801.000			2.790			-2.790
32900.000			2.790			-2.790
33000.000			2.790			-2.790
33101.000			2.790			-2.790
33201.000			2.790			-2.790
33301.000			2.789			-2.789
33401.000			2.788			-2.788
33500.000			2.789			-2.789
33600.000			2.789			-2.789
33701.000			2.789			-2.789
33800.000			2.789			-2.789
33900.000			2.789			-2.789
34001.000			2.788			-2.788
34101.000			2.788			-2.788
34201.000			2.789			-2.789
34301.000			2.789			-2.789
34400.000			2.789			-2.789
34500.000			2.788			-2.788
34601.000			2.787			-2.787
34700.000			2.787			-2.787
34800.000			2.787			-2.787
34902.000			2.789			-2.789
35001.000			2.787			-2.787
35101.000			2.787			-2.787
35200.000			2.788			-2.788
35300.000			2.788			-2.788
35401.000			2.788			-2.788
35500.000			2.788			-2.788
35600.000			2.787			-2.787
35702.000			2.787			-2.787
35801.000			2.786			-2.786
35900.000			2.787			-2.787
36001.000			2.787			-2.787
36100.000			2.787			-2.787
36200.000			2.786			-2.786
36301.000			2.786			-2.786
36400.000			2.786			-2.786
36500.000			2.786			-2.786
36602.000			2.785			-2.785
36701.000			2.786			-2.786
36800.000			2.787			-2.787
36901.000			2.786			-2.786
37000.000			2.786			-2.786
37100.000			2.785			-2.785
37201.000			2.785			-2.785
37300.000			2.785			-2.785
37401.000			2.785			-2.785
37502.000			2.785			-2.785
37600.000			2.785			-2.785
37700.000			2.785			-2.785
37801.000			2.785			-2.785
37900.000			2.784			-2.784
38000.000			2.784			-2.784
38100.000			2.784			-2.784
38201.000			2.784			-2.784
38302.000			2.784			-2.784
38401.000			2.784			-2.784
38500.000			2.785			-2.785
38601.000			2.784			-2.784
38700.000			2.784			-2.784
38800.000			2.784			-2.784
38901.000			2.785			-2.785
39000.000			2.785			-2.785
39101.000			2.784			-2.784
39202.000			2.784			-2.784
39300.000			2.784			-2.784
39400.000			2.784			-2.784
39501.000			2.783			-2.783
39600.000			2.783			-2.783
39700.000			2.783			-2.783
39801.000			2.784			-2.784
39901.000			2.783			-2.783
40001.000			2.783			-2.783
40101.000			2.783			-2.783
40200.000			2.783			-2.783
40300.000			2.783			-2.783
40401.000			2.783			-2.783
40500.000			2.782			-2.782
40600.000			2.783			-2.783
40702.000			2.783			-2.783
40801.000			2.781			-2.781
40900.000			2.782			-2.782
41001.000			2.782			-2.782
41100.000			2.782			-2.782
41200.000			2.783			-2.783
41300.000			2.783			-2.783
41400.000			2.783			-2.783
41502.000			2.783			-2.783
41601.000			2.783			-2.783
41700.000			2.782			-2.782
41801.000			2.782			-2.782
41900.000			2.782			-2.782
42000.000			2.782			-2.782
42101.000			2.782			-2.782
42200.000			2.782			-2.782
42301.000			2.782			-2.782
42402.000			2.782			-2.782
42500.000			2.782			-2.782
42600.000			2.782			-2.782
42701.000			2.781			-2.781
42800.000			2.780			-2.780
42900.000			2.780			-2.780
43001.000			2.781			-2.781
43101.000			2.781			-2.781
43201.000			2.780			-2.780
43301.000			2.781			-2.781
43400.000			2.781			-2.781
43500.000			2.781			-2.781
43601.000			2.781			-2.781
43700.000			2.781			-2.781
43800.000			2.780			-2.780
43902.000			2.780			-2.780
44001.000			2.780			-2.780
44100.000			2.780			-2.780
44201.000			2.780			-2.780
44300.000			2.780			-2.780
44400.000			2.781			-2.781
44500.000			2.779			-2.779
44600.000			2.779			-2.779
44702.000			2.780			-2.780
44801.000			2.781			-2.781
44900.000			2.781			-2.781
45001.000			2.781			-2.781
45100.000			2.780			-2.780
45200.000			2.780			-2.780
45301.000			2.780			-2.780
45400.000			2.780			-2.780
45501.000			2.780			-2.780
45602.000			2.780			-2.780
45700.000			2.779			-2.779
45800.000			2.779			-2.779
45901.000			2.779			-2.779
46000.000			2.779			-2.779
46100.000			2.780			-2.780
46201.000			2.779			-2.779
46301.000			2.780			-2.780
46401.000			2.779			-2.779
46501.000			2.779			-2.779
46600.000			2.779			-2.779
46700.000			2.780			-2.780
46801.000			2.779			-2.779
46900.000			2.779			-2.779
47000.000			2.779			-2.779
47101.000			2.778			-2.778
47201.000			2.778			-2.778
47301.000			2.777			-2.777
47401.000			2.778			-2.778
47500.000			2.779			-2.779
47600.000			2.779			-2.779
47700.000			2.778			-2.778
47800.000			2.778			-2.778
47901.000			2.778			-2.778
48001.000			2.778			-2.778
48101.000			2.778			-2.778
48201.000			2.777			-2.777
48300.000			2.777			-2.777
48400.000			2.777			-2.777
48501.000			2.778			-2.778
48600.000			2.777			-2.777
48700.000			2.777			-2.777
48801.000			2.778			-2.778
48901.000			2.779			-2.779
49001.000			2.778			-2.778
49101.000			2.778			-2.778
49200.000			2.778			-2.778
49300.000			2.778			-2.778
49401.000			2.778			-2.778
49500.000			2.779			-2.779
49600.000			2.778			-2.778
49702.000			2.778			-2.778
49801.000			2.776			-2.776
49900.000			2.777			-2.777
50001.000			2.777			-2.777
50100.000			2.777			-2.777
50200.000			2.777			-2.777
50301.000			2.777			-2.777
50400.000			2.777			-2.777
50501.000			2.777			-2.777
50602.000			2.777			-2.777
50701.000			2.776			-2.776
50800.000			2.776			-2.776
50900.000			2.776			-2.776
51000.000			2.776			-2.776
51101.000			2.777			-2.777
51200.000			2.777			-2.777
51300.000			2.776			-2.776
51402.000			2.776			-2.776
51501.000			2.777			-2.777
51600.000			2.776			-2.776
51701.000			2.776			-2.776
51800.000			2.776			-2.776
51900.000			2.775			-2.775
52001.000			2.775			-2.775
52100.000			2.776			-2.776
52201.000			2.776			-2.776
52302.000			2.777			-2.777
52400.000			2.777			-2.777
52500.000			2.776			-2.776
52601.000			2.776			-2.776
52700.000			2.776			-2.776
52800.000			2.776			-2.776
52901.000			2.776			-2.776
53001.000			2.775			-2.775
53101.000			2.774			-2.774
53201.000			2.775			-2.775
53300.000			2.775			-2.775
53400.000			2.774			-2.774
53501.000			2.774			-2.774
53600.000			2.775			-2.775
53700.000			2.775			-2.775
53802.000			2.775			-2.775
53901.000			2.774			-2.774
54000.000			2.775			-2.775
54100.000			2.774			-2.774
54200.000			2.774			-2.774
54301.000			2.774			-2.774
54400.000			2.774			-2.774
54500.000			2.773			-2.773
54602.000			2.773			-2.773
54701.000			2.773			-2.773
54800.000			2.773			-2.773
54901.000			2.772			-2.772
55000.000			2.772			-2.772
55100.000			2.773			-2.773
55201.000			2.773			-2.773
55300.000			2.773			-2.773
55401.000			2.772			-2.772
55502.000			2.773			-2.773
55600.000			2.772			-2.772
55700.000			2.772			-2.772
55801.000			2.772			-2.772
55900.000			2.773			-2.773
56000.000			2.772			-2.772
56101.000			2.772			-2.772
56201.000			2.773			-2.773
56301.000			2.772			-2.772
56401.000			2.772			-2.772
56500.000			2.771			-2.771
56600.000			2.772			-2.772
56701.000			2.772			-2.772
56800.000			2.772			-2.772
56900.000			2.772			-2.772
57002.000			2.772			-2.772
57101.000			2.771			-2.771
57200.000			2.771			-2.771
57300.000			2.771			-2.771
57400.000			2.770			-2.770
57501.000			2.770			-2.770
57600.000			2.770			-2.770
57700.000			2.771			-2.771
57802.000			2.772			-2.772
57901.000			2.771			-2.771
58001.000			2.769			-2.769
58101.000			2.771			-2.771
58200.000			2.771			-2.771
58300.000			2.770			-2.770
58401.000			2.769			-2.769
58500.000			2.769			-2.769
58600.000			2.769			-2.769
58702.000			2.770			-2.770
58801.000			2.770			-2.770
58900.000			2.770			-2.770
59001.000			2.769			-2.769
59100.000			2.770			-2.770
59200.000			2.769			-2.769
59301.000			2.769			-2.769
59400.000			2.769			-2.769
59501.000			2.769			-2.769
59602.000			2.769			-2.769
59700.000			2.769			-2.769
59800.000			2.768			-2.768
59901.000			2.768			-2.768
60000.000			2.768			-2.768
60100.000			2.769			-2.769
60201.000			2.769			-2.769
60301.000			2.769			-2.769
60402.000			2.768			-2.768
60501.000			2.768			-2.768
60600.000			2.767			-2.767
60701.000			2.767			-2.767
60800.000			2.768			-2.768
60900.000			2.769			-2.769
61001.000			2.769			-2.769
61100.000			2.768			-2.768
61201.000			2.768			-2.768
61302.000			2.768			-2.768
61400.000			2.768			-2.768
61500.000			2.767			-2.767
61601.000			2.767			-2.767
61700.000			2.766			-2.766
61800.000			2.767			-2.767
61901.000			2.767			-2.767
62001.000			2.768			-2.768
62101.000			2.767			-2.767
62201.000			2.767			-2.767
62300.000			2.767			-2.767
62400.000			2.768			-2.768
62501.000			2.767			-2.767
62600.000			2.767			-2.767
62700.000			2.766			-2.766
62802.000			2.765			-2.765
62901.000			2.766			-2.766
63000.000			2.766			-2.766
63101.000			2.765			-2.765
63200.000			2.766			-2.766
63300.000			2.766			-2.766
63401.000			2.766			-2.766
63500.000			2.766			-2.766
63602.000			2.766			-2.766
63701.000			2.765			-2.765
63800.000			2.766			-2.766
63901.000			2.766			-2.766
64000.000			2.766			-2.766
64100.000			2.766			-2.766
64201.000			2.766			-2.766
64300.000			2.766			-2.766
64400.000			2.766			-2.766
64502.000			2.766			-2.766
64601.000			2.766			-2.766
64700.000			2.766			-2.766
64801.000			2.766			-2.766
64900.000			2.764			-2.764
65000.000			2.765			-2.765
65101.000			2.765			-2.765
65200.000			2.766			-2.766
65301.000			2.766			-2.766
65402.000			2.766			-2.766
65500.000			2.766			-2.766
65600.000			2.766			-2.766
65701.000			2.765			-2.765
65800.000			2.766			-2.766
65900.000			2.766			-2.766
66001.000			2.765			-2.765
66101.000			2.766			-2.766
66201.000			2.766			-2.766
66301.000			2.765			-2.765
66400.000			2.765			-2.765
66500.000			2.765			-2.765
66601.000			2.765			-2.765
66700.000			2.765			-2.765
66800.000			2.766			-2.766
66902.000			2.766			-2.766
67001.000			2.766			-2.766
67102.000			2.764			-2.764
67200.000			2.764			-2.764
67300.000			2.764			-2.764
67401.000			2.766			-2.766
67500.000			2.766			-2.766
67600.000			2.765			-2.765
67701.000			2.764			-2.764
67801.000			2.765			-2.765
67901.000			2.764			-2.764
68001.000			2.764			-2.764
68100.000			2.764			-2.764
68200.000			2.765			-2.765
68301.000			2.764			-2.764
68400.000			2.763			-2.763
68500.000			2.763			-2.763
68602.000			2.764			-2.764
68701.000			2.765			-2.765
68800.000			2.764			-2.764
68901.000			2.765			-2.765
69000.000			2.765			-2.765
69100.000			2.764			-2.764
69201.000			2.765			-2.765
69300.000			2.764			-2.764
69400.000			2.764			-2.764
69502.000			2.764			-2.764
69601.000			2.764			-2.764
69700.000			2.764			-2.764
69801.000			2.763			-2.763
69900.000			2.763			-2.763
70000.000			2.763			-2.763
70100.000			2.764			-2.764
70200.000			2.764			-2.764
70302.000			2.764			-2.764
70401.000			2.763			-2.763
70500.000			2.763			-2.763
70601.000			2.762			-2.762
70700.000			2.762			-2.762
70800.000			2.763			-2.763
70901.000			2.763			-2.763
71000.000			2.763			-2.763
71101.000			2.763			-2.763
71202.000			2.764			-2.764
71301.000			2.763			-2.763
71400.000			2.763			-2.763
71501.000			2.761			-2.761
71600.000			2.763			-2.763
71700.000			2.763			-2.763
71801.000			2.763			-2.763
71901.000			2.763			-2.763
72001.000			2.762			-2.762
72102.000			2.762			-2.762
72200.000			2.761			-2.761
72300.000			2.762			-2.762
72401.000			2.762			-2.762
72500.000			2.762			-2.762
72600.000			2.762			-2.762
72701.000			2.763			-2.763
72801.000			2.762			-2.762
72901.000			2.762			-2.762
73001.000			2.761			-2.761
73100.000			2.762			-2.762
73200.000			2.762			-2.762
73300.000			2.762			-2.762
73400.000			2.762			-2.762
73501.000			2.762			-2.762
73601.000			2.762			-2.762
73701.000			2.761			-2.761
73801.000			2.762			-2.762
73900.000			2.762			-2.762
74000.000			2.762			-2.762
74101.000			2.762			-2.762
74200.000			2.761			-2.761
74300.000			2.761			-2.761
74402.000			2.762			-2.762
74501.000			2.761			-2.761
74600.000			2.761			-2.761
74701.000			2.762			-2.762
74800.000			2.761			-2.761
74900.000			2.761			-2.761
75001.000			2.761			-2.761
75100.000			2.761			-2.761
75201.000			2.760			-2.760
75302.000			2.760			-2.760
75401.000			2.759			-2.759
75500.000			2.761			-2.761
75601.000			2.762			-2.762
75700.000			2.762			-2.762
75800.000			2.761			-2.761
75901.000			2.761			-2.761
76000.000			2.762			-2.762
76101.000			2.761			-2.761
76202.000			2.761			-2.761
76300.000			2.760			-2.760
76400.000			2.760			-2.760
76500.000			2.761			-2.761
76600.000			2.760			-2.760
76701.000			2.761			-2.761
76800.000			2.760			-2.760
76901.000			2.760			-2.760
77002.000			2.761			-2.761
77100.000			2.761			-2.761
77200.000			2.760			-2.760
77301.000			2.760			-2.760
77400.000			2.760			-2.760
77500.000			2.760			-2.760
77601.000			2.761			-2.761
77701.000			2.762			-2.762
77801.000			2.761			-2.761
77901.000			2.760			-2.760
78000.000			2.760			-2.760
78100.000			2.760			-2.760
78201.000			2.760			-2.760
78300.000			2.760			-2.760
78400.000			2.760			-2.760
78502.000			2.760			-2.760
78601.000			2.760			-2.760
78701.000			2.762			-2.762
78801.000			2.759			-2.759
78900.000			2.759			-2.759
79000.000			2.760			-2.760
79101.000			2.759			-2.759
79200.000			2.759			-2.759
79300.000			2.760			-2.760
79402.000			2.760			-2.760
79501.000			2.759			-2.759
79600.000			2.759			-2.759
79700.000			2.760			-2.760
79800.000			2.759			-2.759
79901.000			2.759			-2.759
80000.000			2.759			-2.759
80100.000			2.760			-2.760
80201.000			2.760			-2.760
80301.000			2.759			-2.759
80401.000			2.760			-2.760
80501.000			2.760			-2.760
80600.000			2.761			-2.761
80700.000			2.762			-2.762
80801.000			2.761			-2.761
80900.000			2.761			-2.761
81000.000			2.762			-2.762
81102.000			2.761			-2.761
81201.000			2.761			-2.761
81300.000			2.761			-2.761
81401.000			2.760			-2.760
81500.000			2.759			-2.759
81600.000			2.761			-2.761
81701.000			2.761			-2.761
81800.000			2.760			-2.760
81901.000			2.760			-2.760
82002.000			2.761			-2.761
82100.000			2.761			-2.761
82200.000			2.761			-2.761
82301.000			2.760			-2.760
82400.000			2.760			-2.760
82500.000			2.760			-2.760
82601.000			2.760			-2.760
82701.000			2.760			-2.760
82802.000			2.760			-2.760
82901.000			2.761			-2.761
83000.000			2.761			-2.761
83101.000			2.760			-2.760
83200.000			2.759			-2.759
83300.000			2.760			-2.760
83401.000			2.761			-2.761
83500.000			2.760			-2.760
83601.000			2.761			-2.761
83702.000			2.761			-2.761
83800.000			2.760			-2.760
83900.000			2.761			-2.761
84001.000			2.761			-2.761
84100.000			2.760			-2.760
84200.000			2.759			-2.759
84301.000			2.759			-2.759
84401.000			2.759			-2.759
84501.000			2.760			-2.760
84601.000			2.760			-2.760
84700.000			2.760			-2.760
84800.000			2.760			-2.760
84901.000			2.759			-2.759
85000.000			2.759			-2.759
85100.000			2.759			-2.759
85202.000			2.758			-2.758
85301.000			2.759			-2.759
85400.000			2.759			-2.759
85501.000			2.759			-2.759
85600.000			2.759			-2.759
85700.000			2.758			-2.758
85801.000			2.759			-2.759
85900.000			2.759			-2.759
86000.000			2.760			-2.760
86102.000			2.759			-2.759
86201.000			2.758			-2.758
86301.000			2.758			-2.758
86400.000			2.759			-2.759
86500.000			2.759			-2.759
86601.000			2.759			-2.759
86700.000			2.758			-2.758
86800.000			2.757			-2.757
86902.000			2.758			-2.758
87001.000			2.757			-2.757
87100.000			2.757			-2.757
87201.000			2.758			-2.758
87300.000			2.757			-2.757
87400.000			2.757			-2.757
87501.000			2.757			-2.757
87600.000			2.757			-2.757
87700.000			2.758			-2.758
87802.000			2.759			-2.759
87901.000			2.758			-2.758
88000.000			2.757			-2.757
88101.000			2.758			-2.758
88200.000			2.758			-2.758
88300.000			2.757			-2.757
88401.000			2.757			-2.757
88500.000			2.756			-2.756
88601.000			2.756			-2.756
88702.000			2.757			-2.757
88801.000			2.758			-2.758
88900.000			2.757			-2.757
89001.000			2.756			-2.756
89100.000			2.757			-2.757
89200.000			2.757			-2.757
89300.000			2.757			-2.757
89400.000			2.756			-2.756
89502.000			2.756			-2.756
89601.000			2.757			-2.757
89700.000			2.757			-2.757
89801.000			2.757			-2.757
89900.000			2.758			-2.758
90000.000			2.757			-2.757
90101.000			2.757			-2.757
90200.000			2.757			-2.757
90301.000			2.756			-2.756
90402.000			2.756			-2.756
90501.000			2.756			-2.756
90600.000			2.756			-2.756
90701.000			2.756			-2.756
90800.000			2.756			-2.756
90900.000			2.756			-2.756
91001.000			2.757			-2.757
91101.000			2.757			-2.757
91201.000			2.755			-2.755
91302.000			2.755			-2.755
91400.000			2.755			-2.755
91500.000			2.755			-2.755
91601.000			2.755			-2.755
91700.000			2.754			-2.754
91800.000			2.755			-2.755
91901.000			2.755			-2.755
92001.000			2.755			-2.755
92101.000			2.755			-2.755
92201.000			2.754			-2.754
92300.000			2.755			-2.755
92400.000			2.756			-2.756
92500.000			2.757			-2.757
92600.000			2.757			-2.757
92701.000			2.755			-2.755
92801.000			2.755			-2.755
92901.000			2.755			-2.755
93001.000			2.755			-2.755
93100.000			2.755			-2.755
93200.000			2.754			-2.754
93301.000			2.754			-2.754
93400.000			2.754			-2.754
93500.000			2.754			-2.754
93602.000			2.755			-2.755
93701.000			2.755			-2.755
93801.000			2.755			-2.755
93901.000			2.755			-2.755
94000.000			2.754			-2.754
94100.000			2.753			-2.753
94201.000			2.754			-2.754
94300.000			2.754			-2.754
94400.000			2.754			-2.754
94502.000			2.754			-2.754
94601.000			2.755			-2.755
94700.000			2.755			-2.755
94801.000			2.755			-2.755
94900.000			2.754			-2.754
95000.000			2.754			-2.754
95101.000			2.754			-2.754
95200.000			2.754			-2.754
95301.000			2.755			-2.755
95402.000			2.755			-2.755
95501.000			2.754			-2.754
95600.000			2.753			-2.753
95700.000			2.754			-2.754
95800.000			2.754			-2.754
95901.000			2.754			-2.754
96000.000			2.755			-2.755
96100.000			2.754			-2.754
96202.000			2.753			-2.753
96301.000			2.753			-2.753
96400.000			2.753			-2.753
96501.000			2.753			-2.753
96600.000			2.752			-2.752
96700.000			2.753			-2.753
96801.000			2.753			-2.753
96900.000			2.754			-2.754
97001.000			2.754			-2.754
97102.000			2.752			-2.752
97201.000			2.752			-2.752
97300.000			2.752			-2.752
97401.000			2.753			-2.753
97500.000			2.753			-2.753
97600.000			2.753			-2.753
97701.000			2.753			-2.753
97800.000			2.753			-2.753
97901.000			2.753			-2.753
98002.000			2.754			-2.754
98100.000			2.754			-2.754
98200.000			2.753			-2.753
98301.000			2.753			-2.753
98400.000			2.753			-2.753
98500.000			2.753			-2.753
98601.000			2.753			-2.753
98701.000			2.753			-2.753
98802.000			2.752			-2.752
98901.000			2.752			-2.752
99000.000			2.753			-2.753
99101.000			2.752			-2.752
99200.000			2.751			-2.751
99300.000			2.753			-2.753
99401.000			2.753			-2.753
99500.000			2.753			-2.753
99601.000			2.753			-2.753
99702.000			2.753			-2.753
99800.000			2.753			-2.753
99900.000			2.753			-2.753
100001.000			2.752			-2.752
100100.000			2.752			-2.752
100200.000			2.752			-2.752
100301.000			2.753			-2.753
100401.000			2.753			-2.753
100501.000			2.753			-2.753
100601.000			2.752			-2.752
100700.000			2.751			-2.751
100800.000			2.753			-2.753
100901.000			2.752			-2.752
101000.000			2.752			-2.752
101100.000			2.752			-2.752
101201.000			2.753			-2.753
101301.000			2.752			-2.752
101401.000			2.752			-2.752
101501.000			2.753			-2.753
101600.000			2.751			-2.751
101700.000			2.751			-2.751
101801.000			2.752			-2.752
101900.000			2.751			-2.751
102000.000			2.751			-2.751
102102.000			2.751			-2.751
102201.000			2.751			-2.751
102301.000			2.751			-2.751
102400.000			2.752			-2.752
102500.000			2.751			-2.751
102601.000			2.751			-2.751
102700.000			2.752			-2.752
102800.000			2.751			-2.751
102902.000			2.751			-2.751
103001.000			2.751			-2.751
103100.000			2.751			-2.751
103201.000			2.751			-2.751
103300.000			2.752			-2.752
103400.000			2.751			-2.751
103501.000			2.751			-2.751
103600.000			2.752			-2.752
103701.000			2.752			-2.752
103802.000			2.752			-2.752
103900.000			2.752			-2.752
104000.000			2.752			-2.752
104101.000			2.752			-2.752
104200.000			2.751			-2.751
104300.000			2.750			-2.750
104401.000			2.752			-2.752
104501.000			2.751			-2.751
104601.000			2.751			-2.751
104702.000			2.752			-2.752
104800.000			2.753			-2.753
104900.000			2.752			-2.752
105001.000			2.751			-2.751
105100.000			2.752			-2.752
105200.000			2.752			-2.752
105300.000			2.751			-2.751
105401.000			2.751			-2.751
105502.000			2.751			-2.751
105600.000			2.750			-2.750
105700.000			2.750			-2.750
105801.000			2.750			-2.750
105900.000			2.751			-2.751
106000.000			2.751			-2.751
106101.000			2.752			-2.752
106201.000			2.751			-2.751
106301.000			2.752			-2.752
106401.000			2.751			-2.751
106500.000			2.751			-2.751
106600.000			2.752			-2.752
106701.000			2.751			-2.751
106800.000			2.751			-2.751
106900.000			2.750			-2.750
107001.000			2.751			-2.751
107101.000			2.752			-2.752
107201.000			2.752			-2.752
107301.000			2.752			-2.752
107400.000			2.751			-2.751
107500.000			2.751			-2.751
107601.000			2.752			-2.752
107700.000			2.751			-2.751
107800.000			2.751			-2.751
107902.000			2.751			-2.751
108001.000			2.751			-2.751
108100.000			2.753			-2.753
108201.000			2.751			-2.751
108300.000			2.751			-2.751
108400.000			2.752			-2.752
108500.000			2.751			-2.751
108600.000			2.751			-2.751
108701.000			2.752			-2.752
108801.000			2.752			-2.752
108901.000			2.752			-2.752
109001.000			2.751			-2.751
109100.000			2.751			-2.751
109200.000			2.751			-2.751
109301.000			2.752			-2.752
109400.000			2.751			-2.751
109500.000			2.752			-2.752
109602.000			2.751			-2.751
109701.000			2.751			-2.751
109801.000			2.752			-2.752
109901.000			2.752			-2.752
110000.000			2.752			-2.752
110100.000			2.751			-2.751
110201.000			2.752			-2.752
110300.000			2.752			-2.752
110400.000			2.752			-2.752
110502.000			2.751			-2.751
110601.000			2.751			-2.751
110700.000			2.752			-2.752
110801.000			2.751			-2.751
110900.000			2.751			-2.751
111000.000			2.751			-2.751
111101.000			2.750			-2.750
111200.000			2.750			-2.750
111301.000			2.751			-2.751
111402.000			2.751			-2.751
111500.000			2.750			-2.750
111600.000			2.750			-2.750
111700.000			2.750			-2.750
111800.000			2.749			-2.749
111901.000			2.751			-2.751
112000.000			2.751			-2.751
112101.000			2.750			-2.750
112202.000			2.751			-2.751
112301.000			2.750			-2.750
112400.000			2.750			-2.750
112501.000			2.750			-2.750
112600.000			2.750			-2.750
112700.000			2.750			-2.750
112801.000			2.751			-2.751
112900.000			2.751			-2.751
113001.000			2.750			-2.750
113102.000			2.749			-2.749
113200.000			2.750			-2.750
113300.000			2.750			-2.750
113401.000			2.751			-2.751
113500.000			2.750			-2.750
113600.000			2.750			-2.750
113701.000			2.749			-2.749
113801.000			2.749			-2.749
113901.000			2.750			-2.750
114001.000			2.749			-2.749
114100.000			2.750			-2.750
114200.000			2.749			-2.749
114301.000			2.749			-2.749
114400.000			2.749			-2.749
114500.000			2.750			-2.750
114601.000			2.750			-2.750
114701.000			2.750			-2.750
114802.000			2.749			-2.749
114900.000			2.749			-2.749
115000.000			2.749			-2.749
115101.000			2.749			-2.749
115200.000			2.749			-2.749
115300.000			2.750			-2.750
115401.000			2.749			-2.749
115501.000			2.749			-2.749
115601.000			2.749			-2.749
115702.000			2.749			-2.749
115800.000			2.749			-2.749
115900.000			2.749			-2.749
116001.000			2.749			-2.749
116100.000			2.750			-2.750
116200.000			2.750			-2.750
116301.000			2.749			-2.749
116401.000			2.750			-2.750
116501.000			2.749			-2.749
116601.000			2.748			-2.748
116700.000			2.748			-2.748
116800.000			2.748			-2.748
116901.000			2.750			-2.750
117000.000			2.749			-2.749
117100.000			2.749			-2.749
117201.000			2.749			-2.749
117301.000			2.749			-2.749
117401.000			2.748			-2.748
117501.000			2.749			-2.749
117600.000			2.749			-2.749
117700.000			2.749			-2.749
117801.000			2.749			-2.749
117900.000			2.749			-2.749
118000.000			2.749			-2.749
118100.000			2.749			-2.749
118201.000			2.749			-2.749
118302.000			2.749			-2.749
118401.000			2.748			-2.748
118500.000			2.749			-2.749
118601.000			2.749			-2.749
118700.000			2.749			-2.749
118800.000			2.749			-2.749
118901.000			2.748			-2.748
119000.000			2.750			-2.750
119101.000			2.749			-2.749
119202.000			2.749			-2.749
119300.000			2.749			-2.749
119400.000			2.747			-2.747
119501.000			2.747			-2.747
119600.000			2.747			-2.747
119700.000			2.749			-2.749
119801.000			2.747			-2.747
119900.000			2.748			-2.748
120001.000			2.749			-2.749
120102.000			2.749			-2.749
120200.000			2.748			-2.748
120300.000			2.748			-2.748
120401.000			2.748			-2.748
120500.000			2.748			-2.748
120600.000			2.748			-2.748
120701.000			2.748			-2.748
120801.000			2.747			-2.747
120901.000			2.747			-2.747
121002.000			2.747			-2.747
121100.000			2.748			-2.748
121200.000			2.748			-2.748
121300.000			2.748			-2.748
121400.000			2.748			-2.748
121501.000			2.748			-2.748
121600.000			2.748			-2.748
121701.000			2.747			-2.747
121802.000			2.748			-2.748
121900.000			2.748			-2.748
122000.000			2.748			-2.748
122101.000			2.747			-2.747
122200.000			2.746			-2.746
122300.000			2.747			-2.747
122401.000			2.747			-2.747
122501.000			2.747			-2.747
122601.000			2.747			-2.747
122702.000			2.748			-2.748
122800.000			2.748			-2.748
122900.000			2.747			-2.747
123001.000			2.746			-2.746
123100.000			2.747			-2.747
123200.000			2.748			-2.748
123301.000			2.748			-2.748
123401.000			2.746			-2.746
123501.000			2.746			-2.746
123601.000			2.748			-2.748
123700.000			2.748			-2.748
123800.000			2.747			-2.747
123901.000			2.747			-2.747
124000.000			2.746			-2.746
124100.000			2.746			-2.746
124202.000			2.747			-2.747
124301.000			2.746			-2.746
124402.000			2.746			-2.746
124500.000			2.746			-2.746
124600.000			2.746			-2.746
124701.000			2.746			-2.746
124800.000			2.746			-2.746
124900.000			2.747			-2.747
125001.000			2.746			-2.746
125101.000			2.746			-2.746
125201.000			2.746			-2.746
125301.000			2.746			-2.746
125400.000			2.746			-2.746
125500.000			2.746			-2.746
125601.000			2.746			-2.746
125700.000			2.747			-2.747
125800.000			2.746			-2.746
125901.000			2.747			-2.747
126001.000			2.747			-2.747
126101.000			2.746			-2.746
126201.000			2.745			-2.745
126300.000			2.747			-2.747
126400.000			2.745			-2.745
126501.000			2.745			-2.745
126600.000			2.746			-2.746
126700.000			2.745			-2.745
126802.000			2.745			-2.745
126901.000			2.745			-2.745
127001.000			2.746			-2.746
127101.000			2.744			-2.744
127200.000			2.745			-2.745
127300.000			2.744			-2.744
127401.000			2.744			-2.744
127500.000			2.745			-2.745
127600.000			2.746			-2.746
127702.000			2.745			-2.745
127801.000			2.745			-2.745
127901.000			2.746			-2.746
128000.000			2.745			-2.745
128100.000			2.745			-2.745
128201.000			2.745			-2.745
128300.000			2.744			-2.744
128400.000			2.744			-2.744
128501.000			2.745			-2.745
128601.000			2.744			-2.744
128701.000			2.745			-2.745
128801.000			2.745			-2.745
128900.000			2.745			-2.745
129000.000			2.745			-2.745
129101.000			2.745			-2.745
129200.000			2.745			-2.745
129300.000			2.745			-2.745
129402.000			2.746			-2.746
129501.000			2.745			-2.745
129601.000			2.745			-2.745
129701.000			2.745			-2.745
129800.000			2.745			-2.745
129900.000			2.744			-2.744
130001.000			2.745			-2.745
130100.000			2.746			-2.746
130200.000			2.744			-2.744
130302.000			2.743			-2.743
130401.000			2.744			-2.744
130500.000			2.745			-2.745
130601.000			2.745			-2.745
130700.000			2.745			-2.745
130800.000			2.743			-2.743
130900.000			2.743			-2.743
131000.000			2.744			-2.744
131101.000			2.744			-2.744
131201.000			2.744			-2.744
131301.000			2.744			-2.744
131401.000			2.744			-2.744
131500.000			2.745			-2.745
131600.000			2.743			-2.743
131701.000			2.743			-2.743
131800.000			2.743			-2.743
131900.000			2.744			-2.744
132001.000			2.744			-2.744
132101.000			2.744			-2.744
132201.000			2.745			-2.745
132301.000			2.744			-2.744
132400.000			2.743			-2.743
132500.000			2.743			-2.743
132601.000			2.743			-2.743
132700.000			2.744			-2.744
132800.000			2.743			-2.743
132901.000			2.743			-2.743
133001.000			2.744			-2.744
133101.000			2.743			-2.743
133201.000			2.743			-2.743
133300.000			2.743			-2.743
133400.000			2.743			-2.743
133501.000			2.743			-2.743
133600.000			2.744			-2.744
133700.000			2.742			-2.742
133801.000			2.743			-2.743
133901.000			2.744			-2.744
134002.000			2.744			-2.744
134101.000			2.743			-2.743
134200.000			2.742			-2.742
134301.000			2.741			-2.741
134400.000			2.743			-2.743
134500.000			2.743			-2.743
134601.000			2.743			-2.743
134700.000			2.743			-2.743
134801.000			2.743			-2.743
134902.000			2.744			-2.744
135001.000			2.743			-2.743
135100.000			2.743			-2.743
135201.000			2.743			-2.743
135300.000			2.743			-2.743
135400.000			2.743			-2.743
135501.000			2.744			-2.744
135600.000			2.744			-2.744
135700.000			2.744			-2.744
135802.000			2.743			-2.743
135901.000			2.742			-2.742
136000.000			2.743			-2.743
136101.000			2.743			-2.743
136200.000			2.744			-2.744
136300.000			2.743			-2.743
136401.000			2.742			-2.742
136500.000			2.742			-2.742
136600.000			2.742			-2.742
136702.000			2.742			-2.742
136801.000			2.742			-2.742
136901.000			2.741			-2.741
137001.000			2.742			-2.742
137100.000			2.742			-2.742
137200.000			2.741			-2.741
137300.000			2.742			-2.742
137400.000			2.741			-2.741
137501.000			2.742			-2.742
137601.000			2.742			-2.742
137701.000			2.742			-2.742
137802.000			2.741			-2.741
137900.000			2.741			-2.741
138000.000			2.741			-2.741
138101.000			2.741			-2.741
138200.000			2.742			-2.742
138300.000			2.742			-2.742
138401.000			2.742			-2.742
138500.000			2.741			-2.741
138601.000			2.741			-2.741
138702.000			2.741			-2.741
138801.000			2.741			-2.741
138900.000			2.741			-2.741
139001.000			2.741			-2.741
139100.000			2.741			-2.741
139200.000			2.741			-2.741
139301.000			2.741			-2.741
139400.000			2.742			-2.742
139500.000			2.741			-2.741
139602.000			2.742			-2.742
139701.000			2.741			-2.741
139800.000			2.741			-2.741
139901.000			2.741			-2.741
140000.000			2.741			-2.741
140100.000			2.741			-2.741
140201.000			2.740			-2.740
140300.000			2.742			-2.742
140400.000			2.740			-2.740
140502.000			2.740			-2.740
140601.000			2.740			-2.740
140701.000			2.741			-2.741
140800.000			2.741			-2.741
140900.000			2.741			-2.741
141001.000			2.741			-2.741
141100.000			2.740			-2.740
141200.000			2.740			-2.740
141301.000			2.740			-2.740
141401.000			2.740			-2.740
141501.000			2.741			-2.741
141601.000			2.741			-2.741
141700.000			2.740			-2.740
141800.000			2.741			-2.741
141901.000			2.740			-2.740
142000.000			2.740			-2.740
142100.000			2.741			-2.741
142201.000			2.742			-2.742
142301.000			2.741			-2.741
142401.000			2.740			-2.740
142501.000			2.741			-2.741
142600.000			2.740			-2.740
142700.000			2.740			-2.740
142801.000			2.741			-2.741
142900.000			2.741			-2.741
143000.000			2.740			-2.740
143101.000			2.739			-2.739
143201.000			2.741			-2.741
143301.000			2.741			-2.741
143402.000			2.741			-2.741
143500.000			2.741			-2.741
143600.000			2.741			-2.741
143700.000			2.741			-2.741
143800.000			2.741			-2.741
143901.000			2.741			-2.741
144000.000			2.741			-2.741
144100.000			2.741			-2.741
144202.000			2.741			-2.741
144301.000			2.741			-2.741
144400.000			2.741			-2.741
144501.000			2.742			-2.742
144600.000			2.743			-2.743
144700.000			2.742			-2.742
144801.000			2.741			-2.741
144900.000			2.741			-2.741
145000.000			2.741			-2.741
145102.000			2.741			-2.741
145201.000			2.741			-2.741
145300.000			2.741			-2.741
145401.000			2.742			-2.742
145500.000			2.741			-2.741
145600.000			2.741			-2.741
145701.000			2.743			-2.743
145800.000			2.742			-2.742
145900.000			2.742			-2.742
146002.000			2.741			-2.741
146101.000			2.741			-2.741
146201.000			2.741			-2.741
146301.000			2.741			-2.741
146400.000			2.740			-2.740
146500.000			2.742			-2.742
146601.000			2.742			-2.742
146700.000			2.742			-2.742
146800.000			2.741			-2.741
146900.000			2.740			-2.740
147001.000			2.741			-2.741
147102.000			2.741			-2.741
147200.000			2.741			-2.741
147300.000			2.742			-2.742
147401.000			2.741			-2.741
147500.000			2.740			-2.740
147600.000			2.741			-2.741
147701.000			2.740			-2.740
147800.000			2.741			-2.741
147901.000			2.742			-2.742
148002.000			2.741			-2.741
148101.000			2.741			-2.741
148200.000			2.741			-2.741
148301.000			2.741			-2.741
148400.000			2.741			-2.741
148500.000			2.740			-2.740
148601.000			2.741			-2.741
148700.000			2.741			-2.741
148801.000			2.741			-2.741
148902.000			2.741			-2.741
149001.000			2.741			-2.741
149100.000			2.741			-2.741
149201.000			2.740			-2.740
149300.000			2.740			-2.740
149400.000			2.739			-2.739
149501.000			2.739			-2.739
149600.000			2.740			-2.740
149700.000			2.740			-2.740
149802.000			2.739			-2.739
149901.000			2.740			-2.740
150000.000			2.740			-2.740
150100.000			2.740			-2.740
150200.000			2.740			-2.740
150301.000			2.740			-2.740
150400.000			2.740			-2.740
150500.000			2.740			-2.740
150601.000			2.740			-2.740
150701.000			2.739			-2.739
150801.000			2.739			-2.739
150902.000			2.739			-2.739
151000.000			2.739			-2.739
151100.000			2.740			-2.740
151201.000			2.739			-2.739
151300.000			2.739			-2.739
151400.000			2.738			-2.738
151501.000			2.739			-2.739
151600.000			2.739			-2.739
151701.000			2.739			-2.739
151802.000			2.739			-2.739
151901.000			2.740			-2.740
152000.000			2.740			-2.740
152101.000			2.739			-2.739
152200.000			2.740			-2.740
152300.000			2.740			-2.740
152401.000			2.739			-2.739
152500.000			2.739			-2.739
152600.000			2.739			-2.739
152702.000			2.739			-2.739
152801.000			2.739			-2.739
152900.000			2.739			-2.739
153001.000			2.739			-2.739
153100.000			2.739			-2.739
153200.000			2.739			-2.739
153300.000			2.739			-2.739
153400.000			2.740			-2.740
153501.000			2.738			-2.738
153601.000			2.738			-2.738
153701.000			2.739			-2.739
153802.000			2.739			-2.739
153900.000			2.739			-2.739
154000.000			2.739			-2.739
154101.000			2.739			-2.739
154200.000			2.739			-2.739
154300.000			2.739			-2.739
154401.000			2.739			-2.739
154500.000			2.738			-2.738
154601.000			2.739			-2.739
154702.000			2.739			-2.739
154800.000			2.739			-2.739
154900.000			2.739			-2.739
155001.000			2.739			-2.739
155100.000			2.738			-2.738
155200.000			2.737			-2.737
155301.000			2.738			-2.738
155400.000			2.737			-2.737
155501.000			2.738			-2.738
155602.000			2.738			-2.738
155701.000			2.739			-2.739
155800.000			2.739			-2.739
155901.000			2.740			-2.740
156000.000			2.740			-2.740
156100.000			2.739			-2.739
156201.000			2.739			-2.739
156300.000			2.738			-2.738
156400.000			2.739			-2.739
156502.000			2.739			-2.739
156601.000			2.739			-2.739
156701.000			2.738			-2.738
156800.000			2.737			-2.737
156900.000			2.739			-2.739
157001.000			2.739			-2.739
157100.000			2.739			-2.739
157200.000			2.739			-2.739
157301.000			2.739			-2.739
157401.000			2.739			-2.739
157501.000			2.739			-2.739
157602.000			2.739			-2.739
157700.000			2.738			-2.738
157800.000			2.737			-2.737
157901.000			2.737			-2.737
158000.000			2.737			-2.737
158100.000			2.738			-2.738
158201.000			2.738			-2.738
158300.000			2.738			-2.738
158401.000			2.739			-2.739
158502.000			2.738			-2.738
158601.000			2.737			-2.737
158700.000			2.738			-2.738
158801.000			2.738			-2.738
158900.000			2.738			-2.738
159000.000			2.737			-2.737
159101.000			2.738			-2.738
159200.000			2.738			-2.738
159300.000			2.738			-2.738
159402.000			2.737			-2.737
159501.000			2.737			-2.737
159600.000			2.737			-2.737
159700.000			2.737			-2.737
159800.000			2.738			-2.738
159901.000			2.738			-2.738
160000.000			2.736			-2.736
160100.000			2.736			-2.736
160201.000			2.737			-2.737
160301.000			2.737			-2.737
160401.000			2.737			-2.737
160502.000			2.736			-2.736
160600.000			2.737			-2.737
160700.000			2.736			-2.736
160801.000			2.737			-2.737
160900.000			2.738			-2.738
161000.000			2.737			-2.737
161101.000			2.736			-2.736
161200.000			2.737			-2.737
161301.000			2.736			-2.736
161402.000			2.736			-2.736
161500.000			2.736			-2.736
161600.000			2.736			-2.736
161701.000			2.736			-2.736
161800.000			2.736			-2.736
161900.000			2.735			-2.735
162001.000			2.736			-2.736
162100.000			2.736			-2.736
162201.000			2.736			-2.736
162302.000			2.735			-2.735
162401.000			2.735			-2.735
162500.000			2.737			-2.737
162601.000			2.736			-2.736
162700.000			2.736			-2.736
162800.000			2.736			-2.736
162900.000			2.736			-2.736
163000.000			2.735			-2.735
163101.000			2.736			-2.736
163201.000			2.737			-2.737
163301.000			2.736			-2.736
163401.000			2.735			-2.735
163500.000			2.736			-2.736
163600.000			2.735			-2.735
163701.000			2.735			-2.735
163800.000			2.735			-2.735
163900.000			2.735			-2.735
164001.000			2.735			-2.735
164101.000			2.734			-2.734
164201.000			2.735			-2.735
164302.000			2.736			-2.736
164400.000			2.735			-2.735
164500.000			2.735			-2.735
164601.000			2.737			-2.737
164700.000			2.737			-2.737
164800.000			2.736			-2.736
164901.000			2.735			-2.735
165000.000			2.735			-2.735
165101.000			2.737			-2.737
165202.000			2.735			-2.735
165300.000			2.736			-2.736
165400.000			2.735			-2.735
165501.000			2.734			-2.734
165600.000			2.734			-2.734
165700.000			2.735			-2.735
165801.000			2.735			-2.735
165900.000			2.735			-2.735
166000.000			2.736			-2.736
166102.000			2.736			-2.736
166201.000			2.735			-2.735
166301.000			2.735			-2.735
166400.000			2.734			-2.734
166500.000			2.735			-2.735
166601.000			2.737			-2.737
166700.000			2.736			-2.736
166800.000			2.736			-2.736
166901.000			2.735			-2.735
167001.000			2.735			-2.735
167101.000			2.734			-2.734
167202.000			2.735			-2.735
167300.000			2.736			-2.736
167400.000			2.735			-2.735
167501.000			2.735			-2.735
167600.000			2.734			-2.734
167700.000			2.735			-2.735
167801.000			2.735			-2.735
167900.000			2.735			-2.735
168001.000			2.734			-2.734
168102.000			2.735			-2.735
168200.000			2.735			-2.735
168300.000			2.735			-2.735
168401.000			2.734			-2.734
168500.000			2.734			-2.734
168600.000			2.734			-2.734
168701.000			2.735			-2.735
168800.000			2.734			-2.734
168901.000			2.734			-2.734
169002.000			2.734			-2.734
169101.000			2.734			-2.734
169200.000			2.734			-2.734
169300.000			2.734			-2.734
169400.000			2.734			-2.734
169501.000			2.734			-2.734
169600.000			2.734			-2.734
169700.000			2.734			-2.734
169801.000			2.734			-2.734
169901.000			2.734			-2.734
170001.000			2.733			-2.733
170101.000			2.733			-2.733
170200.000			2.734			-2.734
170300.000			2.733			-2.733
170401.000			2.734			-2.734
170500.000			2.734			-2.734
170600.000			2.733			-2.733
170701.000			2.733			-2.733
170801.000			2.733			-2.733
170901.000			2.734			-2.734
171002.000			2.734			-2.734
171100.000			2.734			-2.734
171200.000			2.734			-2.734
171301.000			2.735			-2.735
171400.000			2.735			-2.735
171500.000			2.734			-2.734
171601.000			2.734			-2.734
171701.000			2.734			-2.734
171801.000			2.733			-2.733
171902.000			2.733			-2.733
172000.000			2.733			-2.733
172100.000			2.734			-2.734
172201.000			2.734			-2.734
172300.000			2.734			-2.734
172400.000			2.733			-2.733
172500.000			2.733			-2.733
172600.000			2.734			-2.734
172702.000			2.734			-2.734
172801.000			2.733			-2.733
172900.000			2.732			-2.732
173001.000			2.733			-2.733
173100.000			2.734			-2.734
173200.000			2.733			-2.733
173301.000			2.732			-2.732
173400.000			2.734			-2.734
173500.000			2.733			-2.733
173602.000			2.733			-2.733
173701.000			2.733			-2.733
173801.000			2.733			-2.733
173901.000			2.733			-2.733
174000.000			2.733			-2.733
174100.000			2.733			-2.733
174201.000			2.733			-2.733
174300.000			2.732			-2.732
174400.000			2.732			-2.732
174501.000			2.733			-2.733
174601.000			2.734			-2.734
174701.000			2.733			-2.733
174801.000			2.732			-2.732
174900.000			2.732			-2.732
175000.000			2.733			-2.733
175101.000			2.733			-2.733
175200.000			2.733			-2.733
175300.000			2.734			-2.734
175401.000			2.733			-2.733
175501.000			2.733			-2.733
175602.000			2.733			-2.733
175701.000			2.732			-2.732
175800.000			2.732			-2.732
175901.000			2.734			-2.734
176000.000			2.734			-2.734
176100.000			2.734			-2.734
176201.000			2.734			-2.734
176300.000			2.734			-2.734
176400.000			2.733			-2.733
176502.000			2.733			-2.733
176601.000			2.734			-2.734
176700.000			2.733			-2.733
176801.000			2.733			-2.733
176900.000			2.734			-2.734
177000.000			2.733			-2.733
177101.000			2.733			-2.733
177200.000			2.732			-2.732
177300.000			2.732			-2.732
177402.000			2.733			-2.733
177501.000			2.733			-2.733
177601.000			2.733			-2.733
177701.000			2.732			-2.732
177800.000			2.732			-2.732
177900.000			2.732			-2.732
178001.000			2.733			-2.733
178100.000			2.733			-2.733
178200.000			2.734			-2.734
178301.000			2.733			-2.733
178401.000			2.733			-2.733
178501.000			2.732			-2.732
178601.000			2.732			-2.732
178700.000			2.733			-2.733
178800.000			2.733			-2.733
178900.000			2.733			-2.733
179000.000			2.733			-2.733
179101.000			2.733			-2.733
179200.000			2.733			-2.733
179301.000			2.732			-2.732
179402.000			2.732			-2.732
179501.000			2.732			-2.732
179600.000			2.733			-2.733
179701.000			2.733			-2.733
179800.000			2.733			-2.733
179900.000			2.733			-2.733
180001.000			2.734			-2.734
180100.000			2.735			-2.735
180200.000			2.734			-2.734
180302.000			2.733			-2.733
180401.000			2.732			-2.732
180500.000			2.733			-2.733
180601.000			2.734			-2.734
180700.000			2.733			-2.733
180800.000			2.733			-2.733
180901.000			2.732			-2.732
181000.000			2.733			-2.733
181100.000			2.734			-2.734
181202.000			2.734			-2.734
181301.000			2.734			-2.734
181400.000			2.734			-2.734
181501.000			2.735			-2.735
181600.000			2.734			-2.734
181700.000			2.733			-2.733
181801.000			2.733			-2.733
181900.000			2.732			-2.732
182000.000			2.734			-2.734
182102.000			2.733			-2.733
182201.000			2.734			-2.734
182301.000			2.735			-2.735
182400.000			2.735			-2.735
182500.000			2.733			-2.733
182601.000			2.733			-2.733
182700.000			2.734			-2.734
182800.000			2.733			-2.733
182901.000			2.733			-2.733
183001.000			2.734			-2.734
183101.000			2.734			-2.734
183202.000			2.734			-2.734
183300.000			2.734			-2.734
183400.000			2.733			-2.733
183501.000			2.733			-2.733
183600.000			2.733			-2.733
183700.000			2.733			-2.733
183801.000			2.733			-2.733
183900.000			2.733			-2.733
184001.000			2.733			-2.733
184102.000			2.734			-2.734
184201.000			2.733			-2.733
184300.000			2.733			-2.733
184401.000			2.733			-2.733
184500.000			2.733			-2.733
184600.000			2.732			-2.732
184701.000			2.733			-2.733
184800.000			2.733			-2.733
184901.000			2.732			-2.732
185002.000			2.732			-2.732
185101.000			2.732			-2.732
185200.000			2.732			-2.732
185300.000			2.732			-2.732
185400.000			2.732			-2.732
185501.000			2.732			-2.732
185600.000			2.732			-2.732
185700.000			2.731			-2.731
185801.000			2.731			-2.731
185901.000			2.731			-2.731
186001.000			2.731			-2.731
186101.000			2.731			-2.731
186200.000			2.731			-2.731
186300.000			2.731			-2.731
186401.000			2.731			-2.731
186500.000			2.731			-2.731
186600.000			2.732			-2.732
186701.000			2.732			-2.732
186801.000			2.731			-2.731
186901.000			2.732			-2.732
187002.000			2.731			-2.731
187100.000			2.731			-2.731
187200.000			2.731			-2.731
187301.000			2.732			-2.732
187400.000			2.732			-2.732
187500.000			2.733			-2.733
187601.000			2.733			-2.733
187700.000			2.732			-2.732
187801.000			2.732			-2.732
187902.000			2.732			-2.732
188000.000			2.732			-2.732
188100.000			2.732			-2.732
188201.000			2.731			-2.731
188300.000			2.731			-2.731
188400.000			2.731			-2.731
188500.000			2.732			-2.732
188600.000			2.731			-2.731
188702.000			2.732			-2.732
188801.000			2.732			-2.732
188901.000			2.732			-2.732
189001.000			2.732			-2.732
189100.000			2.731			-2.731
189200.000			2.732			-2.732
189301.000			2.730			-2.730
189400.000			2.732			-2.732
189500.000			2.732			-2.732
189601.000			2.733			-2.733
189701.000			2.732			-2.732
189801.000			2.731			-2.731
189901.000			2.731			-2.731
190000.000			2.731			-2.731
190100.000			2.732			-2.732
190201.000			2.731			-2.731
190300.000			2.731			-2.731
190400.000			2.731			-2.731
190501.000			2.732			-2.732
190601.000			2.732			-2.732
190701.000			2.731			-2.731
190802.000			2.731			-2.731
190900.000			2.731			-2.731
191000.000			2.731			-2.731
191101.000			2.730			-2.730
191200.000			2.732			-2.732
191300.000			2.732			-2.732
191401.000			2.732			-2.732
191501.000			2.733			-2.733
191602.000			2.732			-2.732
191701.000			2.731			-2.731
191800.000			2.731			-2.731
191901.000			2.731			-2.731
192000.000			2.731			-2.731
192100.000			2.730			-2.730
192201.000			2.731			-2.731
192300.000			2.731			-2.731
192400.000			2.731			-2.731
192502.000			2.731			-2.731
192601.000			2.731			-2.731
192700.000			2.731			-2.731
192801.000			2.732			-2.732
192900.000			2.731			-2.731
193000.000			2.731			-2.731
193101.000			2.731			-2.731
193200.000			2.732			-2.732
193300.000			2.731			-2.731
193402.000			2.730			-2.730
193501.000			2.731			-2.731
193601.000			2.730			-2.730
193701.000			2.730			-2.730
193800.000			2.730			-2.730
193900.000			2.732			-2.732
194001.000			2.731			-2.731
194100.000			2.730			-2.730
194200.000			2.731			-2.731
194301.000			2.731			-2.731
194401.000			2.731			-2.731
194501.000			2.731			-2.731
194601.000			2.731			-2.731
194700.000			2.731			-2.731
194800.000			2.730			-2.730
194900.000			2.730			-2.730
195000.000			2.730			-2.730
195101.000			2.730			-2.730
195200.000			2.729			-2.729
195301.000			2.729			-2.729
195402.000			2.730			-2.730
195501.000			2.730			-2.730
195600.000			2.730			-2.730
195701.000			2.730			-2.730
195800.000			2.730			-2.730
195900.000			2.730			-2.730
196001.000			2.730			-2.730
196100.000			2.730			-2.730
196200.000			2.730			-2.730
196302.000			2.729			-2.729
196401.000			2.730			-2.730
196500.000			2.730			-2.730
196601.000			2.730			-2.730
196700.000			2.731			-2.731
196800.000			2.730			-2.730
196901.000			2.730			-2.730
197000.000			2.730			-2.730
197100.000			2.729			-2.729
197201.000			2.730			-2.730
197301.000			2.730			-2.730
197401.000			2.730			-2.730
197501.000			2.730			-2.730
197600.000			2.730			-2.730
197700.000			2.729			-2.729
197801.000			2.730			-2.730
197900.000			2.730			-2.730
198000.000			2.729			-2.729
198100.000			2.729			-2.729
198200.000			2.730			-2.730
198302.000			2.730			-2.730
198401.000			2.729			-2.729
198500.000			2.729			-2.729
198601.000			2.730			-2.730
198700.000			2.729			-2.729
198800.000			2.728			-2.728
198901.000			2.728			-2.728
199000.000			2.729			-2.729
199100.000			2.729			-2.729
199201.000			2.729			-2.729
199301.000			2.728			-2.728
199401.000			2.729			-2.729
199501.000			2.729			-2.729
199600.000			2.730			-2.730
199700.000			2.730			-2.730
199801.000			2.729			-2.729
199900.000			2.729			-2.729
200000.000			2.728			-2.728
200101.000			2.729			-2.729
200201.000			2.730			-2.730
200301.000			2.730			-2.730
200402.000			2.729			-2.729
200500.000			2.730			-2.730
200600.000			2.731			-2.731
200701.000			2.730			-2.730
200800.000			2.730			-2.730
200900.000			2.730			-2.730
201001.000			2.729			-2.729
201100.000			2.731			-2.731
201202.000			2.731			-2.731
201301.000			2.730			-2.730
201400.000			2.729			-2.729
201501.000			2.729			-2.729
201600.000			2.729			-2.729
201700.000			2.729			-2.729
201801.000			2.729			-2.729
201900.000			2.729			-2.729
202000.000			2.729			-2.729
202102.000			2.729			-2.729
202201.000			2.730			-2.730
202300.000			2.731			-2.731
202401.000			2.731			-2.731
202500.000			2.730			-2.730
202600.000			2.729			-2.729
202701.000			2.728			-2.728
202800.000			2.729			-2.729
202900.000			2.729			-2.729
203002.000			2.729			-2.729
203101.000			2.728			-2.728
203200.000			2.729			-2.729
203301.000			2.729			-2.729
203400.000			2.729			-2.729
203500.000			2.729			-2.729
203601.000			2.729			-2.729
203700.000			2.730			-2.730
203800.000			2.730			-2.730
203902.000			2.729			-2.729
204001.000			2.729			-2.729
204101.000			2.728			-2.728
204201.000			2.729			-2.729
204300.000			2.730			-2.730
204400.000			2.729			-2.729
204500.000			2.729			-2.729
204600.000			2.730			-2.730
204701.000			2.730			-2.730
204801.000			2.729			-2.729
204901.000			2.729			-2.729
205002.000			2.730			-2.730
205100.000			2.728			-2.728
205200.000			2.728			-2.728
205301.000			2.729			-2.729
205400.000			2.731			-2.731
205500.000			2.729			-2.729
205601.000			2.729			-2.729
205700.000			2.728			-2.728
205801.000			2.729			-2.729
205902.000			2.729			-2.729
206000.000			2.729			-2.729
206100.000			2.730			-2.730
206201.000			2.730			-2.730
206300.000			2.729			-2.729
206400.000			2.728			-2.728
206501.000			2.729			-2.729
206600.000			2.730			-2.730
206701.000			2.730			-2.730
206802.000			2.730			-2.730
206901.000			2.730			-2.730
207000.000			2.729			-2.729
207101.000			2.729			-2.729
207200.000			2.729			-2.729
207300.000			2.730			-2.730
207401.000			2.730			-2.730
207500.000			2.729			-2.729
207600.000			2.730			-2.730
207702.000			2.731			-2.731
207801.000			2.730			-2.730
207901.000			2.729			-2.729
208000.000			2.729			-2.729
208100.000			2.729			-2.729
208201.000			2.729			-2.729
208300.000			2.729			-2.729
208400.000			2.729			-2.729
208501.000			2.729			-2.729
208601.000			2.728			-2.728
208701.000			2.728			-2.728
208802.000			2.728			-2.728
208900.000			2.728			-2.728
209000.000			2.728			-2.728
209101.000			2.728			-2.728
209200.000			2.727			-2.727
209300.000			2.728			-2.728
209401.000			2.728			-2.728
209500.000			2.728			-2.728
209601.000			2.727			-2.727
209702.000			2.728			-2.728
209800.000			2.728			-2.728
209900.000			2.729			-2.729
210001.000			2.729			-2.729
210100.000			2.729			-2.729
210200.000			2.728			-2.728
210301.000			2.727			-2.727
210400.000			2.728			-2.728
210501.000			2.729			-2.729
210602.000			2.728			-2.728
210701.000			2.728			-2.728
210800.000			2.729			-2.729
210900.000			2.729			-2.729
211000.000			2.728			-2.728
211101.000			2.726			-2.726
211200.000			2.726			-2.726
211300.000			2.726			-2.726
211402.000			2.726			-2.726
211501.000			2.725			-2.725
211601.000			2.725			-2.725
211701.000			2.726			-2.726
211800.000			2.726			-2.726
211900.000			2.726			-2.726
212001.000			2.727			-2.727
212100.000			2.727			-2.727
212200.000			2.727			-2.727
212302.000			2.726			-2.726
212401.000			2.726			-2.726
212501.000			2.727			-2.727
212601.000			2.727			-2.727
212700.000			2.726			-2.726
212800.000			2.726			-2.726
212901.000			2.727			-2.727
213000.000			2.727			-2.727
213100.000			2.727			-2.727
213201.000			2.728			-2.728
213301.000			2.727			-2.727
213401.000			2.727			-2.727
213501.000			2.728			-2.728
213600.000			2.728			-2.728
213700.000			2.727			-2.727
213801.000			2.726			-2.726
213900.000			2.727			-2.727
214000.000			2.727			-2.727
214100.000			2.728			-2.728
214201.000			2.728			-2.728
214302.000			2.728			-2.728
214401.000			2.727			-2.727
214500.000			2.727			-2.727
214601.000			2.727			-2.727
214700.000			2.729			-2.729
214800.000			2.728			-2.728
214901.000			2.727			-2.727
215000.000			2.728			-2.728
215100.000			2.728			-2.728
215202.000			2.728			-2.728
215301.000			2.728			-2.728
215400.000			2.727			-2.727
215501.000			2.727			-2.727
215600.000			2.728			-2.728
215700.000			2.728			-2.728
215801.000			2.727			-2.727
215900.000			2.727			-2.727
216000.000			2.727			-2.727
216102.000			2.727			-2.727
216201.000			2.727			-2.727
216300.000			2.729			-2.729
216401.000			2.728			-2.728
216500.000			2.727			-2.727
216600.000			2.728			-2.728
216701.000			2.727			-2.727
216800.000			2.727			-2.727
216900.000			2.728			-2.728
217002.000			2.727			-2.727
217101.000			2.727			-2.727
217202.000			2.728			-2.728
217300.000			2.727			-2.727
217400.000			2.726			-2.726
217501.000			2.727			-2.727
217600.000			2.727			-2.727
217700.000			2.727			-2.727
217801.000			2.727			-2.727
217900.000			2.727			-2.727
218001.000			2.726			-2.726
218102.000			2.726			-2.726
218200.000			2.726			-2.726
218300.000			2.727			-2.727
218401.000			2.727			-2.727
218500.000			2.727			-2.727
218600.000			2.726			-2.726
218701.000			2.727			-2.727
218800.000			2.727			-2.727
218901.000			2.726			-2.726
219002.000			2.726			-2.726
219101.000			2.726			-2.726
219200.000			2.726			-2.726
219301.000			2.725			-2.725
219400.000			2.725			-2.725
219500.000			2.726			-2.726
219601.000			2.726			-2.726
219700.000			2.726			-2.726
219800.000			2.727			-2.727
219902.000			2.727			-2.727
220001.000			2.726			-2.726
220100.000			2.726			-2.726
220201.000			2.726			-2.726
220300.000			2.725			-2.725
220400.000			2.725			-2.725
220500.000			2.726			-2.726
220600.000			2.726			-2.726
220701.000			2.726			-2.726
220801.000			2.725			-2.725
220901.000			2.726			-2.726
221001.000			2.725			-2.725
221100.000			2.726			-2.726
221200.000			2.726			-2.726
221301.000			2.725			-2.725
221400.000			2.726			-2.726
221500.000			2.726			-2.726
221601.000			2.725			-2.725
221701.000			2.725			-2.725
221801.000			2.725			-2.725
221901.000			2.725			-2.725
222000.000			2.726			-2.726
222100.000			2.727			-2.727
222201.000			2.727			-2.727
222300.000			2.726			-2.726
222400.000			2.727			-2.727
222501.000			2.726			-2.726
222601.000			2.725			-2.725
222701.000			2.725			-2.725
222802.000			2.725			-2.725
222900.000			2.725			-2.725
223000.000			2.725			-2.725
223101.000			2.725			-2.725
223200.000			2.726			-2.726
223300.000			2.726			-2.726
223401.000			2.725			-2.725
223501.000			2.725			-2.725
223602.000			2.725			-2.725
223701.000			2.725			-2.725
223800.000			2.725			-2.725
223901.000			2.725			-2.725
224000.000			2.725			-2.725
224100.000			2.725			-2.725
224201.000			2.725			-2.725
224300.000			2.725			-2.725
224400.000			2.725			-2.725
224502.000			2.724			-2.724
224601.000			2.724			-2.724
224700.000			2.725			-2.725
224801.000			2.725			-2.725
224900.000			2.724			-2.724
225000.000			2.724			-2.724
225101.000			2.724			-2.724
225200.000			2.724			-2.724
225300.000			2.725			-2.725
225402.000			2.725			-2.725
225501.000			2.724			-2.724
225600.000			2.724			-2.724
225701.000			2.724			-2.724
225800.000			2.724			-2.724
225900.000			2.724			-2.724
226001.000			2.724			-2.724
226100.000			2.725			-2.725
226200.000			2.724			-2.724
226302.000			2.724			-2.724
226401.000			2.724			-2.724
226501.000			2.725			-2.725
226601.000			2.725			-2.725
226700.000			2.722			-2.722
226800.000			2.723			-2.723
226900.000			2.724			-2.724
227000.000			2.725			-2.725
227101.000			2.724			-2.724
227200.000			2.724			-2.724
227301.000			2.725			-2.725
227402.000			2.724			-2.724
227500.000			2.724			-2.724
227600.000			2.724			-2.724
227701.000			2.724			-2.724
227800.000			2.724			-2.724
227900.000			2.724			-2.724
228001.000			2.723			-2.723
228100.000			2.723			-2.723
228201.000			2.724			-2.724
228302.000			2.725			-2.725
228401.000			2.725			-2.725
228500.000			2.725			-2.725
228601.000			2.725			-2.725
228700.000			2.723			-2.723
228800.000			2.722			-2.722
228901.000			2.723			-2.723
229000.000			2.724			-2.724
229100.000			2.724			-2.724
229202.000			2.723			-2.723
229301.000			2.723			-2.723
229400.000			2.723			-2.723
229501.000			2.724			-2.724
229600.000			2.724			-2.724
229700.000			2.724			-2.724
229801.000			2.724			-2.724
229900.000			2.725			-2.725
230000.000			2.725			-2.725
230102.000			2.724			-2.724
230201.000			2.724			-2.724
230301.000			2.724			-2.724
230400.000			2.724			-2.724
230500.000			2.723			-2.723
230601.000			2.724			-2.724
230700.000			2.724			-2.724
230800.000			2.723			-2.723
230901.000			2.723			-2.723
231001.000			2.723			-2.723
231101.000			2.724			-2.724
231202.000			2.724			-2.724
231300.000			2.724			-2.724
231400.000			2.724			-2.724
231501.000			2.724			-2.724
231600.000			2.723			-2.723
231700.000			2.722			-2.722
231801.000			2.723			-2.723
231901.000			2.724			-2.724
232001.000			2.723			-2.723
232102.000			2.723			-2.723
232200.000			2.723			-2.723
232300.000			2.723			-2.723
232401.000			2.722			-2.722
232500.000			2.722			-2.722
232600.000			2.723			-2.723
232701.000			2.723			-2.723
232801.000			2.723			-2.723
232901.000			2.722			-2.722
233002.000			2.722			-2.722
233100.000			2.722			-2.722
233200.000			2.722			-2.722
233300.000			2.722			-2.722
233400.000			2.723			-2.723
233501.000			2.722			-2.722
233600.000			2.722			-2.722
233700.000			2.722			-2.722
233802.000			2.722			-2.722
233901.000			2.722			-2.722
234000.000			2.722			-2.722
234101.000			2.723			-2.723
234200.000			2.722			-2.722
234300.000			2.722			-2.722
234401.000			2.722			-2.722
234500.000			2.722			-2.722
234600.000			2.721			-2.721
234702.000			2.721			-2.721
234801.000			2.722			-2.722
234900.000			2.721			-2.721
235001.000			2.722			-2.722
235100.000			2.722			-2.722
235200.000			2.722			-2.722
235301.000			2.722			-2.722
235400.000			2.722			-2.722
235500.000			2.722			-2.722
235602.000			2.722			-2.722
235701.000			2.721			-2.721
235801.000			2.721			-2.721
235901.000			2.721			-2.721
236000.000			2.722			-2.722
236100.000			2.722			-2.722
236201.000			2.722			-2.722
236300.000			2.722			-2.722
236400.000			2.721			-2.721
236500.000			2.721			-2.721
236601.000			2.722			-2.722
236702.000			2.721			-2.721
236800.000			2.721			-2.721
236900.000			2.721			-2.721
237001.000			2.721			-2.721
237100.000			2.722			-2.722
237200.000			2.721			-2.721
237301.000			2.721			-2.721
237400.000			2.721			-2.721
237501.000			2.720			-2.720
237602.000			2.721			-2.721
237700.000			2.722			-2.722
237800.000			2.722			-2.722
237901.000			2.721			-2.721
238000.000			2.721			-2.721
238100.000			2.721			-2.721
238201.000			2.721			-2.721
238300.000			2.721			-2.721
238401.000			2.720			-2.720
238502.000			2.720			-2.720
238601.000			2.721			-2.721
238700.000			2.721			-2.721
238801.000			2.720			-2.720
238900.000			2.720			-2.720
239000.000			2.720			-2.720
239101.000			2.721			-2.721
239200.000			2.721			-2.721
239301.000			2.721			-2.721
239402.000			2.720			-2.720
239501.000			2.720			-2.720
239600.000			2.720			-2.720
239700.000			2.720			-2.720
239800.000			2.719			-2.719
239901.000			2.721			-2.721
240000.000			2.720			-2.720
240100.000			2.720			-2.720
240201.000			2.721			-2.721
240301.000			2.720			-2.720
240401.000			2.720			-2.720
240501.000			2.720			-2.720
240600.000			2.720			-2.720
240700.000			2.720			-2.720
240801.000			2.721			-2.721
240900.000			2.720			-2.720
241000.000			2.720			-2.720
241101.000			2.719			-2.719
241201.000			2.721			-2.721
241301.000			2.719			-2.719
241401.000			2.719			-2.719
241500.000			2.719			-2.719
241600.000			2.719			-2.719
241701.000			2.720			-2.720
241800.000			2.720			-2.720
241900.000			2.719			-2.719
242001.000			2.721			-2.721
242101.000			2.721			-2.721
242201.000			2.721			-2.721
242302.000			2.719			-2.719
242400.000			2.720			-2.720
242500.000			2.721			-2.721
242601.000			2.721			-2.721
242700.000			2.720			-2.720
242800.000			2.720			-2.720
242900.000			2.720			-2.720
243000.000			2.720			-2.720
243102.000			2.719			-2.719
243201.000			2.720			-2.720
243300.000			2.720			-2.720
243401.000			2.719			-2.719
243500.000			2.720			-2.720
243600.000			2.720			-2.720
243701.000			2.720			-2.720
243800.000			2.720			-2.720
243900.000			2.719			-2.719
244002.000			2.720			-2.720
244101.000			2.720			-2.720
244200.000			2.720			-2.720
244301.000			2.720			-2.720
244400.000			2.720			-2.720
244500.000			2.720			-2.720
244601.000			2.719			-2.719
244700.000			2.720			-2.720
244800.000			2.719			-2.719
244902.000			2.720			-2.720
245001.000			2.720			-2.720
245101.000			2.719			-2.719
245201.000			2.719			-2.719
245300.000			2.719			-2.719
245400.000			2.720			-2.720
245501.000			2.719			-2.719
245600.000			2.719			-2.719
245700.000			2.720			-2.720
245801.000			2.720			-2.720
245901.000			2.720			-2.720
246002.000			2.719			-2.719
246100.000			2.719			-2.719
246200.000			2.719			-2.719
246301.000			2.720			-2.720
246400.000			2.720			-2.720
246500.000			2.720			-2.720
246601.000			2.720			-2.720
246700.000			2.720			-2.720
246801.000			2.719			-2.719
246902.000			2.719			-2.719
247001.000			2.719			-2.719
247100.000			2.719			-2.719
247201.000			2.719			-2.719
247300.000			2.719			-2.719
247400.000			2.719			-2.719
247501.000			2.719			-2.719
247600.000			2.719			-2.719
247700.000			2.719			-2.719
247802.000			2.719			-2.719
247901.000			2.719			-2.719
248000.000			2.719			-2.719
248101.000			2.720			-2.720
248200.000			2.721			-2.721
248300.000			2.719			-2.719
248401.000			2.719			-2.719
248500.000			2.719			-2.719
248600.000			2.721			-2.721
248702.000			2.720			-2.720
248801.000			2.720			-2.720
248901.000			2.720			-2.720
249001.000			2.720			-2.720
249100.000			2.720			-2.720
249200.000			2.718			-2.718
249300.000			2.720			-2.720
249400.000			2.719			-2.719
249501.000			2.720			-2.720
249600.000			2.720			-2.720
249701.000			2.720			-2.720
249802.000			2.718			-2.718
249900.000			2.719			-2.719
250000.000			2.719			-2.719
250101.000			2.720			-2.720
250200.000			2.719			-2.719
250300.000			2.720			-2.720
250401.000			2.720			-2.720
250500.000			2.720			-2.720
250601.000			2.720			-2.720
250702.000			2.721			-2.721
250801.000			2.720			-2.720
250900.000			2.719			-2.719
251001.000			2.719			-2.719
251100.000			2.721			-2.721
251200.000			2.720			-2.720
251301.000			2.720			-2.720
251400.000			2.720			-2.720
251501.000			2.721			-2.721
251602.000			2.720			-2.720
251701.000			2.721			-2.721
251800.000			2.720			-2.720
251901.000			2.720			-2.720
252000.000			2.720			-2.720
252100.000			2.721			-2.721
252201.000			2.721			-2.721
252300.000			2.720			-2.720
252402.000			2.720			-2.720
252501.000			2.720			-2.720
252601.000			2.721			-2.721
252701.000			2.720			-2.720
252800.000			2.720			-2.720
252900.000			2.719			-2.719
253001.000			2.719			-2.719
253100.000			2.720			-2.720
253200.000			2.721			-2.721
253301.000			2.721			-2.721
253401.000			2.720			-2.720
253501.000			2.720			-2.720
253601.000			2.719			-2.719
253700.000			2.719			-2.719
253800.000			2.720			-2.720
253901.000			2.720			-2.720
254000.000			2.720			-2.720
254100.000			2.719			-2.719
254201.000			2.719			-2.719
254301.000			2.719			-2.719
254401.000			2.718			-2.718
254502.000			2.718			-2.718
254600.000			2.719			-2.719
254700.000			2.720			-2.720
254801.000			2.720			-2.720
254900.000			2.719			-2.719
255000.000			2.719			-2.719
255101.000			2.719			-2.719
255200.000			2.719			-2.719
255301.000			2.720			-2.720
255402.000			2.720			-2.720
255500.000			2.719			-2.719
255600.000			2.719			-2.719
255700.000			2.719			-2.719
255800.000			2.719			-2.719
255901.000			2.719			-2.719
256000.000			2.719			-2.719
256100.000			2.718			-2.718
256202.000			2.718			-2.718
256301.000			2.718			-2.718
256401.000			2.718			-2.718
256501.000			2.718			-2.718
256600.000			2.718			-2.718
256700.000			2.719			-2.719
256801.000			2.719			-2.719
256900.000			2.719			-2.719
257000.000			2.718			-2.718
257101.000			2.718			-2.718
257201.000			2.719			-2.719
257301.000			2.720			-2.720
257402.000			2.718			-2.718
257500.000			2.718			-2.718
257600.000			2.718			-2.718
257701.000			2.718			-2.718
257800.000			2.718			-2.718
257900.000			2.718			-2.718
258001.000			2.718			-2.718
258100.000			2.718			-2.718
258201.000			2.719			-2.719
258302.000			2.720			-2.720
258400.000			2.720			-2.720
258500.000			2.719			-2.719
258601.000			2.719			-2.719
258700.000			2.719			-2.719
258800.000			2.719			-2.719
258900.000			2.718			-2.718
259000.000			2.718			-2.718
259101.000			2.719			-2.719
259201.000			2.719			-2.719
259301.000			2.719			-2.719
259401.000			2.719			-2.719
259500.000			2.719			-2.719
259600.000			2.719			-2.719
259701.000			2.718			-2.718
259800.000			2.718			-2.718
259900.000			2.719			-2.719
260001.000			2.719			-2.719
260101.000			2.718			-2.718
260201.000			2.718			-2.718
260302.000			2.719			-2.719
260400.000			2.720			-2.720
260500.000			2.720			-2.720
260601.000			2.719			-2.719
260700.000			2.718			-2.718
260800.000			2.719			-2.719
260901.000			2.719			-2.719
261001.000			2.719			-2.719
261101.000			2.719			-2.719
261202.000			2.718			-2.718
261300.000			2.719			-2.719
261400.000			2.720			-2.720
261501.000			2.719			-2.719
261600.000			2.719			-2.719
261700.000			2.720			-2.720
261801.000			2.719			-2.719
261900.000			2.720			-2.720
262002.000			2.720			-2.720
262101.000			2.719			-2.719
262200.000			2.719			-2.719
262301.000			2.720			-2.720
262400.000			2.719			-2.719
262500.000			2.718			-2.718
262601.000			2.718			-2.718
262700.000			2.719			-2.719
262800.000			2.719			-2.719
262902.000			2.719			-2.719
263001.000			2.720			-2.720
263101.000			2.719			-2.719
263201.000			2.719			-2.719
263300.000			2.719			-2.719
263400.000			2.720			-2.720
263501.000			2.719			-2.719
263600.000			2.719			-2.719
263700.000			2.719			-2.719
263802.000			2.719			-2.719
263901.000			2.719			-2.719
264001.000			2.719			-2.719
264101.000			2.718			-2.718
264200.000			2.718			-2.718
264300.000			2.720			-2.720
264401.000			2.720			-2.720
264500.000			2.720			-2.720
264600.000			2.719			-2.719
264701.000			2.719			-2.719
264801.000			2.719			-2.719
264901.000			2.719			-2.719
265001.000			2.720			-2.720
265100.000			2.718			-2.718
265200.000			2.717			-2.717
265300.000			2.718			-2.718
265400.000			2.719			-2.719
265501.000			2.718			-2.718
265600.000			2.719			-2.719
265700.000			2.719			-2.719
265802.000			2.718			-2.718
265901.000			2.718			-2.718
266000.000			2.718			-2.718
266101.000			2.718			-2.718
266200.000			2.719			-2.719
266300.000			2.718			-2.718
266401.000			2.718			-2.718
266500.000			2.718			-2.718
266600.000			2.718			-2.718
266702.000			2.717			-2.717
266801.000			2.717			-2.717
266901.000			2.718			-2.718
267001.000			2.717			-2.717
267100.000			2.716			-2.716
267200.000			2.717			-2.717
267301.000			2.718			-2.718
267400.000			2.718			-2.718
267500.000			2.718			-2.718
267601.000			2.718			-2.718
267701.000			2.718			-2.718
267801.000			2.718			-2.718
267901.000			2.718			-2.718
268000.000			2.717			-2.717
268100.000			2.717			-2.717
268201.000			2.718			-2.718
268300.000			2.717			-2.717
268400.000			2.717			-2.717
268500.000			2.716			-2.716
268600.000			2.716			-2.716
268702.000			2.716			-2.716
268801.000			2.716			-2.716
268900.000			2.716			-2.716
269001.000			2.715			-2.715
269100.000			2.717			-2.717
269200.000			2.717			-2.717
269301.000			2.716			-2.716
269400.000			2.717			-2.717
269500.000			2.717			-2.717
269602.000			2.717			-2.717
269701.000			2.717			-2.717
269801.000			2.717			-2.717
269901.000			2.717			-2.717
270000.000			2.717			-2.717
270100.000			2.716			-2.716
270201.000			2.716			-2.716
270300.000			2.716			-2.716
270400.000			2.717			-2.717
270501.000			2.716			-2.716
270601.000			2.717			-2.717
270701.000			2.717			-2.717
270801.000			2.716			-2.716
270900.000			2.716			-2.716
271000.000			2.717			-2.717
271101.000			2.717			-2.717
271200.000			2.716			-2.716
271300.000			2.716			-2.716
271401.000			2.717			-2.717
271501.000			2.717			-2.717
271602.000			2.717			-2.717
271701.000			2.717			-2.717
271800.000			2.717			-2.717
271901.000			2.716			-2.716
272000.000			2.716			-2.716
272100.000			2.716			-2.716
272201.000			2.716			-2.716
272300.000			2.717			-2.717
272400.000			2.717			-2.717
272502.000			2.717			-2.717
272601.000			2.717			-2.717
272700.000			2.716			-2.716
272801.000			2.716			-2.716
272900.000			2.716			-2.716
273000.000			2.715			-2.715
273101.000			2.715			-2.715
273200.000			2.716			-2.716
273300.000			2.716			-2.716
273402.000			2.716			-2.716
273501.000			2.716			-2.716
273600.000			2.716			-2.716
273701.000			2.716			-2.716
273800.000			2.716			-2.716
273900.000			2.716			-2.716
274001.000			2.716			-2.716
274100.000			2.716			-2.716
274200.000			2.716			-2.716
274302.000			2.715			-2.715
274401.000			2.715			-2.715
274501.000			2.716			-2.716
274601.000			2.716			-2.716
274700.000			2.716			-2.716
274800.000			2.716			-2.716
274900.000			2.716			-2.716
275000.000			2.715			-2.715
275101.000			2.716			-2.716
275200.000			2.716			-2.716
275301.000			2.716			-2.716
275402.000			2.716			-2.716
275500.000			2.716			-2.716
275600.000			2.715			-2.715
275701.000			2.716			-2.716
275800.000			2.717			-2.717
275900.000			2.716			-2.716
276001.000			2.716			-2.716
276100.000			2.716			-2.716
276201.000			2.715			-2.715
276302.000			2.715			-2.715
276401.000			2.715			-2.715
276500.000			2.716			-2.716
276601.000			2.716			-2.716
276700.000			2.715			-2.715
276800.000			2.716			-2.716
276901.000			2.716			-2.716
277000.000			2.716			-2.716
277100.000			2.716			-2.716
277202.000			2.715			-2.715
277301.000			2.715			-2.715
277400.000			2.716			-2.716
277501.000			2.716			-2.716
277600.000			2.716			-2.716
277700.000			2.715			-2.715
277801.000			2.715			-2.715
277900.000			2.716			-2.716
278000.000			2.717			-2.717
278102.000			2.716			-2.716
278201.000			2.717			-2.717
278302.000			2.716			-2.716
278400.000			2.716			-2.716
278500.000			2.716			-2.716
278601.000			2.716			-2.716
278700.000			2.716			-2.716
278800.000			2.715			-2.715
278901.000			2.715			-2.715
279000.000			2.715			-2.715
279101.000			2.716			-2.716
279202.000			2.716			-2.716
279300.000			2.716			-2.716
279400.000			2.716			-2.716
279501.000			2.716			-2.716
279600.000			2.716			-2.716
279700.000			2.716			-2.716
279801.000			2.716			-2.716
279900.000			2.717			-2.717
280001.000			2.716			-2.716
280102.000			2.716			-2.716
280201.000			2.714			-2.714
280300.000			2.715			-2.715
280401.000			2.717			-2.717
280500.000			2.717			-2.717
280600.000			2.717			-2.717
280701.000			2.716			-2.716
280800.000			2.716			-2.716
280900.000			2.716			-2.716
281002.000			2.716			-2.716
281101.000			2.715			-2.715
281200.000			2.715			-2.715
281300.000			2.716			-2.716
281400.000			2.716			-2.716
281501.000			2.715			-2.715
281600.000			2.715			-2.715
281700.000			2.715			-2.715
281801.000			2.715			-2.715
281901.000			2.717			-2.717
282001.000			2.716			-2.716
282102.000			2.715			-2.715
282200.000			2.715			-2.715
282300.000			2.716			-2.716
282401.000			2.715			-2.715
282500.000			2.715			-2.715
282600.000			2.715			-2.715
282701.000			2.717			-2.717
282801.000			2.716			-2.716
282901.000			2.716			-2.716
283002.000			2.715			-2.715
283100.000			2.715			-2.715
283200.000			2.715			-2.715
283301.000			2.716			-2.716
283400.000			2.716			-2.716
283500.000			2.715			-2.715
283601.000			2.715			-2.715
283700.000			2.714			-2.714
283801.000			2.715			-2.715
283902.000			2.715			-2.715
284000.000			2.715			-2.715
284100.000			2.715			-2.715
284201.000			2.716			-2.716
284300.000			2.716			-2.716
284400.000			2.715			-2.715
284500.000			2.715			-2.715
284600.000			2.716			-2.716
284702.000			2.715			-2.715
284801.000			2.715			-2.715
284901.000			2.715			-2.715
285001.000			2.716			-2.716
285100.000			2.715			-2.715
285200.000			2.715			-2.715
285301.000			2.715			-2.715
285400.000			2.715			-2.715
285500.000			2.714			-2.714
285601.000			2.714			-2.714
285701.000			2.714			-2.714
285801.000			2.715			-2.715
285901.000			2.716			-2.716
286000.000			2.716			-2.716
286100.000			2.716			-2.716
286201.000			2.715			-2.715
286300.000			2.715			-2.715
286400.000			2.715			-2.715
286501.000			2.715			-2.715
286601.000			2.715			-2.715
286701.000			2.715			-2.715
286802.000			2.715			-2.715
286900.000			2.714			-2.714
287000.000			2.714			-2.714
287101.000			2.715			-2.715
287200.000			2.715			-2.715
287300.000			2.713			-2.713
287401.000			2.714			-2.714
287501.000			2.714			-2.714
287602.000			2.715			-2.715
287701.000			2.715			-2.715
287800.000			2.715			-2.715
287901.000			2.716			-2.716
288000.000			2.715			-2.715
288100.000			2.715			-2.715
288201.000			2.715			-2.715
288300.000			2.714			-2.714
288400.000			2.714			-2.714
288502.000			2.714			-2.714
288601.000			2.715			-2.715
288701.000			2.715			-2.715
288801.000			2.715			-2.715
288900.000			2.714			-2.714
289000.000			2.715			-2.715
289101.000			2.715			-2.715
289200.000			2.714			-2.714
289300.000			2.714			-2.714
289401.000			2.713			-2.713
289501.000			2.714			-2.714
289601.000			2.715			-2.715
289701.000			2.715			-2.715
289800.000			2.716			-2.716
289900.000			2.715			-2.715
290001.000			2.715			-2.715
290100.000			2.715			-2.715
290200.000			2.715			-2.715
290301.000			2.716			-2.716
290401.000			2.715			-2.715
290501.000			2.715			-2.715
290602.000			2.715			-2.715
290700.000			2.715			-2.715
290800.000			2.716			-2.716
290900.000			2.716			-2.716
291000.000			2.715			-2.715
291101.000			2.715			-2.715
291200.000			2.716			-2.716
291300.000			2.715			-2.715
291402.000			2.715			-2.715
291501.000			2.716			-2.716
291601.000			2.715			-2.715
291701.000			2.714			-2.714
291800.000			2.715			-2.715
291900.000			2.715			-2.715
292001.000			2.716			-2.716
292100.000			2.716			-2.716
292200.000			2.716			-2.716
292302.000			2.716			-2.716
292401.000			2.716			-2.716
292501.000			2.716			-2.716
292601.000			2.715			-2.715
292700.000			2.715			-2.715
292800.000			2.716			-2.716
292901.000			2.717			-2.717
293000.000			2.717			-2.717
293100.000			2.717			-2.717
293201.000			2.716			-2.716
293301.000			2.716			-2.716
293401.000			2.716			-2.716
293501.000			2.716			-2.716
293600.000			2.716			-2.716
293700.000			2.716			-2.716
293801.000			2.717			-2.717
293900.000			2.716			-2.716
294000.000			2.716			-2.716
294100.000			2.716			-2.716
294200.000			2.717			-2.717
294302.000			2.717			-2.717
294401.000			2.716			-2.716
294500.000			2.716			-2.716
294601.000			2.717			-2.717
294700.000			2.717			-2.717
294800.000			2.716			-2.716
294901.000			2.716			-2.716
295000.000			2.716			-2.716
295100.000			2.717			-2.717
295202.000			2.717			-2.717
295301.000			2.716			-2.716
295401.000			2.716			-2.716
295501.000			2.715			-2.715
295600.000			2.716			-2.716
295700.000			2.716			-2.716
295801.000			2.715			-2.715
295900.000			2.715			-2.715
296000.000			2.716			-2.716
296101.000			2.715			-2.715
296201.000			2.715			-2.715
296301.000			2.715			-2.715
296401.000			2.715			-2.715
296500.000			2.714			-2.714
296600.000			2.714			-2.714
296701.000			2.714			-2.714
296800.000			2.715			-2.715
296900.000			2.715			-2.715
297001.000			2.714			-2.714
297101.000			2.715			-2.715
297202.000			2.715			-2.715
297301.000			2.715			-2.715
297400.000			2.716			-2.716
297501.000			2.715			-2.715
297600.000			2.716			-2.716
297700.000			2.715			-2.715
297801.000			2.716			-2.716
297900.000			2.715			-2.715
298000.000			2.715			-2.715
298102.000			2.715			-2.715
298201.000			2.715			-2.715
298301.000			2.714			-2.714
298401.000			2.714			-2.714
298500.000			2.715			-2.715
298600.000			2.715			-2.715
298701.000			2.715			-2.715
298800.000			2.714			-2.714
298900.000			2.714			-2.714
299001.000			2.714			-2.714
299101.000			2.715			-2.715
299201.000			2.715			-2.715
299301.000			2.715			-2.715
299400.000			2.714			-2.714
299500.000			2.714			-2.714
299601.000			2.715			-2.715
299700.000			2.715			-2.715
299800.000			2.715			-2.715
299901.000			2.715			-2.715
