# Acquired on 08/01/2024 15:15:58 
# SPIDER: Creep_-4mm_07714532B-1
# CREEP MEASUREMENT

# time [ms]		force [N]		stiffness [N/mm]
0.000			10.546			-2.637
100.000			11.409			-2.852
201.000			11.755			-2.939
302.000			11.776			-2.944
400.000			11.725			-2.931
500.000			11.654			-2.914
601.000			11.628			-2.907
700.000			11.604			-2.901
800.000			11.585			-2.896
902.000			11.566			-2.891
1001.000			11.550			-2.887
1100.000			11.535			-2.884
1200.000			11.507			-2.877
1300.000			11.495			-2.874
1401.000			11.485			-2.871
1500.000			11.474			-2.868
1600.000			11.464			-2.866
1702.000			11.456			-2.864
1801.000			11.447			-2.862
1900.000			11.430			-2.858
2001.000			11.423			-2.856
2100.000			11.416			-2.854
2200.000			11.408			-2.852
2301.000			11.402			-2.851
2401.000			11.396			-2.849
2501.000			11.389			-2.847
2601.000			11.384			-2.846
2700.000			11.372			-2.843
2800.000			11.366			-2.841
2901.000			11.361			-2.840
3000.000			11.357			-2.839
3100.000			11.353			-2.838
3202.000			11.347			-2.837
3301.000			11.342			-2.836
3400.000			11.334			-2.834
3501.000			11.331			-2.833
3600.000			11.327			-2.832
3700.000			11.322			-2.831
3801.000			11.317			-2.829
3901.000			11.314			-2.828
4001.000			11.310			-2.827
4101.000			11.302			-2.826
4200.000			11.300			-2.825
4300.000			11.295			-2.824
4400.000			11.292			-2.823
4500.000			11.290			-2.823
4601.000			11.286			-2.821
4701.000			11.282			-2.821
4801.000			11.276			-2.819
4901.000			11.273			-2.818
5000.000			11.270			-2.817
5100.000			11.267			-2.817
5201.000			11.263			-2.816
5300.000			11.262			-2.815
5401.000			11.260			-2.815
5502.000			11.256			-2.814
5600.000			11.251			-2.813
5700.000			11.250			-2.812
5801.000			11.247			-2.812
5900.000			11.245			-2.811
6000.000			11.242			-2.811
6101.000			11.239			-2.810
6201.000			11.237			-2.809
6301.000			11.233			-2.808
6401.000			11.231			-2.808
6500.000			11.228			-2.807
6600.000			11.227			-2.807
6701.000			11.224			-2.806
6800.000			11.221			-2.805
6901.000			11.219			-2.805
7002.000			11.216			-2.804
7100.000			11.214			-2.804
7200.000			11.211			-2.803
7301.000			11.209			-2.802
7400.000			11.208			-2.802
7500.000			11.205			-2.801
7600.000			11.204			-2.801
7701.000			11.203			-2.801
7802.000			11.199			-2.800
7900.000			11.197			-2.799
8000.000			11.195			-2.799
8101.000			11.193			-2.798
8200.000			11.192			-2.798
8300.000			11.191			-2.798
8402.000			11.189			-2.797
8501.000			11.185			-2.796
8600.000			11.183			-2.796
8701.000			11.182			-2.796
8800.000			11.180			-2.795
8900.000			11.178			-2.795
9001.000			11.177			-2.794
9100.000			11.176			-2.794
9201.000			11.172			-2.793
9302.000			11.171			-2.793
9400.000			11.169			-2.792
9500.000			11.168			-2.792
9601.000			11.167			-2.792
9700.000			11.166			-2.791
9800.000			11.163			-2.791
9901.000			11.160			-2.790
10001.000			11.159			-2.790
10101.000			11.157			-2.789
10201.000			11.156			-2.789
10300.000			11.155			-2.789
10400.000			11.154			-2.789
10501.000			11.154			-2.788
10600.000			11.152			-2.788
10700.000			11.149			-2.787
10802.000			11.148			-2.787
10901.000			11.146			-2.787
11001.000			11.145			-2.786
11100.000			11.143			-2.786
11200.000			11.142			-2.786
11301.000			11.141			-2.785
11400.000			11.138			-2.785
11501.000			11.137			-2.784
11602.000			11.136			-2.784
11700.000			11.135			-2.784
11800.000			11.134			-2.784
11901.000			11.133			-2.783
12000.000			11.132			-2.783
12100.000			11.129			-2.782
12201.000			11.128			-2.782
12301.000			11.127			-2.782
12401.000			11.125			-2.781
12501.000			11.125			-2.781
12600.000			11.124			-2.781
12700.000			11.122			-2.781
12801.000			11.120			-2.780
12900.000			11.119			-2.780
13001.000			11.118			-2.779
13102.000			11.117			-2.779
13200.000			11.116			-2.779
13300.000			11.116			-2.779
13401.000			11.115			-2.779
13500.000			11.113			-2.778
13600.000			11.112			-2.778
13701.000			11.111			-2.778
13801.000			11.109			-2.777
13902.000			11.108			-2.777
14000.000			11.108			-2.777
14100.000			11.107			-2.777
14201.000			11.106			-2.776
14300.000			11.103			-2.776
14400.000			11.102			-2.775
14501.000			11.101			-2.775
14601.000			11.101			-2.775
14701.000			11.099			-2.775
14801.000			11.099			-2.775
14900.000			11.098			-2.775
15000.000			11.097			-2.774
15101.000			11.095			-2.774
15200.000			11.096			-2.774
15300.000			11.094			-2.773
15402.000			11.092			-2.773
15501.000			11.092			-2.773
15600.000			11.091			-2.773
15701.000			11.090			-2.772
15800.000			11.089			-2.772
15900.000			11.088			-2.772
16001.000			11.086			-2.772
16101.000			11.086			-2.771
16201.000			11.085			-2.771
16301.000			11.084			-2.771
16400.000			11.083			-2.771
16500.000			11.082			-2.770
16601.000			11.082			-2.770
16700.000			11.081			-2.770
16800.000			11.079			-2.770
16902.000			11.078			-2.770
17001.000			11.079			-2.770
17100.000			11.077			-2.769
17200.000			11.075			-2.769
17300.000			11.074			-2.769
17401.000			11.074			-2.768
17500.000			11.073			-2.768
17600.000			11.073			-2.768
17702.000			11.072			-2.768
17801.000			11.071			-2.768
17900.000			11.070			-2.767
18001.000			11.068			-2.767
18100.000			11.067			-2.767
18200.000			11.067			-2.767
18301.000			11.067			-2.767
18400.000			11.067			-2.767
18501.000			11.065			-2.766
18602.000			11.063			-2.766
18700.000			11.063			-2.766
18800.000			11.062			-2.766
18901.000			11.061			-2.765
19000.000			11.060			-2.765
19100.000			11.061			-2.765
19201.000			11.060			-2.765
19301.000			11.059			-2.765
19401.000			11.058			-2.764
19501.000			11.057			-2.764
19600.000			11.056			-2.764
19700.000			11.055			-2.764
19801.000			11.055			-2.764
19900.000			11.056			-2.764
20000.000			11.054			-2.764
20102.000			11.051			-2.763
20201.000			11.051			-2.763
20300.000			11.050			-2.763
20400.000			11.049			-2.762
20500.000			11.048			-2.762
20601.000			11.047			-2.762
20700.000			11.047			-2.762
20800.000			11.046			-2.762
20902.000			11.046			-2.762
21001.000			11.047			-2.762
21100.000			11.045			-2.761
21201.000			11.044			-2.761
21300.000			11.044			-2.761
21400.000			11.043			-2.761
21501.000			11.043			-2.761
21601.000			11.041			-2.760
21701.000			11.040			-2.760
21801.000			11.040			-2.760
21900.000			11.040			-2.760
22000.000			11.039			-2.760
22101.000			11.039			-2.760
22200.000			11.037			-2.759
22300.000			11.037			-2.759
22402.000			11.035			-2.759
22501.000			11.034			-2.759
22600.000			11.034			-2.758
22701.000			11.033			-2.758
22800.000			11.033			-2.758
22900.000			11.032			-2.758
23001.000			11.032			-2.758
23101.000			11.031			-2.758
23201.000			11.030			-2.758
23301.000			11.029			-2.757
23400.000			11.029			-2.757
23500.000			11.028			-2.757
23600.000			11.028			-2.757
23700.000			11.027			-2.757
23801.000			11.026			-2.756
23901.000			11.026			-2.756
24001.000			11.026			-2.756
24101.000			11.025			-2.756
24200.000			11.024			-2.756
24300.000			11.023			-2.756
24401.000			11.022			-2.756
24500.000			11.022			-2.756
24601.000			11.022			-2.755
24702.000			11.021			-2.755
24800.000			11.021			-2.755
24900.000			11.020			-2.755
25001.000			11.019			-2.755
25100.000			11.018			-2.755
25200.000			11.018			-2.754
25301.000			11.017			-2.754
25401.000			11.016			-2.754
25501.000			11.017			-2.754
25601.000			11.015			-2.754
25700.000			11.015			-2.754
25800.000			11.015			-2.754
25901.000			11.014			-2.753
26000.000			11.013			-2.753
26100.000			11.012			-2.753
26202.000			11.012			-2.753
26301.000			11.012			-2.753
26400.000			11.012			-2.753
26501.000			11.011			-2.753
26600.000			11.010			-2.753
26700.000			11.010			-2.752
26800.000			11.009			-2.752
26901.000			11.008			-2.752
27002.000			11.007			-2.752
27100.000			11.007			-2.752
27200.000			11.006			-2.751
27301.000			11.006			-2.751
27400.000			11.005			-2.751
27500.000			11.006			-2.751
27601.000			11.006			-2.751
27701.000			11.004			-2.751
27801.000			11.004			-2.751
27901.000			11.004			-2.751
28000.000			11.003			-2.751
28100.000			11.002			-2.750
28201.000			11.001			-2.750
28300.000			11.001			-2.750
28401.000			11.000			-2.750
28502.000			11.000			-2.750
28600.000			10.999			-2.750
28700.000			10.999			-2.750
28801.000			10.999			-2.750
28900.000			10.999			-2.750
29000.000			10.997			-2.749
29101.000			10.997			-2.749
29201.000			10.996			-2.749
29301.000			10.995			-2.749
29402.000			10.995			-2.749
29500.000			10.993			-2.748
29600.000			10.994			-2.748
29701.000			10.993			-2.748
29800.000			10.992			-2.748
29900.000			10.992			-2.748
30000.000			10.993			-2.748
30101.000			10.992			-2.748
30202.000			10.991			-2.748
30300.000			10.990			-2.748
30400.000			10.989			-2.747
30501.000			10.990			-2.747
30600.000			10.989			-2.747
30700.000			10.989			-2.747
30801.000			10.988			-2.747
30901.000			10.988			-2.747
31001.000			10.987			-2.747
31101.000			10.986			-2.746
31200.000			10.986			-2.746
31300.000			10.985			-2.746
31401.000			10.985			-2.746
31500.000			10.985			-2.746
31600.000			10.985			-2.746
31702.000			10.984			-2.746
31801.000			10.984			-2.746
31900.000			10.983			-2.746
32001.000			10.983			-2.746
32100.000			10.981			-2.745
32200.000			10.981			-2.745
32301.000			10.981			-2.745
32400.000			10.980			-2.745
32501.000			10.979			-2.745
32602.000			10.979			-2.745
32700.000			10.979			-2.745
32800.000			10.978			-2.745
32901.000			10.978			-2.744
33000.000			10.977			-2.744
33100.000			10.977			-2.744
33200.000			10.975			-2.744
33301.000			10.975			-2.744
33402.000			10.976			-2.744
33500.000			10.976			-2.744
33600.000			10.975			-2.744
33701.000			10.974			-2.744
33800.000			10.975			-2.744
33900.000			10.974			-2.743
34001.000			10.973			-2.743
34101.000			10.973			-2.743
34201.000			10.973			-2.743
34301.000			10.974			-2.743
34400.000			10.972			-2.743
34500.000			10.971			-2.743
34601.000			10.970			-2.742
34700.000			10.971			-2.743
34800.000			10.971			-2.743
34902.000			10.971			-2.743
35001.000			10.969			-2.742
35100.000			10.969			-2.742
35201.000			10.968			-2.742
35300.000			10.968			-2.742
35400.000			10.967			-2.742
35501.000			10.967			-2.742
35600.000			10.967			-2.742
35701.000			10.966			-2.741
35802.000			10.965			-2.741
35900.000			10.966			-2.742
36000.000			10.966			-2.741
36101.000			10.965			-2.741
36200.000			10.965			-2.741
36300.000			10.964			-2.741
36400.000			10.963			-2.741
36501.000			10.963			-2.741
36602.000			10.963			-2.741
36700.000			10.962			-2.741
36800.000			10.961			-2.740
36901.000			10.961			-2.740
37000.000			10.960			-2.740
37100.000			10.960			-2.740
37201.000			10.960			-2.740
37301.000			10.959			-2.740
37401.000			10.958			-2.740
37501.000			10.957			-2.739
37600.000			10.957			-2.739
37700.000			10.957			-2.739
37801.000			10.957			-2.739
37900.000			10.957			-2.739
38000.000			10.957			-2.739
38102.000			10.957			-2.739
38201.000			10.955			-2.739
38300.000			10.955			-2.739
38401.000			10.956			-2.739
38500.000			10.956			-2.739
38600.000			10.955			-2.739
38701.000			10.954			-2.738
38800.000			10.954			-2.738
38901.000			10.953			-2.738
39002.000			10.953			-2.738
39101.000			10.953			-2.738
39200.000			10.952			-2.738
39301.000			10.951			-2.738
39400.000			10.951			-2.738
39500.000			10.952			-2.738
39600.000			10.952			-2.738
39701.000			10.950			-2.737
39802.000			10.950			-2.738
39901.000			10.950			-2.737
40000.000			10.949			-2.737
40101.000			10.948			-2.737
40200.000			10.949			-2.737
40300.000			10.949			-2.737
40401.000			10.948			-2.737
40501.000			10.947			-2.737
40601.000			10.946			-2.737
40702.000			10.947			-2.737
40800.000			10.946			-2.737
40900.000			10.947			-2.737
41001.000			10.946			-2.736
41100.000			10.946			-2.737
41200.000			10.945			-2.736
41302.000			10.944			-2.736
41401.000			10.943			-2.736
41500.000			10.943			-2.736
41601.000			10.944			-2.736
41700.000			10.943			-2.736
41800.000			10.943			-2.736
41901.000			10.943			-2.736
42000.000			10.942			-2.736
42101.000			10.941			-2.735
42202.000			10.942			-2.735
42300.000			10.941			-2.735
42400.000			10.940			-2.735
42501.000			10.941			-2.735
42600.000			10.939			-2.735
42700.000			10.939			-2.735
42800.000			10.940			-2.735
42901.000			10.940			-2.735
43002.000			10.939			-2.735
43100.000			10.939			-2.735
43200.000			10.939			-2.735
43301.000			10.938			-2.735
43400.000			10.938			-2.734
43500.000			10.937			-2.734
43601.000			10.936			-2.734
43701.000			10.935			-2.734
43801.000			10.936			-2.734
43901.000			10.936			-2.734
44000.000			10.936			-2.734
44100.000			10.935			-2.734
44201.000			10.935			-2.734
44300.000			10.935			-2.734
44400.000			10.934			-2.733
44502.000			10.933			-2.733
44601.000			10.933			-2.733
44700.000			10.932			-2.733
44801.000			10.931			-2.733
44900.000			10.932			-2.733
45000.000			10.932			-2.733
45101.000			10.933			-2.733
45200.000			10.932			-2.733
45301.000			10.931			-2.733
45402.000			10.932			-2.733
45500.000			10.929			-2.732
45600.000			10.930			-2.732
45701.000			10.930			-2.733
45800.000			10.930			-2.732
45900.000			10.930			-2.732
46000.000			10.930			-2.732
46101.000			10.929			-2.732
46202.000			10.928			-2.732
46300.000			10.927			-2.732
46400.000			10.927			-2.732
46501.000			10.927			-2.732
46600.000			10.927			-2.732
46700.000			10.927			-2.732
46801.000			10.926			-2.732
46901.000			10.926			-2.732
47001.000			10.925			-2.731
47101.000			10.925			-2.731
47200.000			10.925			-2.731
47300.000			10.925			-2.731
47401.000			10.925			-2.731
47500.000			10.924			-2.731
47600.000			10.924			-2.731
47702.000			10.923			-2.731
47801.000			10.922			-2.731
47900.000			10.923			-2.731
48001.000			10.923			-2.731
48100.000			10.922			-2.730
48200.000			10.922			-2.730
48301.000			10.921			-2.730
48400.000			10.921			-2.730
48501.000			10.920			-2.730
48602.000			10.920			-2.730
48700.000			10.919			-2.730
48800.000			10.918			-2.730
48901.000			10.918			-2.729
49000.000			10.919			-2.730
49100.000			10.920			-2.730
49200.000			10.918			-2.730
49301.000			10.917			-2.729
49402.000			10.917			-2.729
49500.000			10.917			-2.729
49600.000			10.916			-2.729
49701.000			10.916			-2.729
49800.000			10.916			-2.729
49900.000			10.917			-2.729
50001.000			10.917			-2.729
50101.000			10.916			-2.729
50201.000			10.916			-2.729
50301.000			10.915			-2.729
50400.000			10.915			-2.729
50500.000			10.915			-2.729
50601.000			10.914			-2.728
50700.000			10.913			-2.728
50800.000			10.913			-2.728
50902.000			10.913			-2.728
51001.000			10.913			-2.728
51100.000			10.912			-2.728
51201.000			10.913			-2.728
51300.000			10.912			-2.728
51400.000			10.912			-2.728
51501.000			10.913			-2.728
51601.000			10.912			-2.728
51701.000			10.911			-2.728
51801.000			10.911			-2.728
51900.000			10.911			-2.728
52000.000			10.910			-2.727
52101.000			10.910			-2.728
52200.000			10.910			-2.728
52300.000			10.910			-2.727
52402.000			10.909			-2.727
52501.000			10.909			-2.727
52601.000			10.908			-2.727
52700.000			10.909			-2.727
52800.000			10.907			-2.727
52901.000			10.908			-2.727
53000.000			10.908			-2.727
53100.000			10.907			-2.727
53202.000			10.907			-2.727
53301.000			10.907			-2.727
53400.000			10.907			-2.727
53501.000			10.906			-2.727
53600.000			10.906			-2.726
53700.000			10.906			-2.727
53801.000			10.907			-2.727
53900.000			10.906			-2.727
54001.000			10.906			-2.726
54102.000			10.906			-2.726
54200.000			10.904			-2.726
54300.000			10.904			-2.726
54401.000			10.903			-2.726
54500.000			10.904			-2.726
54600.000			10.903			-2.726
54701.000			10.903			-2.726
54801.000			10.903			-2.726
54901.000			10.903			-2.726
55001.000			10.902			-2.726
55100.000			10.902			-2.726
55200.000			10.901			-2.725
55301.000			10.902			-2.725
55400.000			10.902			-2.725
55500.000			10.901			-2.725
55602.000			10.901			-2.725
55701.000			10.900			-2.725
55801.000			10.900			-2.725
55900.000			10.901			-2.725
56000.000			10.900			-2.725
56101.000			10.900			-2.725
56200.000			10.898			-2.725
56300.000			10.898			-2.725
56402.000			10.898			-2.725
56501.000			10.899			-2.725
56600.000			10.898			-2.725
56701.000			10.898			-2.724
56800.000			10.898			-2.724
56900.000			10.897			-2.724
57001.000			10.897			-2.724
57100.000			10.897			-2.724
57201.000			10.896			-2.724
57302.000			10.897			-2.724
57400.000			10.897			-2.724
57500.000			10.896			-2.724
57601.000			10.896			-2.724
57700.000			10.896			-2.724
57800.000			10.896			-2.724
57901.000			10.894			-2.724
58001.000			10.894			-2.723
58101.000			10.894			-2.724
58201.000			10.895			-2.724
58300.000			10.894			-2.724
58400.000			10.894			-2.723
58501.000			10.894			-2.724
58600.000			10.892			-2.723
58700.000			10.892			-2.723
58802.000			10.892			-2.723
58901.000			10.893			-2.723
59002.000			10.893			-2.723
59100.000			10.892			-2.723
59200.000			10.892			-2.723
59301.000			10.893			-2.723
59400.000			10.892			-2.723
59500.000			10.891			-2.723
59601.000			10.891			-2.723
59701.000			10.891			-2.723
59801.000			10.891			-2.723
59901.000			10.890			-2.722
60000.000			10.890			-2.722
60100.000			10.890			-2.723
60201.000			10.889			-2.722
60300.000			10.888			-2.722
60400.000			10.888			-2.722
60502.000			10.888			-2.722
60601.000			10.888			-2.722
60700.000			10.889			-2.722
60801.000			10.889			-2.722
60900.000			10.887			-2.722
61000.000			10.887			-2.722
61101.000			10.887			-2.722
61200.000			10.887			-2.722
61301.000			10.887			-2.722
61402.000			10.887			-2.722
61500.000			10.886			-2.721
61600.000			10.885			-2.721
61701.000			10.885			-2.721
61800.000			10.885			-2.721
61900.000			10.885			-2.721
62000.000			10.884			-2.721
62101.000			10.884			-2.721
62202.000			10.884			-2.721
62300.000			10.884			-2.721
62400.000			10.884			-2.721
62501.000			10.883			-2.721
62600.000			10.883			-2.721
62700.000			10.882			-2.721
62801.000			10.882			-2.720
62901.000			10.882			-2.721
63001.000			10.883			-2.721
63101.000			10.883			-2.721
63200.000			10.883			-2.721
63300.000			10.882			-2.721
63401.000			10.882			-2.721
63500.000			10.882			-2.721
63600.000			10.881			-2.720
63702.000			10.881			-2.720
63801.000			10.880			-2.720
63900.000			10.879			-2.720
64001.000			10.880			-2.720
64100.000			10.881			-2.720
64200.000			10.880			-2.720
64301.000			10.879			-2.720
64400.000			10.880			-2.720
64501.000			10.879			-2.720
64602.000			10.879			-2.720
64700.000			10.879			-2.720
64800.000			10.878			-2.720
64901.000			10.879			-2.720
65000.000			10.878			-2.720
65100.000			10.877			-2.719
65200.000			10.877			-2.719
65301.000			10.877			-2.719
65402.000			10.877			-2.719
65500.000			10.877			-2.719
65600.000			10.877			-2.719
65701.000			10.876			-2.719
65800.000			10.876			-2.719
65900.000			10.876			-2.719
66001.000			10.876			-2.719
66100.000			10.876			-2.719
66201.000			10.876			-2.719
66302.000			10.876			-2.719
66400.000			10.875			-2.719
66500.000			10.875			-2.719
66601.000			10.874			-2.718
66700.000			10.874			-2.719
66800.000			10.874			-2.719
66901.000			10.874			-2.719
67001.000			10.874			-2.718
67101.000			10.873			-2.718
67201.000			10.873			-2.718
67300.000			10.873			-2.718
67400.000			10.872			-2.718
67501.000			10.873			-2.718
67600.000			10.872			-2.718
67700.000			10.872			-2.718
67802.000			10.872			-2.718
67901.000			10.872			-2.718
68000.000			10.872			-2.718
68101.000			10.870			-2.718
68200.000			10.871			-2.718
68300.000			10.871			-2.718
68400.000			10.870			-2.718
68500.000			10.871			-2.718
68602.000			10.870			-2.717
68701.000			10.870			-2.718
68801.000			10.869			-2.717
68901.000			10.869			-2.717
69000.000			10.870			-2.717
69100.000			10.870			-2.718
69201.000			10.869			-2.717
69300.000			10.868			-2.717
69400.000			10.869			-2.717
69502.000			10.869			-2.717
69601.000			10.868			-2.717
69700.000			10.868			-2.717
69801.000			10.868			-2.717
69900.000			10.868			-2.717
70000.000			10.868			-2.717
70101.000			10.868			-2.717
70200.000			10.867			-2.717
70301.000			10.867			-2.717
70402.000			10.866			-2.717
70501.000			10.865			-2.716
70600.000			10.865			-2.716
70701.000			10.864			-2.716
70800.000			10.864			-2.716
70900.000			10.865			-2.716
71001.000			10.866			-2.716
71101.000			10.865			-2.716
71201.000			10.865			-2.716
71302.000			10.865			-2.716
71400.000			10.864			-2.716
71500.000			10.864			-2.716
71600.000			10.864			-2.716
71700.000			10.864			-2.716
71801.000			10.863			-2.716
71900.000			10.864			-2.716
72001.000			10.864			-2.716
72102.000			10.863			-2.716
72200.000			10.863			-2.716
72300.000			10.862			-2.715
72401.000			10.863			-2.716
72500.000			10.862			-2.715
72600.000			10.861			-2.715
72701.000			10.861			-2.715
72801.000			10.861			-2.715
72901.000			10.861			-2.715
73001.000			10.862			-2.715
73100.000			10.861			-2.715
73200.000			10.860			-2.715
73301.000			10.860			-2.715
73400.000			10.861			-2.715
73500.000			10.860			-2.715
73602.000			10.860			-2.715
73701.000			10.860			-2.715
73800.000			10.859			-2.715
73901.000			10.859			-2.715
74000.000			10.859			-2.715
74100.000			10.859			-2.715
74201.000			10.859			-2.715
74300.000			10.859			-2.715
74401.000			10.858			-2.715
74502.000			10.857			-2.714
74600.000			10.858			-2.715
74700.000			10.858			-2.714
74800.000			10.858			-2.715
74900.000			10.857			-2.714
75001.000			10.857			-2.714
75100.000			10.857			-2.714
75201.000			10.855			-2.714
75302.000			10.856			-2.714
75401.000			10.856			-2.714
75500.000			10.856			-2.714
75601.000			10.856			-2.714
75700.000			10.856			-2.714
75800.000			10.855			-2.714
75901.000			10.854			-2.714
76000.000			10.855			-2.714
76101.000			10.855			-2.714
76202.000			10.855			-2.714
76300.000			10.854			-2.714
76400.000			10.854			-2.713
76501.000			10.854			-2.713
76600.000			10.854			-2.713
76700.000			10.854			-2.713
76801.000			10.854			-2.713
76901.000			10.854			-2.713
77001.000			10.854			-2.713
77101.000			10.853			-2.713
77200.000			10.852			-2.713
77300.000			10.852			-2.713
77401.000			10.852			-2.713
77500.000			10.851			-2.713
77600.000			10.851			-2.713
77702.000			10.852			-2.713
77801.000			10.852			-2.713
77900.000			10.851			-2.713
78000.000			10.851			-2.713
78100.000			10.850			-2.713
78201.000			10.851			-2.713
78300.000			10.851			-2.713
78400.000			10.850			-2.712
78502.000			10.850			-2.712
78601.000			10.850			-2.713
78700.000			10.849			-2.712
78801.000			10.850			-2.712
78900.000			10.850			-2.712
79000.000			10.849			-2.712
79101.000			10.849			-2.712
79200.000			10.848			-2.712
79300.000			10.848			-2.712
79402.000			10.848			-2.712
79501.000			10.849			-2.712
79600.000			10.847			-2.712
79701.000			10.848			-2.712
79800.000			10.847			-2.712
79900.000			10.847			-2.712
80001.000			10.847			-2.712
80100.000			10.848			-2.712
80201.000			10.848			-2.712
80302.000			10.847			-2.712
80400.000			10.847			-2.712
80500.000			10.847			-2.712
80601.000			10.846			-2.712
80700.000			10.847			-2.712
80800.000			10.847			-2.712
80901.000			10.846			-2.712
81001.000			10.846			-2.711
81102.000			10.847			-2.712
81201.000			10.846			-2.711
81300.000			10.846			-2.711
81401.000			10.845			-2.711
81500.000			10.844			-2.711
81600.000			10.843			-2.711
81701.000			10.843			-2.711
81800.000			10.844			-2.711
81901.000			10.845			-2.711
82002.000			10.843			-2.711
82100.000			10.844			-2.711
82200.000			10.844			-2.711
82301.000			10.844			-2.711
82400.000			10.843			-2.711
82500.000			10.843			-2.711
82601.000			10.843			-2.711
82701.000			10.843			-2.711
82801.000			10.843			-2.711
82901.000			10.842			-2.711
83000.000			10.843			-2.711
83100.000			10.842			-2.711
83201.000			10.841			-2.710
83300.000			10.841			-2.710
83400.000			10.842			-2.710
83502.000			10.842			-2.710
83601.000			10.841			-2.710
83700.000			10.840			-2.710
83801.000			10.840			-2.710
83900.000			10.840			-2.710
84000.000			10.841			-2.710
84101.000			10.841			-2.710
84200.000			10.841			-2.710
84302.000			10.841			-2.710
84401.000			10.841			-2.710
84500.000			10.840			-2.710
84601.000			10.839			-2.710
84700.000			10.839			-2.710
84800.000			10.840			-2.710
84901.000			10.840			-2.710
85000.000			10.839			-2.710
85101.000			10.839			-2.710
85202.000			10.839			-2.710
85300.000			10.839			-2.710
85400.000			10.839			-2.710
85501.000			10.837			-2.709
85600.000			10.837			-2.709
85700.000			10.837			-2.709
85801.000			10.838			-2.709
85901.000			10.838			-2.709
86001.000			10.837			-2.709
86102.000			10.837			-2.709
86200.000			10.837			-2.709
86300.000			10.837			-2.709
86401.000			10.837			-2.709
86500.000			10.837			-2.709
86600.000			10.836			-2.709
86701.000			10.835			-2.709
86801.000			10.836			-2.709
86901.000			10.836			-2.709
87001.000			10.836			-2.709
87100.000			10.835			-2.709
87200.000			10.835			-2.709
87301.000			10.835			-2.709
87400.000			10.834			-2.709
87500.000			10.834			-2.709
87602.000			10.835			-2.709
87701.000			10.833			-2.708
87801.000			10.834			-2.709
87900.000			10.835			-2.709
88000.000			10.834			-2.708
88101.000			10.834			-2.708
88200.000			10.834			-2.708
88300.000			10.834			-2.709
88402.000			10.833			-2.708
88501.000			10.833			-2.708
88600.000			10.833			-2.708
88701.000			10.833			-2.708
88800.000			10.833			-2.708
88900.000			10.833			-2.708
89001.000			10.833			-2.708
89100.000			10.832			-2.708
89200.000			10.833			-2.708
89302.000			10.832			-2.708
89401.000			10.831			-2.708
89500.000			10.831			-2.708
89601.000			10.831			-2.708
89700.000			10.832			-2.708
89800.000			10.832			-2.708
89901.000			10.832			-2.708
90000.000			10.830			-2.707
90101.000			10.831			-2.708
90202.000			10.831			-2.708
90300.000			10.830			-2.708
90400.000			10.831			-2.708
90501.000			10.830			-2.708
90600.000			10.830			-2.707
90700.000			10.829			-2.707
90800.000			10.830			-2.707
90901.000			10.830			-2.707
91002.000			10.829			-2.707
91100.000			10.829			-2.707
91200.000			10.829			-2.707
91301.000			10.828			-2.707
91400.000			10.828			-2.707
91500.000			10.828			-2.707
91601.000			10.828			-2.707
91701.000			10.828			-2.707
91801.000			10.828			-2.707
91901.000			10.828			-2.707
92000.000			10.827			-2.707
92100.000			10.827			-2.707
92201.000			10.828			-2.707
92300.000			10.828			-2.707
92400.000			10.827			-2.707
92502.000			10.828			-2.707
92601.000			10.827			-2.707
92700.000			10.826			-2.707
92801.000			10.826			-2.707
92900.000			10.826			-2.706
93000.000			10.827			-2.707
93101.000			10.826			-2.707
93200.000			10.826			-2.707
93301.000			10.826			-2.706
93402.000			10.826			-2.706
93501.000			10.825			-2.706
93600.000			10.825			-2.706
93701.000			10.825			-2.706
93800.000			10.825			-2.706
93900.000			10.824			-2.706
94000.000			10.824			-2.706
94100.000			10.824			-2.706
94202.000			10.825			-2.706
94301.000			10.825			-2.706
94400.000			10.824			-2.706
94501.000			10.823			-2.706
94600.000			10.823			-2.706
94700.000			10.824			-2.706
94801.000			10.824			-2.706
94900.000			10.822			-2.705
95001.000			10.823			-2.706
95102.000			10.823			-2.706
95200.000			10.823			-2.706
95300.000			10.822			-2.706
95401.000			10.821			-2.705
95500.000			10.821			-2.705
95600.000			10.822			-2.706
95701.000			10.822			-2.705
95801.000			10.822			-2.705
95901.000			10.821			-2.705
96001.000			10.821			-2.705
96100.000			10.821			-2.705
96200.000			10.821			-2.705
96301.000			10.821			-2.705
96400.000			10.819			-2.705
96500.000			10.820			-2.705
96602.000			10.820			-2.705
96701.000			10.820			-2.705
96800.000			10.819			-2.705
96901.000			10.820			-2.705
97000.000			10.819			-2.705
97100.000			10.818			-2.704
97200.000			10.818			-2.704
97300.000			10.818			-2.705
97402.000			10.819			-2.705
97501.000			10.819			-2.705
97601.000			10.819			-2.705
97701.000			10.819			-2.705
97800.000			10.819			-2.705
97900.000			10.819			-2.705
98001.000			10.818			-2.705
98100.000			10.817			-2.704
98200.000			10.817			-2.704
98302.000			10.817			-2.704
98401.000			10.818			-2.704
98500.000			10.817			-2.704
98601.000			10.817			-2.704
98700.000			10.817			-2.704
98800.000			10.816			-2.704
98901.000			10.817			-2.704
99000.000			10.818			-2.704
99101.000			10.817			-2.704
99202.000			10.816			-2.704
99300.000			10.816			-2.704
99400.000			10.816			-2.704
99501.000			10.816			-2.704
99600.000			10.815			-2.704
99700.000			10.816			-2.704
99801.000			10.817			-2.704
99900.000			10.816			-2.704
100001.000			10.816			-2.704
100102.000			10.814			-2.704
100200.000			10.814			-2.704
100300.000			10.814			-2.704
100400.000			10.814			-2.703
100500.000			10.814			-2.703
100601.000			10.814			-2.704
100700.000			10.814			-2.703
100801.000			10.813			-2.703
100902.000			10.813			-2.703
101000.000			10.814			-2.703
101100.000			10.813			-2.703
101201.000			10.812			-2.703
101300.000			10.813			-2.703
101400.000			10.812			-2.703
101501.000			10.813			-2.703
101601.000			10.814			-2.703
101701.000			10.813			-2.703
101801.000			10.813			-2.703
101900.000			10.813			-2.703
102000.000			10.812			-2.703
102101.000			10.812			-2.703
102200.000			10.812			-2.703
102300.000			10.811			-2.703
102402.000			10.811			-2.703
102501.000			10.811			-2.703
102600.000			10.812			-2.703
102701.000			10.812			-2.703
102800.000			10.811			-2.703
102900.000			10.811			-2.703
103001.000			10.811			-2.703
103100.000			10.811			-2.703
103201.000			10.811			-2.703
103302.000			10.811			-2.703
103400.000			10.811			-2.703
103500.000			10.811			-2.703
103600.000			10.810			-2.702
103700.000			10.810			-2.702
103801.000			10.809			-2.702
103900.000			10.809			-2.702
104001.000			10.810			-2.703
104102.000			10.810			-2.702
104200.000			10.808			-2.702
104300.000			10.808			-2.702
104401.000			10.808			-2.702
104500.000			10.809			-2.702
104600.000			10.809			-2.702
104701.000			10.808			-2.702
104801.000			10.807			-2.702
104901.000			10.807			-2.702
105002.000			10.807			-2.702
105100.000			10.808			-2.702
105200.000			10.808			-2.702
105301.000			10.807			-2.702
105400.000			10.807			-2.702
105500.000			10.807			-2.702
105601.000			10.808			-2.702
105701.000			10.807			-2.702
105801.000			10.807			-2.702
105901.000			10.806			-2.702
106000.000			10.807			-2.702
106100.000			10.806			-2.702
106201.000			10.806			-2.701
106300.000			10.806			-2.701
106400.000			10.806			-2.702
106502.000			10.806			-2.701
106601.000			10.805			-2.701
106700.000			10.805			-2.701
106800.000			10.804			-2.701
106900.000			10.804			-2.701
107001.000			10.804			-2.701
107100.000			10.804			-2.701
107200.000			10.805			-2.701
107302.000			10.804			-2.701
107401.000			10.804			-2.701
107500.000			10.804			-2.701
107601.000			10.804			-2.701
107700.000			10.805			-2.701
107800.000			10.804			-2.701
107901.000			10.804			-2.701
108000.000			10.804			-2.701
108100.000			10.804			-2.701
108202.000			10.803			-2.701
108301.000			10.803			-2.701
108400.000			10.802			-2.701
108501.000			10.803			-2.701
108600.000			10.803			-2.701
108700.000			10.803			-2.701
108801.000			10.802			-2.701
108900.000			10.802			-2.701
109001.000			10.802			-2.701
109102.000			10.802			-2.701
109200.000			10.802			-2.700
109300.000			10.801			-2.700
109401.000			10.801			-2.700
109500.000			10.801			-2.700
109600.000			10.800			-2.700
109701.000			10.801			-2.700
109801.000			10.802			-2.700
109902.000			10.801			-2.700
110000.000			10.801			-2.700
110100.000			10.800			-2.700
110201.000			10.801			-2.700
110300.000			10.801			-2.700
110400.000			10.800			-2.700
110501.000			10.800			-2.700
110601.000			10.801			-2.700
110701.000			10.801			-2.700
110801.000			10.800			-2.700
110900.000			10.800			-2.700
111000.000			10.800			-2.700
111101.000			10.800			-2.700
111200.000			10.799			-2.700
111300.000			10.799			-2.700
111402.000			10.799			-2.700
111501.000			10.799			-2.700
111600.000			10.800			-2.700
111701.000			10.799			-2.700
111800.000			10.798			-2.700
111900.000			10.798			-2.699
112001.000			10.798			-2.700
112100.000			10.798			-2.699
112200.000			10.798			-2.700
112302.000			10.798			-2.699
112401.000			10.797			-2.699
112500.000			10.798			-2.700
112601.000			10.798			-2.699
112700.000			10.797			-2.699
112800.000			10.798			-2.699
112901.000			10.797			-2.699
113000.000			10.796			-2.699
113102.000			10.797			-2.699
113201.000			10.797			-2.699
113300.000			10.796			-2.699
113401.000			10.796			-2.699
113500.000			10.798			-2.700
113600.000			10.797			-2.699
113701.000			10.796			-2.699
113800.000			10.796			-2.699
113900.000			10.795			-2.699
114002.000			10.794			-2.699
114101.000			10.796			-2.699
114200.000			10.796			-2.699
114301.000			10.796			-2.699
114400.000			10.795			-2.699
114500.000			10.794			-2.699
114601.000			10.794			-2.698
114700.000			10.794			-2.699
114800.000			10.795			-2.699
114902.000			10.797			-2.699
115001.000			10.795			-2.699
115100.000			10.793			-2.698
115201.000			10.793			-2.698
115300.000			10.794			-2.698
115400.000			10.793			-2.698
115501.000			10.794			-2.698
115600.000			10.794			-2.698
115701.000			10.793			-2.698
115802.000			10.793			-2.698
115900.000			10.794			-2.698
116000.000			10.794			-2.698
116101.000			10.793			-2.698
116200.000			10.793			-2.698
116300.000			10.792			-2.698
116400.000			10.792			-2.698
116500.000			10.792			-2.698
116602.000			10.793			-2.698
116701.000			10.793			-2.698
116800.000			10.794			-2.698
116901.000			10.793			-2.698
117000.000			10.792			-2.698
117100.000			10.792			-2.698
117201.000			10.792			-2.698
117300.000			10.793			-2.698
117401.000			10.791			-2.698
117502.000			10.791			-2.698
117600.000			10.791			-2.698
117700.000			10.791			-2.698
117801.000			10.792			-2.698
117900.000			10.791			-2.698
118000.000			10.792			-2.698
118101.000			10.791			-2.698
118200.000			10.790			-2.698
118301.000			10.790			-2.697
118402.000			10.790			-2.697
118500.000			10.789			-2.697
118600.000			10.789			-2.697
118701.000			10.790			-2.697
118800.000			10.790			-2.697
118900.000			10.789			-2.697
119001.000			10.789			-2.697
119101.000			10.789			-2.697
119201.000			10.789			-2.697
119302.000			10.789			-2.697
119400.000			10.790			-2.697
119500.000			10.789			-2.697
119600.000			10.789			-2.697
119700.000			10.789			-2.697
119801.000			10.789			-2.697
119900.000			10.789			-2.697
120001.000			10.789			-2.697
120102.000			10.789			-2.697
120201.000			10.788			-2.697
120300.000			10.788			-2.697
120401.000			10.787			-2.697
120500.000			10.787			-2.697
120600.000			10.787			-2.697
120701.000			10.787			-2.697
120800.000			10.787			-2.697
120901.000			10.787			-2.697
121002.000			10.787			-2.697
121100.000			10.787			-2.697
121200.000			10.787			-2.697
121301.000			10.787			-2.697
121400.000			10.787			-2.697
121500.000			10.785			-2.696
121601.000			10.786			-2.696
121701.000			10.786			-2.696
121801.000			10.786			-2.697
121901.000			10.786			-2.696
122000.000			10.785			-2.696
122100.000			10.786			-2.696
122201.000			10.785			-2.696
122300.000			10.785			-2.696
122400.000			10.785			-2.696
122501.000			10.785			-2.696
122601.000			10.785			-2.696
122702.000			10.784			-2.696
122800.000			10.784			-2.696
122900.000			10.784			-2.696
123001.000			10.784			-2.696
123100.000			10.784			-2.696
123200.000			10.783			-2.696
123301.000			10.785			-2.696
123401.000			10.785			-2.696
123501.000			10.784			-2.696
123601.000			10.783			-2.696
123700.000			10.784			-2.696
123800.000			10.785			-2.696
123901.000			10.785			-2.696
124000.000			10.784			-2.696
124100.000			10.782			-2.696
124202.000			10.783			-2.696
124301.000			10.783			-2.696
124401.000			10.782			-2.696
124501.000			10.782			-2.695
124600.000			10.782			-2.696
124700.000			10.783			-2.696
124801.000			10.783			-2.696
124900.000			10.783			-2.696
125000.000			10.783			-2.696
125102.000			10.782			-2.695
125201.000			10.781			-2.695
125300.000			10.781			-2.695
125401.000			10.781			-2.695
125500.000			10.781			-2.695
125600.000			10.781			-2.695
125701.000			10.781			-2.695
125800.000			10.782			-2.695
125900.000			10.781			-2.695
126002.000			10.780			-2.695
126101.000			10.780			-2.695
126201.000			10.780			-2.695
126300.000			10.780			-2.695
126400.000			10.781			-2.695
126501.000			10.781			-2.695
126600.000			10.780			-2.695
126700.000			10.780			-2.695
126802.000			10.780			-2.695
126901.000			10.780			-2.695
127000.000			10.780			-2.695
127101.000			10.779			-2.695
127200.000			10.780			-2.695
127300.000			10.780			-2.695
127401.000			10.779			-2.695
127500.000			10.779			-2.695
127600.000			10.779			-2.695
127702.000			10.779			-2.695
127801.000			10.779			-2.695
127900.000			10.778			-2.695
128001.000			10.778			-2.695
128100.000			10.778			-2.695
128200.000			10.778			-2.695
128301.000			10.778			-2.695
128400.000			10.778			-2.694
128501.000			10.779			-2.695
128602.000			10.778			-2.695
128701.000			10.778			-2.694
128800.000			10.778			-2.694
128901.000			10.778			-2.694
129000.000			10.777			-2.694
129100.000			10.777			-2.694
129200.000			10.777			-2.694
129300.000			10.777			-2.694
129402.000			10.777			-2.694
129501.000			10.777			-2.694
129601.000			10.777			-2.694
129701.000			10.778			-2.694
129800.000			10.776			-2.694
129900.000			10.776			-2.694
130001.000			10.775			-2.694
130100.000			10.776			-2.694
130200.000			10.775			-2.694
130302.000			10.776			-2.694
130401.000			10.776			-2.694
130500.000			10.776			-2.694
130601.000			10.776			-2.694
130700.000			10.776			-2.694
130800.000			10.776			-2.694
130901.000			10.775			-2.694
131000.000			10.774			-2.694
131100.000			10.775			-2.694
131202.000			10.774			-2.694
131301.000			10.774			-2.694
131400.000			10.774			-2.693
131501.000			10.774			-2.693
131600.000			10.774			-2.694
131700.000			10.775			-2.694
131801.000			10.773			-2.693
131900.000			10.773			-2.693
132000.000			10.774			-2.693
132102.000			10.773			-2.693
132201.000			10.773			-2.693
132300.000			10.774			-2.693
132400.000			10.774			-2.693
132500.000			10.774			-2.693
132601.000			10.773			-2.693
132700.000			10.773			-2.693
132800.000			10.773			-2.693
132901.000			10.773			-2.693
133001.000			10.772			-2.693
133101.000			10.771			-2.693
133201.000			10.771			-2.693
133300.000			10.771			-2.693
133400.000			10.773			-2.693
133501.000			10.772			-2.693
133600.000			10.772			-2.693
133700.000			10.771			-2.693
133801.000			10.771			-2.693
133901.000			10.771			-2.693
134001.000			10.771			-2.693
134102.000			10.771			-2.693
134200.000			10.770			-2.693
134300.000			10.770			-2.692
134401.000			10.769			-2.692
134500.000			10.769			-2.692
134600.000			10.770			-2.692
134701.000			10.770			-2.693
134800.000			10.770			-2.693
134901.000			10.770			-2.693
135002.000			10.770			-2.692
135100.000			10.770			-2.693
135200.000			10.770			-2.693
135301.000			10.771			-2.693
135400.000			10.770			-2.693
135500.000			10.770			-2.692
135600.000			10.770			-2.692
135700.000			10.770			-2.693
135802.000			10.770			-2.693
135901.000			10.769			-2.692
136000.000			10.769			-2.692
136101.000			10.770			-2.692
136200.000			10.769			-2.692
136300.000			10.769			-2.692
136401.000			10.769			-2.692
136500.000			10.768			-2.692
136600.000			10.767			-2.692
136702.000			10.768			-2.692
136801.000			10.768			-2.692
136901.000			10.768			-2.692
137001.000			10.768			-2.692
137100.000			10.768			-2.692
137200.000			10.769			-2.692
137301.000			10.768			-2.692
137400.000			10.768			-2.692
137500.000			10.766			-2.692
137601.000			10.767			-2.692
137701.000			10.767			-2.692
137801.000			10.766			-2.692
137901.000			10.768			-2.692
138000.000			10.768			-2.692
138100.000			10.767			-2.692
138201.000			10.766			-2.691
138300.000			10.766			-2.692
138400.000			10.767			-2.692
138501.000			10.767			-2.692
138601.000			10.766			-2.691
138702.000			10.766			-2.691
138801.000			10.766			-2.692
138900.000			10.766			-2.692
139001.000			10.766			-2.692
139100.000			10.766			-2.692
139200.000			10.766			-2.691
139301.000			10.766			-2.692
139400.000			10.765			-2.691
139500.000			10.765			-2.691
139602.000			10.766			-2.691
139701.000			10.765			-2.691
139801.000			10.765			-2.691
139901.000			10.765			-2.691
140000.000			10.765			-2.691
140100.000			10.765			-2.691
140201.000			10.765			-2.691
140300.000			10.765			-2.691
140400.000			10.764			-2.691
140502.000			10.765			-2.691
140601.000			10.764			-2.691
140701.000			10.764			-2.691
140801.000			10.763			-2.691
140900.000			10.763			-2.691
141000.000			10.763			-2.691
141101.000			10.763			-2.691
141200.000			10.764			-2.691
141300.000			10.764			-2.691
141402.000			10.764			-2.691
141501.000			10.763			-2.691
141601.000			10.763			-2.691
141701.000			10.764			-2.691
141800.000			10.764			-2.691
141900.000			10.763			-2.691
142000.000			10.762			-2.691
142100.000			10.761			-2.690
142201.000			10.762			-2.690
142300.000			10.763			-2.691
142401.000			10.764			-2.691
142502.000			10.762			-2.691
142600.000			10.762			-2.690
142700.000			10.761			-2.690
142801.000			10.762			-2.691
142900.000			10.762			-2.691
143000.000			10.762			-2.690
143101.000			10.761			-2.690
143200.000			10.761			-2.690
143301.000			10.761			-2.690
143402.000			10.762			-2.691
143500.000			10.762			-2.690
143600.000			10.762			-2.690
143701.000			10.761			-2.690
143800.000			10.761			-2.690
143900.000			10.762			-2.690
144001.000			10.762			-2.690
144100.000			10.762			-2.690
144201.000			10.761			-2.690
144302.000			10.760			-2.690
144400.000			10.760			-2.690
144500.000			10.761			-2.690
144601.000			10.760			-2.690
144700.000			10.760			-2.690
144800.000			10.761			-2.690
144901.000			10.761			-2.690
145000.000			10.760			-2.690
145102.000			10.759			-2.690
145201.000			10.759			-2.690
145300.000			10.759			-2.690
145401.000			10.760			-2.690
145500.000			10.760			-2.690
145600.000			10.759			-2.690
145701.000			10.759			-2.690
145800.000			10.760			-2.690
145900.000			10.760			-2.690
146001.000			10.760			-2.690
146101.000			10.759			-2.690
146201.000			10.758			-2.689
146301.000			10.758			-2.690
146400.000			10.759			-2.690
146500.000			10.758			-2.690
146601.000			10.758			-2.689
146700.000			10.758			-2.690
146800.000			10.758			-2.690
146901.000			10.758			-2.689
147001.000			10.758			-2.690
147101.000			10.757			-2.689
147202.000			10.758			-2.690
147300.000			10.758			-2.689
147400.000			10.757			-2.689
147501.000			10.757			-2.689
147600.000			10.757			-2.689
147700.000			10.758			-2.689
147801.000			10.757			-2.689
147900.000			10.758			-2.689
148001.000			10.758			-2.689
148102.000			10.757			-2.689
148200.000			10.757			-2.689
148300.000			10.757			-2.689
148400.000			10.757			-2.689
148500.000			10.757			-2.689
148601.000			10.757			-2.689
148700.000			10.756			-2.689
148800.000			10.756			-2.689
148901.000			10.755			-2.689
149001.000			10.756			-2.689
149101.000			10.756			-2.689
149201.000			10.757			-2.689
149300.000			10.757			-2.689
149400.000			10.755			-2.689
149501.000			10.755			-2.689
149600.000			10.756			-2.689
149700.000			10.755			-2.689
149801.000			10.755			-2.689
149901.000			10.755			-2.689
150001.000			10.756			-2.689
150102.000			10.755			-2.689
150200.000			10.754			-2.688
150300.000			10.755			-2.689
150401.000			10.755			-2.689
150500.000			10.755			-2.689
150600.000			10.755			-2.689
150701.000			10.754			-2.689
150801.000			10.755			-2.689
150901.000			10.755			-2.689
151002.000			10.754			-2.688
151100.000			10.753			-2.688
151200.000			10.753			-2.688
151301.000			10.754			-2.688
151400.000			10.754			-2.688
151500.000			10.753			-2.688
151600.000			10.753			-2.688
151700.000			10.753			-2.688
151802.000			10.753			-2.688
151901.000			10.753			-2.688
152000.000			10.753			-2.688
152101.000			10.753			-2.688
152200.000			10.753			-2.688
152300.000			10.752			-2.688
152401.000			10.752			-2.688
152500.000			10.753			-2.688
152600.000			10.753			-2.688
152702.000			10.752			-2.688
152801.000			10.752			-2.688
152900.000			10.751			-2.688
153001.000			10.752			-2.688
153100.000			10.752			-2.688
153200.000			10.753			-2.688
153301.000			10.752			-2.688
153400.000			10.751			-2.688
153500.000			10.751			-2.688
153602.000			10.752			-2.688
153701.000			10.751			-2.688
153801.000			10.751			-2.688
153901.000			10.751			-2.688
154000.000			10.751			-2.688
154100.000			10.751			-2.688
154201.000			10.750			-2.688
154300.000			10.751			-2.688
154400.000			10.751			-2.688
154502.000			10.750			-2.688
154601.000			10.751			-2.688
154702.000			10.751			-2.688
154800.000			10.751			-2.688
154900.000			10.750			-2.688
155001.000			10.751			-2.688
155100.000			10.751			-2.688
155200.000			10.750			-2.687
155301.000			10.750			-2.687
155400.000			10.749			-2.687
155501.000			10.750			-2.687
155602.000			10.749			-2.687
155700.000			10.749			-2.687
155800.000			10.749			-2.687
155901.000			10.748			-2.687
156000.000			10.749			-2.687
156100.000			10.749			-2.687
156201.000			10.749			-2.687
156300.000			10.748			-2.687
156401.000			10.748			-2.687
156502.000			10.748			-2.687
156601.000			10.749			-2.687
156700.000			10.748			-2.687
156801.000			10.749			-2.687
156900.000			10.749			-2.687
157000.000			10.749			-2.687
157101.000			10.749			-2.687
157200.000			10.748			-2.687
157300.000			10.748			-2.687
157402.000			10.747			-2.687
157501.000			10.748			-2.687
157600.000			10.747			-2.687
157701.000			10.748			-2.687
157800.000			10.747			-2.687
157900.000			10.748			-2.687
158000.000			10.749			-2.687
158100.000			10.749			-2.687
158201.000			10.747			-2.687
158301.000			10.747			-2.687
158401.000			10.747			-2.687
158502.000			10.746			-2.687
158600.000			10.747			-2.687
158700.000			10.746			-2.687
158801.000			10.746			-2.687
158900.000			10.747			-2.687
159000.000			10.746			-2.687
159101.000			10.746			-2.686
159200.000			10.745			-2.686
159301.000			10.746			-2.686
159402.000			10.747			-2.687
159500.000			10.746			-2.687
159600.000			10.746			-2.686
159701.000			10.745			-2.686
159800.000			10.745			-2.686
159900.000			10.746			-2.686
160001.000			10.745			-2.686
160100.000			10.745			-2.686
160201.000			10.746			-2.686
160302.000			10.745			-2.686
160401.000			10.745			-2.686
160500.000			10.744			-2.686
160601.000			10.744			-2.686
160700.000			10.745			-2.686
160800.000			10.745			-2.686
160901.000			10.744			-2.686
161000.000			10.743			-2.686
161100.000			10.744			-2.686
161202.000			10.744			-2.686
161301.000			10.744			-2.686
161401.000			10.745			-2.686
161500.000			10.744			-2.686
161600.000			10.744			-2.686
161701.000			10.743			-2.686
161800.000			10.742			-2.686
161900.000			10.744			-2.686
162001.000			10.744			-2.686
162101.000			10.742			-2.686
162201.000			10.742			-2.685
162301.000			10.743			-2.686
162400.000			10.743			-2.686
162500.000			10.743			-2.686
162601.000			10.743			-2.686
162700.000			10.742			-2.686
162800.000			10.742			-2.686
162901.000			10.742			-2.686
163001.000			10.742			-2.685
163101.000			10.741			-2.685
163201.000			10.742			-2.686
163300.000			10.742			-2.686
163400.000			10.742			-2.686
163501.000			10.741			-2.685
163600.000			10.741			-2.685
163700.000			10.741			-2.685
163801.000			10.741			-2.685
163901.000			10.741			-2.685
164001.000			10.741			-2.685
164101.000			10.740			-2.685
164200.000			10.741			-2.685
164300.000			10.742			-2.686
164400.000			10.742			-2.686
164500.000			10.742			-2.685
164601.000			10.741			-2.685
164700.000			10.741			-2.685
164801.000			10.741			-2.685
164902.000			10.740			-2.685
165000.000			10.740			-2.685
165100.000			10.741			-2.685
165201.000			10.742			-2.685
165300.000			10.741			-2.685
165400.000			10.740			-2.685
165501.000			10.740			-2.685
165600.000			10.740			-2.685
165701.000			10.740			-2.685
165802.000			10.740			-2.685
165901.000			10.740			-2.685
166000.000			10.739			-2.685
166101.000			10.740			-2.685
166200.000			10.739			-2.685
166300.000			10.739			-2.685
166401.000			10.739			-2.685
166500.000			10.740			-2.685
166600.000			10.739			-2.685
166702.000			10.738			-2.685
166801.000			10.739			-2.685
166900.000			10.739			-2.685
167001.000			10.739			-2.685
167100.000			10.739			-2.685
167200.000			10.739			-2.685
167301.000			10.739			-2.685
167400.000			10.739			-2.685
167500.000			10.739			-2.685
167600.000			10.738			-2.685
167701.000			10.737			-2.684
167802.000			10.737			-2.684
167901.000			10.737			-2.684
168000.000			10.737			-2.684
168101.000			10.738			-2.685
168200.000			10.739			-2.685
168300.000			10.738			-2.684
168401.000			10.737			-2.684
168500.000			10.738			-2.685
168601.000			10.739			-2.685
168702.000			10.739			-2.685
168801.000			10.738			-2.684
168900.000			10.737			-2.684
169001.000			10.737			-2.684
169100.000			10.737			-2.684
169200.000			10.738			-2.684
169301.000			10.737			-2.684
169400.000			10.736			-2.684
169500.000			10.736			-2.684
169602.000			10.735			-2.684
169701.000			10.737			-2.684
169800.000			10.737			-2.684
169901.000			10.736			-2.684
170000.000			10.737			-2.684
170100.000			10.737			-2.684
170201.000			10.737			-2.684
170300.000			10.737			-2.684
170400.000			10.736			-2.684
170502.000			10.736			-2.684
170601.000			10.736			-2.684
170702.000			10.736			-2.684
170800.000			10.736			-2.684
170900.000			10.735			-2.684
171001.000			10.735			-2.684
171100.000			10.735			-2.684
171200.000			10.735			-2.684
171301.000			10.735			-2.684
171401.000			10.735			-2.684
171501.000			10.734			-2.684
171602.000			10.735			-2.684
171700.000			10.736			-2.684
171800.000			10.735			-2.684
171901.000			10.735			-2.684
172000.000			10.736			-2.684
172100.000			10.735			-2.684
172201.000			10.734			-2.683
172300.000			10.733			-2.683
172401.000			10.733			-2.683
172502.000			10.734			-2.683
172600.000			10.735			-2.684
172700.000			10.734			-2.684
172801.000			10.734			-2.683
172900.000			10.734			-2.683
173000.000			10.734			-2.683
173101.000			10.734			-2.684
173200.000			10.734			-2.684
173301.000			10.734			-2.684
173402.000			10.733			-2.683
173500.000			10.733			-2.683
173600.000			10.733			-2.683
173701.000			10.733			-2.683
173800.000			10.732			-2.683
173900.000			10.732			-2.683
174000.000			10.732			-2.683
174100.000			10.733			-2.683
174202.000			10.733			-2.683
174301.000			10.734			-2.683
174400.000			10.733			-2.683
174501.000			10.732			-2.683
174600.000			10.733			-2.683
174700.000			10.733			-2.683
174801.000			10.732			-2.683
174900.000			10.732			-2.683
175000.000			10.731			-2.683
175102.000			10.731			-2.683
175201.000			10.732			-2.683
175301.000			10.732			-2.683
175401.000			10.731			-2.683
175500.000			10.731			-2.683
175600.000			10.730			-2.683
175701.000			10.731			-2.683
175800.000			10.732			-2.683
175900.000			10.731			-2.683
176001.000			10.730			-2.682
176101.000			10.730			-2.683
176201.000			10.730			-2.682
176301.000			10.730			-2.683
176400.000			10.730			-2.683
176500.000			10.730			-2.683
176601.000			10.730			-2.683
176700.000			10.731			-2.683
176800.000			10.730			-2.683
176901.000			10.730			-2.683
177001.000			10.731			-2.683
177102.000			10.730			-2.683
177200.000			10.730			-2.682
177300.000			10.730			-2.682
177401.000			10.730			-2.683
177500.000			10.730			-2.683
177600.000			10.730			-2.683
177701.000			10.730			-2.683
177800.000			10.730			-2.683
177901.000			10.729			-2.682
178002.000			10.730			-2.682
178101.000			10.730			-2.682
178200.000			10.730			-2.683
178301.000			10.730			-2.683
178400.000			10.729			-2.682
178500.000			10.729			-2.682
178601.000			10.729			-2.682
178700.000			10.729			-2.682
178800.000			10.729			-2.682
178902.000			10.729			-2.682
179001.000			10.729			-2.682
179100.000			10.729			-2.682
179201.000			10.730			-2.682
179300.000			10.729			-2.682
179400.000			10.728			-2.682
179501.000			10.728			-2.682
179600.000			10.729			-2.682
179700.000			10.728			-2.682
179802.000			10.728			-2.682
179901.000			10.728			-2.682
180001.000			10.728			-2.682
180101.000			10.727			-2.682
180200.000			10.727			-2.682
180300.000			10.727			-2.682
180400.000			10.727			-2.682
180500.000			10.727			-2.682
180601.000			10.728			-2.682
180700.000			10.727			-2.682
180801.000			10.727			-2.682
180902.000			10.728			-2.682
181000.000			10.727			-2.682
181100.000			10.727			-2.682
181201.000			10.727			-2.682
181300.000			10.727			-2.682
181400.000			10.727			-2.682
181501.000			10.727			-2.682
181600.000			10.726			-2.682
181701.000			10.727			-2.682
181802.000			10.727			-2.682
181900.000			10.727			-2.682
182000.000			10.726			-2.682
182101.000			10.726			-2.682
182200.000			10.726			-2.682
182300.000			10.727			-2.682
182401.000			10.727			-2.682
182500.000			10.725			-2.681
182601.000			10.725			-2.681
182702.000			10.726			-2.682
182801.000			10.725			-2.681
182900.000			10.726			-2.682
183001.000			10.726			-2.682
183100.000			10.726			-2.681
183200.000			10.726			-2.681
183301.000			10.726			-2.681
183400.000			10.725			-2.681
183500.000			10.725			-2.681
183602.000			10.725			-2.681
183701.000			10.726			-2.681
183801.000			10.725			-2.681
183900.000			10.725			-2.681
184000.000			10.725			-2.681
184101.000			10.725			-2.681
184200.000			10.725			-2.681
184300.000			10.723			-2.681
184401.000			10.724			-2.681
184501.000			10.724			-2.681
184601.000			10.724			-2.681
184701.000			10.724			-2.681
184800.000			10.724			-2.681
184900.000			10.723			-2.681
185001.000			10.723			-2.681
185100.000			10.724			-2.681
185200.000			10.724			-2.681
185301.000			10.724			-2.681
185401.000			10.723			-2.681
185501.000			10.723			-2.681
185602.000			10.724			-2.681
185700.000			10.723			-2.681
185800.000			10.723			-2.681
185901.000			10.723			-2.681
186000.000			10.722			-2.680
186100.000			10.723			-2.681
186201.000			10.723			-2.681
186301.000			10.723			-2.681
186401.000			10.723			-2.681
186502.000			10.723			-2.681
186600.000			10.721			-2.680
186700.000			10.722			-2.680
186800.000			10.723			-2.681
186900.000			10.722			-2.680
187001.000			10.722			-2.680
187100.000			10.721			-2.680
187200.000			10.721			-2.680
187302.000			10.720			-2.680
187401.000			10.721			-2.680
187500.000			10.721			-2.680
187601.000			10.722			-2.681
187700.000			10.722			-2.681
187800.000			10.722			-2.680
187901.000			10.721			-2.680
188000.000			10.721			-2.680
188100.000			10.722			-2.681
188202.000			10.722			-2.681
188301.000			10.722			-2.680
188401.000			10.721			-2.680
188501.000			10.721			-2.680
188600.000			10.720			-2.680
188700.000			10.720			-2.680
188801.000			10.721			-2.680
188900.000			10.721			-2.680
189000.000			10.720			-2.680
189101.000			10.720			-2.680
189201.000			10.720			-2.680
189301.000			10.721			-2.680
189401.000			10.721			-2.680
189500.000			10.720			-2.680
189600.000			10.720			-2.680
189701.000			10.720			-2.680
189800.000			10.720			-2.680
189900.000			10.720			-2.680
190000.000			10.720			-2.680
190101.000			10.719			-2.680
190202.000			10.719			-2.680
190301.000			10.719			-2.680
190400.000			10.719			-2.680
190501.000			10.719			-2.680
190600.000			10.719			-2.680
190700.000			10.719			-2.680
190801.000			10.721			-2.680
190900.000			10.719			-2.680
191000.000			10.718			-2.680
191102.000			10.719			-2.680
191201.000			10.720			-2.680
191300.000			10.719			-2.680
191401.000			10.719			-2.680
191500.000			10.719			-2.680
191600.000			10.718			-2.679
191701.000			10.718			-2.680
191800.000			10.718			-2.680
191900.000			10.718			-2.680
192002.000			10.718			-2.679
192101.000			10.717			-2.679
192201.000			10.718			-2.679
192301.000			10.718			-2.679
192400.000			10.718			-2.679
192500.000			10.718			-2.680
192601.000			10.718			-2.679
192700.000			10.717			-2.679
192800.000			10.718			-2.679
192901.000			10.718			-2.679
193001.000			10.718			-2.680
193102.000			10.717			-2.679
193200.000			10.718			-2.679
193300.000			10.717			-2.679
193401.000			10.717			-2.679
193500.000			10.716			-2.679
193600.000			10.717			-2.679
193701.000			10.717			-2.679
193800.000			10.718			-2.680
193901.000			10.718			-2.679
194002.000			10.717			-2.679
194101.000			10.717			-2.679
194200.000			10.717			-2.679
194301.000			10.716			-2.679
194400.000			10.718			-2.679
194500.000			10.716			-2.679
194601.000			10.716			-2.679
194700.000			10.716			-2.679
194800.000			10.717			-2.679
194902.000			10.716			-2.679
195001.000			10.716			-2.679
195100.000			10.715			-2.679
195201.000			10.716			-2.679
195300.000			10.716			-2.679
195400.000			10.716			-2.679
195501.000			10.715			-2.679
195600.000			10.715			-2.679
195700.000			10.715			-2.679
195802.000			10.716			-2.679
195901.000			10.716			-2.679
196000.000			10.717			-2.679
196101.000			10.716			-2.679
196200.000			10.715			-2.679
196300.000			10.715			-2.679
196400.000			10.716			-2.679
196500.000			10.715			-2.679
196601.000			10.716			-2.679
196701.000			10.714			-2.679
196801.000			10.714			-2.679
196902.000			10.715			-2.679
197000.000			10.715			-2.679
197100.000			10.715			-2.679
197201.000			10.715			-2.679
197300.000			10.714			-2.679
197400.000			10.715			-2.679
197501.000			10.714			-2.679
197600.000			10.714			-2.678
197701.000			10.715			-2.679
197802.000			10.714			-2.679
197901.000			10.714			-2.678
198000.000			10.714			-2.678
198101.000			10.713			-2.678
198200.000			10.714			-2.678
198300.000			10.715			-2.679
198401.000			10.714			-2.679
198500.000			10.714			-2.678
198600.000			10.714			-2.679
198702.000			10.714			-2.678
198801.000			10.714			-2.679
198900.000			10.714			-2.679
199001.000			10.714			-2.679
199100.000			10.714			-2.678
199200.000			10.713			-2.678
199301.000			10.713			-2.678
199400.000			10.712			-2.678
199500.000			10.713			-2.678
199602.000			10.712			-2.678
199701.000			10.712			-2.678
199802.000			10.712			-2.678
199900.000			10.712			-2.678
200000.000			10.712			-2.678
200101.000			10.712			-2.678
200200.000			10.712			-2.678
200300.000			10.712			-2.678
200401.000			10.712			-2.678
200501.000			10.713			-2.678
200601.000			10.713			-2.678
200701.000			10.712			-2.678
200800.000			10.712			-2.678
200900.000			10.711			-2.678
201001.000			10.711			-2.678
201100.000			10.711			-2.678
201200.000			10.711			-2.678
201301.000			10.711			-2.678
201401.000			10.711			-2.678
201501.000			10.711			-2.678
201601.000			10.711			-2.678
201700.000			10.711			-2.678
201800.000			10.711			-2.678
201901.000			10.711			-2.678
202000.000			10.710			-2.678
202100.000			10.710			-2.678
202202.000			10.710			-2.678
202301.000			10.711			-2.678
202401.000			10.710			-2.677
202501.000			10.710			-2.678
202600.000			10.710			-2.678
202700.000			10.711			-2.678
202800.000			10.713			-2.678
202900.000			10.712			-2.678
203001.000			10.711			-2.678
203101.000			10.709			-2.677
203201.000			10.710			-2.677
203301.000			10.710			-2.677
203400.000			10.710			-2.678
203500.000			10.710			-2.678
203601.000			10.710			-2.678
203700.000			10.709			-2.677
203800.000			10.709			-2.677
203901.000			10.710			-2.677
204001.000			10.710			-2.677
204101.000			10.710			-2.677
204202.000			10.709			-2.677
204300.000			10.709			-2.677
204400.000			10.709			-2.677
204501.000			10.710			-2.678
204600.000			10.708			-2.677
204700.000			10.708			-2.677
204801.000			10.708			-2.677
204901.000			10.709			-2.677
205001.000			10.708			-2.677
205102.000			10.708			-2.677
205200.000			10.709			-2.677
205300.000			10.708			-2.677
205401.000			10.708			-2.677
205500.000			10.709			-2.677
205600.000			10.708			-2.677
205701.000			10.707			-2.677
205801.000			10.707			-2.677
205902.000			10.708			-2.677
206001.000			10.708			-2.677
206100.000			10.708			-2.677
206201.000			10.708			-2.677
206300.000			10.707			-2.677
206400.000			10.707			-2.677
206501.000			10.706			-2.677
206600.000			10.707			-2.677
206701.000			10.707			-2.677
206802.000			10.706			-2.677
206901.000			10.707			-2.677
207000.000			10.707			-2.677
207101.000			10.706			-2.677
207200.000			10.706			-2.677
207300.000			10.706			-2.677
207401.000			10.706			-2.677
207500.000			10.706			-2.676
207601.000			10.706			-2.676
207702.000			10.706			-2.676
207801.000			10.705			-2.676
207900.000			10.705			-2.676
208001.000			10.706			-2.676
208100.000			10.706			-2.676
208200.000			10.706			-2.676
208301.000			10.706			-2.677
208400.000			10.706			-2.676
208500.000			10.706			-2.676
208602.000			10.705			-2.676
208701.000			10.706			-2.676
208800.000			10.706			-2.676
208901.000			10.706			-2.677
209000.000			10.705			-2.676
209100.000			10.705			-2.676
209200.000			10.705			-2.676
209300.000			10.705			-2.676
209401.000			10.705			-2.676
209501.000			10.705			-2.676
209601.000			10.704			-2.676
209701.000			10.703			-2.676
209800.000			10.702			-2.675
209900.000			10.703			-2.676
210001.000			10.704			-2.676
210100.000			10.704			-2.676
210200.000			10.704			-2.676
210301.000			10.704			-2.676
210401.000			10.704			-2.676
210501.000			10.703			-2.676
210601.000			10.702			-2.676
210700.000			10.703			-2.676
210800.000			10.704			-2.676
210901.000			10.705			-2.676
211000.000			10.704			-2.676
211100.000			10.704			-2.676
211201.000			10.704			-2.676
211301.000			10.704			-2.676
211401.000			10.704			-2.676
211501.000			10.702			-2.676
211600.000			10.702			-2.676
211700.000			10.703			-2.676
211801.000			10.702			-2.676
211900.000			10.702			-2.676
212000.000			10.702			-2.675
212102.000			10.703			-2.676
212201.000			10.703			-2.676
212300.000			10.702			-2.676
212400.000			10.702			-2.675
212500.000			10.702			-2.675
212601.000			10.701			-2.675
212700.000			10.701			-2.675
212800.000			10.701			-2.675
212901.000			10.702			-2.676
213001.000			10.703			-2.676
213101.000			10.702			-2.675
213201.000			10.701			-2.675
213300.000			10.701			-2.675
213400.000			10.701			-2.675
213501.000			10.701			-2.675
213600.000			10.701			-2.675
213700.000			10.701			-2.675
213801.000			10.701			-2.675
213901.000			10.702			-2.675
214001.000			10.701			-2.675
214101.000			10.702			-2.675
214200.000			10.701			-2.675
214300.000			10.700			-2.675
214401.000			10.700			-2.675
214500.000			10.701			-2.675
214600.000			10.701			-2.675
214702.000			10.701			-2.675
214801.000			10.700			-2.675
214901.000			10.701			-2.675
215001.000			10.700			-2.675
215100.000			10.700			-2.675
215200.000			10.700			-2.675
215301.000			10.701			-2.675
215400.000			10.701			-2.675
215500.000			10.700			-2.675
215602.000			10.699			-2.675
215701.000			10.699			-2.675
215802.000			10.700			-2.675
215900.000			10.700			-2.675
216000.000			10.700			-2.675
216101.000			10.701			-2.675
216200.000			10.698			-2.675
216300.000			10.699			-2.675
216401.000			10.700			-2.675
216501.000			10.700			-2.675
216601.000			10.699			-2.675
216702.000			10.699			-2.675
216800.000			10.699			-2.675
216900.000			10.698			-2.675
217001.000			10.698			-2.675
217100.000			10.699			-2.675
217200.000			10.699			-2.675
217301.000			10.699			-2.675
217400.000			10.697			-2.674
217501.000			10.697			-2.674
217602.000			10.698			-2.674
217700.000			10.697			-2.674
217800.000			10.698			-2.674
217901.000			10.699			-2.675
218000.000			10.698			-2.674
218100.000			10.697			-2.674
218201.000			10.697			-2.674
218300.000			10.698			-2.674
218401.000			10.698			-2.675
218502.000			10.698			-2.675
218601.000			10.698			-2.674
218700.000			10.698			-2.674
218800.000			10.699			-2.675
218900.000			10.698			-2.675
219001.000			10.697			-2.674
219100.000			10.697			-2.674
219200.000			10.698			-2.675
219301.000			10.698			-2.675
219401.000			10.697			-2.674
219501.000			10.696			-2.674
219601.000			10.698			-2.674
219700.000			10.697			-2.674
219800.000			10.697			-2.674
219901.000			10.697			-2.674
220000.000			10.697			-2.674
220100.000			10.697			-2.674
220201.000			10.697			-2.674
220301.000			10.697			-2.674
220401.000			10.696			-2.674
220502.000			10.696			-2.674
220600.000			10.696			-2.674
220700.000			10.695			-2.674
220801.000			10.696			-2.674
220900.000			10.696			-2.674
221000.000			10.694			-2.674
221101.000			10.695			-2.674
221201.000			10.696			-2.674
221301.000			10.695			-2.674
221402.000			10.696			-2.674
221500.000			10.695			-2.674
221600.000			10.694			-2.674
221701.000			10.695			-2.674
221800.000			10.696			-2.674
221900.000			10.696			-2.674
222000.000			10.695			-2.674
222100.000			10.695			-2.674
222202.000			10.695			-2.674
222301.000			10.695			-2.674
222400.000			10.696			-2.674
222501.000			10.695			-2.674
222600.000			10.694			-2.674
222700.000			10.695			-2.674
222801.000			10.696			-2.674
222900.000			10.695			-2.674
223000.000			10.694			-2.673
223102.000			10.694			-2.673
223201.000			10.694			-2.674
223301.000			10.695			-2.674
223401.000			10.694			-2.673
223500.000			10.694			-2.673
223600.000			10.694			-2.674
223701.000			10.695			-2.674
223800.000			10.694			-2.674
223900.000			10.693			-2.673
224001.000			10.694			-2.674
224101.000			10.694			-2.674
224201.000			10.694			-2.673
224301.000			10.693			-2.673
224400.000			10.693			-2.673
224500.000			10.693			-2.673
224601.000			10.693			-2.673
224700.000			10.693			-2.673
224800.000			10.693			-2.673
224901.000			10.693			-2.673
225001.000			10.692			-2.673
225102.000			10.692			-2.673
225200.000			10.692			-2.673
225300.000			10.692			-2.673
225401.000			10.692			-2.673
225500.000			10.693			-2.673
225600.000			10.694			-2.673
225701.000			10.693			-2.673
225800.000			10.692			-2.673
225901.000			10.693			-2.673
226002.000			10.692			-2.673
226101.000			10.692			-2.673
226200.000			10.692			-2.673
226301.000			10.692			-2.673
226400.000			10.692			-2.673
226500.000			10.691			-2.673
226601.000			10.691			-2.673
226700.000			10.692			-2.673
226800.000			10.692			-2.673
226902.000			10.692			-2.673
227001.000			10.692			-2.673
227100.000			10.692			-2.673
227201.000			10.691			-2.673
227300.000			10.691			-2.673
227400.000			10.691			-2.673
227501.000			10.690			-2.673
227600.000			10.691			-2.673
227700.000			10.692			-2.673
227802.000			10.692			-2.673
227901.000			10.691			-2.673
228000.000			10.691			-2.673
228101.000			10.690			-2.673
228200.000			10.691			-2.673
228300.000			10.691			-2.673
228400.000			10.691			-2.673
228500.000			10.691			-2.673
228601.000			10.691			-2.673
228701.000			10.691			-2.673
228801.000			10.691			-2.673
228902.000			10.692			-2.673
229000.000			10.691			-2.673
229100.000			10.690			-2.673
229201.000			10.691			-2.673
229300.000			10.691			-2.673
229400.000			10.691			-2.673
229501.000			10.691			-2.673
229600.000			10.690			-2.672
229701.000			10.690			-2.673
229802.000			10.690			-2.673
229901.000			10.690			-2.672
230000.000			10.690			-2.672
230101.000			10.689			-2.672
230200.000			10.689			-2.672
230300.000			10.689			-2.672
230401.000			10.689			-2.672
230500.000			10.690			-2.673
230600.000			10.689			-2.672
230702.000			10.690			-2.673
230801.000			10.691			-2.673
230900.000			10.689			-2.672
231001.000			10.690			-2.672
231100.000			10.689			-2.672
231200.000			10.689			-2.672
231301.000			10.689			-2.672
231400.000			10.689			-2.672
231500.000			10.689			-2.672
231602.000			10.689			-2.672
231701.000			10.689			-2.672
231801.000			10.689			-2.672
231900.000			10.688			-2.672
232000.000			10.688			-2.672
232101.000			10.690			-2.672
232200.000			10.689			-2.672
232300.000			10.688			-2.672
232401.000			10.688			-2.672
232501.000			10.688			-2.672
232601.000			10.689			-2.672
232702.000			10.689			-2.672
232800.000			10.688			-2.672
232900.000			10.689			-2.672
233001.000			10.689			-2.672
233100.000			10.688			-2.672
233200.000			10.688			-2.672
233301.000			10.689			-2.672
233400.000			10.688			-2.672
233501.000			10.688			-2.672
233602.000			10.688			-2.672
233700.000			10.688			-2.672
233800.000			10.687			-2.672
233901.000			10.687			-2.672
234000.000			10.688			-2.672
234100.000			10.688			-2.672
234201.000			10.687			-2.672
234300.000			10.688			-2.672
234401.000			10.688			-2.672
234502.000			10.687			-2.672
234601.000			10.688			-2.672
234700.000			10.688			-2.672
234800.000			10.688			-2.672
234900.000			10.686			-2.672
235001.000			10.686			-2.671
235100.000			10.688			-2.672
235200.000			10.686			-2.671
235301.000			10.686			-2.671
235401.000			10.686			-2.671
235501.000			10.686			-2.672
235601.000			10.687			-2.672
235700.000			10.687			-2.672
235800.000			10.687			-2.672
235901.000			10.686			-2.671
236000.000			10.685			-2.671
236100.000			10.685			-2.671
236201.000			10.686			-2.671
236301.000			10.686			-2.672
236401.000			10.686			-2.672
236502.000			10.686			-2.672
236600.000			10.686			-2.671
236700.000			10.686			-2.671
236801.000			10.686			-2.672
236900.000			10.686			-2.672
237000.000			10.685			-2.671
237101.000			10.685			-2.671
237201.000			10.686			-2.672
237301.000			10.686			-2.672
237402.000			10.685			-2.671
237500.000			10.685			-2.671
237600.000			10.685			-2.671
237701.000			10.685			-2.671
237800.000			10.685			-2.671
237900.000			10.684			-2.671
238000.000			10.684			-2.671
238100.000			10.684			-2.671
238202.000			10.685			-2.671
238301.000			10.685			-2.671
238400.000			10.684			-2.671
238501.000			10.684			-2.671
238600.000			10.684			-2.671
238700.000			10.684			-2.671
238801.000			10.685			-2.671
238900.000			10.685			-2.671
239000.000			10.684			-2.671
239102.000			10.684			-2.671
239201.000			10.683			-2.671
239301.000			10.683			-2.671
239401.000			10.684			-2.671
239500.000			10.685			-2.671
239600.000			10.685			-2.671
239701.000			10.684			-2.671
239800.000			10.684			-2.671
239900.000			10.684			-2.671
240001.000			10.684			-2.671
240101.000			10.683			-2.671
240201.000			10.683			-2.671
240301.000			10.683			-2.671
240400.000			10.683			-2.671
240500.000			10.682			-2.671
240601.000			10.683			-2.671
240700.000			10.682			-2.671
240800.000			10.683			-2.671
240901.000			10.683			-2.671
241001.000			10.682			-2.670
241102.000			10.682			-2.670
241201.000			10.682			-2.670
241300.000			10.682			-2.671
241401.000			10.683			-2.671
241500.000			10.682			-2.671
241600.000			10.682			-2.670
241701.000			10.682			-2.670
241800.000			10.681			-2.670
241901.000			10.681			-2.670
242002.000			10.682			-2.670
242101.000			10.682			-2.671
242200.000			10.682			-2.670
242301.000			10.682			-2.671
242400.000			10.682			-2.671
242500.000			10.682			-2.671
242601.000			10.681			-2.670
242700.000			10.682			-2.671
242801.000			10.682			-2.671
242902.000			10.682			-2.670
243000.000			10.682			-2.671
243100.000			10.682			-2.671
243201.000			10.682			-2.670
243300.000			10.681			-2.670
243400.000			10.682			-2.671
243501.000			10.682			-2.671
243600.000			10.681			-2.670
243701.000			10.682			-2.670
243802.000			10.681			-2.670
243900.000			10.681			-2.670
244000.000			10.681			-2.670
244101.000			10.682			-2.670
244200.000			10.682			-2.670
244300.000			10.681			-2.670
244400.000			10.682			-2.670
244500.000			10.681			-2.670
244602.000			10.681			-2.670
244701.000			10.680			-2.670
244801.000			10.681			-2.670
244901.000			10.680			-2.670
245000.000			10.681			-2.670
245100.000			10.680			-2.670
245201.000			10.681			-2.670
245300.000			10.680			-2.670
245400.000			10.679			-2.670
245501.000			10.680			-2.670
245601.000			10.680			-2.670
245701.000			10.679			-2.670
245801.000			10.679			-2.670
245900.000			10.679			-2.670
246000.000			10.680			-2.670
246101.000			10.679			-2.670
246200.000			10.679			-2.670
246300.000			10.680			-2.670
246401.000			10.680			-2.670
246501.000			10.679			-2.670
246601.000			10.678			-2.670
246702.000			10.679			-2.670
246800.000			10.679			-2.670
246900.000			10.679			-2.670
247001.000			10.679			-2.670
247100.000			10.679			-2.670
247200.000			10.679			-2.670
247301.000			10.679			-2.670
247400.000			10.679			-2.670
247502.000			10.679			-2.670
247601.000			10.678			-2.669
247701.000			10.677			-2.669
247801.000			10.678			-2.669
247900.000			10.679			-2.670
248000.000			10.679			-2.670
248101.000			10.678			-2.670
248200.000			10.678			-2.670
248300.000			10.678			-2.669
248401.000			10.678			-2.670
248501.000			10.679			-2.670
248601.000			10.678			-2.670
248701.000			10.678			-2.670
248800.000			10.679			-2.670
248900.000			10.679			-2.670
249001.000			10.678			-2.669
249100.000			10.677			-2.669
249200.000			10.678			-2.669
249301.000			10.678			-2.669
249401.000			10.677			-2.669
249501.000			10.678			-2.669
249602.000			10.677			-2.669
249700.000			10.677			-2.669
249800.000			10.677			-2.669
249901.000			10.678			-2.669
250000.000			10.677			-2.669
250100.000			10.677			-2.669
250201.000			10.677			-2.669
250300.000			10.677			-2.669
250401.000			10.678			-2.669
250502.000			10.677			-2.669
250600.000			10.677			-2.669
250700.000			10.677			-2.669
250800.000			10.678			-2.670
250900.000			10.678			-2.669
251001.000			10.678			-2.669
251100.000			10.678			-2.669
251200.000			10.677			-2.669
251302.000			10.677			-2.669
251401.000			10.678			-2.669
251501.000			10.678			-2.670
251601.000			10.677			-2.669
251700.000			10.677			-2.669
251800.000			10.677			-2.669
251901.000			10.677			-2.669
252000.000			10.676			-2.669
252100.000			10.676			-2.669
252201.000			10.677			-2.669
252301.000			10.677			-2.669
252401.000			10.677			-2.669
252501.000			10.677			-2.669
252600.000			10.676			-2.669
252700.000			10.675			-2.669
252801.000			10.675			-2.669
252900.000			10.675			-2.669
253000.000			10.676			-2.669
253101.000			10.676			-2.669
253201.000			10.675			-2.669
253301.000			10.676			-2.669
253401.000			10.676			-2.669
253500.000			10.676			-2.669
253600.000			10.676			-2.669
253701.000			10.675			-2.669
253800.000			10.676			-2.669
253900.000			10.676			-2.669
254000.000			10.675			-2.669
254101.000			10.674			-2.669
254202.000			10.674			-2.669
254301.000			10.676			-2.669
254400.000			10.675			-2.669
254501.000			10.674			-2.669
254600.000			10.674			-2.669
254700.000			10.674			-2.669
254801.000			10.675			-2.669
254900.000			10.676			-2.669
255000.000			10.675			-2.669
255102.000			10.674			-2.668
255201.000			10.675			-2.669
255300.000			10.675			-2.669
255401.000			10.674			-2.668
255500.000			10.675			-2.669
255600.000			10.675			-2.669
255701.000			10.675			-2.669
255800.000			10.674			-2.669
255900.000			10.673			-2.668
256002.000			10.674			-2.669
256101.000			10.674			-2.669
256201.000			10.675			-2.669
256301.000			10.675			-2.669
256400.000			10.674			-2.668
256500.000			10.674			-2.668
256601.000			10.674			-2.669
256700.000			10.674			-2.668
256800.000			10.674			-2.668
256901.000			10.674			-2.669
257001.000			10.674			-2.669
257102.000			10.674			-2.668
257201.000			10.673			-2.668
257300.000			10.673			-2.668
257401.000			10.673			-2.668
257500.000			10.672			-2.668
257600.000			10.673			-2.668
257701.000			10.673			-2.668
257800.000			10.673			-2.668
257901.000			10.673			-2.668
258002.000			10.673			-2.668
258101.000			10.673			-2.668
258200.000			10.672			-2.668
258301.000			10.673			-2.668
258400.000			10.673			-2.668
258500.000			10.673			-2.668
258601.000			10.674			-2.668
258700.000			10.673			-2.668
258800.000			10.673			-2.668
258902.000			10.673			-2.668
259001.000			10.672			-2.668
259100.000			10.672			-2.668
259201.000			10.672			-2.668
259300.000			10.672			-2.668
259400.000			10.673			-2.668
259501.000			10.674			-2.668
259600.000			10.674			-2.668
259700.000			10.673			-2.668
259802.000			10.671			-2.668
259901.000			10.671			-2.668
260001.000			10.672			-2.668
260101.000			10.672			-2.668
260200.000			10.672			-2.668
260300.000			10.672			-2.668
260400.000			10.671			-2.668
260500.000			10.672			-2.668
260601.000			10.672			-2.668
260701.000			10.671			-2.668
260801.000			10.673			-2.668
260902.000			10.672			-2.668
261000.000			10.672			-2.668
261100.000			10.671			-2.668
261201.000			10.672			-2.668
261300.000			10.672			-2.668
261400.000			10.670			-2.668
261501.000			10.670			-2.668
261601.000			10.671			-2.668
261701.000			10.671			-2.668
261802.000			10.671			-2.668
261900.000			10.671			-2.668
262000.000			10.671			-2.668
262101.000			10.671			-2.668
262200.000			10.672			-2.668
262300.000			10.672			-2.668
262401.000			10.671			-2.668
262500.000			10.671			-2.668
262601.000			10.670			-2.668
262702.000			10.670			-2.667
262800.000			10.670			-2.668
262900.000			10.670			-2.668
263001.000			10.670			-2.668
263100.000			10.671			-2.668
263200.000			10.670			-2.667
263301.000			10.670			-2.667
263400.000			10.670			-2.668
263502.000			10.670			-2.668
263601.000			10.670			-2.668
263700.000			10.670			-2.667
263801.000			10.670			-2.667
263900.000			10.670			-2.667
264000.000			10.670			-2.668
264101.000			10.668			-2.667
264200.000			10.668			-2.667
264300.000			10.669			-2.667
264402.000			10.669			-2.667
264501.000			10.670			-2.667
264601.000			10.670			-2.668
264701.000			10.670			-2.668
264800.000			10.669			-2.667
264900.000			10.668			-2.667
265001.000			10.669			-2.667
265100.000			10.669			-2.667
265200.000			10.669			-2.667
265301.000			10.669			-2.667
265401.000			10.668			-2.667
265501.000			10.668			-2.667
265601.000			10.669			-2.667
265700.000			10.669			-2.667
265800.000			10.669			-2.667
265901.000			10.668			-2.667
266000.000			10.668			-2.667
266100.000			10.668			-2.667
266201.000			10.668			-2.667
266301.000			10.667			-2.667
266401.000			10.668			-2.667
266502.000			10.667			-2.667
266600.000			10.667			-2.667
266700.000			10.668			-2.667
266800.000			10.668			-2.667
266900.000			10.668			-2.667
267001.000			10.668			-2.667
267100.000			10.668			-2.667
267200.000			10.666			-2.667
267302.000			10.667			-2.667
267401.000			10.667			-2.667
267500.000			10.668			-2.667
267601.000			10.668			-2.667
267700.000			10.667			-2.667
267800.000			10.666			-2.667
267901.000			10.667			-2.667
268000.000			10.666			-2.666
268100.000			10.666			-2.666
268201.000			10.667			-2.667
268301.000			10.667			-2.667
268401.000			10.667			-2.667
268501.000			10.667			-2.667
268600.000			10.667			-2.667
268700.000			10.666			-2.666
268801.000			10.666			-2.667
268900.000			10.667			-2.667
269000.000			10.667			-2.667
269101.000			10.666			-2.667
269201.000			10.667			-2.667
269301.000			10.666			-2.667
269402.000			10.666			-2.666
269500.000			10.666			-2.666
269600.000			10.666			-2.666
269701.000			10.666			-2.666
269800.000			10.666			-2.666
269900.000			10.665			-2.666
270000.000			10.665			-2.666
270100.000			10.666			-2.666
270202.000			10.665			-2.666
270301.000			10.665			-2.666
270400.000			10.666			-2.666
270501.000			10.666			-2.667
270600.000			10.666			-2.667
270700.000			10.664			-2.666
270801.000			10.665			-2.666
270900.000			10.667			-2.667
271000.000			10.665			-2.666
271102.000			10.665			-2.666
271201.000			10.666			-2.666
271300.000			10.665			-2.666
271401.000			10.665			-2.666
271500.000			10.665			-2.666
271600.000			10.665			-2.666
271701.000			10.664			-2.666
271800.000			10.665			-2.666
271900.000			10.665			-2.666
272002.000			10.664			-2.666
272101.000			10.665			-2.666
272201.000			10.666			-2.666
272301.000			10.665			-2.666
272400.000			10.665			-2.666
272500.000			10.665			-2.666
272601.000			10.663			-2.666
272700.000			10.665			-2.666
272800.000			10.665			-2.666
272901.000			10.664			-2.666
273001.000			10.664			-2.666
273102.000			10.664			-2.666
273200.000			10.664			-2.666
273300.000			10.663			-2.666
273401.000			10.663			-2.666
273500.000			10.663			-2.666
273600.000			10.664			-2.666
273701.000			10.663			-2.666
273800.000			10.663			-2.666
273901.000			10.664			-2.666
274002.000			10.665			-2.666
274100.000			10.664			-2.666
274200.000			10.664			-2.666
274301.000			10.663			-2.666
274400.000			10.663			-2.666
274500.000			10.663			-2.666
274601.000			10.664			-2.666
274700.000			10.664			-2.666
274801.000			10.663			-2.666
274902.000			10.663			-2.666
275001.000			10.663			-2.666
275100.000			10.663			-2.666
275201.000			10.663			-2.666
275300.000			10.664			-2.666
275400.000			10.663			-2.666
275501.000			10.663			-2.666
275600.000			10.662			-2.666
275701.000			10.662			-2.666
275802.000			10.663			-2.666
275901.000			10.663			-2.666
276000.000			10.662			-2.666
276101.000			10.663			-2.666
276200.000			10.663			-2.666
276300.000			10.662			-2.666
276400.000			10.662			-2.665
276500.000			10.662			-2.665
276602.000			10.663			-2.666
276701.000			10.662			-2.666
276801.000			10.663			-2.666
276901.000			10.662			-2.666
277000.000			10.662			-2.666
277100.000			10.662			-2.665
277201.000			10.662			-2.666
277300.000			10.662			-2.666
277400.000			10.662			-2.666
277501.000			10.662			-2.665
277601.000			10.661			-2.665
277701.000			10.662			-2.665
277801.000			10.661			-2.665
277900.000			10.661			-2.665
278000.000			10.661			-2.665
278101.000			10.661			-2.665
278200.000			10.661			-2.665
278300.000			10.662			-2.665
278401.000			10.661			-2.665
278501.000			10.661			-2.665
278601.000			10.661			-2.665
278702.000			10.661			-2.665
278800.000			10.662			-2.665
278900.000			10.661			-2.665
279001.000			10.661			-2.665
279100.000			10.661			-2.665
279200.000			10.661			-2.665
279301.000			10.662			-2.665
279400.000			10.661			-2.665
279502.000			10.661			-2.665
279601.000			10.661			-2.665
279700.000			10.660			-2.665
279801.000			10.661			-2.665
279900.000			10.660			-2.665
280000.000			10.660			-2.665
280101.000			10.660			-2.665
280200.000			10.660			-2.665
280300.000			10.661			-2.665
280402.000			10.660			-2.665
280501.000			10.659			-2.665
280601.000			10.659			-2.665
280701.000			10.659			-2.665
280800.000			10.659			-2.665
280900.000			10.659			-2.665
281001.000			10.660			-2.665
281100.000			10.659			-2.665
281200.000			10.659			-2.665
281301.000			10.660			-2.665
281401.000			10.660			-2.665
281501.000			10.660			-2.665
281601.000			10.659			-2.665
281700.000			10.660			-2.665
281800.000			10.660			-2.665
281901.000			10.659			-2.665
282000.000			10.659			-2.665
282100.000			10.659			-2.665
282201.000			10.658			-2.665
282301.000			10.659			-2.665
282401.000			10.658			-2.665
282502.000			10.659			-2.665
282600.000			10.659			-2.665
282700.000			10.659			-2.665
282800.000			10.658			-2.665
282900.000			10.658			-2.665
283001.000			10.658			-2.664
283100.000			10.658			-2.664
283200.000			10.658			-2.665
283302.000			10.659			-2.665
283401.000			10.657			-2.664
283500.000			10.657			-2.664
283601.000			10.658			-2.665
283700.000			10.658			-2.665
283800.000			10.658			-2.664
283901.000			10.657			-2.664
284000.000			10.657			-2.664
284100.000			10.659			-2.665
284202.000			10.657			-2.664
284301.000			10.657			-2.664
284401.000			10.657			-2.664
284501.000			10.657			-2.664
284600.000			10.657			-2.664
284700.000			10.658			-2.664
284801.000			10.658			-2.664
284900.000			10.657			-2.664
285000.000			10.657			-2.664
285101.000			10.657			-2.664
285201.000			10.657			-2.664
285301.000			10.656			-2.664
285401.000			10.657			-2.664
285500.000			10.657			-2.664
285600.000			10.657			-2.664
285701.000			10.656			-2.664
285800.000			10.656			-2.664
285900.000			10.656			-2.664
286000.000			10.656			-2.664
286101.000			10.656			-2.664
286202.000			10.656			-2.664
286301.000			10.655			-2.664
286400.000			10.656			-2.664
286501.000			10.656			-2.664
286600.000			10.656			-2.664
286700.000			10.657			-2.664
286801.000			10.657			-2.664
286900.000			10.657			-2.664
287000.000			10.657			-2.664
287102.000			10.657			-2.664
287201.000			10.656			-2.664
287300.000			10.656			-2.664
287401.000			10.656			-2.664
287500.000			10.655			-2.664
287600.000			10.656			-2.664
287701.000			10.656			-2.664
287800.000			10.657			-2.664
287900.000			10.657			-2.664
288002.000			10.655			-2.664
288101.000			10.656			-2.664
288201.000			10.655			-2.664
288301.000			10.654			-2.664
288400.000			10.655			-2.664
288500.000			10.655			-2.664
288601.000			10.655			-2.664
288700.000			10.656			-2.664
288800.000			10.654			-2.664
288901.000			10.654			-2.664
289001.000			10.654			-2.664
289102.000			10.654			-2.664
289200.000			10.654			-2.664
289300.000			10.654			-2.664
289401.000			10.654			-2.664
289500.000			10.654			-2.664
289600.000			10.655			-2.664
289701.000			10.655			-2.664
289800.000			10.654			-2.664
289900.000			10.654			-2.663
290002.000			10.654			-2.663
290101.000			10.655			-2.664
290200.000			10.655			-2.664
290301.000			10.655			-2.664
290400.000			10.655			-2.664
290500.000			10.654			-2.664
290601.000			10.654			-2.663
290700.000			10.653			-2.663
290800.000			10.653			-2.663
290902.000			10.655			-2.664
291001.000			10.654			-2.663
291100.000			10.653			-2.663
291201.000			10.653			-2.663
291300.000			10.654			-2.663
291400.000			10.653			-2.663
291501.000			10.654			-2.663
291600.000			10.654			-2.663
291700.000			10.654			-2.664
291802.000			10.653			-2.663
291901.000			10.654			-2.663
292000.000			10.653			-2.663
292101.000			10.653			-2.663
292200.000			10.654			-2.664
292300.000			10.653			-2.663
292400.000			10.653			-2.663
292500.000			10.653			-2.663
292601.000			10.653			-2.663
292701.000			10.652			-2.663
292801.000			10.653			-2.663
292901.000			10.654			-2.663
293000.000			10.653			-2.663
293100.000			10.653			-2.663
293201.000			10.653			-2.663
293300.000			10.654			-2.663
293400.000			10.653			-2.663
293501.000			10.653			-2.663
293601.000			10.653			-2.663
293701.000			10.653			-2.663
293802.000			10.653			-2.663
293900.000			10.652			-2.663
294000.000			10.651			-2.663
294101.000			10.652			-2.663
294200.000			10.653			-2.663
294300.000			10.652			-2.663
294401.000			10.652			-2.663
294501.000			10.652			-2.663
294601.000			10.653			-2.663
294702.000			10.652			-2.663
294800.000			10.651			-2.663
294900.000			10.652			-2.663
295001.000			10.653			-2.663
295100.000			10.652			-2.663
295200.000			10.651			-2.663
295301.000			10.652			-2.663
295400.000			10.651			-2.663
295502.000			10.652			-2.663
295601.000			10.652			-2.663
295700.000			10.650			-2.663
295801.000			10.650			-2.663
295900.000			10.650			-2.663
296000.000			10.650			-2.663
296101.000			10.651			-2.663
296200.000			10.652			-2.663
296300.000			10.652			-2.663
296402.000			10.651			-2.663
296501.000			10.650			-2.663
296601.000			10.650			-2.663
296701.000			10.650			-2.663
296800.000			10.651			-2.663
296900.000			10.651			-2.663
297001.000			10.652			-2.663
297100.000			10.652			-2.663
297200.000			10.652			-2.663
297301.000			10.651			-2.663
297401.000			10.651			-2.663
297501.000			10.651			-2.663
297601.000			10.650			-2.663
297700.000			10.650			-2.662
297800.000			10.650			-2.663
297901.000			10.651			-2.663
298000.000			10.652			-2.663
298100.000			10.651			-2.663
298201.000			10.650			-2.663
298301.000			10.651			-2.663
298401.000			10.651			-2.663
298501.000			10.650			-2.663
298600.000			10.650			-2.662
298700.000			10.649			-2.662
298800.000			10.650			-2.662
298900.000			10.651			-2.663
299001.000			10.650			-2.662
299100.000			10.650			-2.662
299200.000			10.650			-2.662
299302.000			10.650			-2.662
299401.000			10.651			-2.663
299500.000			10.651			-2.663
299601.000			10.650			-2.663
299700.000			10.648			-2.662
299800.000			10.649			-2.662
299901.000			10.649			-2.662
