# Acquired on 30/01/2024 10:01:15 
# SPIDER: Creep_10mm_HM077x145x38AB-2
# CREEP MEASUREMENT

# time [ms]		force [N]		stiffness [N/mm]
0.000			-31.577			-3.158
103.000			-31.766			-3.177
204.000			-31.706			-3.171
305.000			-31.573			-3.157
404.000			-31.486			-3.149
504.000			-31.419			-3.142
604.000			-31.362			-3.136
704.000			-31.269			-3.127
804.000			-31.228			-3.123
905.000			-31.191			-3.119
1004.000			-31.156			-3.116
1104.000			-31.124			-3.112
1205.000			-31.094			-3.109
1303.000			-31.066			-3.107
1404.000			-31.014			-3.101
1505.000			-30.989			-3.099
1604.000			-30.964			-3.096
1704.000			-30.941			-3.094
1804.000			-30.920			-3.092
1904.000			-30.901			-3.090
2004.000			-30.883			-3.088
2105.000			-30.845			-3.084
2204.000			-30.827			-3.083
2304.000			-30.810			-3.081
2405.000			-30.794			-3.079
2503.000			-30.778			-3.078
2605.000			-30.763			-3.076
2704.000			-30.749			-3.075
2804.000			-30.735			-3.073
2905.000			-30.707			-3.071
3004.000			-30.693			-3.069
3104.000			-30.681			-3.068
3204.000			-30.667			-3.067
3304.000			-30.655			-3.066
3404.000			-30.644			-3.064
3505.000			-30.632			-3.063
3604.000			-30.609			-3.061
3703.000			-30.598			-3.060
3805.000			-30.586			-3.059
3904.000			-30.575			-3.058
4004.000			-30.566			-3.057
4105.000			-30.554			-3.055
4204.000			-30.545			-3.055
4304.000			-30.527			-3.053
4404.000			-30.518			-3.052
4504.000			-30.508			-3.051
4604.000			-30.497			-3.050
4705.000			-30.489			-3.049
4804.000			-30.480			-3.048
4903.000			-30.473			-3.047
5005.000			-30.464			-3.046
5104.000			-30.448			-3.045
5204.000			-30.440			-3.044
5305.000			-30.431			-3.043
5404.000			-30.424			-3.042
5504.000			-30.416			-3.042
5603.000			-30.408			-3.041
5704.000			-30.400			-3.040
5805.000			-30.386			-3.039
5904.000			-30.379			-3.038
6004.000			-30.373			-3.037
6104.000			-30.365			-3.037
6204.000			-30.358			-3.036
6304.000			-30.352			-3.035
6405.000			-30.345			-3.035
6504.000			-30.330			-3.033
6604.000			-30.324			-3.032
6705.000			-30.317			-3.032
6803.000			-30.310			-3.031
6904.000			-30.305			-3.030
7005.000			-30.299			-3.030
7104.000			-30.292			-3.029
7204.000			-30.281			-3.028
7304.000			-30.275			-3.027
7404.000			-30.268			-3.027
7504.000			-30.262			-3.026
7605.000			-30.257			-3.026
7704.000			-30.251			-3.025
7804.000			-30.247			-3.025
7905.000			-30.241			-3.024
8003.000			-30.229			-3.023
8104.000			-30.224			-3.022
8205.000			-30.219			-3.022
8304.000			-30.213			-3.021
8404.000			-30.207			-3.021
8504.000			-30.201			-3.020
8604.000			-30.196			-3.020
8704.000			-30.186			-3.019
8804.000			-30.182			-3.018
8904.000			-30.176			-3.018
9005.000			-30.170			-3.017
9104.000			-30.165			-3.017
9203.000			-30.160			-3.016
9305.000			-30.156			-3.016
9404.000			-30.146			-3.015
9504.000			-30.142			-3.014
9605.000			-30.137			-3.014
9704.000			-30.132			-3.013
9804.000			-30.127			-3.013
9904.000			-30.123			-3.012
10004.000			-30.117			-3.012
10104.000			-30.112			-3.011
10205.000			-30.104			-3.010
10304.000			-30.099			-3.010
10403.000			-30.095			-3.010
10505.000			-30.093			-3.009
10604.000			-30.088			-3.009
10704.000			-30.083			-3.008
10805.000			-30.078			-3.008
10904.000			-30.069			-3.007
11004.000			-30.065			-3.007
11104.000			-30.061			-3.006
11204.000			-30.057			-3.006
11304.000			-30.052			-3.005
11405.000			-30.049			-3.005
11504.000			-30.046			-3.005
11603.000			-30.038			-3.004
11705.000			-30.034			-3.003
11804.000			-30.029			-3.003
11904.000			-30.026			-3.003
12005.000			-30.022			-3.002
12104.000			-30.018			-3.002
12205.000			-30.014			-3.001
12303.000			-30.010			-3.001
12404.000			-30.003			-3.000
12505.000			-29.999			-3.000
12604.000			-29.996			-3.000
12704.000			-29.992			-2.999
12805.000			-29.988			-2.999
12904.000			-29.986			-2.999
13003.000			-29.981			-2.998
13105.000			-29.973			-2.997
13204.000			-29.971			-2.997
13304.000			-29.969			-2.997
13405.000			-29.964			-2.996
13504.000			-29.960			-2.996
13604.000			-29.956			-2.996
13704.000			-29.953			-2.995
13804.000			-29.947			-2.995
13904.000			-29.943			-2.994
14005.000			-29.939			-2.994
14104.000			-29.936			-2.994
14204.000			-29.934			-2.993
14305.000			-29.931			-2.993
14403.000			-29.927			-2.993
14504.000			-29.921			-2.992
14605.000			-29.917			-2.992
14704.000			-29.914			-2.991
14804.000			-29.910			-2.991
14905.000			-29.908			-2.991
15004.000			-29.905			-2.990
15103.000			-29.902			-2.990
15205.000			-29.898			-2.990
15304.000			-29.892			-2.989
15405.000			-29.889			-2.989
15504.000			-29.887			-2.989
15604.000			-29.883			-2.988
15705.000			-29.880			-2.988
15803.000			-29.877			-2.988
15904.000			-29.873			-2.987
16004.000			-29.870			-2.987
16104.000			-29.867			-2.987
16204.000			-29.863			-2.986
16305.000			-29.860			-2.986
16404.000			-29.859			-2.986
16504.000			-29.854			-2.985
16605.000			-29.851			-2.985
16703.000			-29.846			-2.985
16804.000			-29.843			-2.984
16905.000			-29.841			-2.984
17004.000			-29.838			-2.984
17104.000			-29.835			-2.983
17205.000			-29.832			-2.983
17304.000			-29.828			-2.983
17403.000			-29.826			-2.983
17505.000			-29.821			-2.982
17604.000			-29.817			-2.982
17704.000			-29.814			-2.981
17805.000			-29.812			-2.981
17904.000			-29.809			-2.981
18004.000			-29.807			-2.981
18104.000			-29.805			-2.980
18204.000			-29.799			-2.980
18304.000			-29.797			-2.980
18404.000			-29.795			-2.980
18504.000			-29.792			-2.979
18605.000			-29.789			-2.979
18704.000			-29.786			-2.979
18803.000			-29.783			-2.978
18905.000			-29.778			-2.978
19004.000			-29.775			-2.978
19104.000			-29.773			-2.977
19205.000			-29.771			-2.977
19304.000			-29.769			-2.977
19404.000			-29.766			-2.977
19504.000			-29.763			-2.976
19604.000			-29.758			-2.976
19704.000			-29.755			-2.976
19805.000			-29.753			-2.975
19904.000			-29.751			-2.975
20004.000			-29.749			-2.975
20105.000			-29.747			-2.975
20203.000			-29.744			-2.974
20304.000			-29.742			-2.974
20405.000			-29.737			-2.974
20504.000			-29.735			-2.973
20604.000			-29.732			-2.973
20705.000			-29.730			-2.973
20804.000			-29.727			-2.973
20903.000			-29.726			-2.973
21005.000			-29.722			-2.972
21104.000			-29.719			-2.972
21204.000			-29.716			-2.972
21305.000			-29.713			-2.971
21404.000			-29.711			-2.971
21504.000			-29.709			-2.971
21603.000			-29.707			-2.971
21704.000			-29.704			-2.970
21805.000			-29.699			-2.970
21904.000			-29.698			-2.970
22004.000			-29.696			-2.970
22105.000			-29.693			-2.969
22204.000			-29.691			-2.969
22303.000			-29.689			-2.969
22405.000			-29.686			-2.969
22504.000			-29.684			-2.968
22604.000			-29.679			-2.968
22705.000			-29.678			-2.968
22804.000			-29.676			-2.968
22904.000			-29.673			-2.967
23004.000			-29.671			-2.967
23104.000			-29.669			-2.967
23204.000			-29.666			-2.967
23305.000			-29.662			-2.966
23404.000			-29.660			-2.966
23504.000			-29.658			-2.966
23605.000			-29.656			-2.966
23703.000			-29.654			-2.965
23804.000			-29.652			-2.965
23905.000			-29.649			-2.965
24004.000			-29.646			-2.965
24104.000			-29.644			-2.964
24205.000			-29.641			-2.964
24304.000			-29.639			-2.964
24403.000			-29.637			-2.964
24505.000			-29.635			-2.964
24604.000			-29.634			-2.963
24704.000			-29.629			-2.963
24805.000			-29.628			-2.963
24904.000			-29.626			-2.963
25005.000			-29.624			-2.962
25103.000			-29.622			-2.962
25204.000			-29.620			-2.962
25305.000			-29.618			-2.962
25404.000			-29.616			-2.962
25504.000			-29.612			-2.961
25605.000			-29.610			-2.961
25704.000			-29.608			-2.961
25803.000			-29.606			-2.961
25905.000			-29.605			-2.961
26004.000			-29.602			-2.960
26104.000			-29.601			-2.960
26205.000			-29.597			-2.960
26304.000			-29.596			-2.960
26404.000			-29.594			-2.959
26504.000			-29.592			-2.959
26604.000			-29.589			-2.959
26704.000			-29.587			-2.959
26805.000			-29.585			-2.958
26904.000			-29.582			-2.958
27004.000			-29.580			-2.958
27105.000			-29.578			-2.958
27203.000			-29.575			-2.958
27304.000			-29.575			-2.957
27405.000			-29.572			-2.957
27504.000			-29.571			-2.957
27604.000			-29.569			-2.957
27705.000			-29.565			-2.957
27804.000			-29.563			-2.956
27903.000			-29.562			-2.956
28005.000			-29.560			-2.956
28104.000			-29.557			-2.956
28205.000			-29.556			-2.956
28304.000			-29.554			-2.955
28404.000			-29.551			-2.955
28505.000			-29.549			-2.955
28603.000			-29.548			-2.955
28704.000			-29.546			-2.955
28805.000			-29.543			-2.954
28904.000			-29.542			-2.954
29004.000			-29.540			-2.954
29105.000			-29.536			-2.954
29204.000			-29.536			-2.954
29303.000			-29.534			-2.953
29405.000			-29.532			-2.953
29504.000			-29.530			-2.953
29604.000			-29.529			-2.953
29705.000			-29.527			-2.953
29804.000			-29.525			-2.953
29904.000			-29.522			-2.952
30004.000			-29.520			-2.952
30104.000			-29.517			-2.952
30204.000			-29.516			-2.952
30305.000			-29.516			-2.952
30404.000			-29.513			-2.951
30504.000			-29.512			-2.951
30605.000			-29.508			-2.951
30703.000			-29.507			-2.951
30804.000			-29.505			-2.951
30905.000			-29.504			-2.950
31004.000			-29.502			-2.950
31104.000			-29.500			-2.950
31204.000			-29.498			-2.950
31304.000			-29.495			-2.950
31403.000			-29.493			-2.949
31504.000			-29.492			-2.949
31604.000			-29.491			-2.949
31705.000			-29.489			-2.949
31804.000			-29.488			-2.949
31904.000			-29.487			-2.949
32005.000			-29.484			-2.948
32103.000			-29.480			-2.948
32204.000			-29.478			-2.948
32305.000			-29.477			-2.948
32404.000			-29.477			-2.948
32504.000			-29.475			-2.947
32604.000			-29.473			-2.947
32704.000			-29.470			-2.947
32803.000			-29.468			-2.947
32905.000			-29.466			-2.947
33004.000			-29.465			-2.947
33104.000			-29.464			-2.946
33205.000			-29.462			-2.946
33303.000			-29.460			-2.946
33404.000			-29.459			-2.946
33505.000			-29.456			-2.946
33604.000			-29.455			-2.945
33704.000			-29.453			-2.945
33805.000			-29.452			-2.945
33904.000			-29.450			-2.945
34003.000			-29.448			-2.945
34105.000			-29.447			-2.945
34204.000			-29.444			-2.944
34304.000			-29.444			-2.944
34405.000			-29.442			-2.944
34504.000			-29.440			-2.944
34605.000			-29.439			-2.944
34703.000			-29.438			-2.944
34804.000			-29.436			-2.944
34904.000			-29.433			-2.943
35004.000			-29.431			-2.943
35104.000			-29.429			-2.943
35205.000			-29.428			-2.943
35304.000			-29.427			-2.943
35403.000			-29.425			-2.942
35505.000			-29.424			-2.942
35603.000			-29.422			-2.942
35704.000			-29.419			-2.942
35805.000			-29.418			-2.942
35904.000			-29.416			-2.942
36004.000			-29.414			-2.941
36104.000			-29.414			-2.941
36204.000			-29.413			-2.941
36303.000			-29.411			-2.941
36405.000			-29.409			-2.941
36504.000			-29.406			-2.941
36604.000			-29.404			-2.940
36705.000			-29.403			-2.940
36803.000			-29.401			-2.940
36904.000			-29.400			-2.940
37005.000			-29.399			-2.940
37104.000			-29.398			-2.940
37204.000			-29.396			-2.940
37305.000			-29.396			-2.940
37404.000			-29.394			-2.939
37504.000			-29.391			-2.939
37605.000			-29.391			-2.939
37703.000			-29.390			-2.939
37805.000			-29.387			-2.939
37904.000			-29.385			-2.938
38004.000			-29.384			-2.938
38105.000			-29.383			-2.938
38204.000			-29.381			-2.938
38304.000			-29.380			-2.938
38404.000			-29.378			-2.938
38504.000			-29.376			-2.938
38604.000			-29.374			-2.937
38705.000			-29.374			-2.937
38804.000			-29.373			-2.937
38904.000			-29.370			-2.937
39005.000			-29.369			-2.937
39103.000			-29.367			-2.937
39204.000			-29.366			-2.937
39305.000			-29.365			-2.937
39404.000			-29.362			-2.936
39504.000			-29.361			-2.936
39605.000			-29.359			-2.936
39704.000			-29.358			-2.936
39803.000			-29.357			-2.936
39905.000			-29.356			-2.936
40004.000			-29.354			-2.935
40104.000			-29.353			-2.935
40205.000			-29.351			-2.935
40304.000			-29.351			-2.935
40404.000			-29.349			-2.935
40504.000			-29.346			-2.935
40604.000			-29.344			-2.934
40704.000			-29.344			-2.934
40804.000			-29.342			-2.934
40904.000			-29.340			-2.934
41005.000			-29.339			-2.934
41104.000			-29.338			-2.934
41203.000			-29.336			-2.934
41305.000			-29.335			-2.934
41404.000			-29.334			-2.933
41504.000			-29.333			-2.933
41605.000			-29.330			-2.933
41703.000			-29.329			-2.933
41804.000			-29.327			-2.933
41905.000			-29.325			-2.933
42004.000			-29.324			-2.932
42104.000			-29.323			-2.932
42205.000			-29.323			-2.932
42304.000			-29.320			-2.932
42403.000			-29.319			-2.932
42505.000			-29.318			-2.932
42604.000			-29.317			-2.932
42704.000			-29.315			-2.932
42805.000			-29.314			-2.931
42904.000			-29.314			-2.931
43004.000			-29.311			-2.931
43104.000			-29.310			-2.931
43204.000			-29.310			-2.931
43304.000			-29.308			-2.931
43405.000			-29.305			-2.931
43504.000			-29.304			-2.930
43604.000			-29.305			-2.930
43705.000			-29.301			-2.930
43803.000			-29.301			-2.930
43904.000			-29.299			-2.930
44005.000			-29.297			-2.930
44104.000			-29.296			-2.930
44205.000			-29.296			-2.930
44304.000			-29.295			-2.930
44404.000			-29.294			-2.929
44504.000			-29.291			-2.929
44604.000			-29.290			-2.929
44704.000			-29.288			-2.929
44805.000			-29.288			-2.929
44904.000			-29.286			-2.929
45004.000			-29.286			-2.929
45105.000			-29.285			-2.928
45203.000			-29.281			-2.928
45304.000			-29.281			-2.928
45405.000			-29.280			-2.928
45504.000			-29.279			-2.928
45604.000			-29.277			-2.928
45705.000			-29.276			-2.928
45804.000			-29.275			-2.927
45903.000			-29.272			-2.927
46005.000			-29.271			-2.927
46104.000			-29.270			-2.927
46204.000			-29.270			-2.927
46305.000			-29.269			-2.927
46404.000			-29.267			-2.927
46504.000			-29.266			-2.927
46604.000			-29.265			-2.926
46704.000			-29.263			-2.926
46804.000			-29.261			-2.926
46905.000			-29.260			-2.926
47004.000			-29.259			-2.926
47104.000			-29.259			-2.926
47205.000			-29.257			-2.926
47303.000			-29.255			-2.926
47405.000			-29.254			-2.925
47504.000			-29.252			-2.925
47604.000			-29.252			-2.925
47705.000			-29.250			-2.925
47804.000			-29.249			-2.925
47904.000			-29.248			-2.925
48004.000			-29.247			-2.925
48104.000			-29.244			-2.924
48204.000			-29.244			-2.924
48305.000			-29.243			-2.924
48404.000			-29.242			-2.924
48504.000			-29.240			-2.924
48605.000			-29.238			-2.924
48703.000			-29.238			-2.924
48804.000			-29.237			-2.924
48905.000			-29.235			-2.924
49004.000			-29.234			-2.923
49104.000			-29.234			-2.923
49205.000			-29.234			-2.923
49304.000			-29.232			-2.923
49403.000			-29.230			-2.923
49505.000			-29.228			-2.923
49604.000			-29.227			-2.923
49704.000			-29.226			-2.923
49805.000			-29.226			-2.923
49904.000			-29.224			-2.922
50004.000			-29.223			-2.922
50104.000			-29.222			-2.922
50204.000			-29.221			-2.922
50304.000			-29.219			-2.922
50404.000			-29.217			-2.922
50504.000			-29.216			-2.922
50603.000			-29.216			-2.922
50704.000			-29.215			-2.921
50804.000			-29.214			-2.921
50905.000			-29.213			-2.921
51004.000			-29.210			-2.921
51104.000			-29.210			-2.921
51205.000			-29.209			-2.921
51303.000			-29.208			-2.921
51404.000			-29.207			-2.921
51505.000			-29.204			-2.920
51604.000			-29.203			-2.920
51704.000			-29.203			-2.920
51805.000			-29.201			-2.920
51904.000			-29.200			-2.920
52003.000			-29.198			-2.920
52105.000			-29.197			-2.920
52204.000			-29.197			-2.920
52304.000			-29.196			-2.920
52405.000			-29.195			-2.919
52504.000			-29.193			-2.919
52604.000			-29.192			-2.919
52704.000			-29.191			-2.919
52804.000			-29.190			-2.919
52904.000			-29.189			-2.919
53005.000			-29.188			-2.919
53104.000			-29.188			-2.919
53203.000			-29.186			-2.919
53305.000			-29.185			-2.918
53403.000			-29.184			-2.918
53504.000			-29.182			-2.918
53605.000			-29.181			-2.918
53704.000			-29.180			-2.918
53805.000			-29.179			-2.918
53904.000			-29.178			-2.918
54004.000			-29.177			-2.918
54104.000			-29.177			-2.918
54204.000			-29.174			-2.917
54304.000			-29.173			-2.917
54405.000			-29.172			-2.917
54504.000			-29.171			-2.917
54603.000			-29.171			-2.917
54705.000			-29.169			-2.917
54804.000			-29.169			-2.917
54904.000			-29.167			-2.917
55005.000			-29.166			-2.917
55104.000			-29.165			-2.917
55204.000			-29.165			-2.916
55304.000			-29.164			-2.916
55404.000			-29.161			-2.916
55503.000			-29.160			-2.916
55605.000			-29.159			-2.916
55704.000			-29.159			-2.916
55804.000			-29.158			-2.916
55905.000			-29.157			-2.916
56004.000			-29.155			-2.915
56104.000			-29.154			-2.915
56204.000			-29.153			-2.915
56304.000			-29.153			-2.915
56404.000			-29.151			-2.915
56505.000			-29.150			-2.915
56604.000			-29.149			-2.915
56703.000			-29.148			-2.915
56805.000			-29.148			-2.915
56903.000			-29.145			-2.915
57005.000			-29.145			-2.915
57104.000			-29.144			-2.914
57204.000			-29.142			-2.914
57305.000			-29.141			-2.914
57403.000			-29.141			-2.914
57504.000			-29.140			-2.914
57605.000			-29.138			-2.914
57704.000			-29.137			-2.914
57804.000			-29.137			-2.914
57905.000			-29.136			-2.914
58004.000			-29.134			-2.913
58103.000			-29.134			-2.913
58205.000			-29.133			-2.913
58304.000			-29.131			-2.913
58404.000			-29.130			-2.913
58505.000			-29.129			-2.913
58604.000			-29.128			-2.913
58704.000			-29.127			-2.913
58804.000			-29.126			-2.913
58904.000			-29.125			-2.913
59004.000			-29.124			-2.912
59105.000			-29.123			-2.912
59204.000			-29.122			-2.912
59304.000			-29.120			-2.912
59405.000			-29.120			-2.912
59503.000			-29.118			-2.912
59604.000			-29.117			-2.912
59705.000			-29.117			-2.912
59804.000			-29.116			-2.912
59904.000			-29.114			-2.911
60004.000			-29.114			-2.911
60104.000			-29.113			-2.911
60203.000			-29.112			-2.911
60304.000			-29.111			-2.911
60404.000			-29.110			-2.911
60505.000			-29.108			-2.911
60604.000			-29.107			-2.911
60704.000			-29.106			-2.911
60805.000			-29.106			-2.911
60903.000			-29.104			-2.910
61004.000			-29.104			-2.910
61105.000			-29.104			-2.910
61204.000			-29.102			-2.910
61304.000			-29.101			-2.910
61404.000			-29.100			-2.910
61504.000			-29.098			-2.910
61604.000			-29.097			-2.910
61705.000			-29.097			-2.910
61804.000			-29.096			-2.910
61904.000			-29.095			-2.910
62005.000			-29.093			-2.909
62103.000			-29.093			-2.909
62204.000			-29.092			-2.909
62305.000			-29.091			-2.909
62404.000			-29.090			-2.909
62504.000			-29.090			-2.909
62605.000			-29.089			-2.909
62704.000			-29.086			-2.909
62803.000			-29.086			-2.909
62905.000			-29.087			-2.909
63004.000			-29.085			-2.909
63104.000			-29.083			-2.908
63205.000			-29.082			-2.908
63304.000			-29.082			-2.908
63405.000			-29.080			-2.908
63503.000			-29.079			-2.908
63604.000			-29.078			-2.908
63704.000			-29.077			-2.908
63804.000			-29.077			-2.908
63904.000			-29.075			-2.908
64005.000			-29.075			-2.908
64104.000			-29.074			-2.907
64203.000			-29.072			-2.907
64305.000			-29.071			-2.907
64404.000			-29.070			-2.907
64504.000			-29.069			-2.907
64605.000			-29.068			-2.907
64704.000			-29.066			-2.907
64804.000			-29.067			-2.907
64904.000			-29.066			-2.907
65004.000			-29.064			-2.906
65103.000			-29.064			-2.906
65205.000			-29.064			-2.906
65304.000			-29.061			-2.906
65404.000			-29.061			-2.906
65505.000			-29.061			-2.906
65603.000			-29.059			-2.906
65704.000			-29.059			-2.906
65805.000			-29.057			-2.906
65904.000			-29.057			-2.906
66004.000			-29.055			-2.906
66105.000			-29.054			-2.905
66204.000			-29.054			-2.905
66303.000			-29.053			-2.905
66405.000			-29.052			-2.905
66504.000			-29.051			-2.905
66605.000			-29.050			-2.905
66704.000			-29.049			-2.905
66804.000			-29.049			-2.905
66905.000			-29.048			-2.905
67003.000			-29.047			-2.905
67104.000			-29.045			-2.905
67205.000			-29.044			-2.904
67304.000			-29.043			-2.904
67404.000			-29.042			-2.904
67505.000			-29.042			-2.904
67604.000			-29.042			-2.904
67703.000			-29.041			-2.904
67805.000			-29.039			-2.904
67904.000			-29.039			-2.904
68004.000			-29.038			-2.904
68105.000			-29.037			-2.904
68204.000			-29.036			-2.904
68304.000			-29.035			-2.904
68404.000			-29.034			-2.903
68504.000			-29.033			-2.903
68604.000			-29.033			-2.903
68705.000			-29.032			-2.903
68804.000			-29.031			-2.903
68904.000			-29.029			-2.903
69005.000			-29.027			-2.903
69103.000			-29.027			-2.903
69204.000			-29.028			-2.903
69305.000			-29.026			-2.903
69404.000			-29.025			-2.902
69504.000			-29.024			-2.902
69604.000			-29.023			-2.902
69704.000			-29.023			-2.902
69803.000			-29.023			-2.902
69904.000			-29.023			-2.902
70003.000			-29.019			-2.902
70105.000			-29.019			-2.902
70204.000			-29.018			-2.902
70304.000			-29.017			-2.902
70405.000			-29.017			-2.902
70504.000			-29.017			-2.902
70604.000			-29.015			-2.902
70704.000			-29.013			-2.901
70804.000			-29.013			-2.901
70904.000			-29.013			-2.901
71005.000			-29.012			-2.901
71104.000			-29.011			-2.901
71203.000			-29.010			-2.901
71305.000			-29.009			-2.901
71403.000			-29.007			-2.901
71504.000			-29.007			-2.901
71605.000			-29.006			-2.901
71704.000			-29.005			-2.901
71804.000			-29.005			-2.901
71904.000			-29.005			-2.900
72004.000			-29.003			-2.900
72104.000			-29.002			-2.900
72205.000			-29.001			-2.900
72304.000			-29.000			-2.900
72404.000			-28.999			-2.900
72505.000			-28.998			-2.900
72604.000			-28.997			-2.900
72704.000			-28.996			-2.900
72803.000			-28.996			-2.900
72904.000			-28.995			-2.900
73005.000			-28.994			-2.899
73104.000			-28.994			-2.899
73204.000			-28.993			-2.899
73305.000			-28.992			-2.899
73404.000			-28.992			-2.899
73503.000			-28.992			-2.899
73605.000			-28.990			-2.899
73704.000			-28.989			-2.899
73804.000			-28.987			-2.899
73905.000			-28.986			-2.899
74004.000			-28.986			-2.899
74104.000			-28.985			-2.899
74204.000			-28.984			-2.898
74304.000			-28.983			-2.898
74404.000			-28.983			-2.898
74505.000			-28.982			-2.898
74604.000			-28.981			-2.898
74704.000			-28.980			-2.898
74805.000			-28.980			-2.898
74903.000			-28.980			-2.898
75004.000			-28.979			-2.898
75104.000			-28.976			-2.898
75204.000			-28.976			-2.898
75304.000			-28.977			-2.898
75405.000			-28.976			-2.898
75504.000			-28.975			-2.897
75604.000			-28.975			-2.897
75705.000			-28.974			-2.897
75803.000			-28.972			-2.897
75904.000			-28.970			-2.897
76005.000			-28.969			-2.897
76104.000			-28.968			-2.897
76205.000			-28.968			-2.897
76304.000			-28.967			-2.897
76404.000			-28.968			-2.897
76504.000			-28.967			-2.897
76604.000			-28.965			-2.896
76703.000			-28.964			-2.896
76805.000			-28.964			-2.896
76904.000			-28.962			-2.896
77004.000			-28.961			-2.896
77105.000			-28.961			-2.896
77204.000			-28.961			-2.896
77304.000			-28.960			-2.896
77404.000			-28.959			-2.896
77504.000			-28.958			-2.896
77604.000			-28.957			-2.896
77705.000			-28.957			-2.896
77804.000			-28.956			-2.896
77904.000			-28.955			-2.895
78005.000			-28.954			-2.895
78103.000			-28.954			-2.895
78204.000			-28.954			-2.895
78305.000			-28.953			-2.895
78404.000			-28.951			-2.895
78504.000			-28.951			-2.895
78605.000			-28.951			-2.895
78704.000			-28.949			-2.895
78803.000			-28.949			-2.895
78905.000			-28.948			-2.895
79003.000			-28.946			-2.895
79104.000			-28.945			-2.894
79205.000			-28.945			-2.894
79304.000			-28.944			-2.894
79405.000			-28.943			-2.894
79504.000			-28.943			-2.894
79604.000			-28.941			-2.894
79704.000			-28.941			-2.894
79804.000			-28.940			-2.894
79904.000			-28.939			-2.894
80005.000			-28.939			-2.894
80104.000			-28.937			-2.894
80204.000			-28.936			-2.894
80305.000			-28.935			-2.894
80403.000			-28.935			-2.894
80504.000			-28.935			-2.893
80605.000			-28.933			-2.893
80704.000			-28.933			-2.893
80804.000			-28.932			-2.893
80905.000			-28.931			-2.893
81004.000			-28.930			-2.893
81103.000			-28.929			-2.893
81205.000			-28.929			-2.893
81304.000			-28.928			-2.893
81404.000			-28.928			-2.893
81505.000			-28.928			-2.893
81604.000			-28.927			-2.893
81704.000			-28.926			-2.893
81804.000			-28.925			-2.892
81904.000			-28.925			-2.892
82003.000			-28.924			-2.892
82105.000			-28.923			-2.892
82204.000			-28.922			-2.892
82304.000			-28.921			-2.892
82405.000			-28.920			-2.892
82503.000			-28.920			-2.892
82605.000			-28.919			-2.892
82703.000			-28.919			-2.892
82804.000			-28.918			-2.892
82905.000			-28.916			-2.892
83004.000			-28.915			-2.892
83104.000			-28.915			-2.891
83205.000			-28.914			-2.891
83304.000			-28.913			-2.891
83403.000			-28.912			-2.891
83505.000			-28.911			-2.891
83604.000			-28.912			-2.891
83704.000			-28.912			-2.891
83805.000			-28.911			-2.891
83904.000			-28.910			-2.891
84004.000			-28.909			-2.891
84104.000			-28.909			-2.891
84204.000			-28.907			-2.891
84304.000			-28.906			-2.891
84405.000			-28.906			-2.891
84504.000			-28.906			-2.891
84604.000			-28.904			-2.890
84705.000			-28.904			-2.890
84803.000			-28.902			-2.890
84904.000			-28.902			-2.890
85005.000			-28.901			-2.890
85104.000			-28.900			-2.890
85204.000			-28.899			-2.890
85305.000			-28.898			-2.890
85404.000			-28.898			-2.890
85503.000			-28.897			-2.890
85605.000			-28.897			-2.890
85704.000			-28.896			-2.890
85805.000			-28.895			-2.890
85904.000			-28.894			-2.889
86004.000			-28.892			-2.889
86105.000			-28.893			-2.889
86204.000			-28.892			-2.889
86304.000			-28.892			-2.889
86404.000			-28.892			-2.889
86504.000			-28.890			-2.889
86604.000			-28.888			-2.889
86705.000			-28.889			-2.889
86804.000			-28.888			-2.889
86904.000			-28.887			-2.889
87005.000			-28.886			-2.889
87103.000			-28.886			-2.889
87204.000			-28.885			-2.889
87304.000			-28.884			-2.888
87404.000			-28.884			-2.888
87504.000			-28.883			-2.888
87605.000			-28.882			-2.888
87704.000			-28.881			-2.888
87804.000			-28.880			-2.888
87905.000			-28.881			-2.888
88003.000			-28.880			-2.888
88104.000			-28.880			-2.888
88205.000			-28.878			-2.888
88304.000			-28.877			-2.888
88404.000			-28.876			-2.888
88505.000			-28.875			-2.888
88604.000			-28.874			-2.887
88703.000			-28.874			-2.887
88805.000			-28.874			-2.887
88904.000			-28.874			-2.887
89005.000			-28.872			-2.887
89104.000			-28.871			-2.887
89204.000			-28.871			-2.887
89305.000			-28.871			-2.887
89404.000			-28.871			-2.887
89504.000			-28.871			-2.887
89604.000			-28.869			-2.887
89704.000			-28.867			-2.887
89804.000			-28.866			-2.887
89905.000			-28.866			-2.887
90004.000			-28.866			-2.887
90104.000			-28.864			-2.886
90205.000			-28.864			-2.886
90303.000			-28.864			-2.886
90404.000			-28.862			-2.886
90505.000			-28.862			-2.886
90604.000			-28.862			-2.886
90704.000			-28.861			-2.886
90805.000			-28.861			-2.886
90904.000			-28.859			-2.886
91003.000			-28.858			-2.886
91105.000			-28.857			-2.886
91204.000			-28.857			-2.886
91304.000			-28.857			-2.886
91405.000			-28.856			-2.886
91504.000			-28.855			-2.886
91604.000			-28.855			-2.885
91704.000			-28.853			-2.885
91804.000			-28.853			-2.885
91903.000			-28.852			-2.885
92005.000			-28.852			-2.885
92104.000			-28.852			-2.885
92205.000			-28.851			-2.885
92304.000			-28.850			-2.885
92404.000			-28.850			-2.885
92505.000			-28.849			-2.885
92603.000			-28.848			-2.885
92704.000			-28.847			-2.885
92805.000			-28.846			-2.885
92904.000			-28.846			-2.885
93004.000			-28.845			-2.884
93105.000			-28.844			-2.884
93204.000			-28.845			-2.884
93303.000			-28.842			-2.884
93405.000			-28.842			-2.884
93504.000			-28.842			-2.884
93604.000			-28.841			-2.884
93705.000			-28.840			-2.884
93804.000			-28.840			-2.884
93904.000			-28.840			-2.884
94004.000			-28.840			-2.884
94104.000			-28.838			-2.884
94204.000			-28.837			-2.884
94305.000			-28.835			-2.884
94404.000			-28.835			-2.884
94504.000			-28.836			-2.884
94605.000			-28.835			-2.883
94704.000			-28.834			-2.883
94804.000			-28.832			-2.883
94904.000			-28.832			-2.883
95004.000			-28.832			-2.883
95104.000			-28.830			-2.883
95204.000			-28.830			-2.883
95304.000			-28.830			-2.883
95405.000			-28.830			-2.883
95504.000			-28.829			-2.883
95603.000			-28.828			-2.883
95705.000			-28.827			-2.883
95804.000			-28.827			-2.883
95904.000			-28.826			-2.883
96005.000			-28.826			-2.883
96104.000			-28.825			-2.882
96204.000			-28.823			-2.882
96304.000			-28.823			-2.882
96404.000			-28.823			-2.882
96504.000			-28.822			-2.882
96605.000			-28.821			-2.882
96704.000			-28.821			-2.882
96804.000			-28.821			-2.882
96905.000			-28.819			-2.882
97004.000			-28.818			-2.882
97104.000			-28.818			-2.882
97204.000			-28.818			-2.882
97304.000			-28.817			-2.882
97404.000			-28.817			-2.882
97505.000			-28.817			-2.882
97604.000			-28.817			-2.882
97704.000			-28.814			-2.881
97805.000			-28.814			-2.881
97903.000			-28.814			-2.881
98004.000			-28.812			-2.881
98105.000			-28.812			-2.881
98204.000			-28.811			-2.881
98304.000			-28.810			-2.881
98404.000			-28.809			-2.881
98504.000			-28.808			-2.881
98603.000			-28.810			-2.881
98704.000			-28.809			-2.881
98803.000			-28.807			-2.881
98905.000			-28.805			-2.881
99004.000			-28.805			-2.880
99104.000			-28.805			-2.881
99205.000			-28.804			-2.880
99304.000			-28.803			-2.880
99404.000			-28.804			-2.880
99504.000			-28.803			-2.880
99604.000			-28.802			-2.880
99704.000			-28.801			-2.880
99805.000			-28.801			-2.880
99904.000			-28.800			-2.880
100004.000			-28.799			-2.880
100105.000			-28.798			-2.880
100203.000			-28.798			-2.880
100304.000			-28.798			-2.880
100405.000			-28.798			-2.880
100504.000			-28.798			-2.880
100604.000			-28.796			-2.880
100705.000			-28.796			-2.880
100804.000			-28.795			-2.879
100903.000			-28.795			-2.879
101005.000			-28.793			-2.879
101103.000			-28.793			-2.879
101204.000			-28.793			-2.879
101305.000			-28.792			-2.879
101404.000			-28.791			-2.879
101504.000			-28.791			-2.879
101604.000			-28.791			-2.879
101704.000			-28.790			-2.879
101803.000			-28.790			-2.879
101904.000			-28.790			-2.879
102004.000			-28.789			-2.879
102105.000			-28.787			-2.879
102204.000			-28.786			-2.879
102304.000			-28.786			-2.879
102405.000			-28.786			-2.879
102503.000			-28.786			-2.879
102604.000			-28.785			-2.878
102704.000			-28.783			-2.878
102804.000			-28.783			-2.878
102904.000			-28.782			-2.878
103005.000			-28.781			-2.878
103104.000			-28.781			-2.878
103204.000			-28.781			-2.878
103305.000			-28.780			-2.878
103403.000			-28.780			-2.878
103504.000			-28.778			-2.878
103605.000			-28.778			-2.878
103704.000			-28.777			-2.878
103804.000			-28.776			-2.878
103905.000			-28.775			-2.878
104004.000			-28.776			-2.878
104103.000			-28.776			-2.878
104205.000			-28.775			-2.878
104304.000			-28.774			-2.877
104404.000			-28.773			-2.877
104505.000			-28.772			-2.877
104604.000			-28.773			-2.877
104704.000			-28.772			-2.877
104803.000			-28.770			-2.877
104904.000			-28.770			-2.877
105003.000			-28.770			-2.877
105104.000			-28.769			-2.877
105204.000			-28.768			-2.877
105305.000			-28.768			-2.877
105404.000			-28.767			-2.877
105504.000			-28.767			-2.877
105605.000			-28.767			-2.877
105703.000			-28.765			-2.877
105804.000			-28.765			-2.877
105905.000			-28.764			-2.876
106004.000			-28.763			-2.876
106104.000			-28.762			-2.876
106205.000			-28.763			-2.876
106304.000			-28.762			-2.876
106403.000			-28.761			-2.876
106505.000			-28.760			-2.876
106604.000			-28.759			-2.876
106704.000			-28.759			-2.876
106805.000			-28.759			-2.876
106904.000			-28.758			-2.876
107004.000			-28.757			-2.876
107104.000			-28.756			-2.876
107204.000			-28.756			-2.876
107303.000			-28.755			-2.875
107405.000			-28.754			-2.875
107504.000			-28.755			-2.875
107604.000			-28.755			-2.875
107705.000			-28.754			-2.875
107804.000			-28.753			-2.875
107904.000			-28.752			-2.875
108003.000			-28.751			-2.875
108104.000			-28.750			-2.875
108205.000			-28.750			-2.875
108304.000			-28.749			-2.875
108404.000			-28.749			-2.875
108505.000			-28.749			-2.875
108604.000			-28.747			-2.875
108703.000			-28.747			-2.875
108805.000			-28.747			-2.875
108904.000			-28.746			-2.875
109004.000			-28.746			-2.875
109105.000			-28.746			-2.875
109204.000			-28.745			-2.875
109304.000			-28.744			-2.874
109405.000			-28.743			-2.874
109504.000			-28.742			-2.874
109603.000			-28.743			-2.874
109705.000			-28.743			-2.874
109804.000			-28.741			-2.874
109904.000			-28.740			-2.874
110005.000			-28.740			-2.874
110104.000			-28.740			-2.874
110204.000			-28.739			-2.874
110304.000			-28.738			-2.874
110404.000			-28.737			-2.874
110504.000			-28.737			-2.874
110605.000			-28.736			-2.874
110704.000			-28.736			-2.874
110804.000			-28.736			-2.874
110905.000			-28.735			-2.873
111003.000			-28.734			-2.873
111104.000			-28.734			-2.873
111205.000			-28.734			-2.873
111304.000			-28.733			-2.873
111405.000			-28.732			-2.873
111504.000			-28.732			-2.873
111604.000			-28.730			-2.873
111704.000			-28.730			-2.873
111804.000			-28.729			-2.873
111903.000			-28.728			-2.873
112005.000			-28.729			-2.873
112104.000			-28.728			-2.873
112204.000			-28.727			-2.873
112305.000			-28.726			-2.873
112404.000			-28.726			-2.873
112504.000			-28.726			-2.873
112604.000			-28.725			-2.873
112704.000			-28.725			-2.873
112804.000			-28.725			-2.872
112905.000			-28.724			-2.872
113004.000			-28.723			-2.872
113104.000			-28.722			-2.872
113205.000			-28.721			-2.872
113303.000			-28.721			-2.872
113404.000			-28.720			-2.872
113505.000			-28.719			-2.872
113604.000			-28.719			-2.872
113704.000			-28.719			-2.872
113805.000			-28.718			-2.872
113904.000			-28.717			-2.872
114003.000			-28.717			-2.872
114105.000			-28.716			-2.872
114204.000			-28.717			-2.872
114304.000			-28.717			-2.872
114405.000			-28.715			-2.872
114504.000			-28.713			-2.871
114605.000			-28.714			-2.871
114703.000			-28.712			-2.871
114804.000			-28.711			-2.871
114905.000			-28.711			-2.871
115004.000			-28.712			-2.871
115104.000			-28.712			-2.871
115205.000			-28.710			-2.871
115304.000			-28.710			-2.871
115403.000			-28.710			-2.871
115505.000			-28.709			-2.871
115604.000			-28.708			-2.871
115704.000			-28.708			-2.871
115805.000			-28.707			-2.871
115904.000			-28.706			-2.871
116004.000			-28.706			-2.871
116105.000			-28.705			-2.870
116204.000			-28.705			-2.870
116303.000			-28.705			-2.870
116405.000			-28.705			-2.870
116504.000			-28.704			-2.870
116604.000			-28.703			-2.870
116705.000			-28.702			-2.870
116804.000			-28.701			-2.870
116904.000			-28.701			-2.870
117004.000			-28.700			-2.870
117104.000			-28.700			-2.870
117204.000			-28.700			-2.870
117305.000			-28.700			-2.870
117404.000			-28.697			-2.870
117504.000			-28.698			-2.870
117605.000			-28.698			-2.870
117704.000			-28.697			-2.870
117805.000			-28.696			-2.870
117903.000			-28.695			-2.870
118004.000			-28.694			-2.869
118105.000			-28.694			-2.869
118204.000			-28.694			-2.869
118304.000			-28.694			-2.869
118405.000			-28.694			-2.869
118504.000			-28.693			-2.869
118603.000			-28.692			-2.869
118705.000			-28.691			-2.869
118804.000			-28.690			-2.869
118904.000			-28.690			-2.869
119005.000			-28.690			-2.869
119104.000			-28.689			-2.869
119204.000			-28.689			-2.869
119305.000			-28.689			-2.869
119404.000			-28.688			-2.869
119503.000			-28.688			-2.869
119605.000			-28.686			-2.869
119704.000			-28.686			-2.869
119804.000			-28.686			-2.869
119905.000			-28.686			-2.869
120004.000			-28.685			-2.868
120104.000			-28.685			-2.868
120205.000			-28.683			-2.868
120304.000			-28.682			-2.868
120403.000			-28.683			-2.868
120505.000			-28.682			-2.868
120604.000			-28.681			-2.868
120704.000			-28.681			-2.868
120805.000			-28.681			-2.868
120904.000			-28.680			-2.868
121005.000			-28.679			-2.868
121103.000			-28.678			-2.868
121204.000			-28.677			-2.868
121305.000			-28.677			-2.868
121404.000			-28.677			-2.868
121504.000			-28.676			-2.868
121605.000			-28.675			-2.867
121704.000			-28.675			-2.868
121804.000			-28.675			-2.868
121905.000			-28.675			-2.867
122003.000			-28.674			-2.867
122104.000			-28.673			-2.867
122205.000			-28.673			-2.867
122304.000			-28.673			-2.867
122404.000			-28.672			-2.867
122505.000			-28.673			-2.867
122604.000			-28.672			-2.867
122703.000			-28.671			-2.867
122805.000			-28.671			-2.867
122904.000			-28.670			-2.867
123004.000			-28.669			-2.867
123105.000			-28.668			-2.867
123204.000			-28.668			-2.867
123304.000			-28.667			-2.867
123404.000			-28.667			-2.867
123504.000			-28.667			-2.867
123603.000			-28.666			-2.867
123705.000			-28.666			-2.867
123804.000			-28.665			-2.867
123904.000			-28.663			-2.866
124005.000			-28.662			-2.866
124104.000			-28.661			-2.866
124205.000			-28.661			-2.866
124303.000			-28.662			-2.866
124404.000			-28.661			-2.866
124505.000			-28.661			-2.866
124604.000			-28.661			-2.866
124704.000			-28.661			-2.866
124805.000			-28.660			-2.866
124904.000			-28.659			-2.866
125003.000			-28.659			-2.866
125105.000			-28.659			-2.866
125204.000			-28.657			-2.866
125304.000			-28.656			-2.866
125405.000			-28.657			-2.866
125504.000			-28.656			-2.866
125604.000			-28.655			-2.865
125705.000			-28.656			-2.866
125804.000			-28.656			-2.866
125903.000			-28.654			-2.865
126005.000			-28.654			-2.865
126104.000			-28.653			-2.865
126204.000			-28.652			-2.865
126305.000			-28.651			-2.865
126404.000			-28.652			-2.865
126504.000			-28.652			-2.865
126604.000			-28.651			-2.865
126704.000			-28.651			-2.865
126804.000			-28.649			-2.865
126905.000			-28.650			-2.865
127004.000			-28.649			-2.865
127104.000			-28.649			-2.865
127205.000			-28.648			-2.865
127304.000			-28.647			-2.865
127405.000			-28.647			-2.865
127503.000			-28.646			-2.865
127604.000			-28.646			-2.865
127705.000			-28.645			-2.864
127804.000			-28.644			-2.864
127904.000			-28.643			-2.864
128005.000			-28.643			-2.864
128104.000			-28.643			-2.864
128203.000			-28.643			-2.864
128305.000			-28.642			-2.864
128404.000			-28.641			-2.864
128504.000			-28.641			-2.864
128605.000			-28.640			-2.864
128704.000			-28.640			-2.864
128804.000			-28.639			-2.864
128905.000			-28.639			-2.864
129004.000			-28.639			-2.864
129103.000			-28.636			-2.864
129205.000			-28.636			-2.864
129304.000			-28.636			-2.864
129404.000			-28.637			-2.864
129505.000			-28.636			-2.864
129604.000			-28.635			-2.863
129704.000			-28.635			-2.863
129804.000			-28.634			-2.863
129904.000			-28.633			-2.863
130003.000			-28.634			-2.863
130105.000			-28.634			-2.863
130204.000			-28.633			-2.863
130304.000			-28.632			-2.863
130405.000			-28.632			-2.863
130504.000			-28.631			-2.863
130605.000			-28.631			-2.863
130703.000			-28.631			-2.863
130804.000			-28.630			-2.863
130905.000			-28.629			-2.863
131004.000			-28.629			-2.863
131104.000			-28.628			-2.863
131205.000			-28.627			-2.863
131304.000			-28.627			-2.863
131403.000			-28.625			-2.863
131505.000			-28.626			-2.863
131604.000			-28.624			-2.862
131704.000			-28.624			-2.862
131805.000			-28.624			-2.862
131904.000			-28.624			-2.862
132004.000			-28.624			-2.862
132105.000			-28.623			-2.862
132204.000			-28.622			-2.862
132303.000			-28.622			-2.862
132405.000			-28.622			-2.862
132504.000			-28.622			-2.862
132604.000			-28.621			-2.862
132705.000			-28.620			-2.862
132804.000			-28.620			-2.862
132904.000			-28.619			-2.862
133005.000			-28.618			-2.862
133104.000			-28.619			-2.862
133203.000			-28.619			-2.862
133305.000			-28.618			-2.862
133404.000			-28.619			-2.862
133504.000			-28.617			-2.862
133605.000			-28.615			-2.862
133704.000			-28.616			-2.862
133805.000			-28.616			-2.862
133904.000			-28.615			-2.861
134004.000			-28.615			-2.862
134104.000			-28.615			-2.861
134204.000			-28.613			-2.861
134304.000			-28.613			-2.861
134405.000			-28.612			-2.861
134504.000			-28.613			-2.861
134604.000			-28.612			-2.861
134705.000			-28.611			-2.861
134804.000			-28.610			-2.861
134904.000			-28.610			-2.861
135004.000			-28.610			-2.861
135104.000			-28.609			-2.861
135204.000			-28.607			-2.861
135305.000			-28.607			-2.861
135404.000			-28.607			-2.861
135504.000			-28.607			-2.861
135605.000			-28.606			-2.861
135704.000			-28.607			-2.861
135804.000			-28.606			-2.861
135904.000			-28.605			-2.861
136004.000			-28.605			-2.860
136104.000			-28.605			-2.860
136205.000			-28.604			-2.860
136304.000			-28.603			-2.860
136404.000			-28.602			-2.860
136505.000			-28.603			-2.860
136604.000			-28.602			-2.860
136704.000			-28.601			-2.860
136803.000			-28.601			-2.860
136904.000			-28.601			-2.860
137005.000			-28.600			-2.860
137104.000			-28.601			-2.860
137204.000			-28.599			-2.860
137305.000			-28.599			-2.860
137404.000			-28.598			-2.860
137504.000			-28.597			-2.860
137605.000			-28.597			-2.860
137703.000			-28.597			-2.860
137804.000			-28.596			-2.860
137904.000			-28.596			-2.860
138004.000			-28.595			-2.860
138104.000			-28.594			-2.859
138205.000			-28.594			-2.859
138304.000			-28.594			-2.859
138404.000			-28.595			-2.859
138505.000			-28.593			-2.859
138604.000			-28.592			-2.859
138704.000			-28.592			-2.859
138804.000			-28.592			-2.859
138904.000			-28.592			-2.859
139004.000			-28.591			-2.859
139105.000			-28.591			-2.859
139204.000			-28.590			-2.859
139304.000			-28.588			-2.859
139405.000			-28.587			-2.859
139504.000			-28.587			-2.859
139604.000			-28.588			-2.859
139704.000			-28.589			-2.859
139804.000			-28.587			-2.859
139903.000			-28.586			-2.859
140005.000			-28.586			-2.859
140104.000			-28.585			-2.858
140205.000			-28.585			-2.859
140304.000			-28.584			-2.858
140404.000			-28.583			-2.858
140505.000			-28.584			-2.858
140604.000			-28.584			-2.858
140704.000			-28.583			-2.858
140804.000			-28.582			-2.858
140904.000			-28.582			-2.858
141004.000			-28.582			-2.858
141105.000			-28.582			-2.858
141204.000			-28.580			-2.858
141304.000			-28.580			-2.858
141405.000			-28.578			-2.858
141504.000			-28.579			-2.858
141604.000			-28.579			-2.858
141704.000			-28.578			-2.858
141804.000			-28.577			-2.858
141904.000			-28.578			-2.858
142005.000			-28.578			-2.858
142104.000			-28.577			-2.858
142204.000			-28.577			-2.858
142305.000			-28.575			-2.858
142404.000			-28.575			-2.858
142504.000			-28.575			-2.857
142604.000			-28.575			-2.858
142704.000			-28.575			-2.857
142803.000			-28.575			-2.857
142905.000			-28.574			-2.857
143004.000			-28.573			-2.857
143104.000			-28.572			-2.857
143205.000			-28.571			-2.857
143304.000			-28.571			-2.857
143405.000			-28.571			-2.857
143503.000			-28.570			-2.857
143604.000			-28.570			-2.857
143704.000			-28.568			-2.857
143804.000			-28.568			-2.857
143904.000			-28.569			-2.857
144005.000			-28.569			-2.857
144104.000			-28.568			-2.857
144204.000			-28.567			-2.857
144305.000			-28.567			-2.857
144404.000			-28.565			-2.857
144504.000			-28.566			-2.857
144604.000			-28.565			-2.856
144704.000			-28.565			-2.856
144804.000			-28.565			-2.857
144905.000			-28.565			-2.857
145004.000			-28.564			-2.856
145104.000			-28.562			-2.856
145205.000			-28.562			-2.856
145304.000			-28.562			-2.856
145404.000			-28.561			-2.856
145504.000			-28.561			-2.856
145604.000			-28.562			-2.856
145703.000			-28.560			-2.856
145805.000			-28.559			-2.856
145904.000			-28.558			-2.856
146004.000			-28.558			-2.856
146105.000			-28.558			-2.856
146204.000			-28.557			-2.856
146304.000			-28.558			-2.856
146403.000			-28.558			-2.856
146504.000			-28.557			-2.856
146603.000			-28.557			-2.856
146704.000			-28.556			-2.856
146804.000			-28.556			-2.856
146905.000			-28.555			-2.856
147004.000			-28.554			-2.855
147104.000			-28.554			-2.855
147205.000			-28.553			-2.855
147304.000			-28.553			-2.855
147404.000			-28.553			-2.855
147504.000			-28.553			-2.855
147604.000			-28.553			-2.855
147704.000			-28.552			-2.855
147805.000			-28.551			-2.855
147904.000			-28.551			-2.855
148004.000			-28.551			-2.855
148105.000			-28.550			-2.855
148204.000			-28.550			-2.855
148304.000			-28.549			-2.855
148404.000			-28.548			-2.855
148504.000			-28.549			-2.855
148604.000			-28.549			-2.855
148705.000			-28.548			-2.855
148804.000			-28.549			-2.855
148904.000			-28.548			-2.855
149005.000			-28.546			-2.855
149104.000			-28.545			-2.855
149204.000			-28.545			-2.855
149304.000			-28.546			-2.855
149404.000			-28.546			-2.855
149503.000			-28.543			-2.854
149605.000			-28.543			-2.854
149704.000			-28.543			-2.854
149805.000			-28.543			-2.854
149904.000			-28.544			-2.854
150004.000			-28.543			-2.854
150105.000			-28.543			-2.854
150204.000			-28.541			-2.854
150304.000			-28.540			-2.854
150404.000			-28.540			-2.854
150504.000			-28.540			-2.854
150604.000			-28.540			-2.854
150705.000			-28.539			-2.854
150804.000			-28.540			-2.854
150904.000			-28.538			-2.854
151005.000			-28.538			-2.854
151103.000			-28.538			-2.854
151204.000			-28.537			-2.854
151304.000			-28.536			-2.854
151404.000			-28.536			-2.854
151504.000			-28.536			-2.854
151605.000			-28.535			-2.854
151704.000			-28.535			-2.854
151804.000			-28.535			-2.853
151905.000			-28.533			-2.853
152003.000			-28.534			-2.853
152104.000			-28.534			-2.853
152204.000			-28.533			-2.853
152304.000			-28.533			-2.853
152404.000			-28.534			-2.853
152505.000			-28.533			-2.853
152604.000			-28.532			-2.853
152704.000			-28.530			-2.853
152805.000			-28.530			-2.853
152903.000			-28.531			-2.853
153005.000			-28.531			-2.853
153104.000			-28.529			-2.853
153204.000			-28.528			-2.853
153305.000			-28.527			-2.853
153404.000			-28.527			-2.853
153504.000			-28.527			-2.853
153605.000			-28.526			-2.853
153704.000			-28.527			-2.853
153803.000			-28.525			-2.853
153905.000			-28.526			-2.853
154004.000			-28.526			-2.853
154104.000			-28.525			-2.853
154205.000			-28.526			-2.853
154304.000			-28.525			-2.852
154404.000			-28.523			-2.852
154505.000			-28.523			-2.852
154604.000			-28.522			-2.852
154703.000			-28.522			-2.852
154805.000			-28.522			-2.852
154904.000			-28.521			-2.852
155004.000			-28.521			-2.852
155105.000			-28.521			-2.852
155204.000			-28.520			-2.852
155304.000			-28.519			-2.852
155405.000			-28.519			-2.852
155504.000			-28.519			-2.852
155603.000			-28.518			-2.852
155705.000			-28.518			-2.852
155804.000			-28.518			-2.852
155904.000			-28.518			-2.852
156005.000			-28.516			-2.852
156104.000			-28.515			-2.852
156205.000			-28.515			-2.851
156304.000			-28.515			-2.851
156404.000			-28.514			-2.851
156504.000			-28.515			-2.851
156604.000			-28.515			-2.851
156703.000			-28.514			-2.851
156805.000			-28.514			-2.851
156904.000			-28.513			-2.851
157004.000			-28.513			-2.851
157105.000			-28.512			-2.851
157204.000			-28.512			-2.851
157304.000			-28.512			-2.851
157404.000			-28.511			-2.851
157504.000			-28.510			-2.851
157603.000			-28.510			-2.851
157705.000			-28.509			-2.851
157804.000			-28.509			-2.851
157904.000			-28.509			-2.851
158005.000			-28.509			-2.851
158104.000			-28.509			-2.851
158204.000			-28.507			-2.851
158304.000			-28.508			-2.851
158404.000			-28.508			-2.851
158503.000			-28.507			-2.851
158605.000			-28.507			-2.851
158704.000			-28.506			-2.851
158804.000			-28.506			-2.851
158905.000			-28.506			-2.851
159004.000			-28.505			-2.851
159104.000			-28.506			-2.851
159204.000			-28.504			-2.850
159304.000			-28.502			-2.850
159403.000			-28.503			-2.850
159504.000			-28.503			-2.850
159604.000			-28.502			-2.850
159705.000			-28.502			-2.850
159804.000			-28.501			-2.850
159904.000			-28.500			-2.850
160005.000			-28.501			-2.850
160104.000			-28.501			-2.850
160204.000			-28.501			-2.850
160304.000			-28.500			-2.850
160404.000			-28.499			-2.850
160504.000			-28.498			-2.850
160605.000			-28.498			-2.850
160704.000			-28.498			-2.850
160804.000			-28.498			-2.850
160905.000			-28.498			-2.850
161004.000			-28.498			-2.850
161104.000			-28.496			-2.850
161204.000			-28.495			-2.850
161304.000			-28.496			-2.850
161404.000			-28.496			-2.850
161505.000			-28.496			-2.850
161604.000			-28.495			-2.850
161704.000			-28.494			-2.849
161805.000			-28.494			-2.849
161904.000			-28.493			-2.849
162004.000			-28.492			-2.849
162104.000			-28.491			-2.849
162204.000			-28.492			-2.849
162304.000			-28.492			-2.849
162404.000			-28.492			-2.849
162504.000			-28.491			-2.849
162605.000			-28.491			-2.849
162704.000			-28.490			-2.849
162804.000			-28.489			-2.849
162905.000			-28.488			-2.849
163003.000			-28.488			-2.849
163104.000			-28.489			-2.849
163204.000			-28.488			-2.849
163304.000			-28.487			-2.849
163404.000			-28.487			-2.849
163505.000			-28.486			-2.849
163604.000			-28.487			-2.849
163704.000			-28.487			-2.849
163805.000			-28.486			-2.849
163904.000			-28.486			-2.849
164004.000			-28.486			-2.849
164104.000			-28.483			-2.848
164204.000			-28.484			-2.848
164304.000			-28.483			-2.848
164405.000			-28.483			-2.848
164504.000			-28.482			-2.848
164604.000			-28.482			-2.848
164705.000			-28.482			-2.848
164804.000			-28.482			-2.848
164904.000			-28.481			-2.848
165004.000			-28.480			-2.848
165104.000			-28.480			-2.848
165204.000			-28.480			-2.848
165305.000			-28.479			-2.848
165404.000			-28.478			-2.848
165504.000			-28.478			-2.848
165605.000			-28.478			-2.848
165704.000			-28.477			-2.848
165805.000			-28.477			-2.848
165903.000			-28.477			-2.848
166004.000			-28.476			-2.848
166104.000			-28.476			-2.848
166204.000			-28.475			-2.847
166304.000			-28.475			-2.847
166405.000			-28.474			-2.847
166504.000			-28.474			-2.847
166604.000			-28.474			-2.847
166705.000			-28.474			-2.847
166804.000			-28.474			-2.847
166904.000			-28.473			-2.847
167004.000			-28.472			-2.847
167104.000			-28.472			-2.847
167204.000			-28.472			-2.847
167305.000			-28.472			-2.847
167404.000			-28.471			-2.847
167504.000			-28.471			-2.847
167605.000			-28.471			-2.847
167704.000			-28.469			-2.847
167804.000			-28.469			-2.847
167904.000			-28.469			-2.847
168004.000			-28.469			-2.847
168103.000			-28.468			-2.847
168205.000			-28.468			-2.847
168304.000			-28.468			-2.847
168404.000			-28.466			-2.847
168505.000			-28.466			-2.847
168604.000			-28.466			-2.847
168704.000			-28.467			-2.847
168803.000			-28.465			-2.847
168904.000			-28.466			-2.847
169003.000			-28.464			-2.846
169104.000			-28.465			-2.846
169204.000			-28.464			-2.846
169305.000			-28.463			-2.846
169404.000			-28.463			-2.846
169504.000			-28.463			-2.846
169605.000			-28.463			-2.846
169704.000			-28.460			-2.846
169804.000			-28.461			-2.846
169904.000			-28.461			-2.846
170004.000			-28.460			-2.846
170104.000			-28.460			-2.846
170205.000			-28.460			-2.846
170304.000			-28.459			-2.846
170404.000			-28.461			-2.846
170505.000			-28.461			-2.846
170604.000			-28.459			-2.846
170704.000			-28.458			-2.846
170804.000			-28.458			-2.846
170904.000			-28.458			-2.846
171003.000			-28.457			-2.846
171105.000			-28.457			-2.846
171204.000			-28.456			-2.846
171304.000			-28.455			-2.845
171405.000			-28.455			-2.846
171504.000			-28.455			-2.846
171604.000			-28.454			-2.845
171704.000			-28.453			-2.845
171804.000			-28.453			-2.845
171903.000			-28.453			-2.845
172005.000			-28.453			-2.845
172104.000			-28.453			-2.845
172205.000			-28.452			-2.845
172304.000			-28.452			-2.845
172404.000			-28.451			-2.845
172505.000			-28.452			-2.845
172603.000			-28.452			-2.845
172704.000			-28.451			-2.845
172804.000			-28.450			-2.845
172904.000			-28.450			-2.845
173004.000			-28.449			-2.845
173105.000			-28.449			-2.845
173204.000			-28.450			-2.845
173304.000			-28.450			-2.845
173405.000			-28.449			-2.845
173503.000			-28.448			-2.845
173604.000			-28.448			-2.845
173704.000			-28.447			-2.845
173804.000			-28.446			-2.845
173904.000			-28.445			-2.845
174005.000			-28.446			-2.845
174104.000			-28.446			-2.845
174204.000			-28.445			-2.845
174305.000			-28.446			-2.845
174404.000			-28.444			-2.844
174504.000			-28.445			-2.844
174604.000			-28.445			-2.844
174704.000			-28.445			-2.844
174804.000			-28.443			-2.844
174905.000			-28.442			-2.844
175004.000			-28.441			-2.844
175104.000			-28.441			-2.844
175205.000			-28.441			-2.844
175304.000			-28.440			-2.844
175405.000			-28.440			-2.844
175503.000			-28.440			-2.844
175604.000			-28.440			-2.844
175705.000			-28.439			-2.844
175804.000			-28.438			-2.844
175904.000			-28.439			-2.844
176005.000			-28.438			-2.844
176104.000			-28.437			-2.844
176204.000			-28.436			-2.844
176305.000			-28.436			-2.844
176403.000			-28.436			-2.844
176504.000			-28.437			-2.844
176604.000			-28.436			-2.844
176704.000			-28.435			-2.844
176804.000			-28.436			-2.844
176905.000			-28.435			-2.844
177004.000			-28.436			-2.844
177104.000			-28.436			-2.844
177205.000			-28.433			-2.843
177303.000			-28.433			-2.843
177404.000			-28.433			-2.843
177504.000			-28.433			-2.843
177604.000			-28.432			-2.843
177704.000			-28.431			-2.843
177805.000			-28.432			-2.843
177904.000			-28.432			-2.843
178004.000			-28.431			-2.843
178105.000			-28.431			-2.843
178204.000			-28.431			-2.843
178304.000			-28.430			-2.843
178403.000			-28.430			-2.843
178504.000			-28.429			-2.843
178605.000			-28.429			-2.843
178704.000			-28.429			-2.843
178804.000			-28.427			-2.843
178905.000			-28.427			-2.843
179004.000			-28.427			-2.843
179104.000			-28.428			-2.843
179205.000			-28.427			-2.843
179303.000			-28.427			-2.843
179404.000			-28.425			-2.843
179504.000			-28.425			-2.842
179604.000			-28.424			-2.842
179704.000			-28.424			-2.842
179805.000			-28.424			-2.842
179904.000			-28.424			-2.842
180004.000			-28.423			-2.842
180105.000			-28.423			-2.842
180204.000			-28.423			-2.842
180304.000			-28.423			-2.842
180404.000			-28.422			-2.842
180504.000			-28.422			-2.842
180604.000			-28.422			-2.842
180705.000			-28.422			-2.842
180804.000			-28.420			-2.842
180904.000			-28.420			-2.842
181005.000			-28.420			-2.842
181103.000			-28.420			-2.842
181204.000			-28.420			-2.842
181304.000			-28.419			-2.842
181404.000			-28.419			-2.842
181504.000			-28.419			-2.842
181604.000			-28.417			-2.842
181704.000			-28.417			-2.842
181805.000			-28.417			-2.842
181904.000			-28.418			-2.842
182004.000			-28.417			-2.842
182105.000			-28.416			-2.842
182203.000			-28.416			-2.842
182304.000			-28.415			-2.841
182405.000			-28.415			-2.842
182504.000			-28.415			-2.841
182604.000			-28.413			-2.841
182705.000			-28.413			-2.841
182804.000			-28.413			-2.841
182904.000			-28.413			-2.841
183005.000			-28.412			-2.841
183103.000			-28.412			-2.841
183204.000			-28.412			-2.841
183305.000			-28.412			-2.841
183404.000			-28.411			-2.841
183504.000			-28.411			-2.841
183605.000			-28.411			-2.841
183704.000			-28.410			-2.841
183803.000			-28.410			-2.841
183905.000			-28.409			-2.841
184003.000			-28.410			-2.841
184104.000			-28.411			-2.841
184205.000			-28.411			-2.841
184304.000			-28.410			-2.841
184404.000			-28.407			-2.841
184505.000			-28.407			-2.841
184604.000			-28.407			-2.841
184703.000			-28.407			-2.841
184805.000			-28.406			-2.841
184903.000			-28.405			-2.841
185005.000			-28.406			-2.841
185104.000			-28.405			-2.841
185204.000			-28.406			-2.841
185305.000			-28.405			-2.841
185404.000			-28.404			-2.840
185504.000			-28.404			-2.840
185605.000			-28.403			-2.840
185704.000			-28.403			-2.840
185803.000			-28.403			-2.840
185905.000			-28.403			-2.840
186004.000			-28.402			-2.840
186104.000			-28.402			-2.840
186205.000			-28.402			-2.840
186304.000			-28.402			-2.840
186404.000			-28.402			-2.840
186505.000			-28.401			-2.840
186604.000			-28.400			-2.840
186703.000			-28.400			-2.840
186805.000			-28.400			-2.840
186904.000			-28.400			-2.840
187004.000			-28.399			-2.840
187105.000			-28.398			-2.840
187204.000			-28.399			-2.840
187304.000			-28.398			-2.840
187405.000			-28.398			-2.840
187504.000			-28.397			-2.840
187603.000			-28.396			-2.840
187705.000			-28.396			-2.840
187803.000			-28.396			-2.840
187904.000			-28.396			-2.840
188005.000			-28.396			-2.840
188104.000			-28.395			-2.839
188205.000			-28.395			-2.840
188304.000			-28.394			-2.839
188404.000			-28.394			-2.839
188505.000			-28.394			-2.839
188604.000			-28.393			-2.839
188703.000			-28.393			-2.839
188805.000			-28.392			-2.839
188903.000			-28.392			-2.839
189004.000			-28.392			-2.839
189105.000			-28.392			-2.839
189204.000			-28.391			-2.839
189304.000			-28.390			-2.839
189405.000			-28.389			-2.839
189504.000			-28.389			-2.839
189604.000			-28.389			-2.839
189705.000			-28.389			-2.839
189803.000			-28.389			-2.839
189904.000			-28.389			-2.839
190004.000			-28.388			-2.839
190104.000			-28.388			-2.839
190204.000			-28.388			-2.839
190305.000			-28.388			-2.839
190404.000			-28.388			-2.839
190504.000			-28.386			-2.839
190605.000			-28.386			-2.839
190703.000			-28.386			-2.839
190804.000			-28.386			-2.839
190904.000			-28.385			-2.838
191004.000			-28.384			-2.838
191104.000			-28.384			-2.838
191204.000			-28.384			-2.838
191304.000			-28.384			-2.838
191405.000			-28.383			-2.838
191504.000			-28.382			-2.838
191604.000			-28.383			-2.838
191705.000			-28.383			-2.838
191803.000			-28.382			-2.838
191904.000			-28.382			-2.838
192005.000			-28.381			-2.838
192104.000			-28.381			-2.838
192204.000			-28.381			-2.838
192305.000			-28.380			-2.838
192404.000			-28.380			-2.838
192504.000			-28.380			-2.838
192605.000			-28.380			-2.838
192703.000			-28.379			-2.838
192804.000			-28.378			-2.838
192905.000			-28.378			-2.838
193004.000			-28.378			-2.838
193104.000			-28.378			-2.838
193205.000			-28.378			-2.838
193304.000			-28.377			-2.838
193404.000			-28.377			-2.838
193505.000			-28.377			-2.838
193603.000			-28.377			-2.838
193704.000			-28.376			-2.838
193804.000			-28.375			-2.838
193904.000			-28.375			-2.837
194004.000			-28.374			-2.837
194105.000			-28.375			-2.837
194204.000			-28.374			-2.837
194304.000			-28.373			-2.837
194405.000			-28.373			-2.837
194504.000			-28.372			-2.837
194605.000			-28.372			-2.837
194703.000			-28.371			-2.837
194804.000			-28.371			-2.837
194905.000			-28.371			-2.837
195004.000			-28.372			-2.837
195104.000			-28.370			-2.837
195205.000			-28.370			-2.837
195304.000			-28.371			-2.837
195404.000			-28.370			-2.837
195505.000			-28.370			-2.837
195603.000			-28.370			-2.837
195704.000			-28.369			-2.837
195805.000			-28.369			-2.837
195904.000			-28.368			-2.837
196004.000			-28.368			-2.837
196105.000			-28.367			-2.837
196204.000			-28.367			-2.837
196304.000			-28.366			-2.837
196405.000			-28.366			-2.837
196503.000			-28.366			-2.837
196604.000			-28.366			-2.837
196704.000			-28.365			-2.837
196804.000			-28.365			-2.837
196904.000			-28.365			-2.836
197005.000			-28.364			-2.836
197104.000			-28.364			-2.836
197204.000			-28.364			-2.836
197305.000			-28.364			-2.836
197404.000			-28.364			-2.836
197504.000			-28.363			-2.836
197603.000			-28.364			-2.836
197704.000			-28.364			-2.836
197805.000			-28.362			-2.836
197904.000			-28.361			-2.836
198004.000			-28.360			-2.836
198105.000			-28.360			-2.836
198204.000			-28.360			-2.836
198304.000			-28.360			-2.836
198405.000			-28.359			-2.836
198503.000			-28.359			-2.836
198604.000			-28.358			-2.836
198704.000			-28.358			-2.836
198804.000			-28.359			-2.836
198904.000			-28.359			-2.836
199005.000			-28.359			-2.836
199104.000			-28.358			-2.836
199204.000			-28.358			-2.836
199305.000			-28.357			-2.836
199404.000			-28.357			-2.836
199504.000			-28.357			-2.836
199604.000			-28.357			-2.836
199704.000			-28.356			-2.836
199803.000			-28.355			-2.836
199905.000			-28.355			-2.836
200004.000			-28.355			-2.835
200104.000			-28.355			-2.835
200205.000			-28.355			-2.835
200304.000			-28.354			-2.835
200404.000			-28.353			-2.835
200504.000			-28.354			-2.835
200604.000			-28.354			-2.835
200703.000			-28.352			-2.835
200805.000			-28.352			-2.835
200904.000			-28.352			-2.835
201005.000			-28.351			-2.835
201104.000			-28.350			-2.835
201204.000			-28.352			-2.835
201305.000			-28.350			-2.835
201403.000			-28.349			-2.835
201504.000			-28.348			-2.835
201605.000			-28.350			-2.835
201704.000			-28.350			-2.835
201804.000			-28.348			-2.835
201905.000			-28.348			-2.835
202004.000			-28.348			-2.835
202104.000			-28.348			-2.835
202205.000			-28.348			-2.835
202303.000			-28.347			-2.835
202404.000			-28.347			-2.835
202505.000			-28.347			-2.835
202604.000			-28.346			-2.835
202704.000			-28.344			-2.834
202805.000			-28.344			-2.834
202904.000			-28.345			-2.834
203004.000			-28.344			-2.834
203105.000			-28.344			-2.834
203203.000			-28.344			-2.834
203304.000			-28.344			-2.834
203405.000			-28.343			-2.834
203504.000			-28.342			-2.834
203604.000			-28.342			-2.834
203705.000			-28.343			-2.834
203804.000			-28.342			-2.834
203904.000			-28.342			-2.834
204005.000			-28.342			-2.834
204103.000			-28.341			-2.834
204205.000			-28.341			-2.834
204304.000			-28.341			-2.834
204404.000			-28.341			-2.834
204505.000			-28.340			-2.834
204604.000			-28.339			-2.834
204704.000			-28.339			-2.834
204805.000			-28.340			-2.834
204904.000			-28.338			-2.834
205003.000			-28.338			-2.834
205105.000			-28.337			-2.834
205204.000			-28.337			-2.834
205304.000			-28.337			-2.834
205405.000			-28.337			-2.834
205504.000			-28.336			-2.834
205604.000			-28.336			-2.834
205704.000			-28.336			-2.834
205804.000			-28.336			-2.834
205903.000			-28.335			-2.834
206005.000			-28.335			-2.833
206104.000			-28.334			-2.833
206204.000			-28.334			-2.833
206305.000			-28.334			-2.833
206404.000			-28.334			-2.833
206504.000			-28.333			-2.833
206604.000			-28.333			-2.833
206704.000			-28.332			-2.833
206804.000			-28.332			-2.833
206905.000			-28.332			-2.833
207004.000			-28.331			-2.833
207104.000			-28.331			-2.833
207205.000			-28.331			-2.833
207304.000			-28.330			-2.833
207405.000			-28.330			-2.833
207503.000			-28.329			-2.833
207604.000			-28.328			-2.833
207705.000			-28.329			-2.833
207804.000			-28.329			-2.833
207904.000			-28.328			-2.833
208005.000			-28.328			-2.833
208104.000			-28.328			-2.833
208204.000			-28.328			-2.833
208305.000			-28.327			-2.833
208403.000			-28.327			-2.833
208504.000			-28.326			-2.833
208605.000			-28.327			-2.833
208704.000			-28.327			-2.833
208804.000			-28.325			-2.833
208905.000			-28.325			-2.833
209004.000			-28.325			-2.833
209104.000			-28.325			-2.832
209205.000			-28.324			-2.832
209303.000			-28.325			-2.832
209404.000			-28.324			-2.832
209505.000			-28.323			-2.832
209604.000			-28.323			-2.832
209704.000			-28.323			-2.832
209805.000			-28.321			-2.832
209904.000			-28.322			-2.832
210004.000			-28.322			-2.832
210105.000			-28.321			-2.832
210203.000			-28.320			-2.832
210304.000			-28.320			-2.832
210405.000			-28.321			-2.832
210504.000			-28.321			-2.832
210605.000			-28.321			-2.832
210704.000			-28.320			-2.832
210804.000			-28.319			-2.832
210904.000			-28.320			-2.832
211004.000			-28.319			-2.832
211103.000			-28.319			-2.832
211205.000			-28.319			-2.832
211304.000			-28.318			-2.832
211404.000			-28.318			-2.832
211505.000			-28.318			-2.832
211604.000			-28.316			-2.832
211704.000			-28.316			-2.832
211804.000			-28.317			-2.832
211904.000			-28.316			-2.832
212004.000			-28.316			-2.832
212105.000			-28.315			-2.832
212204.000			-28.314			-2.831
212304.000			-28.314			-2.831
212405.000			-28.314			-2.831
212504.000			-28.313			-2.831
212604.000			-28.313			-2.831
212704.000			-28.314			-2.831
212804.000			-28.314			-2.831
212904.000			-28.313			-2.831
213005.000			-28.313			-2.831
213104.000			-28.312			-2.831
213204.000			-28.312			-2.831
213305.000			-28.312			-2.831
213404.000			-28.311			-2.831
213504.000			-28.310			-2.831
213603.000			-28.311			-2.831
213704.000			-28.310			-2.831
213805.000			-28.311			-2.831
213904.000			-28.310			-2.831
214004.000			-28.309			-2.831
214105.000			-28.309			-2.831
214204.000			-28.309			-2.831
214303.000			-28.308			-2.831
214405.000			-28.307			-2.831
214503.000			-28.308			-2.831
214604.000			-28.307			-2.831
214705.000			-28.307			-2.831
214804.000			-28.306			-2.831
214904.000			-28.307			-2.831
215005.000			-28.306			-2.831
215104.000			-28.306			-2.831
215203.000			-28.306			-2.831
215305.000			-28.305			-2.830
215404.000			-28.305			-2.830
215504.000			-28.305			-2.831
215605.000			-28.305			-2.831
215704.000			-28.304			-2.830
215804.000			-28.304			-2.830
215905.000			-28.303			-2.830
216004.000			-28.303			-2.830
216103.000			-28.304			-2.830
216205.000			-28.303			-2.830
216304.000			-28.303			-2.830
216404.000			-28.303			-2.830
216505.000			-28.301			-2.830
216604.000			-28.301			-2.830
216704.000			-28.301			-2.830
216804.000			-28.300			-2.830
216904.000			-28.300			-2.830
217003.000			-28.301			-2.830
217104.000			-28.300			-2.830
217204.000			-28.299			-2.830
217305.000			-28.298			-2.830
217404.000			-28.298			-2.830
217504.000			-28.299			-2.830
217605.000			-28.299			-2.830
217704.000			-28.297			-2.830
217804.000			-28.297			-2.830
217904.000			-28.297			-2.830
218004.000			-28.297			-2.830
218104.000			-28.297			-2.830
218205.000			-28.297			-2.830
218304.000			-28.296			-2.830
218404.000			-28.295			-2.830
218505.000			-28.295			-2.830
218604.000			-28.296			-2.830
218704.000			-28.293			-2.829
218804.000			-28.294			-2.829
218904.000			-28.294			-2.829
219004.000			-28.293			-2.829
219105.000			-28.294			-2.829
219204.000			-28.294			-2.829
219304.000			-28.294			-2.829
219405.000			-28.293			-2.829
219504.000			-28.293			-2.829
219604.000			-28.293			-2.829
219704.000			-28.292			-2.829
219804.000			-28.292			-2.829
219903.000			-28.292			-2.829
220005.000			-28.291			-2.829
220104.000			-28.290			-2.829
220205.000			-28.290			-2.829
220304.000			-28.289			-2.829
220404.000			-28.290			-2.829
220505.000			-28.290			-2.829
220603.000			-28.289			-2.829
220704.000			-28.289			-2.829
220804.000			-28.289			-2.829
220904.000			-28.288			-2.829
221004.000			-28.288			-2.829
221105.000			-28.288			-2.829
221204.000			-28.287			-2.829
221304.000			-28.286			-2.829
221405.000			-28.287			-2.829
221503.000			-28.288			-2.829
221604.000			-28.286			-2.829
221704.000			-28.285			-2.828
221804.000			-28.285			-2.828
221904.000			-28.285			-2.828
222005.000			-28.285			-2.828
222104.000			-28.284			-2.828
222204.000			-28.284			-2.828
222305.000			-28.284			-2.828
222403.000			-28.284			-2.828
222504.000			-28.283			-2.828
222605.000			-28.283			-2.828
222704.000			-28.283			-2.828
222804.000			-28.282			-2.828
222905.000			-28.281			-2.828
223004.000			-28.281			-2.828
223104.000			-28.282			-2.828
223205.000			-28.281			-2.828
223303.000			-28.281			-2.828
223405.000			-28.281			-2.828
223504.000			-28.281			-2.828
223604.000			-28.280			-2.828
223705.000			-28.280			-2.828
223804.000			-28.280			-2.828
223904.000			-28.280			-2.828
224005.000			-28.278			-2.828
224104.000			-28.278			-2.828
224203.000			-28.278			-2.828
224305.000			-28.278			-2.828
224404.000			-28.278			-2.828
224504.000			-28.279			-2.828
224605.000			-28.277			-2.828
224704.000			-28.277			-2.828
224804.000			-28.277			-2.828
224905.000			-28.277			-2.828
225004.000			-28.276			-2.828
225103.000			-28.276			-2.828
225205.000			-28.275			-2.828
225304.000			-28.275			-2.828
225404.000			-28.276			-2.828
225505.000			-28.275			-2.827
225604.000			-28.274			-2.827
225704.000			-28.274			-2.827
225805.000			-28.273			-2.827
225904.000			-28.274			-2.827
226003.000			-28.274			-2.827
226105.000			-28.273			-2.827
226204.000			-28.272			-2.827
226304.000			-28.272			-2.827
226405.000			-28.272			-2.827
226504.000			-28.271			-2.827
226605.000			-28.271			-2.827
226704.000			-28.270			-2.827
226804.000			-28.270			-2.827
226904.000			-28.271			-2.827
227004.000			-28.271			-2.827
227103.000			-28.271			-2.827
227205.000			-28.270			-2.827
227304.000			-28.270			-2.827
227404.000			-28.270			-2.827
227505.000			-28.268			-2.827
227604.000			-28.268			-2.827
227704.000			-28.267			-2.827
227804.000			-28.267			-2.827
227904.000			-28.268			-2.827
228003.000			-28.267			-2.827
228105.000			-28.266			-2.827
228204.000			-28.267			-2.827
228304.000			-28.266			-2.827
228405.000			-28.266			-2.827
228504.000			-28.265			-2.827
228604.000			-28.266			-2.827
228704.000			-28.265			-2.827
228804.000			-28.265			-2.826
228903.000			-28.265			-2.827
229005.000			-28.265			-2.826
229104.000			-28.263			-2.826
229204.000			-28.264			-2.826
229305.000			-28.264			-2.826
229404.000			-28.262			-2.826
229504.000			-28.261			-2.826
229604.000			-28.262			-2.826
229704.000			-28.262			-2.826
229803.000			-28.262			-2.826
229904.000			-28.262			-2.826
230004.000			-28.261			-2.826
230105.000			-28.262			-2.826
230204.000			-28.261			-2.826
230304.000			-28.261			-2.826
230405.000			-28.260			-2.826
230504.000			-28.259			-2.826
230604.000			-28.259			-2.826
230704.000			-28.259			-2.826
230804.000			-28.259			-2.826
230904.000			-28.259			-2.826
231005.000			-28.260			-2.826
231104.000			-28.257			-2.826
231204.000			-28.256			-2.826
231305.000			-28.257			-2.826
231404.000			-28.258			-2.826
231504.000			-28.258			-2.826
231604.000			-28.258			-2.826
231704.000			-28.257			-2.826
231804.000			-28.257			-2.826
231905.000			-28.256			-2.826
232004.000			-28.256			-2.826
232104.000			-28.255			-2.825
232205.000			-28.254			-2.825
232304.000			-28.253			-2.825
232404.000			-28.254			-2.825
232504.000			-28.254			-2.825
232604.000			-28.254			-2.825
232704.000			-28.252			-2.825
232804.000			-28.252			-2.825
232904.000			-28.253			-2.825
233005.000			-28.253			-2.825
233104.000			-28.251			-2.825
233203.000			-28.252			-2.825
233305.000			-28.251			-2.825
233403.000			-28.251			-2.825
233504.000			-28.252			-2.825
233605.000			-28.250			-2.825
233704.000			-28.250			-2.825
233804.000			-28.251			-2.825
233905.000			-28.250			-2.825
234004.000			-28.250			-2.825
234103.000			-28.249			-2.825
234205.000			-28.249			-2.825
234303.000			-28.248			-2.825
234404.000			-28.247			-2.825
234505.000			-28.248			-2.825
234604.000			-28.248			-2.825
234704.000			-28.247			-2.825
234805.000			-28.248			-2.825
234904.000			-28.247			-2.825
235003.000			-28.247			-2.825
235105.000			-28.247			-2.825
235203.000			-28.246			-2.825
235304.000			-28.246			-2.825
235405.000			-28.245			-2.825
235504.000			-28.246			-2.825
235604.000			-28.245			-2.824
235705.000			-28.245			-2.824
235804.000			-28.245			-2.825
235904.000			-28.244			-2.824
236005.000			-28.244			-2.824
236103.000			-28.244			-2.824
236205.000			-28.243			-2.824
236304.000			-28.243			-2.824
236404.000			-28.243			-2.824
236505.000			-28.243			-2.824
236604.000			-28.243			-2.824
236704.000			-28.241			-2.824
236805.000			-28.241			-2.824
236904.000			-28.242			-2.824
237003.000			-28.241			-2.824
237105.000			-28.241			-2.824
237204.000			-28.240			-2.824
237304.000			-28.240			-2.824
237405.000			-28.241			-2.824
237504.000			-28.240			-2.824
237604.000			-28.239			-2.824
237705.000			-28.239			-2.824
237804.000			-28.239			-2.824
237903.000			-28.240			-2.824
238005.000			-28.240			-2.824
238104.000			-28.238			-2.824
238204.000			-28.238			-2.824
238305.000			-28.237			-2.824
238404.000			-28.238			-2.824
238504.000			-28.237			-2.824
238605.000			-28.237			-2.824
238704.000			-28.237			-2.824
238803.000			-28.237			-2.824
238905.000			-28.237			-2.824
239004.000			-28.236			-2.824
239104.000			-28.235			-2.823
239205.000			-28.234			-2.823
239304.000			-28.234			-2.823
239405.000			-28.233			-2.823
239504.000			-28.235			-2.823
239604.000			-28.234			-2.823
239704.000			-28.234			-2.823
239804.000			-28.234			-2.823
239903.000			-28.234			-2.823
240005.000			-28.233			-2.823
240104.000			-28.232			-2.823
240204.000			-28.231			-2.823
240305.000			-28.231			-2.823
240404.000			-28.231			-2.823
240504.000			-28.231			-2.823
240604.000			-28.230			-2.823
240704.000			-28.231			-2.823
240804.000			-28.232			-2.823
240905.000			-28.231			-2.823
241004.000			-28.230			-2.823
241104.000			-28.230			-2.823
241205.000			-28.230			-2.823
241304.000			-28.229			-2.823
241404.000			-28.229			-2.823
241504.000			-28.229			-2.823
241604.000			-28.229			-2.823
241704.000			-28.228			-2.823
241805.000			-28.227			-2.823
241904.000			-28.227			-2.823
242004.000			-28.227			-2.823
242105.000			-28.227			-2.823
242204.000			-28.227			-2.823
242304.000			-28.226			-2.823
242403.000			-28.226			-2.823
242504.000			-28.225			-2.823
242605.000			-28.224			-2.822
242704.000			-28.225			-2.822
242804.000			-28.224			-2.822
242905.000			-28.224			-2.822
243004.000			-28.223			-2.822
243104.000			-28.223			-2.822
243205.000			-28.223			-2.822
243303.000			-28.223			-2.822
243404.000			-28.223			-2.822
243505.000			-28.223			-2.822
243604.000			-28.223			-2.822
243704.000			-28.222			-2.822
243805.000			-28.222			-2.822
243904.000			-28.222			-2.822
244003.000			-28.222			-2.822
244105.000			-28.222			-2.822
244203.000			-28.221			-2.822
244304.000			-28.221			-2.822
244405.000			-28.221			-2.822
244504.000			-28.221			-2.822
244604.000			-28.220			-2.822
244705.000			-28.220			-2.822
244804.000			-28.220			-2.822
244903.000			-28.219			-2.822
245005.000			-28.219			-2.822
245104.000			-28.218			-2.822
245204.000			-28.217			-2.822
245305.000			-28.217			-2.822
245404.000			-28.217			-2.822
245504.000			-28.217			-2.822
245604.000			-28.216			-2.822
245704.000			-28.217			-2.822
245803.000			-28.216			-2.822
245904.000			-28.216			-2.822
246003.000			-28.217			-2.822
246105.000			-28.216			-2.822
246204.000			-28.214			-2.821
246304.000			-28.214			-2.821
246405.000			-28.215			-2.821
246504.000			-28.215			-2.821
246604.000			-28.215			-2.821
246704.000			-28.215			-2.822
246804.000			-28.215			-2.821
246904.000			-28.213			-2.821
247005.000			-28.214			-2.821
247104.000			-28.212			-2.821
247204.000			-28.212			-2.821
247305.000			-28.212			-2.821
247404.000			-28.211			-2.821
247504.000			-28.211			-2.821
247604.000			-28.211			-2.821
247704.000			-28.211			-2.821
247804.000			-28.210			-2.821
247905.000			-28.210			-2.821
248004.000			-28.211			-2.821
248104.000			-28.210			-2.821
248205.000			-28.209			-2.821
248304.000			-28.210			-2.821
248404.000			-28.209			-2.821
248504.000			-28.208			-2.821
248604.000			-28.209			-2.821
248704.000			-28.209			-2.821
248804.000			-28.209			-2.821
248904.000			-28.209			-2.821
249005.000			-28.208			-2.821
249104.000			-28.209			-2.821
249204.000			-28.208			-2.821
249305.000			-28.206			-2.821
249403.000			-28.208			-2.821
249504.000			-28.207			-2.821
249605.000			-28.206			-2.821
249704.000			-28.205			-2.821
249804.000			-28.206			-2.821
249905.000			-28.206			-2.821
250004.000			-28.205			-2.820
250104.000			-28.204			-2.820
250205.000			-28.203			-2.820
250303.000			-28.204			-2.820
250404.000			-28.203			-2.820
250505.000			-28.204			-2.820
250604.000			-28.204			-2.820
250704.000			-28.202			-2.820
250805.000			-28.202			-2.820
250904.000			-28.203			-2.820
251004.000			-28.203			-2.820
251105.000			-28.203			-2.820
251203.000			-28.202			-2.820
251304.000			-28.201			-2.820
251405.000			-28.202			-2.820
251504.000			-28.201			-2.820
251604.000			-28.200			-2.820
251705.000			-28.200			-2.820
251804.000			-28.199			-2.820
251903.000			-28.200			-2.820
252005.000			-28.199			-2.820
252103.000			-28.199			-2.820
252205.000			-28.199			-2.820
252304.000			-28.198			-2.820
252404.000			-28.198			-2.820
252505.000			-28.198			-2.820
252604.000			-28.197			-2.820
252704.000			-28.197			-2.820
252804.000			-28.198			-2.820
252904.000			-28.198			-2.820
253003.000			-28.197			-2.820
253105.000			-28.196			-2.820
253204.000			-28.196			-2.820
253304.000			-28.197			-2.820
253405.000			-28.196			-2.820
253504.000			-28.196			-2.820
253604.000			-28.196			-2.820
253704.000			-28.195			-2.819
253804.000			-28.194			-2.819
253903.000			-28.194			-2.819
254005.000			-28.194			-2.819
254104.000			-28.194			-2.819
254204.000			-28.193			-2.819
254305.000			-28.193			-2.819
254404.000			-28.194			-2.819
254504.000			-28.193			-2.819
254604.000			-28.192			-2.819
254704.000			-28.192			-2.819
254803.000			-28.191			-2.819
254905.000			-28.192			-2.819
255004.000			-28.191			-2.819
255104.000			-28.191			-2.819
255205.000			-28.191			-2.819
255304.000			-28.191			-2.819
255405.000			-28.190			-2.819
255504.000			-28.189			-2.819
255604.000			-28.190			-2.819
255704.000			-28.190			-2.819
255804.000			-28.189			-2.819
255904.000			-28.189			-2.819
256005.000			-28.189			-2.819
256104.000			-28.189			-2.819
256204.000			-28.189			-2.819
256305.000			-28.188			-2.819
256404.000			-28.188			-2.819
256504.000			-28.188			-2.819
256604.000			-28.188			-2.819
256704.000			-28.187			-2.819
256803.000			-28.187			-2.819
256905.000			-28.186			-2.819
257004.000			-28.185			-2.819
257104.000			-28.186			-2.819
257205.000			-28.186			-2.819
257304.000			-28.186			-2.819
257404.000			-28.185			-2.818
257504.000			-28.184			-2.818
257604.000			-28.184			-2.818
257703.000			-28.184			-2.818
257805.000			-28.185			-2.818
257904.000			-28.184			-2.818
258004.000			-28.184			-2.818
258105.000			-28.183			-2.818
258204.000			-28.182			-2.818
258304.000			-28.183			-2.818
258404.000			-28.182			-2.818
258504.000			-28.182			-2.818
258603.000			-28.182			-2.818
258704.000			-28.182			-2.818
258804.000			-28.181			-2.818
258905.000			-28.182			-2.818
259004.000			-28.182			-2.818
259104.000			-28.182			-2.818
259205.000			-28.181			-2.818
259304.000			-28.180			-2.818
259404.000			-28.179			-2.818
259504.000			-28.180			-2.818
259604.000			-28.179			-2.818
259703.000			-28.179			-2.818
259805.000			-28.178			-2.818
259904.000			-28.178			-2.818
260004.000			-28.179			-2.818
260105.000			-28.178			-2.818
260204.000			-28.177			-2.818
260304.000			-28.177			-2.818
260404.000			-28.176			-2.818
260504.000			-28.178			-2.818
260603.000			-28.178			-2.818
260705.000			-28.177			-2.818
260804.000			-28.177			-2.818
260904.000			-28.175			-2.817
261005.000			-28.175			-2.817
261104.000			-28.176			-2.818
261204.000			-28.175			-2.817
261305.000			-28.174			-2.817
261404.000			-28.174			-2.817
261503.000			-28.174			-2.817
261605.000			-28.174			-2.817
261704.000			-28.174			-2.817
261805.000			-28.174			-2.817
261904.000			-28.174			-2.817
262004.000			-28.174			-2.817
262105.000			-28.173			-2.817
262204.000			-28.172			-2.817
262304.000			-28.171			-2.817
262404.000			-28.172			-2.817
262504.000			-28.172			-2.817
262604.000			-28.171			-2.817
262705.000			-28.171			-2.817
262804.000			-28.171			-2.817
262904.000			-28.171			-2.817
263005.000			-28.172			-2.817
263103.000			-28.169			-2.817
263204.000			-28.169			-2.817
263304.000			-28.170			-2.817
263404.000			-28.169			-2.817
263504.000			-28.168			-2.817
263605.000			-28.168			-2.817
263704.000			-28.169			-2.817
263804.000			-28.168			-2.817
263905.000			-28.169			-2.817
264004.000			-28.169			-2.817
264104.000			-28.168			-2.817
264204.000			-28.168			-2.817
264304.000			-28.168			-2.817
264404.000			-28.167			-2.817
264505.000			-28.168			-2.817
264604.000			-28.167			-2.817
264704.000			-28.166			-2.817
264805.000			-28.166			-2.817
264904.000			-28.166			-2.817
265005.000			-28.166			-2.817
265103.000			-28.164			-2.816
265204.000			-28.164			-2.816
265305.000			-28.165			-2.816
265404.000			-28.164			-2.816
265504.000			-28.164			-2.816
265605.000			-28.165			-2.817
265704.000			-28.166			-2.817
265804.000			-28.164			-2.816
265905.000			-28.163			-2.816
266003.000			-28.163			-2.816
266104.000			-28.162			-2.816
266205.000			-28.162			-2.816
266304.000			-28.162			-2.816
266404.000			-28.161			-2.816
266505.000			-28.161			-2.816
266604.000			-28.161			-2.816
266704.000			-28.162			-2.816
266805.000			-28.161			-2.816
266903.000			-28.160			-2.816
267004.000			-28.161			-2.816
267105.000			-28.161			-2.816
267204.000			-28.161			-2.816
267304.000			-28.161			-2.816
267405.000			-28.160			-2.816
267504.000			-28.160			-2.816
267604.000			-28.159			-2.816
267705.000			-28.158			-2.816
267803.000			-28.159			-2.816
267904.000			-28.158			-2.816
268005.000			-28.158			-2.816
268104.000			-28.158			-2.816
268205.000			-28.157			-2.816
268304.000			-28.156			-2.816
268404.000			-28.156			-2.816
268505.000			-28.156			-2.816
268604.000			-28.156			-2.816
268703.000			-28.157			-2.816
268805.000			-28.157			-2.816
268903.000			-28.156			-2.816
269004.000			-28.156			-2.816
269105.000			-28.156			-2.816
269204.000			-28.157			-2.816
269304.000			-28.156			-2.816
269405.000			-28.154			-2.815
269504.000			-28.154			-2.815
269603.000			-28.154			-2.815
269705.000			-28.155			-2.815
269803.000			-28.154			-2.815
269904.000			-28.155			-2.815
270005.000			-28.153			-2.815
270104.000			-28.152			-2.815
270204.000			-28.153			-2.815
270305.000			-28.153			-2.815
270404.000			-28.152			-2.815
270503.000			-28.152			-2.815
270605.000			-28.151			-2.815
270703.000			-28.152			-2.815
270804.000			-28.152			-2.815
270905.000			-28.152			-2.815
271004.000			-28.152			-2.815
271104.000			-28.151			-2.815
271204.000			-28.151			-2.815
271304.000			-28.150			-2.815
271403.000			-28.149			-2.815
271504.000			-28.149			-2.815
271603.000			-28.149			-2.815
271705.000			-28.148			-2.815
271804.000			-28.149			-2.815
271904.000			-28.148			-2.815
272005.000			-28.148			-2.815
272104.000			-28.147			-2.815
272204.000			-28.147			-2.815
272304.000			-28.147			-2.815
272404.000			-28.147			-2.815
272503.000			-28.147			-2.815
272605.000			-28.147			-2.815
272704.000			-28.146			-2.815
272804.000			-28.147			-2.815
272905.000			-28.147			-2.815
273004.000			-28.146			-2.815
273104.000			-28.145			-2.815
273204.000			-28.145			-2.815
273304.000			-28.146			-2.815
273403.000			-28.145			-2.815
273505.000			-28.144			-2.814
273604.000			-28.144			-2.814
273704.000			-28.144			-2.814
273805.000			-28.145			-2.814
273904.000			-28.145			-2.814
274004.000			-28.144			-2.814
274104.000			-28.143			-2.814
274204.000			-28.141			-2.814
274303.000			-28.142			-2.814
274405.000			-28.143			-2.814
274504.000			-28.143			-2.814
274605.000			-28.142			-2.814
274704.000			-28.141			-2.814
274804.000			-28.140			-2.814
274905.000			-28.141			-2.814
275003.000			-28.140			-2.814
275104.000			-28.139			-2.814
275204.000			-28.139			-2.814
275304.000			-28.140			-2.814
275404.000			-28.140			-2.814
275505.000			-28.139			-2.814
275604.000			-28.138			-2.814
275704.000			-28.139			-2.814
275805.000			-28.139			-2.814
275904.000			-28.138			-2.814
276004.000			-28.139			-2.814
276104.000			-28.139			-2.814
276204.000			-28.138			-2.814
276304.000			-28.137			-2.814
276405.000			-28.137			-2.814
276504.000			-28.138			-2.814
276604.000			-28.138			-2.814
276705.000			-28.137			-2.814
276804.000			-28.137			-2.814
276904.000			-28.137			-2.814
277004.000			-28.135			-2.814
277104.000			-28.135			-2.813
277204.000			-28.136			-2.814
277305.000			-28.136			-2.814
277404.000			-28.137			-2.814
277504.000			-28.136			-2.814
277605.000			-28.135			-2.813
277704.000			-28.134			-2.813
277805.000			-28.134			-2.813
277903.000			-28.133			-2.813
278004.000			-28.132			-2.813
278105.000			-28.133			-2.813
278204.000			-28.133			-2.813
278304.000			-28.133			-2.813
278405.000			-28.133			-2.813
278504.000			-28.132			-2.813
278604.000			-28.130			-2.813
278705.000			-28.130			-2.813
278803.000			-28.131			-2.813
278904.000			-28.131			-2.813
279005.000			-28.131			-2.813
279104.000			-28.131			-2.813
279204.000			-28.131			-2.813
279305.000			-28.131			-2.813
279404.000			-28.131			-2.813
279504.000			-28.130			-2.813
279605.000			-28.130			-2.813
279703.000			-28.131			-2.813
279804.000			-28.129			-2.813
279904.000			-28.129			-2.813
280004.000			-28.129			-2.813
280104.000			-28.129			-2.813
280205.000			-28.128			-2.813
280304.000			-28.128			-2.813
280404.000			-28.128			-2.813
280505.000			-28.128			-2.813
280603.000			-28.127			-2.813
280704.000			-28.127			-2.813
280803.000			-28.126			-2.813
280904.000			-28.127			-2.813
281005.000			-28.126			-2.813
281104.000			-28.125			-2.813
281204.000			-28.126			-2.813
281305.000			-28.126			-2.813
281404.000			-28.124			-2.812
281503.000			-28.124			-2.812
281605.000			-28.125			-2.812
281703.000			-28.126			-2.813
281804.000			-28.125			-2.813
281905.000			-28.124			-2.812
282004.000			-28.124			-2.812
282104.000			-28.124			-2.812
282205.000			-28.123			-2.812
282304.000			-28.123			-2.812
282403.000			-28.123			-2.812
282505.000			-28.122			-2.812
282604.000			-28.122			-2.812
282704.000			-28.122			-2.812
282805.000			-28.121			-2.812
282904.000			-28.121			-2.812
283004.000			-28.121			-2.812
283105.000			-28.121			-2.812
283204.000			-28.121			-2.812
283303.000			-28.120			-2.812
283405.000			-28.119			-2.812
283504.000			-28.120			-2.812
283604.000			-28.120			-2.812
283705.000			-28.120			-2.812
283804.000			-28.120			-2.812
283904.000			-28.120			-2.812
284004.000			-28.119			-2.812
284104.000			-28.119			-2.812
284203.000			-28.119			-2.812
284304.000			-28.119			-2.812
284404.000			-28.118			-2.812
284505.000			-28.118			-2.812
284604.000			-28.119			-2.812
284704.000			-28.118			-2.812
284805.000			-28.118			-2.812
284904.000			-28.117			-2.812
285004.000			-28.117			-2.812
285104.000			-28.117			-2.812
285204.000			-28.117			-2.812
285304.000			-28.116			-2.812
285405.000			-28.116			-2.812
285504.000			-28.116			-2.812
285604.000			-28.116			-2.812
285705.000			-28.115			-2.812
285804.000			-28.115			-2.811
285904.000			-28.115			-2.812
286004.000			-28.115			-2.811
286104.000			-28.115			-2.811
286204.000			-28.114			-2.811
286305.000			-28.114			-2.811
286404.000			-28.114			-2.811
286504.000			-28.114			-2.811
286605.000			-28.114			-2.811
286704.000			-28.114			-2.811
286804.000			-28.114			-2.811
286904.000			-28.112			-2.811
287004.000			-28.112			-2.811
287103.000			-28.111			-2.811
287205.000			-28.112			-2.811
287304.000			-28.110			-2.811
287405.000			-28.111			-2.811
287504.000			-28.111			-2.811
287604.000			-28.110			-2.811
287705.000			-28.111			-2.811
287803.000			-28.110			-2.811
287904.000			-28.110			-2.811
288005.000			-28.110			-2.811
288104.000			-28.110			-2.811
288204.000			-28.109			-2.811
288305.000			-28.109			-2.811
288404.000			-28.109			-2.811
288504.000			-28.109			-2.811
288605.000			-28.109			-2.811
288703.000			-28.109			-2.811
288804.000			-28.109			-2.811
288904.000			-28.107			-2.811
289004.000			-28.106			-2.811
289104.000			-28.106			-2.811
289205.000			-28.106			-2.811
289304.000			-28.107			-2.811
289404.000			-28.106			-2.811
289505.000			-28.105			-2.811
289604.000			-28.105			-2.810
289704.000			-28.105			-2.810
289804.000			-28.105			-2.811
289904.000			-28.105			-2.810
290004.000			-28.104			-2.810
290105.000			-28.104			-2.810
290204.000			-28.104			-2.810
290304.000			-28.104			-2.810
290405.000			-28.105			-2.810
290504.000			-28.104			-2.810
290605.000			-28.103			-2.810
290703.000			-28.102			-2.810
290804.000			-28.102			-2.810
290905.000			-28.102			-2.810
291004.000			-28.101			-2.810
291104.000			-28.102			-2.810
291205.000			-28.103			-2.810
291304.000			-28.102			-2.810
291403.000			-28.101			-2.810
291505.000			-28.102			-2.810
291604.000			-28.100			-2.810
291704.000			-28.101			-2.810
291805.000			-28.100			-2.810
291904.000			-28.099			-2.810
292004.000			-28.100			-2.810
292105.000			-28.100			-2.810
292204.000			-28.100			-2.810
292303.000			-28.099			-2.810
292405.000			-28.099			-2.810
292504.000			-28.099			-2.810
292604.000			-28.098			-2.810
292705.000			-28.098			-2.810
292804.000			-28.098			-2.810
292904.000			-28.099			-2.810
293005.000			-28.097			-2.810
293104.000			-28.097			-2.810
293203.000			-28.097			-2.810
293305.000			-28.097			-2.810
293403.000			-28.097			-2.810
293504.000			-28.097			-2.810
293605.000			-28.097			-2.810
293704.000			-28.096			-2.810
293805.000			-28.095			-2.809
293904.000			-28.095			-2.809
294004.000			-28.095			-2.809
294105.000			-28.095			-2.810
294204.000			-28.096			-2.810
294303.000			-28.094			-2.809
294405.000			-28.094			-2.809
294504.000			-28.093			-2.809
294604.000			-28.093			-2.809
294705.000			-28.093			-2.809
294804.000			-28.093			-2.809
294904.000			-28.093			-2.809
295005.000			-28.092			-2.809
295104.000			-28.092			-2.809
295203.000			-28.092			-2.809
295305.000			-28.091			-2.809
295403.000			-28.091			-2.809
295504.000			-28.092			-2.809
295605.000			-28.091			-2.809
295704.000			-28.091			-2.809
295804.000			-28.092			-2.809
295905.000			-28.090			-2.809
296004.000			-28.090			-2.809
296104.000			-28.090			-2.809
296205.000			-28.090			-2.809
296303.000			-28.090			-2.809
296404.000			-28.090			-2.809
296505.000			-28.090			-2.809
296604.000			-28.089			-2.809
296704.000			-28.088			-2.809
296804.000			-28.088			-2.809
296904.000			-28.089			-2.809
297005.000			-28.089			-2.809
297104.000			-28.089			-2.809
297203.000			-28.089			-2.809
297305.000			-28.089			-2.809
297403.000			-28.087			-2.809
297504.000			-28.087			-2.809
297605.000			-28.088			-2.809
297704.000			-28.088			-2.809
297804.000			-28.088			-2.809
297905.000			-28.087			-2.809
298004.000			-28.087			-2.809
298104.000			-28.086			-2.809
298205.000			-28.085			-2.809
298303.000			-28.085			-2.809
298404.000			-28.085			-2.808
298505.000			-28.085			-2.809
298604.000			-28.085			-2.808
298704.000			-28.085			-2.809
298805.000			-28.084			-2.808
298904.000			-28.083			-2.808
299004.000			-28.084			-2.808
299105.000			-28.083			-2.808
299203.000			-28.083			-2.808
299304.000			-28.084			-2.808
299404.000			-28.084			-2.808
299504.000			-28.083			-2.808
299604.000			-28.083			-2.808
299705.000			-28.084			-2.808
299804.000			-28.083			-2.808
299904.000			-28.081			-2.808
