# Acquired on 10/01/2024 16:02:01 
# SPIDER: Creep_-7mm_07714532B-2
# CREEP MEASUREMENT

# time [ms]		force [N]		stiffness [N/mm]
0.000			23.187			-3.312
101.000			24.238			-3.463
201.000			24.617			-3.517
301.000			24.585			-3.512
401.000			24.470			-3.496
500.000			24.380			-3.483
600.000			24.242			-3.463
701.000			24.186			-3.455
800.000			24.137			-3.448
901.000			24.094			-3.442
1002.000			24.053			-3.436
1100.000			24.017			-3.431
1200.000			23.983			-3.426
1301.000			23.919			-3.417
1400.000			23.893			-3.413
1500.000			23.866			-3.409
1601.000			23.841			-3.406
1701.000			23.817			-3.402
1801.000			23.795			-3.399
1901.000			23.775			-3.396
2000.000			23.735			-3.391
2100.000			23.717			-3.388
2201.000			23.698			-3.385
2300.000			23.682			-3.383
2400.000			23.664			-3.381
2502.000			23.650			-3.379
2601.000			23.634			-3.376
2700.000			23.604			-3.372
2801.000			23.591			-3.370
2900.000			23.578			-3.368
3001.000			23.564			-3.366
3100.000			23.551			-3.364
3201.000			23.539			-3.363
3302.000			23.527			-3.361
3400.000			23.515			-3.359
3500.000			23.493			-3.356
3601.000			23.482			-3.355
3700.000			23.472			-3.353
3800.000			23.461			-3.352
3901.000			23.452			-3.350
4001.000			23.442			-3.349
4101.000			23.433			-3.348
4201.000			23.414			-3.345
4300.000			23.405			-3.344
4400.000			23.396			-3.342
4501.000			23.387			-3.341
4600.000			23.378			-3.340
4700.000			23.370			-3.339
4802.000			23.363			-3.338
4901.000			23.347			-3.335
5000.000			23.339			-3.334
5101.000			23.331			-3.333
5200.000			23.323			-3.332
5300.000			23.317			-3.331
5401.000			23.310			-3.330
5501.000			23.303			-3.329
5601.000			23.289			-3.327
5701.000			23.283			-3.326
5800.000			23.276			-3.325
5900.000			23.269			-3.324
6001.000			23.263			-3.323
6100.000			23.257			-3.322
6201.000			23.251			-3.322
6301.000			23.244			-3.321
6401.000			23.233			-3.319
6501.000			23.227			-3.318
6600.000			23.220			-3.317
6700.000			23.214			-3.316
6801.000			23.209			-3.316
6900.000			23.204			-3.315
7001.000			23.198			-3.314
7102.000			23.189			-3.313
7200.000			23.183			-3.312
7300.000			23.178			-3.311
7401.000			23.174			-3.311
7500.000			23.168			-3.310
7600.000			23.162			-3.309
7701.000			23.157			-3.308
7801.000			23.149			-3.307
7901.000			23.145			-3.306
8001.000			23.138			-3.305
8100.000			23.133			-3.305
8200.000			23.129			-3.304
8301.000			23.124			-3.303
8400.000			23.118			-3.303
8500.000			23.110			-3.301
8602.000			23.106			-3.301
8701.000			23.102			-3.300
8800.000			23.098			-3.300
8901.000			23.094			-3.299
9000.000			23.090			-3.299
9100.000			23.086			-3.298
9201.000			23.082			-3.297
9301.000			23.073			-3.296
9402.000			23.068			-3.295
9500.000			23.065			-3.295
9600.000			23.061			-3.294
9701.000			23.058			-3.294
9800.000			23.054			-3.293
9900.000			23.050			-3.293
10001.000			23.043			-3.292
10101.000			23.039			-3.291
10201.000			23.036			-3.291
10301.000			23.033			-3.290
10400.000			23.030			-3.290
10500.000			23.026			-3.289
10601.000			23.022			-3.289
10700.000			23.015			-3.288
10800.000			23.012			-3.287
10902.000			23.009			-3.287
11000.000			23.006			-3.287
11100.000			23.003			-3.286
11201.000			23.000			-3.286
11300.000			22.996			-3.285
11400.000			22.990			-3.284
11501.000			22.987			-3.284
11601.000			22.982			-3.283
11701.000			22.979			-3.283
11801.000			22.977			-3.282
11900.000			22.973			-3.282
12000.000			22.970			-3.281
12101.000			22.968			-3.281
12200.000			22.961			-3.280
12300.000			22.957			-3.280
12402.000			22.955			-3.279
12501.000			22.953			-3.279
12601.000			22.950			-3.279
12700.000			22.947			-3.278
12800.000			22.944			-3.278
12901.000			22.936			-3.277
13000.000			22.934			-3.276
13100.000			22.933			-3.276
13202.000			22.929			-3.276
13301.000			22.925			-3.275
13400.000			22.922			-3.275
13501.000			22.919			-3.274
13600.000			22.914			-3.273
13700.000			22.911			-3.273
13801.000			22.908			-3.273
13900.000			22.906			-3.272
14001.000			22.902			-3.272
14102.000			22.900			-3.271
14200.000			22.898			-3.271
14300.000			22.896			-3.271
14401.000			22.890			-3.270
14500.000			22.886			-3.269
14600.000			22.884			-3.269
14701.000			22.882			-3.269
14801.000			22.879			-3.268
14901.000			22.877			-3.268
15001.000			22.874			-3.268
15100.000			22.870			-3.267
15200.000			22.867			-3.267
15301.000			22.864			-3.266
15400.000			22.862			-3.266
15500.000			22.859			-3.266
15602.000			22.857			-3.265
15701.000			22.856			-3.265
15802.000			22.851			-3.264
15900.000			22.848			-3.264
16000.000			22.845			-3.264
16101.000			22.843			-3.263
16200.000			22.841			-3.263
16300.000			22.838			-3.263
16401.000			22.836			-3.262
16501.000			22.832			-3.262
16601.000			22.830			-3.261
16701.000			22.828			-3.261
16800.000			22.826			-3.261
16900.000			22.824			-3.261
17001.000			22.821			-3.260
17100.000			22.818			-3.260
17200.000			22.816			-3.259
17302.000			22.813			-3.259
17401.000			22.810			-3.259
17500.000			22.808			-3.258
17601.000			22.806			-3.258
17700.000			22.804			-3.258
17800.000			22.802			-3.257
17901.000			22.799			-3.257
18000.000			22.796			-3.257
18101.000			22.794			-3.256
18202.000			22.792			-3.256
18300.000			22.790			-3.256
18400.000			22.787			-3.255
18501.000			22.785			-3.255
18600.000			22.783			-3.255
18700.000			22.780			-3.254
18801.000			22.777			-3.254
18901.000			22.775			-3.254
19002.000			22.773			-3.253
19100.000			22.772			-3.253
19200.000			22.770			-3.253
19301.000			22.768			-3.253
19400.000			22.765			-3.252
19500.000			22.763			-3.252
19601.000			22.761			-3.252
19701.000			22.759			-3.251
19801.000			22.757			-3.251
19901.000			22.755			-3.251
20000.000			22.753			-3.250
20100.000			22.751			-3.250
20201.000			22.749			-3.250
20300.000			22.748			-3.250
20400.000			22.745			-3.249
20502.000			22.743			-3.249
20601.000			22.741			-3.249
20700.000			22.739			-3.248
20801.000			22.737			-3.248
20900.000			22.733			-3.248
21000.000			22.731			-3.247
21101.000			22.730			-3.247
21200.000			22.728			-3.247
21301.000			22.727			-3.247
21402.000			22.725			-3.246
21500.000			22.724			-3.246
21600.000			22.720			-3.246
21701.000			22.718			-3.245
21800.000			22.718			-3.245
21900.000			22.716			-3.245
22002.000			22.712			-3.245
22101.000			22.711			-3.244
22201.000			22.709			-3.244
22300.000			22.708			-3.244
22400.000			22.704			-3.243
22501.000			22.703			-3.243
22600.000			22.702			-3.243
22700.000			22.700			-3.243
22802.000			22.699			-3.243
22901.000			22.698			-3.243
23000.000			22.696			-3.242
23101.000			22.693			-3.242
23200.000			22.691			-3.242
23300.000			22.689			-3.241
23401.000			22.688			-3.241
23500.000			22.686			-3.241
23601.000			22.684			-3.241
23702.000			22.682			-3.240
23800.000			22.680			-3.240
23900.000			22.678			-3.240
24001.000			22.676			-3.239
24100.000			22.675			-3.239
24200.000			22.674			-3.239
24301.000			22.672			-3.239
24401.000			22.671			-3.239
24501.000			22.669			-3.238
24601.000			22.667			-3.238
24700.000			22.665			-3.238
24800.000			22.664			-3.238
24901.000			22.663			-3.238
25000.000			22.661			-3.237
25100.000			22.659			-3.237
25202.000			22.655			-3.236
25301.000			22.655			-3.236
25401.000			22.654			-3.236
25500.000			22.652			-3.236
25600.000			22.650			-3.236
25701.000			22.648			-3.235
25800.000			22.647			-3.235
25900.000			22.646			-3.235
26002.000			22.644			-3.235
26101.000			22.641			-3.234
26200.000			22.640			-3.234
26301.000			22.640			-3.234
26400.000			22.637			-3.234
26500.000			22.636			-3.234
26601.000			22.635			-3.234
26700.000			22.633			-3.233
26801.000			22.631			-3.233
26902.000			22.629			-3.233
27000.000			22.628			-3.233
27100.000			22.627			-3.232
27201.000			22.625			-3.232
27300.000			22.624			-3.232
27400.000			22.622			-3.232
27501.000			22.621			-3.232
27601.000			22.620			-3.231
27701.000			22.618			-3.231
27801.000			22.616			-3.231
27900.000			22.615			-3.231
28000.000			22.614			-3.231
28101.000			22.613			-3.230
28200.000			22.611			-3.230
28300.000			22.610			-3.230
28402.000			22.608			-3.230
28501.000			22.606			-3.229
28601.000			22.605			-3.229
28700.000			22.604			-3.229
28800.000			22.603			-3.229
28901.000			22.601			-3.229
29000.000			22.598			-3.228
29100.000			22.597			-3.228
29202.000			22.597			-3.228
29301.000			22.596			-3.228
29400.000			22.594			-3.228
29501.000			22.593			-3.228
29600.000			22.590			-3.227
29700.000			22.589			-3.227
29801.000			22.588			-3.227
29900.000			22.587			-3.227
30001.000			22.585			-3.226
30102.000			22.584			-3.226
30200.000			22.583			-3.226
30300.000			22.581			-3.226
30401.000			22.580			-3.226
30500.000			22.578			-3.225
30600.000			22.576			-3.225
30701.000			22.576			-3.225
30801.000			22.574			-3.225
30901.000			22.572			-3.225
31001.000			22.571			-3.224
31100.000			22.570			-3.224
31200.000			22.569			-3.224
31301.000			22.568			-3.224
31400.000			22.567			-3.224
31500.000			22.565			-3.224
31602.000			22.564			-3.223
31701.000			22.563			-3.223
31801.000			22.561			-3.223
31900.000			22.560			-3.223
32000.000			22.560			-3.223
32101.000			22.558			-3.223
32200.000			22.556			-3.222
32300.000			22.555			-3.222
32402.000			22.554			-3.222
32501.000			22.552			-3.222
32600.000			22.552			-3.222
32701.000			22.550			-3.221
32800.000			22.548			-3.221
32900.000			22.548			-3.221
33001.000			22.547			-3.221
33100.000			22.546			-3.221
33201.000			22.544			-3.221
33302.000			22.542			-3.220
33400.000			22.542			-3.220
33500.000			22.541			-3.220
33601.000			22.539			-3.220
33700.000			22.538			-3.220
33800.000			22.536			-3.219
33902.000			22.535			-3.219
34001.000			22.534			-3.219
34101.000			22.532			-3.219
34201.000			22.532			-3.219
34300.000			22.531			-3.219
34400.000			22.530			-3.219
34501.000			22.529			-3.218
34600.000			22.527			-3.218
34701.000			22.526			-3.218
34802.000			22.526			-3.218
34901.000			22.524			-3.218
35001.000			22.522			-3.217
35100.000			22.521			-3.217
35200.000			22.520			-3.217
35301.000			22.519			-3.217
35400.000			22.517			-3.217
35501.000			22.517			-3.217
35602.000			22.515			-3.216
35700.000			22.514			-3.216
35800.000			22.512			-3.216
35901.000			22.512			-3.216
36000.000			22.511			-3.216
36100.000			22.508			-3.215
36201.000			22.507			-3.215
36301.000			22.507			-3.215
36401.000			22.506			-3.215
36501.000			22.504			-3.215
36600.000			22.504			-3.215
36700.000			22.503			-3.215
36801.000			22.501			-3.214
36900.000			22.499			-3.214
37000.000			22.499			-3.214
37102.000			22.499			-3.214
37201.000			22.498			-3.214
37300.000			22.497			-3.214
37401.000			22.496			-3.214
37500.000			22.495			-3.214
37600.000			22.493			-3.213
37701.000			22.492			-3.213
37800.000			22.491			-3.213
37901.000			22.490			-3.213
38002.000			22.489			-3.213
38100.000			22.487			-3.212
38201.000			22.486			-3.212
38300.000			22.486			-3.212
38400.000			22.485			-3.212
38501.000			22.483			-3.212
38600.000			22.481			-3.212
38701.000			22.480			-3.211
38802.000			22.480			-3.211
38900.000			22.480			-3.211
39000.000			22.478			-3.211
39101.000			22.476			-3.211
39200.000			22.475			-3.211
39300.000			22.475			-3.211
39401.000			22.474			-3.211
39501.000			22.474			-3.211
39601.000			22.473			-3.210
39701.000			22.471			-3.210
39800.000			22.468			-3.210
39900.000			22.467			-3.210
40001.000			22.467			-3.210
40100.000			22.467			-3.210
40200.000			22.466			-3.209
40302.000			22.465			-3.209
40401.000			22.463			-3.209
40500.000			22.461			-3.209
40601.000			22.461			-3.209
40700.000			22.460			-3.209
40800.000			22.459			-3.208
40901.000			22.458			-3.208
41000.000			22.457			-3.208
41101.000			22.457			-3.208
41202.000			22.455			-3.208
41300.000			22.454			-3.208
41401.000			22.453			-3.208
41500.000			22.452			-3.207
41600.000			22.451			-3.207
41701.000			22.451			-3.207
41801.000			22.450			-3.207
41901.000			22.448			-3.207
42002.000			22.448			-3.207
42100.000			22.447			-3.207
42200.000			22.446			-3.207
42301.000			22.445			-3.206
42400.000			22.445			-3.206
42500.000			22.444			-3.206
42602.000			22.442			-3.206
42701.000			22.441			-3.206
42800.000			22.440			-3.206
42901.000			22.440			-3.206
43000.000			22.438			-3.205
43100.000			22.438			-3.205
43201.000			22.437			-3.205
43300.000			22.437			-3.205
43401.000			22.434			-3.205
43502.000			22.433			-3.205
43600.000			22.433			-3.205
43700.000			22.433			-3.205
43801.000			22.431			-3.204
43900.000			22.430			-3.204
44000.000			22.429			-3.204
44101.000			22.427			-3.204
44201.000			22.426			-3.204
44301.000			22.426			-3.204
44401.000			22.425			-3.204
44500.000			22.425			-3.204
44601.000			22.424			-3.203
44700.000			22.423			-3.203
44800.000			22.423			-3.203
44901.000			22.420			-3.203
45001.000			22.419			-3.203
45101.000			22.418			-3.203
45201.000			22.417			-3.202
45300.000			22.417			-3.202
45400.000			22.416			-3.202
45501.000			22.416			-3.202
45600.000			22.415			-3.202
45701.000			22.412			-3.202
45802.000			22.412			-3.202
45900.000			22.411			-3.202
46000.000			22.409			-3.201
46101.000			22.410			-3.201
46200.000			22.410			-3.201
46300.000			22.409			-3.201
46401.000			22.409			-3.201
46501.000			22.407			-3.201
46601.000			22.406			-3.201
46701.000			22.405			-3.201
46800.000			22.405			-3.201
46900.000			22.403			-3.200
47001.000			22.402			-3.200
47100.000			22.401			-3.200
47200.000			22.400			-3.200
47302.000			22.399			-3.200
47401.000			22.398			-3.200
47500.000			22.398			-3.200
47601.000			22.398			-3.200
47700.000			22.396			-3.199
47801.000			22.396			-3.199
47900.000			22.395			-3.199
48000.000			22.393			-3.199
48102.000			22.393			-3.199
48201.000			22.392			-3.199
48300.000			22.392			-3.199
48401.000			22.390			-3.199
48500.000			22.390			-3.199
48600.000			22.389			-3.198
48701.000			22.388			-3.198
48800.000			22.387			-3.198
48900.000			22.386			-3.198
49002.000			22.385			-3.198
49101.000			22.384			-3.198
49200.000			22.383			-3.198
49301.000			22.382			-3.197
49400.000			22.382			-3.197
49500.000			22.383			-3.198
49601.000			22.382			-3.197
49700.000			22.380			-3.197
49801.000			22.379			-3.197
49902.000			22.378			-3.197
50000.000			22.377			-3.197
50100.000			22.376			-3.197
50201.000			22.374			-3.196
50300.000			22.375			-3.196
50400.000			22.375			-3.196
50501.000			22.374			-3.196
50601.000			22.373			-3.196
50701.000			22.372			-3.196
50801.000			22.370			-3.196
50900.000			22.370			-3.196
51001.000			22.369			-3.196
51100.000			22.368			-3.195
51200.000			22.368			-3.195
51301.000			22.367			-3.195
51401.000			22.366			-3.195
51501.000			22.365			-3.195
51601.000			22.365			-3.195
51700.000			22.365			-3.195
51800.000			22.364			-3.195
51901.000			22.361			-3.194
52000.000			22.361			-3.194
52100.000			22.359			-3.194
52202.000			22.358			-3.194
52301.000			22.357			-3.194
52400.000			22.358			-3.194
52501.000			22.358			-3.194
52600.000			22.356			-3.194
52700.000			22.356			-3.194
52801.000			22.354			-3.193
52901.000			22.353			-3.193
53001.000			22.353			-3.193
53102.000			22.354			-3.193
53200.000			22.353			-3.193
53300.000			22.351			-3.193
53401.000			22.350			-3.193
53500.000			22.350			-3.193
53600.000			22.349			-3.193
53701.000			22.349			-3.193
53801.000			22.349			-3.193
53901.000			22.347			-3.192
54001.000			22.345			-3.192
54100.000			22.346			-3.192
54201.000			22.345			-3.192
54300.000			22.343			-3.192
54400.000			22.342			-3.192
54501.000			22.342			-3.192
54601.000			22.340			-3.191
54701.000			22.340			-3.191
54801.000			22.341			-3.192
54900.000			22.340			-3.191
55000.000			22.338			-3.191
55101.000			22.338			-3.191
55200.000			22.337			-3.191
55300.000			22.336			-3.191
55402.000			22.336			-3.191
55501.000			22.335			-3.191
55600.000			22.335			-3.191
55701.000			22.334			-3.191
55800.000			22.333			-3.190
55900.000			22.332			-3.190
56001.000			22.331			-3.190
56101.000			22.331			-3.190
56201.000			22.330			-3.190
56301.000			22.329			-3.190
56400.000			22.329			-3.190
56500.000			22.326			-3.189
56601.000			22.326			-3.189
56700.000			22.326			-3.189
56800.000			22.324			-3.189
56902.000			22.323			-3.189
57001.000			22.324			-3.189
57100.000			22.323			-3.189
57201.000			22.322			-3.189
57300.000			22.322			-3.189
57401.000			22.322			-3.189
57500.000			22.320			-3.189
57600.000			22.319			-3.188
57702.000			22.320			-3.189
57801.000			22.320			-3.189
57900.000			22.316			-3.188
58001.000			22.315			-3.188
58100.000			22.315			-3.188
58200.000			22.314			-3.188
58301.000			22.313			-3.188
58400.000			22.314			-3.188
58501.000			22.314			-3.188
58602.000			22.312			-3.187
58700.000			22.311			-3.187
58800.000			22.311			-3.187
58901.000			22.310			-3.187
59000.000			22.310			-3.187
59100.000			22.310			-3.187
59201.000			22.309			-3.187
59301.000			22.308			-3.187
59401.000			22.306			-3.187
59501.000			22.305			-3.186
59600.000			22.305			-3.186
59700.000			22.304			-3.186
59801.000			22.304			-3.186
59900.000			22.304			-3.186
60000.000			22.304			-3.186
60102.000			22.302			-3.186
60201.000			22.302			-3.186
60300.000			22.300			-3.186
60401.000			22.300			-3.186
60500.000			22.299			-3.186
60601.000			22.299			-3.186
60700.000			22.298			-3.185
60800.000			22.297			-3.185
60902.000			22.296			-3.185
61001.000			22.296			-3.185
61100.000			22.295			-3.185
61201.000			22.295			-3.185
61300.000			22.293			-3.185
61400.000			22.293			-3.185
61501.000			22.292			-3.185
61601.000			22.292			-3.185
61701.000			22.292			-3.185
61802.000			22.291			-3.184
61900.000			22.290			-3.184
62000.000			22.290			-3.184
62101.000			22.289			-3.184
62200.000			22.288			-3.184
62300.000			22.287			-3.184
62401.000			22.287			-3.184
62501.000			22.286			-3.184
62601.000			22.285			-3.184
62701.000			22.284			-3.183
62800.000			22.284			-3.183
62900.000			22.284			-3.183
63001.000			22.282			-3.183
63100.000			22.283			-3.183
63201.000			22.282			-3.183
63302.000			22.281			-3.183
63401.000			22.281			-3.183
63500.000			22.280			-3.183
63601.000			22.280			-3.183
63700.000			22.278			-3.183
63801.000			22.278			-3.183
63900.000			22.277			-3.182
64000.000			22.276			-3.182
64102.000			22.277			-3.182
64201.000			22.275			-3.182
64300.000			22.274			-3.182
64401.000			22.273			-3.182
64500.000			22.273			-3.182
64600.000			22.273			-3.182
64701.000			22.273			-3.182
64801.000			22.273			-3.182
64901.000			22.271			-3.182
65002.000			22.271			-3.182
65100.000			22.270			-3.181
65200.000			22.269			-3.181
65301.000			22.269			-3.181
65400.000			22.268			-3.181
65500.000			22.268			-3.181
65601.000			22.267			-3.181
65701.000			22.267			-3.181
65801.000			22.266			-3.181
65901.000			22.265			-3.181
66000.000			22.264			-3.181
66100.000			22.265			-3.181
66201.000			22.263			-3.180
66300.000			22.262			-3.180
66400.000			22.261			-3.180
66502.000			22.261			-3.180
66601.000			22.260			-3.180
66700.000			22.260			-3.180
66801.000			22.259			-3.180
66900.000			22.259			-3.180
67001.000			22.259			-3.180
67100.000			22.258			-3.180
67200.000			22.257			-3.180
67302.000			22.256			-3.179
67401.000			22.256			-3.179
67500.000			22.255			-3.179
67601.000			22.255			-3.179
67700.000			22.254			-3.179
67800.000			22.254			-3.179
67901.000			22.253			-3.179
68000.000			22.253			-3.179
68101.000			22.251			-3.179
68202.000			22.251			-3.179
68300.000			22.251			-3.179
68400.000			22.250			-3.179
68501.000			22.249			-3.178
68600.000			22.248			-3.178
68700.000			22.249			-3.178
68801.000			22.247			-3.178
68901.000			22.247			-3.178
69001.000			22.246			-3.178
69101.000			22.246			-3.178
69200.000			22.246			-3.178
69300.000			22.245			-3.178
69401.000			22.245			-3.178
69500.000			22.242			-3.177
69600.000			22.242			-3.177
69702.000			22.242			-3.177
69801.000			22.242			-3.177
69900.000			22.241			-3.177
70001.000			22.241			-3.177
70100.000			22.241			-3.177
70201.000			22.240			-3.177
70300.000			22.240			-3.177
70400.000			22.239			-3.177
70502.000			22.238			-3.177
70601.000			22.237			-3.177
70700.000			22.237			-3.177
70801.000			22.237			-3.177
70900.000			22.235			-3.176
71000.000			22.234			-3.176
71101.000			22.234			-3.176
71200.000			22.234			-3.176
71301.000			22.234			-3.176
71402.000			22.233			-3.176
71500.000			22.231			-3.176
71600.000			22.231			-3.176
71701.000			22.231			-3.176
71800.000			22.231			-3.176
71900.000			22.229			-3.176
72001.000			22.229			-3.176
72101.000			22.229			-3.176
72201.000			22.228			-3.175
72301.000			22.228			-3.175
72400.000			22.226			-3.175
72500.000			22.226			-3.175
72601.000			22.226			-3.175
72700.000			22.226			-3.175
72800.000			22.225			-3.175
72902.000			22.224			-3.175
73001.000			22.223			-3.175
73100.000			22.223			-3.175
73201.000			22.222			-3.175
73300.000			22.222			-3.175
73401.000			22.221			-3.174
73500.000			22.220			-3.174
73600.000			22.221			-3.174
73702.000			22.220			-3.174
73801.000			22.220			-3.174
73900.000			22.218			-3.174
74001.000			22.218			-3.174
74100.000			22.217			-3.174
74200.000			22.217			-3.174
74301.000			22.217			-3.174
74400.000			22.215			-3.174
74501.000			22.215			-3.174
74602.000			22.215			-3.174
74700.000			22.214			-3.173
74800.000			22.213			-3.173
74901.000			22.213			-3.173
75000.000			22.213			-3.173
75100.000			22.211			-3.173
75201.000			22.211			-3.173
75301.000			22.211			-3.173
75401.000			22.211			-3.173
75501.000			22.210			-3.173
75600.000			22.209			-3.173
75700.000			22.209			-3.173
75801.000			22.209			-3.173
75900.000			22.207			-3.172
76001.000			22.207			-3.172
76102.000			22.207			-3.172
76201.000			22.206			-3.172
76300.000			22.206			-3.172
76401.000			22.205			-3.172
76500.000			22.204			-3.172
76601.000			22.204			-3.172
76700.000			22.204			-3.172
76800.000			22.204			-3.172
76902.000			22.203			-3.172
77001.000			22.203			-3.172
77100.000			22.202			-3.172
77201.000			22.202			-3.172
77300.000			22.200			-3.171
77400.000			22.200			-3.171
77501.000			22.199			-3.171
77600.000			22.198			-3.171
77701.000			22.198			-3.171
77802.000			22.197			-3.171
77900.000			22.196			-3.171
78000.000			22.196			-3.171
78101.000			22.197			-3.171
78200.000			22.195			-3.171
78300.000			22.195			-3.171
78401.000			22.195			-3.171
78501.000			22.193			-3.170
78601.000			22.192			-3.170
78701.000			22.192			-3.170
78800.000			22.193			-3.170
78900.000			22.192			-3.170
79001.000			22.191			-3.170
79100.000			22.192			-3.170
79200.000			22.191			-3.170
79302.000			22.190			-3.170
79401.000			22.190			-3.170
79501.000			22.190			-3.170
79601.000			22.190			-3.170
79700.000			22.190			-3.170
79801.000			22.189			-3.170
79900.000			22.188			-3.170
80000.000			22.188			-3.170
80101.000			22.186			-3.169
80201.000			22.186			-3.169
80301.000			22.186			-3.169
80401.000			22.184			-3.169
80500.000			22.183			-3.169
80600.000			22.182			-3.169
80701.000			22.182			-3.169
80800.000			22.183			-3.169
80900.000			22.182			-3.169
81002.000			22.181			-3.169
81101.000			22.180			-3.169
81200.000			22.181			-3.169
81301.000			22.180			-3.169
81400.000			22.180			-3.169
81500.000			22.180			-3.169
81601.000			22.180			-3.169
81700.000			22.179			-3.168
81801.000			22.177			-3.168
81902.000			22.177			-3.168
82000.000			22.177			-3.168
82100.000			22.177			-3.168
82201.000			22.176			-3.168
82300.000			22.175			-3.168
82400.000			22.175			-3.168
82501.000			22.174			-3.168
82601.000			22.174			-3.168
82701.000			22.173			-3.168
82801.000			22.173			-3.168
82900.000			22.173			-3.168
83001.000			22.173			-3.168
83100.000			22.173			-3.168
83200.000			22.173			-3.168
83301.000			22.171			-3.167
83401.000			22.171			-3.167
83501.000			22.171			-3.167
83601.000			22.171			-3.167
83700.000			22.170			-3.167
83800.000			22.169			-3.167
83901.000			22.168			-3.167
84000.000			22.167			-3.167
84100.000			22.168			-3.167
84202.000			22.168			-3.167
84301.000			22.167			-3.167
84400.000			22.168			-3.167
84501.000			22.167			-3.167
84600.000			22.166			-3.167
84700.000			22.166			-3.167
84801.000			22.165			-3.166
84900.000			22.165			-3.166
85001.000			22.163			-3.166
85102.000			22.163			-3.166
85200.000			22.163			-3.166
85300.000			22.162			-3.166
85401.000			22.161			-3.166
85500.000			22.161			-3.166
85600.000			22.161			-3.166
85701.000			22.161			-3.166
85801.000			22.160			-3.166
85901.000			22.160			-3.166
86001.000			22.159			-3.166
86100.000			22.159			-3.166
86201.000			22.158			-3.165
86300.000			22.158			-3.165
86400.000			22.157			-3.165
86501.000			22.156			-3.165
86601.000			22.157			-3.165
86701.000			22.156			-3.165
86801.000			22.156			-3.165
86900.000			22.154			-3.165
87000.000			22.154			-3.165
87101.000			22.153			-3.165
87200.000			22.153			-3.165
87300.000			22.153			-3.165
87402.000			22.152			-3.165
87501.000			22.153			-3.165
87600.000			22.151			-3.164
87701.000			22.150			-3.164
87800.000			22.150			-3.164
87900.000			22.149			-3.164
88001.000			22.150			-3.164
88100.000			22.149			-3.164
88201.000			22.148			-3.164
88302.000			22.147			-3.164
88400.000			22.147			-3.164
88500.000			22.146			-3.164
88601.000			22.147			-3.164
88700.000			22.147			-3.164
88800.000			22.147			-3.164
88901.000			22.146			-3.164
89001.000			22.145			-3.164
89101.000			22.145			-3.164
89202.000			22.144			-3.163
89300.000			22.145			-3.164
89401.000			22.144			-3.163
89500.000			22.143			-3.163
89600.000			22.142			-3.163
89701.000			22.142			-3.163
89800.000			22.143			-3.163
89901.000			22.142			-3.163
90002.000			22.141			-3.163
90100.000			22.141			-3.163
90200.000			22.140			-3.163
90301.000			22.139			-3.163
90400.000			22.139			-3.163
90500.000			22.138			-3.163
90601.000			22.138			-3.163
90701.000			22.137			-3.162
90801.000			22.138			-3.163
90901.000			22.137			-3.162
91000.000			22.136			-3.162
91100.000			22.136			-3.162
91201.000			22.134			-3.162
91300.000			22.134			-3.162
91400.000			22.134			-3.162
91502.000			22.133			-3.162
91601.000			22.133			-3.162
91700.000			22.132			-3.162
91801.000			22.131			-3.162
91900.000			22.131			-3.162
92000.000			22.130			-3.161
92101.000			22.130			-3.161
92201.000			22.130			-3.161
92301.000			22.129			-3.161
92402.000			22.129			-3.161
92500.000			22.128			-3.161
92601.000			22.127			-3.161
92700.000			22.127			-3.161
92800.000			22.126			-3.161
92901.000			22.126			-3.161
93000.000			22.127			-3.161
93101.000			22.127			-3.161
93202.000			22.125			-3.161
93300.000			22.124			-3.161
93400.000			22.125			-3.161
93501.000			22.125			-3.161
93600.000			22.123			-3.160
93700.000			22.123			-3.160
93802.000			22.123			-3.160
93901.000			22.122			-3.160
94001.000			22.121			-3.160
94101.000			22.120			-3.160
94200.000			22.119			-3.160
94300.000			22.120			-3.160
94401.000			22.120			-3.160
94500.000			22.119			-3.160
94601.000			22.119			-3.160
94702.000			22.118			-3.160
94801.000			22.118			-3.160
94900.000			22.118			-3.160
95001.000			22.118			-3.160
95100.000			22.116			-3.159
95200.000			22.116			-3.159
95301.000			22.117			-3.160
95401.000			22.116			-3.159
95501.000			22.115			-3.159
95602.000			22.115			-3.159
95700.000			22.114			-3.159
95801.000			22.113			-3.159
95900.000			22.113			-3.159
96000.000			22.113			-3.159
96101.000			22.113			-3.159
96200.000			22.112			-3.159
96301.000			22.111			-3.159
96402.000			22.111			-3.159
96500.000			22.111			-3.159
96600.000			22.109			-3.158
96701.000			22.109			-3.158
96800.000			22.108			-3.158
96900.000			22.109			-3.158
97001.000			22.108			-3.158
97101.000			22.108			-3.158
97201.000			22.108			-3.158
97301.000			22.107			-3.158
97400.000			22.107			-3.158
97500.000			22.107			-3.158
97601.000			22.107			-3.158
97700.000			22.106			-3.158
97800.000			22.106			-3.158
97902.000			22.104			-3.158
98001.000			22.105			-3.158
98100.000			22.105			-3.158
98201.000			22.104			-3.158
98300.000			22.103			-3.158
98400.000			22.103			-3.158
98501.000			22.102			-3.157
98600.000			22.101			-3.157
98701.000			22.101			-3.157
98802.000			22.101			-3.157
98900.000			22.101			-3.157
99001.000			22.101			-3.157
99100.000			22.101			-3.157
99200.000			22.100			-3.157
99301.000			22.100			-3.157
99400.000			22.100			-3.157
99501.000			22.099			-3.157
99602.000			22.098			-3.157
99700.000			22.097			-3.157
99800.000			22.097			-3.157
99901.000			22.097			-3.157
100000.000			22.097			-3.157
100100.000			22.096			-3.157
100201.000			22.096			-3.157
100301.000			22.097			-3.157
100401.000			22.096			-3.157
100501.000			22.095			-3.156
100600.000			22.094			-3.156
100700.000			22.093			-3.156
100801.000			22.092			-3.156
100900.000			22.092			-3.156
101000.000			22.092			-3.156
101102.000			22.093			-3.156
101201.000			22.092			-3.156
101301.000			22.092			-3.156
101401.000			22.091			-3.156
101500.000			22.091			-3.156
101600.000			22.090			-3.156
101701.000			22.090			-3.156
101800.000			22.090			-3.156
101900.000			22.089			-3.156
102002.000			22.088			-3.155
102101.000			22.089			-3.156
102201.000			22.090			-3.156
102300.000			22.089			-3.156
102400.000			22.088			-3.155
102501.000			22.087			-3.155
102600.000			22.087			-3.155
102700.000			22.086			-3.155
102802.000			22.084			-3.155
102901.000			22.084			-3.155
103000.000			22.084			-3.155
103101.000			22.084			-3.155
103200.000			22.083			-3.155
103300.000			22.083			-3.155
103401.000			22.083			-3.155
103500.000			22.083			-3.155
103601.000			22.082			-3.155
103702.000			22.082			-3.155
103800.000			22.081			-3.154
103900.000			22.081			-3.154
104001.000			22.080			-3.154
104100.000			22.080			-3.154
104200.000			22.080			-3.154
104301.000			22.079			-3.154
104401.000			22.079			-3.154
104501.000			22.080			-3.154
104601.000			22.079			-3.154
104700.000			22.078			-3.154
104800.000			22.078			-3.154
104901.000			22.077			-3.154
105000.000			22.076			-3.154
105100.000			22.076			-3.154
105202.000			22.076			-3.154
105301.000			22.075			-3.154
105401.000			22.076			-3.154
105500.000			22.075			-3.154
105600.000			22.075			-3.154
105701.000			22.074			-3.153
105800.000			22.073			-3.153
105900.000			22.073			-3.153
106001.000			22.074			-3.153
106101.000			22.073			-3.153
106201.000			22.073			-3.153
106301.000			22.072			-3.153
106400.000			22.072			-3.153
106500.000			22.071			-3.153
106601.000			22.071			-3.153
106700.000			22.071			-3.153
106800.000			22.071			-3.153
106902.000			22.070			-3.153
107001.000			22.071			-3.153
107100.000			22.071			-3.153
107201.000			22.068			-3.153
107300.000			22.067			-3.152
107400.000			22.067			-3.152
107501.000			22.068			-3.153
107600.000			22.068			-3.153
107701.000			22.067			-3.152
107802.000			22.066			-3.152
107900.000			22.064			-3.152
108000.000			22.064			-3.152
108101.000			22.064			-3.152
108200.000			22.065			-3.152
108300.000			22.065			-3.152
108401.000			22.065			-3.152
108501.000			22.064			-3.152
108602.000			22.063			-3.152
108701.000			22.063			-3.152
108800.000			22.062			-3.152
108901.000			22.062			-3.152
109000.000			22.061			-3.152
109100.000			22.061			-3.152
109201.000			22.061			-3.152
109300.000			22.060			-3.151
109401.000			22.060			-3.151
109502.000			22.060			-3.151
109600.000			22.059			-3.151
109700.000			22.060			-3.151
109801.000			22.060			-3.151
109900.000			22.058			-3.151
110000.000			22.058			-3.151
110101.000			22.057			-3.151
110201.000			22.057			-3.151
110301.000			22.057			-3.151
110401.000			22.057			-3.151
110500.000			22.057			-3.151
110600.000			22.056			-3.151
110701.000			22.055			-3.151
110800.000			22.054			-3.151
110900.000			22.054			-3.151
111002.000			22.054			-3.151
111101.000			22.054			-3.151
111200.000			22.053			-3.150
111301.000			22.055			-3.151
111400.000			22.054			-3.151
111500.000			22.052			-3.150
111601.000			22.052			-3.150
111700.000			22.051			-3.150
111802.000			22.051			-3.150
111901.000			22.051			-3.150
112000.000			22.050			-3.150
112101.000			22.050			-3.150
112200.000			22.050			-3.150
112300.000			22.050			-3.150
112401.000			22.049			-3.150
112500.000			22.049			-3.150
112601.000			22.049			-3.150
112702.000			22.047			-3.150
112800.000			22.047			-3.150
112900.000			22.046			-3.149
113001.000			22.047			-3.150
113100.000			22.047			-3.150
113200.000			22.046			-3.149
113301.000			22.046			-3.149
113401.000			22.046			-3.149
113501.000			22.045			-3.149
113601.000			22.045			-3.149
113700.000			22.045			-3.149
113800.000			22.045			-3.149
113901.000			22.043			-3.149
114000.000			22.043			-3.149
114100.000			22.043			-3.149
114202.000			22.043			-3.149
114301.000			22.041			-3.149
114400.000			22.041			-3.149
114501.000			22.041			-3.149
114600.000			22.041			-3.149
114700.000			22.041			-3.149
114801.000			22.041			-3.149
114900.000			22.040			-3.149
115002.000			22.040			-3.149
115101.000			22.039			-3.148
115200.000			22.039			-3.148
115301.000			22.039			-3.148
115400.000			22.038			-3.148
115500.000			22.038			-3.148
115601.000			22.038			-3.148
115700.000			22.038			-3.148
115800.000			22.038			-3.148
115902.000			22.036			-3.148
116001.000			22.037			-3.148
116100.000			22.037			-3.148
116201.000			22.036			-3.148
116300.000			22.036			-3.148
116400.000			22.034			-3.148
116501.000			22.034			-3.148
116600.000			22.034			-3.148
116701.000			22.033			-3.148
116802.000			22.034			-3.148
116900.000			22.034			-3.148
117000.000			22.033			-3.148
117101.000			22.033			-3.148
117200.000			22.033			-3.148
117300.000			22.032			-3.147
117401.000			22.031			-3.147
117501.000			22.031			-3.147
117601.000			22.030			-3.147
117701.000			22.031			-3.147
117800.000			22.031			-3.147
117900.000			22.030			-3.147
118001.000			22.030			-3.147
118100.000			22.030			-3.147
118201.000			22.028			-3.147
118301.000			22.027			-3.147
118401.000			22.027			-3.147
118501.000			22.026			-3.147
118600.000			22.027			-3.147
118700.000			22.028			-3.147
118801.000			22.026			-3.147
118900.000			22.026			-3.147
119000.000			22.026			-3.147
119102.000			22.026			-3.147
119201.000			22.024			-3.146
119301.000			22.025			-3.146
119401.000			22.025			-3.146
119500.000			22.024			-3.146
119600.000			22.024			-3.146
119701.000			22.024			-3.146
119800.000			22.023			-3.146
119900.000			22.022			-3.146
120002.000			22.022			-3.146
120101.000			22.023			-3.146
120200.000			22.022			-3.146
120301.000			22.021			-3.146
120400.000			22.020			-3.146
120500.000			22.021			-3.146
120601.000			22.020			-3.146
120701.000			22.020			-3.146
120801.000			22.020			-3.146
120902.000			22.021			-3.146
121000.000			22.019			-3.146
121100.000			22.018			-3.145
121201.000			22.018			-3.145
121300.000			22.019			-3.146
121401.000			22.019			-3.146
121500.000			22.017			-3.145
121601.000			22.017			-3.145
121702.000			22.017			-3.145
121800.000			22.016			-3.145
121900.000			22.016			-3.145
122001.000			22.016			-3.145
122100.000			22.015			-3.145
122200.000			22.016			-3.145
122301.000			22.015			-3.145
122401.000			22.014			-3.145
122501.000			22.015			-3.145
122601.000			22.014			-3.145
122700.000			22.013			-3.145
122800.000			22.013			-3.145
122901.000			22.012			-3.145
123000.000			22.012			-3.145
123100.000			22.012			-3.145
123202.000			22.011			-3.144
123301.000			22.011			-3.144
123400.000			22.011			-3.144
123501.000			22.010			-3.144
123600.000			22.010			-3.144
123700.000			22.009			-3.144
123801.000			22.010			-3.144
123901.000			22.010			-3.144
124001.000			22.009			-3.144
124102.000			22.008			-3.144
124200.000			22.007			-3.144
124300.000			22.007			-3.144
124401.000			22.008			-3.144
124500.000			22.008			-3.144
124601.000			22.007			-3.144
124700.000			22.008			-3.144
124801.000			22.008			-3.144
124902.000			22.007			-3.144
125000.000			22.006			-3.144
125100.000			22.005			-3.144
125201.000			22.006			-3.144
125300.000			22.005			-3.144
125400.000			22.005			-3.144
125501.000			22.004			-3.143
125601.000			22.005			-3.144
125701.000			22.004			-3.143
125801.000			22.003			-3.143
125900.000			22.003			-3.143
126000.000			22.003			-3.143
126101.000			22.003			-3.143
126200.000			22.002			-3.143
126300.000			22.002			-3.143
126402.000			22.001			-3.143
126501.000			22.001			-3.143
126600.000			22.001			-3.143
126701.000			22.001			-3.143
126800.000			22.000			-3.143
126900.000			22.000			-3.143
127001.000			22.000			-3.143
127100.000			21.999			-3.143
127201.000			21.999			-3.143
127302.000			21.998			-3.143
127400.000			21.999			-3.143
127500.000			21.998			-3.143
127601.000			21.998			-3.143
127700.000			21.997			-3.142
127801.000			21.997			-3.142
127900.000			21.997			-3.142
128000.000			21.996			-3.142
128102.000			21.996			-3.142
128201.000			21.994			-3.142
128300.000			21.995			-3.142
128401.000			21.996			-3.142
128500.000			21.996			-3.142
128600.000			21.994			-3.142
128701.000			21.993			-3.142
128800.000			21.994			-3.142
128900.000			21.994			-3.142
129002.000			21.993			-3.142
129101.000			21.994			-3.142
129200.000			21.993			-3.142
129301.000			21.991			-3.142
129400.000			21.991			-3.142
129500.000			21.990			-3.141
129601.000			21.990			-3.141
129700.000			21.991			-3.142
129800.000			21.992			-3.142
129902.000			21.991			-3.142
130001.000			21.991			-3.142
130100.000			21.990			-3.141
130201.000			21.991			-3.142
130300.000			21.990			-3.141
130400.000			21.988			-3.141
130501.000			21.988			-3.141
130600.000			21.989			-3.141
130701.000			21.988			-3.141
130802.000			21.988			-3.141
130900.000			21.988			-3.141
131001.000			21.988			-3.141
131100.000			21.987			-3.141
131200.000			21.987			-3.141
131301.000			21.987			-3.141
131400.000			21.986			-3.141
131500.000			21.986			-3.141
131602.000			21.985			-3.141
131701.000			21.985			-3.141
131800.000			21.985			-3.141
131901.000			21.985			-3.141
132000.000			21.985			-3.141
132100.000			21.984			-3.141
132201.000			21.983			-3.140
132300.000			21.984			-3.141
132400.000			21.983			-3.140
132502.000			21.983			-3.140
132601.000			21.983			-3.140
132701.000			21.982			-3.140
132801.000			21.981			-3.140
132900.000			21.982			-3.140
133000.000			21.982			-3.140
133101.000			21.983			-3.140
133200.000			21.982			-3.140
133300.000			21.980			-3.140
133402.000			21.981			-3.140
133501.000			21.982			-3.140
133601.000			21.981			-3.140
133701.000			21.980			-3.140
133800.000			21.980			-3.140
133900.000			21.979			-3.140
134001.000			21.980			-3.140
134100.000			21.978			-3.140
134201.000			21.978			-3.140
134300.000			21.978			-3.140
134401.000			21.977			-3.140
134502.000			21.978			-3.140
134600.000			21.977			-3.140
134700.000			21.977			-3.140
134801.000			21.977			-3.140
134900.000			21.977			-3.140
135000.000			21.976			-3.139
135101.000			21.976			-3.139
135200.000			21.975			-3.139
135301.000			21.974			-3.139
135402.000			21.974			-3.139
135501.000			21.974			-3.139
135600.000			21.975			-3.139
135701.000			21.975			-3.139
135800.000			21.974			-3.139
135900.000			21.974			-3.139
136001.000			21.974			-3.139
136100.000			21.973			-3.139
136200.000			21.973			-3.139
136302.000			21.972			-3.139
136401.000			21.972			-3.139
136500.000			21.971			-3.139
136601.000			21.972			-3.139
136700.000			21.972			-3.139
136800.000			21.970			-3.139
136901.000			21.971			-3.139
137000.000			21.970			-3.139
137100.000			21.970			-3.139
137202.000			21.970			-3.139
137301.000			21.970			-3.139
137402.000			21.970			-3.139
137500.000			21.970			-3.139
137600.000			21.969			-3.138
137701.000			21.968			-3.138
137800.000			21.967			-3.138
137900.000			21.968			-3.138
138001.000			21.968			-3.138
138100.000			21.968			-3.138
138201.000			21.967			-3.138
138302.000			21.967			-3.138
138401.000			21.966			-3.138
138500.000			21.966			-3.138
138601.000			21.965			-3.138
138700.000			21.965			-3.138
138800.000			21.966			-3.138
138901.000			21.964			-3.138
139000.000			21.964			-3.138
139100.000			21.964			-3.138
139202.000			21.963			-3.138
139301.000			21.963			-3.138
139400.000			21.963			-3.138
139501.000			21.963			-3.138
139600.000			21.963			-3.138
139700.000			21.962			-3.137
139801.000			21.961			-3.137
139900.000			21.961			-3.137
140000.000			21.961			-3.137
140102.000			21.962			-3.137
140201.000			21.961			-3.137
140301.000			21.960			-3.137
140401.000			21.959			-3.137
140500.000			21.960			-3.137
140601.000			21.958			-3.137
140700.000			21.958			-3.137
140800.000			21.957			-3.137
140901.000			21.957			-3.137
141001.000			21.958			-3.137
141101.000			21.958			-3.137
141202.000			21.957			-3.137
141300.000			21.957			-3.137
141400.000			21.956			-3.137
141501.000			21.956			-3.137
141600.000			21.955			-3.136
141700.000			21.954			-3.136
141801.000			21.954			-3.136
141900.000			21.954			-3.136
142001.000			21.954			-3.136
142102.000			21.954			-3.136
142200.000			21.954			-3.136
142300.000			21.953			-3.136
142401.000			21.953			-3.136
142500.000			21.953			-3.136
142600.000			21.953			-3.136
142701.000			21.953			-3.136
142800.000			21.953			-3.136
142901.000			21.953			-3.136
143002.000			21.953			-3.136
143100.000			21.952			-3.136
143200.000			21.951			-3.136
143301.000			21.951			-3.136
143400.000			21.951			-3.136
143500.000			21.951			-3.136
143601.000			21.951			-3.136
143700.000			21.950			-3.136
143802.000			21.950			-3.136
143901.000			21.949			-3.136
144001.000			21.949			-3.136
144101.000			21.949			-3.136
144200.000			21.949			-3.136
144300.000			21.948			-3.135
144401.000			21.948			-3.135
144500.000			21.948			-3.135
144600.000			21.948			-3.135
144702.000			21.947			-3.135
144801.000			21.947			-3.135
144901.000			21.947			-3.135
145001.000			21.946			-3.135
145100.000			21.945			-3.135
145200.000			21.945			-3.135
145301.000			21.945			-3.135
145400.000			21.945			-3.135
145500.000			21.946			-3.135
145601.000			21.944			-3.135
145701.000			21.944			-3.135
145801.000			21.943			-3.135
145901.000			21.942			-3.135
146000.000			21.943			-3.135
146100.000			21.943			-3.135
146201.000			21.942			-3.135
146300.000			21.942			-3.135
146400.000			21.942			-3.135
146501.000			21.942			-3.135
146601.000			21.942			-3.135
146701.000			21.941			-3.134
146802.000			21.941			-3.134
146900.000			21.941			-3.134
147001.000			21.942			-3.135
147100.000			21.939			-3.134
147200.000			21.939			-3.134
147301.000			21.938			-3.134
147400.000			21.938			-3.134
147500.000			21.939			-3.134
147602.000			21.938			-3.134
147701.000			21.939			-3.134
147800.000			21.938			-3.134
147901.000			21.937			-3.134
148000.000			21.938			-3.134
148100.000			21.937			-3.134
148201.000			21.938			-3.134
148300.000			21.937			-3.134
148400.000			21.936			-3.134
148502.000			21.936			-3.134
148601.000			21.937			-3.134
148701.000			21.937			-3.134
148801.000			21.936			-3.134
148900.000			21.936			-3.134
149000.000			21.936			-3.134
149101.000			21.935			-3.134
149200.000			21.934			-3.133
149300.000			21.935			-3.134
149401.000			21.935			-3.134
149501.000			21.934			-3.133
149601.000			21.934			-3.133
149701.000			21.933			-3.133
149800.000			21.932			-3.133
149900.000			21.933			-3.133
150001.000			21.932			-3.133
150100.000			21.932			-3.133
150201.000			21.931			-3.133
150300.000			21.932			-3.133
150401.000			21.932			-3.133
150502.000			21.931			-3.133
150600.000			21.930			-3.133
150700.000			21.931			-3.133
150801.000			21.931			-3.133
150900.000			21.930			-3.133
151000.000			21.930			-3.133
151101.000			21.930			-3.133
151200.000			21.930			-3.133
151301.000			21.929			-3.133
151402.000			21.929			-3.133
151500.000			21.928			-3.133
151600.000			21.928			-3.133
151701.000			21.928			-3.133
151800.000			21.928			-3.133
151900.000			21.928			-3.133
152001.000			21.928			-3.133
152100.000			21.927			-3.132
152201.000			21.927			-3.132
152302.000			21.927			-3.132
152401.000			21.926			-3.132
152500.000			21.925			-3.132
152601.000			21.925			-3.132
152700.000			21.925			-3.132
152800.000			21.926			-3.132
152901.000			21.925			-3.132
153000.000			21.925			-3.132
153100.000			21.925			-3.132
153202.000			21.925			-3.132
153301.000			21.925			-3.132
153401.000			21.923			-3.132
153500.000			21.924			-3.132
153600.000			21.923			-3.132
153701.000			21.924			-3.132
153800.000			21.923			-3.132
153900.000			21.923			-3.132
154001.000			21.922			-3.132
154101.000			21.922			-3.132
154201.000			21.921			-3.132
154301.000			21.921			-3.132
154400.000			21.921			-3.132
154500.000			21.921			-3.132
154601.000			21.921			-3.132
154700.000			21.921			-3.132
154800.000			21.920			-3.131
154901.000			21.921			-3.132
155001.000			21.919			-3.131
155101.000			21.919			-3.131
155201.000			21.919			-3.131
155300.000			21.918			-3.131
155400.000			21.917			-3.131
155501.000			21.918			-3.131
155600.000			21.919			-3.131
155700.000			21.918			-3.131
155801.000			21.916			-3.131
155901.000			21.916			-3.131
156001.000			21.916			-3.131
156101.000			21.916			-3.131
156200.000			21.915			-3.131
156300.000			21.915			-3.131
156401.000			21.915			-3.131
156500.000			21.915			-3.131
156601.000			21.915			-3.131
156700.000			21.915			-3.131
156801.000			21.915			-3.131
156902.000			21.914			-3.131
157001.000			21.913			-3.130
157100.000			21.913			-3.130
157201.000			21.912			-3.130
157300.000			21.913			-3.130
157400.000			21.913			-3.130
157501.000			21.913			-3.130
157600.000			21.913			-3.130
157701.000			21.912			-3.130
157802.000			21.913			-3.130
157901.000			21.911			-3.130
158000.000			21.911			-3.130
158101.000			21.912			-3.130
158200.000			21.911			-3.130
158300.000			21.911			-3.130
158401.000			21.910			-3.130
158500.000			21.910			-3.130
158600.000			21.910			-3.130
158702.000			21.910			-3.130
158801.000			21.909			-3.130
158900.000			21.909			-3.130
159001.000			21.909			-3.130
159100.000			21.909			-3.130
159200.000			21.908			-3.130
159301.000			21.908			-3.130
159400.000			21.908			-3.130
159500.000			21.908			-3.130
159602.000			21.908			-3.130
159701.000			21.908			-3.130
159802.000			21.908			-3.130
159900.000			21.907			-3.130
160000.000			21.906			-3.129
160101.000			21.906			-3.129
160200.000			21.906			-3.129
160300.000			21.906			-3.129
160401.000			21.906			-3.129
160500.000			21.904			-3.129
160601.000			21.905			-3.129
160702.000			21.904			-3.129
160800.000			21.905			-3.129
160900.000			21.905			-3.129
161001.000			21.904			-3.129
161100.000			21.904			-3.129
161200.000			21.903			-3.129
161301.000			21.903			-3.129
161400.000			21.904			-3.129
161501.000			21.903			-3.129
161602.000			21.902			-3.129
161700.000			21.902			-3.129
161800.000			21.903			-3.129
161901.000			21.902			-3.129
162000.000			21.901			-3.129
162100.000			21.902			-3.129
162201.000			21.901			-3.129
162300.000			21.900			-3.129
162401.000			21.901			-3.129
162502.000			21.900			-3.129
162600.000			21.901			-3.129
162700.000			21.901			-3.129
162801.000			21.900			-3.129
162900.000			21.899			-3.128
163001.000			21.899			-3.128
163100.000			21.898			-3.128
163200.000			21.898			-3.128
163302.000			21.899			-3.128
163401.000			21.898			-3.128
163501.000			21.898			-3.128
163601.000			21.898			-3.128
163700.000			21.897			-3.128
163800.000			21.897			-3.128
163901.000			21.898			-3.128
164000.000			21.897			-3.128
164100.000			21.897			-3.128
164201.000			21.896			-3.128
164301.000			21.895			-3.128
164401.000			21.895			-3.128
164502.000			21.895			-3.128
164600.000			21.895			-3.128
164700.000			21.895			-3.128
164801.000			21.895			-3.128
164900.000			21.894			-3.128
165000.000			21.893			-3.128
165101.000			21.893			-3.128
165200.000			21.892			-3.127
165301.000			21.893			-3.128
165402.000			21.893			-3.128
165501.000			21.893			-3.128
165600.000			21.893			-3.128
165701.000			21.892			-3.127
165800.000			21.892			-3.127
165900.000			21.892			-3.127
166001.000			21.893			-3.128
166100.000			21.893			-3.128
166201.000			21.892			-3.127
166301.000			21.891			-3.127
166401.000			21.891			-3.127
166501.000			21.891			-3.127
166600.000			21.889			-3.127
166700.000			21.889			-3.127
166801.000			21.890			-3.127
166900.000			21.889			-3.127
167000.000			21.889			-3.127
167101.000			21.889			-3.127
167200.000			21.888			-3.127
167301.000			21.888			-3.127
167402.000			21.888			-3.127
167500.000			21.888			-3.127
167600.000			21.889			-3.127
167701.000			21.889			-3.127
167800.000			21.888			-3.127
167900.000			21.887			-3.127
168001.000			21.887			-3.127
168100.000			21.886			-3.127
168200.000			21.886			-3.127
168302.000			21.886			-3.127
168401.000			21.886			-3.127
168500.000			21.886			-3.127
168601.000			21.886			-3.127
168700.000			21.886			-3.127
168800.000			21.886			-3.127
168901.000			21.885			-3.126
169000.000			21.884			-3.126
169100.000			21.885			-3.126
169202.000			21.884			-3.126
169301.000			21.883			-3.126
169402.000			21.883			-3.126
169500.000			21.883			-3.126
169600.000			21.882			-3.126
169701.000			21.882			-3.126
169800.000			21.882			-3.126
169900.000			21.881			-3.126
170001.000			21.882			-3.126
170100.000			21.882			-3.126
170201.000			21.882			-3.126
170302.000			21.881			-3.126
170401.000			21.881			-3.126
170500.000			21.881			-3.126
170601.000			21.881			-3.126
170700.000			21.881			-3.126
170800.000			21.881			-3.126
170901.000			21.880			-3.126
171000.000			21.880			-3.126
171101.000			21.879			-3.126
171202.000			21.879			-3.126
171301.000			21.879			-3.126
171400.000			21.880			-3.126
171501.000			21.879			-3.126
171600.000			21.879			-3.126
171700.000			21.878			-3.125
171801.000			21.877			-3.125
171900.000			21.877			-3.125
172000.000			21.877			-3.125
172102.000			21.876			-3.125
172201.000			21.876			-3.125
172300.000			21.876			-3.125
172401.000			21.876			-3.125
172500.000			21.875			-3.125
172601.000			21.876			-3.125
172700.000			21.875			-3.125
172800.000			21.875			-3.125
172901.000			21.875			-3.125
173001.000			21.875			-3.125
173101.000			21.875			-3.125
173202.000			21.875			-3.125
173300.000			21.875			-3.125
173400.000			21.874			-3.125
173501.000			21.874			-3.125
173600.000			21.873			-3.125
173700.000			21.873			-3.125
173801.000			21.872			-3.125
173900.000			21.873			-3.125
174001.000			21.873			-3.125
174102.000			21.873			-3.125
174200.000			21.872			-3.125
174300.000			21.872			-3.125
174401.000			21.872			-3.125
174500.000			21.873			-3.125
174600.000			21.871			-3.124
174701.000			21.871			-3.124
174800.000			21.871			-3.124
174901.000			21.871			-3.124
175002.000			21.871			-3.124
175101.000			21.870			-3.124
175200.000			21.869			-3.124
175301.000			21.869			-3.124
175400.000			21.869			-3.124
175500.000			21.869			-3.124
175601.000			21.870			-3.124
175700.000			21.869			-3.124
175801.000			21.870			-3.124
175901.000			21.869			-3.124
176001.000			21.868			-3.124
176102.000			21.868			-3.124
176200.000			21.868			-3.124
176300.000			21.869			-3.124
176401.000			21.867			-3.124
176500.000			21.867			-3.124
176600.000			21.867			-3.124
176701.000			21.866			-3.124
176800.000			21.866			-3.124
176901.000			21.866			-3.124
177002.000			21.866			-3.124
177101.000			21.866			-3.124
177200.000			21.865			-3.124
177301.000			21.866			-3.124
177400.000			21.866			-3.124
177500.000			21.865			-3.124
177601.000			21.864			-3.123
177700.000			21.864			-3.123
177800.000			21.865			-3.124
177902.000			21.866			-3.124
178001.000			21.863			-3.123
178100.000			21.862			-3.123
178201.000			21.863			-3.123
178300.000			21.862			-3.123
178400.000			21.863			-3.123
178501.000			21.863			-3.123
178600.000			21.862			-3.123
178700.000			21.862			-3.123
178802.000			21.862			-3.123
178901.000			21.862			-3.123
179002.000			21.861			-3.123
179100.000			21.861			-3.123
179200.000			21.862			-3.123
179301.000			21.860			-3.123
179400.000			21.860			-3.123
179500.000			21.862			-3.123
179601.000			21.860			-3.123
179700.000			21.860			-3.123
179801.000			21.860			-3.123
179902.000			21.860			-3.123
180001.000			21.860			-3.123
180100.000			21.859			-3.123
180201.000			21.860			-3.123
180300.000			21.858			-3.123
180400.000			21.860			-3.123
180501.000			21.859			-3.123
180600.000			21.859			-3.123
180700.000			21.859			-3.123
180802.000			21.859			-3.123
180901.000			21.858			-3.123
181000.000			21.858			-3.123
181101.000			21.857			-3.122
181200.000			21.856			-3.122
181300.000			21.856			-3.122
181401.000			21.857			-3.122
181500.000			21.855			-3.122
181600.000			21.856			-3.122
181702.000			21.857			-3.122
181801.000			21.856			-3.122
181901.000			21.856			-3.122
182001.000			21.856			-3.122
182100.000			21.855			-3.122
182201.000			21.856			-3.122
182300.000			21.856			-3.122
182400.000			21.855			-3.122
182501.000			21.855			-3.122
182600.000			21.855			-3.122
182701.000			21.854			-3.122
182802.000			21.854			-3.122
182901.000			21.854			-3.122
183000.000			21.853			-3.122
183101.000			21.853			-3.122
183200.000			21.853			-3.122
183300.000			21.853			-3.122
183401.000			21.853			-3.122
183500.000			21.853			-3.122
183601.000			21.853			-3.122
183702.000			21.853			-3.122
183801.000			21.852			-3.122
183900.000			21.851			-3.122
184001.000			21.852			-3.122
184100.000			21.851			-3.122
184200.000			21.850			-3.121
184301.000			21.850			-3.121
184400.000			21.850			-3.121
184500.000			21.850			-3.121
184602.000			21.850			-3.121
184701.000			21.850			-3.121
184800.000			21.850			-3.121
184901.000			21.848			-3.121
185000.000			21.848			-3.121
185100.000			21.849			-3.121
185201.000			21.849			-3.121
185300.000			21.849			-3.121
185401.000			21.849			-3.121
185501.000			21.847			-3.121
185601.000			21.848			-3.121
185702.000			21.848			-3.121
185800.000			21.847			-3.121
185900.000			21.847			-3.121
186001.000			21.848			-3.121
186100.000			21.847			-3.121
186200.000			21.845			-3.121
186301.000			21.846			-3.121
186400.000			21.846			-3.121
186501.000			21.846			-3.121
186602.000			21.846			-3.121
186701.000			21.846			-3.121
186800.000			21.847			-3.121
186901.000			21.845			-3.121
187000.000			21.844			-3.121
187100.000			21.844			-3.121
187201.000			21.844			-3.121
187300.000			21.844			-3.121
187400.000			21.844			-3.121
187502.000			21.844			-3.121
187601.000			21.844			-3.121
187701.000			21.843			-3.120
187801.000			21.843			-3.120
187900.000			21.843			-3.120
188000.000			21.842			-3.120
188101.000			21.842			-3.120
188200.000			21.842			-3.120
188300.000			21.842			-3.120
188402.000			21.842			-3.120
188501.000			21.841			-3.120
188602.000			21.841			-3.120
188700.000			21.841			-3.120
188800.000			21.841			-3.120
188901.000			21.840			-3.120
189000.000			21.840			-3.120
189100.000			21.840			-3.120
189201.000			21.840			-3.120
189300.000			21.840			-3.120
189401.000			21.839			-3.120
189502.000			21.838			-3.120
189601.000			21.838			-3.120
189700.000			21.838			-3.120
189801.000			21.837			-3.120
189900.000			21.837			-3.120
190000.000			21.838			-3.120
190101.000			21.838			-3.120
190200.000			21.838			-3.120
190300.000			21.838			-3.120
190402.000			21.837			-3.120
190501.000			21.837			-3.120
190600.000			21.838			-3.120
190701.000			21.837			-3.120
190800.000			21.836			-3.119
190900.000			21.836			-3.119
191001.000			21.836			-3.119
191100.000			21.836			-3.119
191200.000			21.836			-3.119
191302.000			21.835			-3.119
191401.000			21.834			-3.119
191501.000			21.834			-3.119
191601.000			21.834			-3.119
191700.000			21.835			-3.119
191801.000			21.835			-3.119
191900.000			21.834			-3.119
192000.000			21.834			-3.119
192101.000			21.833			-3.119
192200.000			21.833			-3.119
192301.000			21.834			-3.119
192402.000			21.833			-3.119
192500.000			21.832			-3.119
192600.000			21.833			-3.119
192701.000			21.832			-3.119
192800.000			21.832			-3.119
192900.000			21.832			-3.119
193001.000			21.832			-3.119
193100.000			21.831			-3.119
193201.000			21.831			-3.119
193302.000			21.831			-3.119
193401.000			21.831			-3.119
193500.000			21.831			-3.119
193601.000			21.831			-3.119
193700.000			21.831			-3.119
193800.000			21.829			-3.118
193901.000			21.828			-3.118
194000.000			21.828			-3.118
194100.000			21.829			-3.118
194202.000			21.830			-3.119
194301.000			21.830			-3.119
194400.000			21.829			-3.118
194501.000			21.828			-3.118
194600.000			21.828			-3.118
194700.000			21.828			-3.118
194801.000			21.827			-3.118
194900.000			21.827			-3.118
195001.000			21.827			-3.118
195101.000			21.827			-3.118
195201.000			21.827			-3.118
195302.000			21.827			-3.118
195400.000			21.827			-3.118
195500.000			21.826			-3.118
195601.000			21.826			-3.118
195700.000			21.825			-3.118
195800.000			21.825			-3.118
195901.000			21.824			-3.118
196000.000			21.825			-3.118
196101.000			21.825			-3.118
196202.000			21.824			-3.118
196301.000			21.824			-3.118
196400.000			21.824			-3.118
196501.000			21.824			-3.118
196600.000			21.824			-3.118
196700.000			21.824			-3.118
196801.000			21.823			-3.118
196900.000			21.823			-3.118
197000.000			21.824			-3.118
197102.000			21.822			-3.117
197201.000			21.821			-3.117
197300.000			21.822			-3.117
197401.000			21.820			-3.117
197500.000			21.821			-3.117
197600.000			21.822			-3.117
197701.000			21.821			-3.117
197800.000			21.821			-3.117
197900.000			21.821			-3.117
198002.000			21.821			-3.117
198101.000			21.821			-3.117
198202.000			21.820			-3.117
198300.000			21.820			-3.117
198400.000			21.819			-3.117
198501.000			21.819			-3.117
198600.000			21.819			-3.117
198700.000			21.819			-3.117
198801.000			21.819			-3.117
198900.000			21.819			-3.117
199001.000			21.818			-3.117
199102.000			21.818			-3.117
199201.000			21.818			-3.117
199300.000			21.818			-3.117
199401.000			21.817			-3.117
199500.000			21.817			-3.117
199600.000			21.817			-3.117
199701.000			21.817			-3.117
199800.000			21.818			-3.117
199900.000			21.818			-3.117
200002.000			21.816			-3.117
200101.000			21.816			-3.117
200200.000			21.816			-3.117
200301.000			21.817			-3.117
200400.000			21.816			-3.117
200500.000			21.817			-3.117
200601.000			21.816			-3.117
200700.000			21.815			-3.116
200800.000			21.815			-3.116
200902.000			21.814			-3.116
201001.000			21.814			-3.116
201100.000			21.815			-3.116
201201.000			21.815			-3.116
201300.000			21.815			-3.116
201401.000			21.815			-3.116
201500.000			21.814			-3.116
201600.000			21.813			-3.116
201701.000			21.813			-3.116
201801.000			21.813			-3.116
201901.000			21.813			-3.116
202001.000			21.814			-3.116
202100.000			21.813			-3.116
202200.000			21.813			-3.116
202301.000			21.813			-3.116
202400.000			21.811			-3.116
202500.000			21.811			-3.116
202602.000			21.811			-3.116
202701.000			21.811			-3.116
202801.000			21.811			-3.116
202901.000			21.811			-3.116
203000.000			21.811			-3.116
203100.000			21.811			-3.116
203201.000			21.810			-3.116
203300.000			21.811			-3.116
203400.000			21.809			-3.116
203502.000			21.810			-3.116
203601.000			21.809			-3.116
203701.000			21.809			-3.116
203801.000			21.809			-3.116
203900.000			21.809			-3.116
204000.000			21.808			-3.115
204101.000			21.807			-3.115
204200.000			21.807			-3.115
204300.000			21.808			-3.115
204402.000			21.807			-3.115
204501.000			21.807			-3.115
204602.000			21.807			-3.115
204700.000			21.807			-3.115
204800.000			21.807			-3.115
204901.000			21.807			-3.115
205000.000			21.805			-3.115
205100.000			21.805			-3.115
205201.000			21.806			-3.115
205301.000			21.807			-3.115
205401.000			21.806			-3.115
205502.000			21.805			-3.115
205600.000			21.804			-3.115
205700.000			21.803			-3.115
205801.000			21.805			-3.115
205900.000			21.804			-3.115
206000.000			21.804			-3.115
206101.000			21.805			-3.115
206201.000			21.804			-3.115
206301.000			21.803			-3.115
206402.000			21.803			-3.115
206500.000			21.804			-3.115
206600.000			21.803			-3.115
206701.000			21.803			-3.115
206800.000			21.803			-3.115
206900.000			21.803			-3.115
207001.000			21.803			-3.115
207101.000			21.802			-3.115
207201.000			21.802			-3.115
207301.000			21.802			-3.115
207400.000			21.801			-3.114
207500.000			21.801			-3.114
207601.000			21.802			-3.115
207700.000			21.800			-3.114
207801.000			21.800			-3.114
207900.000			21.800			-3.114
208001.000			21.799			-3.114
208102.000			21.799			-3.114
208201.000			21.800			-3.114
208300.000			21.799			-3.114
208401.000			21.800			-3.114
208500.000			21.799			-3.114
208600.000			21.799			-3.114
208701.000			21.800			-3.114
208800.000			21.800			-3.114
208900.000			21.799			-3.114
209002.000			21.799			-3.114
209101.000			21.799			-3.114
209201.000			21.798			-3.114
209301.000			21.796			-3.114
209400.000			21.798			-3.114
209500.000			21.797			-3.114
209601.000			21.796			-3.114
209700.000			21.797			-3.114
209800.000			21.796			-3.114
209901.000			21.796			-3.114
210001.000			21.796			-3.114
210101.000			21.796			-3.114
210201.000			21.795			-3.114
210300.000			21.796			-3.114
210400.000			21.796			-3.114
210501.000			21.796			-3.114
210600.000			21.796			-3.114
210700.000			21.796			-3.114
210801.000			21.796			-3.114
210901.000			21.794			-3.113
211002.000			21.794			-3.113
211101.000			21.793			-3.113
211200.000			21.793			-3.113
211301.000			21.793			-3.113
211400.000			21.794			-3.113
211500.000			21.794			-3.113
211601.000			21.794			-3.113
211700.000			21.794			-3.113
211800.000			21.793			-3.113
211902.000			21.792			-3.113
212001.000			21.792			-3.113
212100.000			21.793			-3.113
212201.000			21.793			-3.113
212300.000			21.792			-3.113
212400.000			21.791			-3.113
212501.000			21.792			-3.113
212600.000			21.791			-3.113
212700.000			21.791			-3.113
212802.000			21.790			-3.113
212901.000			21.791			-3.113
213000.000			21.791			-3.113
213101.000			21.791			-3.113
213200.000			21.791			-3.113
213300.000			21.790			-3.113
213401.000			21.789			-3.113
213500.000			21.789			-3.113
213600.000			21.789			-3.113
213702.000			21.789			-3.113
213801.000			21.788			-3.113
213900.000			21.788			-3.113
214001.000			21.788			-3.113
214100.000			21.788			-3.113
214201.000			21.789			-3.113
214300.000			21.789			-3.113
214400.000			21.789			-3.113
214501.000			21.788			-3.113
214601.000			21.789			-3.113
214701.000			21.789			-3.113
214802.000			21.788			-3.113
214900.000			21.787			-3.112
215000.000			21.788			-3.113
215101.000			21.787			-3.112
215200.000			21.788			-3.113
215300.000			21.787			-3.112
215401.000			21.786			-3.112
215500.000			21.786			-3.112
215601.000			21.785			-3.112
215702.000			21.785			-3.112
215800.000			21.784			-3.112
215900.000			21.784			-3.112
216001.000			21.785			-3.112
216100.000			21.785			-3.112
216200.000			21.784			-3.112
216301.000			21.783			-3.112
216400.000			21.784			-3.112
216501.000			21.786			-3.112
216602.000			21.784			-3.112
216701.000			21.784			-3.112
216800.000			21.783			-3.112
216901.000			21.782			-3.112
217000.000			21.782			-3.112
217100.000			21.782			-3.112
217201.000			21.782			-3.112
217300.000			21.783			-3.112
217401.000			21.783			-3.112
217501.000			21.782			-3.112
217601.000			21.782			-3.112
217701.000			21.781			-3.112
217800.000			21.781			-3.112
217900.000			21.781			-3.112
218001.000			21.782			-3.112
218100.000			21.782			-3.112
218200.000			21.781			-3.112
218301.000			21.781			-3.112
218401.000			21.780			-3.111
218501.000			21.781			-3.112
218601.000			21.780			-3.111
218700.000			21.780			-3.111
218800.000			21.780			-3.111
218901.000			21.779			-3.111
219000.000			21.779			-3.111
219100.000			21.780			-3.111
219201.000			21.780			-3.111
219301.000			21.779			-3.111
219401.000			21.778			-3.111
219502.000			21.778			-3.111
219600.000			21.778			-3.111
219700.000			21.778			-3.111
219801.000			21.779			-3.111
219900.000			21.779			-3.111
220000.000			21.778			-3.111
220101.000			21.779			-3.111
220200.000			21.778			-3.111
220301.000			21.777			-3.111
220402.000			21.777			-3.111
220500.000			21.777			-3.111
220601.000			21.776			-3.111
220700.000			21.777			-3.111
220800.000			21.777			-3.111
220901.000			21.776			-3.111
221000.000			21.776			-3.111
221100.000			21.775			-3.111
221202.000			21.776			-3.111
221301.000			21.775			-3.111
221401.000			21.775			-3.111
221501.000			21.775			-3.111
221600.000			21.775			-3.111
221700.000			21.775			-3.111
221801.000			21.775			-3.111
221900.000			21.774			-3.111
222000.000			21.775			-3.111
222101.000			21.775			-3.111
222201.000			21.774			-3.111
222301.000			21.774			-3.111
222401.000			21.774			-3.111
222500.000			21.773			-3.110
222600.000			21.774			-3.111
222701.000			21.774			-3.111
222800.000			21.773			-3.110
222900.000			21.773			-3.110
223001.000			21.773			-3.110
223101.000			21.773			-3.110
223201.000			21.773			-3.110
223301.000			21.774			-3.111
223400.000			21.774			-3.111
223500.000			21.773			-3.110
223601.000			21.773			-3.110
223700.000			21.772			-3.110
223801.000			21.771			-3.110
223900.000			21.771			-3.110
224001.000			21.772			-3.110
224102.000			21.772			-3.110
224201.000			21.771			-3.110
224300.000			21.771			-3.110
224401.000			21.771			-3.110
224500.000			21.770			-3.110
224600.000			21.770			-3.110
224701.000			21.771			-3.110
224800.000			21.770			-3.110
224901.000			21.769			-3.110
225002.000			21.770			-3.110
225101.000			21.769			-3.110
225200.000			21.769			-3.110
225301.000			21.769			-3.110
225400.000			21.768			-3.110
225500.000			21.769			-3.110
225601.000			21.768			-3.110
225700.000			21.769			-3.110
225800.000			21.769			-3.110
225902.000			21.768			-3.110
226001.000			21.768			-3.110
226100.000			21.767			-3.110
226201.000			21.768			-3.110
226300.000			21.768			-3.110
226400.000			21.766			-3.109
226501.000			21.766			-3.109
226600.000			21.767			-3.110
226700.000			21.768			-3.110
226802.000			21.767			-3.110
226901.000			21.767			-3.110
227002.000			21.766			-3.109
227100.000			21.765			-3.109
227200.000			21.765			-3.109
227301.000			21.766			-3.109
227400.000			21.767			-3.110
227500.000			21.766			-3.109
227601.000			21.765			-3.109
227700.000			21.764			-3.109
227801.000			21.765			-3.109
227902.000			21.765			-3.109
228001.000			21.765			-3.109
228100.000			21.764			-3.109
228201.000			21.764			-3.109
228300.000			21.764			-3.109
228400.000			21.763			-3.109
228501.000			21.763			-3.109
228600.000			21.763			-3.109
228701.000			21.762			-3.109
228802.000			21.763			-3.109
228901.000			21.763			-3.109
229000.000			21.762			-3.109
229101.000			21.762			-3.109
229200.000			21.763			-3.109
229300.000			21.763			-3.109
229401.000			21.762			-3.109
229500.000			21.762			-3.109
229600.000			21.761			-3.109
229702.000			21.760			-3.109
229801.000			21.761			-3.109
229900.000			21.762			-3.109
230001.000			21.762			-3.109
230100.000			21.761			-3.109
230201.000			21.760			-3.109
230300.000			21.761			-3.109
230400.000			21.761			-3.109
230501.000			21.761			-3.109
230601.000			21.760			-3.109
230701.000			21.761			-3.109
230801.000			21.760			-3.109
230900.000			21.760			-3.109
231000.000			21.760			-3.109
231101.000			21.759			-3.108
231200.000			21.759			-3.108
231300.000			21.759			-3.108
231401.000			21.758			-3.108
231501.000			21.759			-3.108
231601.000			21.759			-3.108
231701.000			21.758			-3.108
231800.000			21.758			-3.108
231900.000			21.758			-3.108
232001.000			21.758			-3.108
232100.000			21.758			-3.108
232200.000			21.757			-3.108
232301.000			21.757			-3.108
232401.000			21.757			-3.108
232501.000			21.757			-3.108
232602.000			21.757			-3.108
232700.000			21.756			-3.108
232800.000			21.756			-3.108
232901.000			21.756			-3.108
233000.000			21.755			-3.108
233100.000			21.756			-3.108
233201.000			21.756			-3.108
233301.000			21.755			-3.108
233402.000			21.755			-3.108
233501.000			21.755			-3.108
233600.000			21.755			-3.108
233701.000			21.754			-3.108
233800.000			21.755			-3.108
233900.000			21.754			-3.108
234001.000			21.754			-3.108
234100.000			21.754			-3.108
234201.000			21.754			-3.108
234302.000			21.754			-3.108
234401.000			21.753			-3.108
234500.000			21.753			-3.108
234601.000			21.752			-3.107
234700.000			21.752			-3.107
234800.000			21.752			-3.107
234901.000			21.752			-3.107
235000.000			21.751			-3.107
235100.000			21.752			-3.107
235202.000			21.752			-3.107
235301.000			21.751			-3.107
235400.000			21.751			-3.107
235501.000			21.751			-3.107
235600.000			21.749			-3.107
235700.000			21.748			-3.107
235801.000			21.749			-3.107
235900.000			21.749			-3.107
236000.000			21.749			-3.107
236102.000			21.750			-3.107
236201.000			21.749			-3.107
236300.000			21.749			-3.107
236401.000			21.749			-3.107
236500.000			21.748			-3.107
236601.000			21.748			-3.107
236700.000			21.748			-3.107
236800.000			21.748			-3.107
236901.000			21.748			-3.107
237001.000			21.748			-3.107
237101.000			21.748			-3.107
237202.000			21.747			-3.107
237300.000			21.747			-3.107
237400.000			21.747			-3.107
237501.000			21.747			-3.107
237600.000			21.746			-3.107
237700.000			21.746			-3.107
237801.000			21.746			-3.107
237900.000			21.747			-3.107
238001.000			21.747			-3.107
238102.000			21.746			-3.107
238201.000			21.745			-3.106
238300.000			21.745			-3.106
238401.000			21.745			-3.106
238500.000			21.745			-3.106
238600.000			21.745			-3.106
238701.000			21.745			-3.106
238800.000			21.744			-3.106
238900.000			21.744			-3.106
239002.000			21.744			-3.106
239101.000			21.743			-3.106
239200.000			21.743			-3.106
239301.000			21.745			-3.106
239400.000			21.745			-3.106
239500.000			21.743			-3.106
239601.000			21.743			-3.106
239700.000			21.743			-3.106
239801.000			21.743			-3.106
239900.000			21.742			-3.106
240001.000			21.742			-3.106
240102.000			21.742			-3.106
240200.000			21.741			-3.106
240300.000			21.741			-3.106
240401.000			21.742			-3.106
240500.000			21.742			-3.106
240600.000			21.741			-3.106
240701.000			21.741			-3.106
240800.000			21.740			-3.106
240901.000			21.741			-3.106
241002.000			21.741			-3.106
241100.000			21.741			-3.106
241200.000			21.741			-3.106
241301.000			21.740			-3.106
241400.000			21.740			-3.106
241500.000			21.740			-3.106
241601.000			21.739			-3.106
241700.000			21.739			-3.106
241801.000			21.739			-3.106
241902.000			21.739			-3.106
242000.000			21.739			-3.106
242100.000			21.738			-3.105
242201.000			21.739			-3.106
242300.000			21.739			-3.106
242400.000			21.739			-3.106
242501.000			21.739			-3.106
242600.000			21.738			-3.105
242701.000			21.738			-3.105
242802.000			21.738			-3.105
242901.000			21.737			-3.105
243001.000			21.737			-3.105
243100.000			21.738			-3.105
243200.000			21.738			-3.105
243301.000			21.737			-3.105
243400.000			21.737			-3.105
243500.000			21.736			-3.105
243601.000			21.736			-3.105
243701.000			21.737			-3.105
243801.000			21.736			-3.105
243901.000			21.736			-3.105
244000.000			21.735			-3.105
244100.000			21.735			-3.105
244201.000			21.735			-3.105
244300.000			21.735			-3.105
244400.000			21.734			-3.105
244501.000			21.734			-3.105
244601.000			21.735			-3.105
244701.000			21.735			-3.105
244801.000			21.735			-3.105
244900.000			21.734			-3.105
245000.000			21.735			-3.105
245101.000			21.735			-3.105
245200.000			21.734			-3.105
245300.000			21.734			-3.105
245401.000			21.734			-3.105
245501.000			21.734			-3.105
245601.000			21.732			-3.105
245702.000			21.732			-3.105
245800.000			21.732			-3.105
245900.000			21.732			-3.105
246001.000			21.733			-3.105
246100.000			21.732			-3.105
246201.000			21.733			-3.105
246300.000			21.732			-3.105
246400.000			21.732			-3.105
246502.000			21.732			-3.105
246601.000			21.731			-3.104
246700.000			21.730			-3.104
246801.000			21.731			-3.104
246900.000			21.731			-3.104
247000.000			21.731			-3.104
247101.000			21.730			-3.104
247200.000			21.731			-3.104
247300.000			21.730			-3.104
247402.000			21.730			-3.104
247501.000			21.729			-3.104
247601.000			21.730			-3.104
247701.000			21.730			-3.104
247800.000			21.729			-3.104
247900.000			21.728			-3.104
248001.000			21.728			-3.104
248100.000			21.728			-3.104
248200.000			21.729			-3.104
248301.000			21.729			-3.104
248401.000			21.728			-3.104
248501.000			21.729			-3.104
248601.000			21.729			-3.104
248700.000			21.729			-3.104
248800.000			21.728			-3.104
248901.000			21.728			-3.104
249000.000			21.728			-3.104
249100.000			21.728			-3.104
249201.000			21.728			-3.104
249301.000			21.728			-3.104
249402.000			21.727			-3.104
249501.000			21.727			-3.104
249600.000			21.727			-3.104
249701.000			21.726			-3.104
249800.000			21.727			-3.104
249900.000			21.728			-3.104
250001.000			21.727			-3.104
250100.000			21.726			-3.104
250200.000			21.726			-3.104
250302.000			21.725			-3.104
250401.000			21.725			-3.104
250501.000			21.725			-3.104
250601.000			21.725			-3.104
250700.000			21.725			-3.104
250800.000			21.726			-3.104
250901.000			21.726			-3.104
251000.000			21.726			-3.104
251100.000			21.724			-3.103
251202.000			21.724			-3.103
251301.000			21.724			-3.103
251401.000			21.724			-3.103
251501.000			21.723			-3.103
251600.000			21.723			-3.103
251700.000			21.723			-3.103
251801.000			21.723			-3.103
251900.000			21.722			-3.103
252000.000			21.722			-3.103
252102.000			21.723			-3.103
252201.000			21.722			-3.103
252301.000			21.722			-3.103
252401.000			21.722			-3.103
252500.000			21.722			-3.103
252601.000			21.721			-3.103
252700.000			21.722			-3.103
252800.000			21.721			-3.103
252901.000			21.722			-3.103
253001.000			21.722			-3.103
253101.000			21.721			-3.103
253202.000			21.720			-3.103
253300.000			21.721			-3.103
253400.000			21.721			-3.103
253501.000			21.721			-3.103
253600.000			21.720			-3.103
253700.000			21.720			-3.103
253801.000			21.720			-3.103
253901.000			21.720			-3.103
254001.000			21.719			-3.103
254102.000			21.719			-3.103
254200.000			21.719			-3.103
254300.000			21.718			-3.103
254401.000			21.718			-3.103
254500.000			21.719			-3.103
254600.000			21.719			-3.103
254701.000			21.719			-3.103
254800.000			21.719			-3.103
254901.000			21.719			-3.103
255002.000			21.718			-3.103
255100.000			21.717			-3.102
255200.000			21.718			-3.103
255301.000			21.718			-3.103
255400.000			21.716			-3.102
255500.000			21.716			-3.102
255601.000			21.716			-3.102
255700.000			21.717			-3.102
255801.000			21.717			-3.102
255901.000			21.717			-3.102
256001.000			21.716			-3.102
256101.000			21.716			-3.102
256200.000			21.717			-3.102
256300.000			21.717			-3.102
256401.000			21.716			-3.102
256500.000			21.716			-3.102
256600.000			21.715			-3.102
256701.000			21.715			-3.102
256801.000			21.716			-3.102
256901.000			21.715			-3.102
257001.000			21.715			-3.102
257100.000			21.715			-3.102
257200.000			21.715			-3.102
257301.000			21.714			-3.102
257400.000			21.714			-3.102
257500.000			21.713			-3.102
257601.000			21.714			-3.102
257701.000			21.714			-3.102
257801.000			21.714			-3.102
257901.000			21.713			-3.102
258000.000			21.713			-3.102
258100.000			21.714			-3.102
258201.000			21.713			-3.102
258300.000			21.713			-3.102
258400.000			21.713			-3.102
258501.000			21.712			-3.102
258601.000			21.712			-3.102
258701.000			21.713			-3.102
258802.000			21.713			-3.102
258900.000			21.713			-3.102
259001.000			21.713			-3.102
259100.000			21.712			-3.102
259200.000			21.712			-3.102
259301.000			21.711			-3.102
259400.000			21.712			-3.102
259500.000			21.711			-3.102
259602.000			21.710			-3.101
259701.000			21.710			-3.101
259800.000			21.710			-3.101
259901.000			21.710			-3.101
260000.000			21.711			-3.102
260100.000			21.711			-3.102
260201.000			21.710			-3.101
260300.000			21.710			-3.101
260400.000			21.709			-3.101
260502.000			21.710			-3.101
260601.000			21.710			-3.101
260700.000			21.708			-3.101
260801.000			21.708			-3.101
260900.000			21.709			-3.101
261000.000			21.708			-3.101
261101.000			21.708			-3.101
261200.000			21.708			-3.101
261300.000			21.709			-3.101
261402.000			21.708			-3.101
261501.000			21.708			-3.101
261600.000			21.707			-3.101
261701.000			21.706			-3.101
261800.000			21.707			-3.101
261900.000			21.708			-3.101
262001.000			21.707			-3.101
262100.000			21.706			-3.101
262201.000			21.707			-3.101
262301.000			21.706			-3.101
262401.000			21.707			-3.101
262502.000			21.707			-3.101
262600.000			21.705			-3.101
262700.000			21.704			-3.101
262801.000			21.705			-3.101
262900.000			21.705			-3.101
263000.000			21.706			-3.101
263101.000			21.706			-3.101
263201.000			21.706			-3.101
263301.000			21.705			-3.101
263402.000			21.704			-3.101
263500.000			21.704			-3.101
263600.000			21.704			-3.101
263701.000			21.704			-3.101
263800.000			21.704			-3.101
263900.000			21.703			-3.100
264001.000			21.703			-3.100
264101.000			21.703			-3.100
264201.000			21.703			-3.100
264302.000			21.704			-3.101
264400.000			21.704			-3.101
264500.000			21.703			-3.100
264601.000			21.703			-3.100
264700.000			21.702			-3.100
264800.000			21.702			-3.100
264901.000			21.702			-3.100
265000.000			21.702			-3.100
265101.000			21.703			-3.100
265202.000			21.703			-3.100
265300.000			21.701			-3.100
265401.000			21.701			-3.100
265500.000			21.702			-3.100
265600.000			21.702			-3.100
265701.000			21.701			-3.100
265800.000			21.701			-3.100
265900.000			21.701			-3.100
266002.000			21.700			-3.100
266101.000			21.700			-3.100
266200.000			21.700			-3.100
266301.000			21.699			-3.100
266400.000			21.700			-3.100
266500.000			21.701			-3.100
266601.000			21.701			-3.100
266700.000			21.699			-3.100
266800.000			21.699			-3.100
266902.000			21.700			-3.100
267001.000			21.699			-3.100
267101.000			21.698			-3.100
267201.000			21.697			-3.100
267300.000			21.698			-3.100
267400.000			21.699			-3.100
267501.000			21.698			-3.100
267600.000			21.698			-3.100
267700.000			21.698			-3.100
267801.000			21.698			-3.100
267901.000			21.699			-3.100
268001.000			21.698			-3.100
268102.000			21.697			-3.100
268200.000			21.697			-3.100
268300.000			21.697			-3.100
268401.000			21.696			-3.099
268500.000			21.697			-3.100
268601.000			21.697			-3.100
268700.000			21.697			-3.100
268800.000			21.696			-3.099
268902.000			21.696			-3.099
269001.000			21.695			-3.099
269101.000			21.695			-3.099
269201.000			21.696			-3.099
269300.000			21.695			-3.099
269400.000			21.695			-3.099
269501.000			21.696			-3.099
269600.000			21.695			-3.099
269700.000			21.695			-3.099
269801.000			21.695			-3.099
269901.000			21.694			-3.099
270001.000			21.694			-3.099
270102.000			21.694			-3.099
270200.000			21.694			-3.099
270300.000			21.696			-3.099
270401.000			21.695			-3.099
270500.000			21.693			-3.099
270600.000			21.693			-3.099
270701.000			21.693			-3.099
270801.000			21.694			-3.099
270901.000			21.694			-3.099
271002.000			21.693			-3.099
271100.000			21.693			-3.099
271200.000			21.693			-3.099
271301.000			21.693			-3.099
271400.000			21.693			-3.099
271500.000			21.693			-3.099
271601.000			21.692			-3.099
271700.000			21.693			-3.099
271802.000			21.693			-3.099
271901.000			21.692			-3.099
272000.000			21.691			-3.099
272101.000			21.691			-3.099
272200.000			21.691			-3.099
272300.000			21.692			-3.099
272401.000			21.691			-3.099
272500.000			21.691			-3.099
272600.000			21.691			-3.099
272702.000			21.691			-3.099
272801.000			21.691			-3.099
272901.000			21.691			-3.099
273001.000			21.692			-3.099
273100.000			21.690			-3.099
273200.000			21.690			-3.099
273301.000			21.690			-3.099
273400.000			21.689			-3.098
273500.000			21.689			-3.098
273601.000			21.689			-3.098
273701.000			21.689			-3.098
273801.000			21.688			-3.098
273901.000			21.689			-3.098
274000.000			21.688			-3.098
274100.000			21.687			-3.098
274201.000			21.688			-3.098
274300.000			21.689			-3.098
274400.000			21.689			-3.098
274501.000			21.688			-3.098
274601.000			21.688			-3.098
274701.000			21.687			-3.098
274802.000			21.687			-3.098
274900.000			21.688			-3.098
275001.000			21.687			-3.098
275100.000			21.687			-3.098
275200.000			21.687			-3.098
275301.000			21.687			-3.098
275400.000			21.686			-3.098
275500.000			21.687			-3.098
275602.000			21.687			-3.098
275701.000			21.685			-3.098
275801.000			21.686			-3.098
275901.000			21.687			-3.098
276000.000			21.686			-3.098
276100.000			21.685			-3.098
276201.000			21.685			-3.098
276300.000			21.685			-3.098
276400.000			21.685			-3.098
276501.000			21.686			-3.098
276601.000			21.685			-3.098
276701.000			21.685			-3.098
276802.000			21.684			-3.098
276900.000			21.684			-3.098
277000.000			21.684			-3.098
277101.000			21.683			-3.098
277200.000			21.684			-3.098
277300.000			21.685			-3.098
277401.000			21.684			-3.098
277500.000			21.683			-3.098
277601.000			21.684			-3.098
277702.000			21.683			-3.098
277800.000			21.683			-3.098
277900.000			21.683			-3.098
278001.000			21.682			-3.097
278100.000			21.682			-3.097
278201.000			21.682			-3.097
278300.000			21.682			-3.097
278400.000			21.682			-3.097
278501.000			21.682			-3.097
278601.000			21.682			-3.097
278701.000			21.682			-3.097
278801.000			21.681			-3.097
278900.000			21.681			-3.097
279000.000			21.681			-3.097
279101.000			21.681			-3.097
279200.000			21.681			-3.097
279300.000			21.681			-3.097
279401.000			21.681			-3.097
279501.000			21.681			-3.097
279601.000			21.681			-3.097
279702.000			21.681			-3.097
279800.000			21.680			-3.097
279900.000			21.680			-3.097
280001.000			21.680			-3.097
280100.000			21.680			-3.097
280200.000			21.680			-3.097
280301.000			21.680			-3.097
280400.000			21.680			-3.097
280501.000			21.679			-3.097
280602.000			21.678			-3.097
280700.000			21.679			-3.097
280800.000			21.679			-3.097
280901.000			21.679			-3.097
281000.000			21.679			-3.097
281100.000			21.679			-3.097
281201.000			21.678			-3.097
281300.000			21.679			-3.097
281401.000			21.679			-3.097
281501.000			21.679			-3.097
281601.000			21.677			-3.097
281701.000			21.677			-3.097
281800.000			21.678			-3.097
281900.000			21.677			-3.097
282001.000			21.677			-3.097
282100.000			21.677			-3.097
282200.000			21.678			-3.097
282301.000			21.677			-3.097
282401.000			21.677			-3.097
282501.000			21.677			-3.097
282602.000			21.678			-3.097
282700.000			21.677			-3.097
282800.000			21.676			-3.097
282901.000			21.676			-3.097
283000.000			21.676			-3.097
283100.000			21.675			-3.096
283201.000			21.675			-3.096
283300.000			21.676			-3.097
283401.000			21.676			-3.097
283502.000			21.675			-3.096
283600.000			21.675			-3.096
283700.000			21.675			-3.096
283801.000			21.675			-3.096
283900.000			21.675			-3.096
284000.000			21.674			-3.096
284101.000			21.675			-3.096
284200.000			21.675			-3.096
284301.000			21.674			-3.096
284402.000			21.675			-3.096
284501.000			21.674			-3.096
284601.000			21.673			-3.096
284700.000			21.674			-3.096
284800.000			21.674			-3.096
284901.000			21.673			-3.096
285000.000			21.673			-3.096
285100.000			21.673			-3.096
285201.000			21.672			-3.096
285301.000			21.672			-3.096
285401.000			21.673			-3.096
285501.000			21.671			-3.096
285600.000			21.671			-3.096
285700.000			21.672			-3.096
285801.000			21.672			-3.096
285900.000			21.673			-3.096
286000.000			21.672			-3.096
286101.000			21.671			-3.096
286201.000			21.671			-3.096
286301.000			21.671			-3.096
286402.000			21.671			-3.096
286500.000			21.671			-3.096
286600.000			21.670			-3.096
286701.000			21.669			-3.096
286800.000			21.670			-3.096
286900.000			21.669			-3.096
287001.000			21.669			-3.096
287100.000			21.669			-3.096
287201.000			21.669			-3.096
287302.000			21.669			-3.096
287401.000			21.668			-3.095
287500.000			21.670			-3.096
287601.000			21.669			-3.096
287700.000			21.668			-3.095
287801.000			21.668			-3.095
287900.000			21.669			-3.096
288000.000			21.669			-3.096
288101.000			21.669			-3.096
288201.000			21.669			-3.096
288301.000			21.669			-3.096
288402.000			21.669			-3.096
288500.000			21.669			-3.096
288600.000			21.668			-3.095
288701.000			21.667			-3.095
288800.000			21.667			-3.095
288900.000			21.667			-3.095
289001.000			21.667			-3.095
289100.000			21.668			-3.095
289201.000			21.668			-3.095
289302.000			21.668			-3.095
289401.000			21.667			-3.095
289500.000			21.667			-3.095
289601.000			21.667			-3.095
289700.000			21.666			-3.095
289800.000			21.666			-3.095
289901.000			21.665			-3.095
290000.000			21.665			-3.095
290100.000			21.666			-3.095
290202.000			21.665			-3.095
290301.000			21.667			-3.095
290401.000			21.666			-3.095
290501.000			21.666			-3.095
290600.000			21.664			-3.095
290700.000			21.665			-3.095
290801.000			21.665			-3.095
290900.000			21.664			-3.095
291001.000			21.664			-3.095
291100.000			21.665			-3.095
291201.000			21.665			-3.095
291302.000			21.664			-3.095
291400.000			21.663			-3.095
291500.000			21.663			-3.095
291601.000			21.664			-3.095
291700.000			21.664			-3.095
291800.000			21.663			-3.095
291901.000			21.663			-3.095
292000.000			21.663			-3.095
292101.000			21.662			-3.095
292202.000			21.662			-3.095
292301.000			21.662			-3.095
292400.000			21.662			-3.095
292501.000			21.661			-3.094
292600.000			21.661			-3.094
292700.000			21.662			-3.095
292801.000			21.661			-3.094
292900.000			21.660			-3.094
293001.000			21.660			-3.094
293102.000			21.662			-3.095
293201.000			21.661			-3.094
293300.000			21.660			-3.094
293401.000			21.661			-3.094
293500.000			21.661			-3.094
293600.000			21.661			-3.094
293701.000			21.661			-3.094
293800.000			21.660			-3.094
293901.000			21.660			-3.094
294002.000			21.660			-3.094
294101.000			21.660			-3.094
294201.000			21.660			-3.094
294300.000			21.659			-3.094
294400.000			21.659			-3.094
294501.000			21.659			-3.094
294600.000			21.659			-3.094
294700.000			21.659			-3.094
294801.000			21.659			-3.094
294901.000			21.658			-3.094
295001.000			21.658			-3.094
295101.000			21.659			-3.094
295200.000			21.659			-3.094
295300.000			21.659			-3.094
295401.000			21.658			-3.094
295500.000			21.659			-3.094
295600.000			21.659			-3.094
295701.000			21.657			-3.094
295801.000			21.657			-3.094
295901.000			21.658			-3.094
296002.000			21.657			-3.094
296100.000			21.657			-3.094
296200.000			21.657			-3.094
296301.000			21.657			-3.094
296400.000			21.657			-3.094
296500.000			21.657			-3.094
296601.000			21.657			-3.094
296700.000			21.658			-3.094
296801.000			21.658			-3.094
296902.000			21.656			-3.094
297001.000			21.656			-3.094
297100.000			21.656			-3.094
297201.000			21.656			-3.094
297300.000			21.657			-3.094
297401.000			21.656			-3.094
297500.000			21.655			-3.094
297600.000			21.655			-3.094
297701.000			21.655			-3.094
297801.000			21.655			-3.094
297901.000			21.655			-3.094
298001.000			21.654			-3.093
298100.000			21.655			-3.094
298200.000			21.655			-3.094
298301.000			21.656			-3.094
298400.000			21.655			-3.094
298500.000			21.654			-3.093
298601.000			21.653			-3.093
298701.000			21.653			-3.093
298801.000			21.653			-3.093
298902.000			21.653			-3.093
299000.000			21.652			-3.093
299100.000			21.653			-3.093
299201.000			21.653			-3.093
299300.000			21.653			-3.093
299400.000			21.653			-3.093
299501.000			21.653			-3.093
299600.000			21.654			-3.093
299701.000			21.654			-3.093
299802.000			21.653			-3.093
299901.000			21.652			-3.093
