# Acquired on 20/12/2023 11:19:38 
# SPIDER: Creep_-3mm_07714532B-1
# CREEP MEASUREMENT

# time [ms]		force [N]		stiffness [N/mm]
1.000			7.701			-2.567
102.000			8.496			-2.832
201.000			8.797			-2.932
300.000			8.813			-2.938
401.000			8.773			-2.924
500.000			8.742			-2.914
600.000			8.696			-2.899
701.000			8.678			-2.893
801.000			8.663			-2.888
901.000			8.650			-2.883
1001.000			8.637			-2.879
1100.000			8.624			-2.875
1200.000			8.614			-2.871
1301.000			8.594			-2.865
1400.000			8.585			-2.862
1501.000			8.578			-2.859
1602.000			8.571			-2.857
1700.000			8.565			-2.855
1800.000			8.557			-2.852
1901.000			8.551			-2.850
2000.000			8.545			-2.848
2100.000			8.533			-2.844
2201.000			8.528			-2.843
2301.000			8.523			-2.841
2402.000			8.518			-2.839
2500.000			8.514			-2.838
2600.000			8.509			-2.836
2701.000			8.504			-2.835
2800.000			8.496			-2.832
2900.000			8.493			-2.831
3001.000			8.488			-2.829
3101.000			8.484			-2.828
3201.000			8.481			-2.827
3301.000			8.477			-2.826
3400.000			8.474			-2.825
3500.000			8.470			-2.823
3601.000			8.464			-2.821
3700.000			8.462			-2.821
3800.000			8.459			-2.820
3902.000			8.455			-2.818
4001.000			8.452			-2.817
4100.000			8.449			-2.816
4201.000			8.447			-2.816
4300.000			8.442			-2.814
4400.000			8.440			-2.813
4501.000			8.436			-2.812
4601.000			8.434			-2.811
4701.000			8.432			-2.811
4801.000			8.429			-2.810
4900.000			8.427			-2.809
5000.000			8.422			-2.807
5101.000			8.420			-2.807
5200.000			8.418			-2.806
5300.000			8.416			-2.805
5402.000			8.415			-2.805
5501.000			8.412			-2.804
5600.000			8.411			-2.804
5700.000			8.409			-2.803
5800.000			8.404			-2.801
5901.000			8.403			-2.801
6000.000			8.401			-2.800
6100.000			8.399			-2.800
6202.000			8.397			-2.799
6301.000			8.396			-2.799
6400.000			8.395			-2.798
6501.000			8.391			-2.797
6600.000			8.389			-2.796
6700.000			8.387			-2.796
6801.000			8.386			-2.795
6900.000			8.384			-2.795
7001.000			8.382			-2.794
7102.000			8.381			-2.794
7200.000			8.379			-2.793
7300.000			8.377			-2.792
7401.000			8.375			-2.792
7500.000			8.373			-2.791
7600.000			8.371			-2.790
7702.000			8.369			-2.790
7801.000			8.369			-2.790
7901.000			8.369			-2.790
8001.000			8.366			-2.789
8100.000			8.364			-2.788
8200.000			8.362			-2.787
8301.000			8.362			-2.787
8400.000			8.361			-2.787
8501.000			8.359			-2.786
8602.000			8.357			-2.786
8700.000			8.354			-2.785
8800.000			8.354			-2.785
8900.000			8.353			-2.784
9000.000			8.351			-2.784
9101.000			8.349			-2.783
9200.000			8.349			-2.783
9301.000			8.348			-2.783
9402.000			8.346			-2.782
9500.000			8.345			-2.782
9600.000			8.343			-2.781
9701.000			8.342			-2.781
9800.000			8.341			-2.780
9900.000			8.340			-2.780
10001.000			8.339			-2.780
10101.000			8.339			-2.780
10201.000			8.336			-2.779
10301.000			8.334			-2.778
10400.000			8.334			-2.778
10500.000			8.333			-2.778
10601.000			8.332			-2.777
10700.000			8.331			-2.777
10800.000			8.330			-2.777
10902.000			8.326			-2.775
11001.000			8.326			-2.775
11100.000			8.325			-2.775
11201.000			8.325			-2.775
11300.000			8.324			-2.775
11400.000			8.324			-2.775
11501.000			8.322			-2.774
11601.000			8.321			-2.774
11701.000			8.320			-2.773
11801.000			8.319			-2.773
11900.000			8.318			-2.773
12000.000			8.317			-2.772
12100.000			8.316			-2.772
12200.000			8.316			-2.772
12301.000			8.315			-2.772
12401.000			8.314			-2.771
12501.000			8.312			-2.771
12601.000			8.311			-2.770
12700.000			8.311			-2.770
12800.000			8.310			-2.770
12901.000			8.310			-2.770
13000.000			8.308			-2.769
13100.000			8.307			-2.769
13202.000			8.305			-2.768
13301.000			8.304			-2.768
13400.000			8.304			-2.768
13501.000			8.303			-2.768
13600.000			8.304			-2.768
13700.000			8.303			-2.768
13801.000			8.302			-2.767
13900.000			8.300			-2.767
14001.000			8.300			-2.767
14102.000			8.300			-2.767
14200.000			8.298			-2.766
14300.000			8.296			-2.765
14401.000			8.296			-2.765
14500.000			8.296			-2.765
14600.000			8.294			-2.765
14701.000			8.293			-2.764
14801.000			8.292			-2.764
14901.000			8.291			-2.764
15001.000			8.291			-2.764
15100.000			8.290			-2.763
15200.000			8.290			-2.763
15300.000			8.288			-2.763
15400.000			8.288			-2.763
15501.000			8.288			-2.763
15601.000			8.287			-2.762
15701.000			8.286			-2.762
15801.000			8.285			-2.762
15900.000			8.284			-2.761
16000.000			8.284			-2.761
16101.000			8.281			-2.760
16200.000			8.282			-2.761
16300.000			8.282			-2.761
16402.000			8.281			-2.760
16501.000			8.280			-2.760
16600.000			8.280			-2.760
16701.000			8.279			-2.760
16800.000			8.279			-2.760
16900.000			8.277			-2.759
17001.000			8.277			-2.759
17100.000			8.277			-2.759
17201.000			8.276			-2.759
17302.000			8.275			-2.758
17401.000			8.275			-2.758
17500.000			8.272			-2.757
17601.000			8.272			-2.757
17700.000			8.273			-2.758
17800.000			8.272			-2.757
17901.000			8.271			-2.757
18001.000			8.270			-2.757
18101.000			8.269			-2.756
18202.000			8.269			-2.756
18300.000			8.267			-2.756
18400.000			8.267			-2.756
18500.000			8.267			-2.756
18600.000			8.266			-2.755
18701.000			8.265			-2.755
18800.000			8.264			-2.755
18901.000			8.264			-2.755
19002.000			8.263			-2.754
19100.000			8.263			-2.754
19200.000			8.263			-2.754
19301.000			8.262			-2.754
19400.000			8.261			-2.754
19500.000			8.261			-2.754
19601.000			8.261			-2.754
19701.000			8.260			-2.753
19801.000			8.258			-2.753
19901.000			8.258			-2.753
20000.000			8.257			-2.752
20100.000			8.257			-2.752
20201.000			8.257			-2.752
20300.000			8.256			-2.752
20400.000			8.256			-2.752
20502.000			8.256			-2.752
20601.000			8.254			-2.751
20700.000			8.253			-2.751
20801.000			8.252			-2.751
20900.000			8.252			-2.751
21000.000			8.252			-2.751
21101.000			8.252			-2.751
21201.000			8.250			-2.750
21301.000			8.251			-2.750
21402.000			8.249			-2.750
21500.000			8.249			-2.750
21600.000			8.248			-2.749
21700.000			8.249			-2.750
21800.000			8.249			-2.750
21901.000			8.248			-2.749
22000.000			8.246			-2.749
22101.000			8.245			-2.748
22202.000			8.246			-2.749
22300.000			8.246			-2.749
22400.000			8.246			-2.749
22501.000			8.244			-2.748
22600.000			8.244			-2.748
22700.000			8.244			-2.748
22802.000			8.243			-2.748
22901.000			8.242			-2.747
23001.000			8.242			-2.747
23101.000			8.243			-2.748
23200.000			8.242			-2.747
23300.000			8.241			-2.747
23401.000			8.240			-2.747
23500.000			8.238			-2.746
23601.000			8.238			-2.746
23702.000			8.238			-2.746
23800.000			8.238			-2.746
23900.000			8.238			-2.746
24001.000			8.238			-2.746
24100.000			8.237			-2.746
24200.000			8.237			-2.746
24301.000			8.236			-2.745
24401.000			8.235			-2.745
24501.000			8.234			-2.745
24601.000			8.234			-2.745
24700.000			8.235			-2.745
24800.000			8.234			-2.745
24900.000			8.234			-2.745
25000.000			8.233			-2.744
25101.000			8.232			-2.744
25201.000			8.231			-2.744
25301.000			8.231			-2.744
25401.000			8.231			-2.744
25500.000			8.229			-2.743
25600.000			8.229			-2.743
25701.000			8.229			-2.743
25800.000			8.229			-2.743
25900.000			8.229			-2.743
26002.000			8.229			-2.743
26101.000			8.228			-2.743
26200.000			8.227			-2.742
26301.000			8.227			-2.742
26400.000			8.228			-2.743
26500.000			8.227			-2.742
26601.000			8.226			-2.742
26700.000			8.225			-2.742
26801.000			8.224			-2.741
26902.000			8.224			-2.741
27000.000			8.223			-2.741
27100.000			8.222			-2.741
27201.000			8.222			-2.741
27300.000			8.222			-2.741
27400.000			8.223			-2.741
27501.000			8.223			-2.741
27601.000			8.222			-2.741
27701.000			8.222			-2.741
27801.000			8.221			-2.740
27900.000			8.221			-2.740
28000.000			8.220			-2.740
28100.000			8.220			-2.740
28200.000			8.219			-2.740
28301.000			8.218			-2.739
28401.000			8.218			-2.739
28501.000			8.217			-2.739
28601.000			8.215			-2.738
28700.000			8.216			-2.739
28800.000			8.217			-2.739
28901.000			8.216			-2.739
29000.000			8.217			-2.739
29100.000			8.216			-2.739
29202.000			8.215			-2.738
29301.000			8.214			-2.738
29400.000			8.214			-2.738
29501.000			8.213			-2.738
29600.000			8.213			-2.738
29700.000			8.213			-2.738
29801.000			8.213			-2.738
29900.000			8.212			-2.737
30001.000			8.211			-2.737
30102.000			8.211			-2.737
30200.000			8.211			-2.737
30300.000			8.211			-2.737
30401.000			8.210			-2.737
30500.000			8.210			-2.737
30600.000			8.209			-2.736
30702.000			8.209			-2.736
30801.000			8.209			-2.736
30901.000			8.209			-2.736
31001.000			8.209			-2.736
31100.000			8.208			-2.736
31200.000			8.207			-2.736
31300.000			8.207			-2.736
31400.000			8.208			-2.736
31502.000			8.206			-2.735
31601.000			8.205			-2.735
31700.000			8.205			-2.735
31801.000			8.205			-2.735
31900.000			8.205			-2.735
32000.000			8.205			-2.735
32101.000			8.205			-2.735
32200.000			8.204			-2.735
32301.000			8.204			-2.735
32402.000			8.204			-2.735
32500.000			8.204			-2.735
32600.000			8.203			-2.734
32701.000			8.203			-2.734
32800.000			8.203			-2.734
32900.000			8.203			-2.734
33001.000			8.201			-2.734
33101.000			8.200			-2.733
33201.000			8.200			-2.733
33301.000			8.201			-2.734
33400.000			8.200			-2.733
33500.000			8.199			-2.733
33601.000			8.199			-2.733
33700.000			8.199			-2.733
33800.000			8.198			-2.733
33902.000			8.197			-2.732
34001.000			8.197			-2.732
34100.000			8.197			-2.732
34201.000			8.197			-2.732
34300.000			8.197			-2.732
34400.000			8.197			-2.732
34500.000			8.196			-2.732
34600.000			8.196			-2.732
34702.000			8.196			-2.732
34801.000			8.195			-2.732
34900.000			8.196			-2.732
35001.000			8.195			-2.732
35100.000			8.194			-2.731
35200.000			8.193			-2.731
35301.000			8.193			-2.731
35400.000			8.194			-2.731
35501.000			8.192			-2.731
35602.000			8.192			-2.731
35700.000			8.193			-2.731
35800.000			8.192			-2.731
35901.000			8.191			-2.730
36000.000			8.191			-2.730
36100.000			8.191			-2.730
36201.000			8.190			-2.730
36301.000			8.189			-2.730
36401.000			8.190			-2.730
36501.000			8.191			-2.730
36600.000			8.190			-2.730
36700.000			8.189			-2.730
36801.000			8.188			-2.729
36900.000			8.188			-2.729
37000.000			8.188			-2.729
37102.000			8.188			-2.729
37201.000			8.189			-2.730
37300.000			8.188			-2.729
37401.000			8.187			-2.729
37500.000			8.187			-2.729
37600.000			8.187			-2.729
37700.000			8.187			-2.729
37800.000			8.187			-2.729
37901.000			8.185			-2.728
38001.000			8.185			-2.728
38101.000			8.184			-2.728
38201.000			8.185			-2.728
38300.000			8.185			-2.728
38400.000			8.185			-2.728
38501.000			8.184			-2.728
38600.000			8.184			-2.728
38700.000			8.183			-2.728
38802.000			8.183			-2.728
38901.000			8.183			-2.728
39000.000			8.182			-2.727
39101.000			8.183			-2.728
39200.000			8.182			-2.727
39300.000			8.182			-2.727
39401.000			8.182			-2.727
39500.000			8.181			-2.727
39601.000			8.181			-2.727
39702.000			8.181			-2.727
39800.000			8.181			-2.727
39900.000			8.180			-2.727
40001.000			8.180			-2.727
40100.000			8.179			-2.726
40200.000			8.179			-2.726
40301.000			8.180			-2.727
40401.000			8.179			-2.726
40501.000			8.179			-2.726
40601.000			8.178			-2.726
40700.000			8.177			-2.726
40800.000			8.176			-2.725
40900.000			8.177			-2.726
41000.000			8.177			-2.726
41101.000			8.176			-2.725
41201.000			8.176			-2.725
41301.000			8.176			-2.725
41401.000			8.176			-2.725
41500.000			8.175			-2.725
41600.000			8.176			-2.725
41701.000			8.175			-2.725
41800.000			8.174			-2.725
41900.000			8.174			-2.725
42002.000			8.174			-2.725
42101.000			8.174			-2.725
42200.000			8.175			-2.725
42301.000			8.174			-2.725
42400.000			8.174			-2.725
42500.000			8.172			-2.724
42601.000			8.172			-2.724
42700.000			8.172			-2.724
42801.000			8.172			-2.724
42902.000			8.172			-2.724
43001.000			8.171			-2.724
43100.000			8.171			-2.724
43201.000			8.171			-2.724
43300.000			8.171			-2.724
43400.000			8.170			-2.723
43501.000			8.171			-2.724
43601.000			8.171			-2.724
43701.000			8.171			-2.724
43801.000			8.171			-2.724
43900.000			8.171			-2.724
44000.000			8.169			-2.723
44100.000			8.169			-2.723
44200.000			8.168			-2.723
44301.000			8.168			-2.723
44401.000			8.168			-2.723
44501.000			8.167			-2.722
44601.000			8.167			-2.722
44700.000			8.168			-2.723
44800.000			8.168			-2.723
44901.000			8.166			-2.722
45000.000			8.166			-2.722
45100.000			8.167			-2.722
45202.000			8.166			-2.722
45301.000			8.166			-2.722
45400.000			8.166			-2.722
45501.000			8.165			-2.722
45600.000			8.165			-2.722
45700.000			8.165			-2.722
45801.000			8.164			-2.721
45900.000			8.165			-2.722
46000.000			8.165			-2.722
46102.000			8.164			-2.721
46201.000			8.164			-2.721
46300.000			8.164			-2.721
46401.000			8.164			-2.721
46500.000			8.163			-2.721
46600.000			8.163			-2.721
46701.000			8.163			-2.721
46801.000			8.163			-2.721
46901.000			8.162			-2.721
47001.000			8.163			-2.721
47100.000			8.163			-2.721
47200.000			8.162			-2.721
47300.000			8.162			-2.721
47400.000			8.161			-2.720
47501.000			8.162			-2.721
47601.000			8.160			-2.720
47701.000			8.160			-2.720
47802.000			8.160			-2.720
47900.000			8.160			-2.720
48000.000			8.160			-2.720
48101.000			8.160			-2.720
48200.000			8.159			-2.720
48300.000			8.159			-2.720
48401.000			8.158			-2.719
48501.000			8.157			-2.719
48601.000			8.158			-2.719
48701.000			8.159			-2.720
48800.000			8.159			-2.720
48900.000			8.159			-2.720
49001.000			8.158			-2.719
49100.000			8.156			-2.719
49200.000			8.157			-2.719
49302.000			8.157			-2.719
49401.000			8.156			-2.719
49500.000			8.156			-2.719
49601.000			8.157			-2.719
49700.000			8.156			-2.719
49800.000			8.156			-2.719
49901.000			8.156			-2.719
50000.000			8.156			-2.719
50101.000			8.155			-2.718
50202.000			8.155			-2.718
50300.000			8.156			-2.719
50400.000			8.155			-2.718
50500.000			8.155			-2.718
50600.000			8.155			-2.718
50701.000			8.154			-2.718
50800.000			8.154			-2.718
50901.000			8.154			-2.718
51002.000			8.153			-2.718
51100.000			8.153			-2.718
51200.000			8.153			-2.718
51301.000			8.153			-2.718
51400.000			8.152			-2.717
51500.000			8.153			-2.718
51602.000			8.153			-2.718
51701.000			8.152			-2.717
51801.000			8.151			-2.717
51901.000			8.151			-2.717
52000.000			8.152			-2.717
52100.000			8.151			-2.717
52201.000			8.150			-2.717
52300.000			8.150			-2.717
52401.000			8.150			-2.717
52502.000			8.150			-2.717
52600.000			8.149			-2.716
52700.000			8.149			-2.716
52801.000			8.149			-2.716
52900.000			8.149			-2.716
53000.000			8.149			-2.716
53101.000			8.149			-2.716
53201.000			8.149			-2.716
53301.000			8.148			-2.716
53401.000			8.148			-2.716
53500.000			8.148			-2.716
53600.000			8.147			-2.716
53700.000			8.148			-2.716
53800.000			8.147			-2.716
53901.000			8.147			-2.716
54001.000			8.147			-2.716
54101.000			8.147			-2.716
54201.000			8.146			-2.715
54300.000			8.147			-2.716
54400.000			8.147			-2.716
54501.000			8.146			-2.715
54600.000			8.145			-2.715
54700.000			8.145			-2.715
54802.000			8.145			-2.715
54901.000			8.145			-2.715
55001.000			8.145			-2.715
55101.000			8.145			-2.715
55200.000			8.144			-2.715
55300.000			8.143			-2.714
55401.000			8.144			-2.715
55500.000			8.143			-2.714
55601.000			8.143			-2.714
55702.000			8.144			-2.715
55801.000			8.142			-2.714
55900.000			8.143			-2.714
56001.000			8.143			-2.714
56100.000			8.142			-2.714
56200.000			8.143			-2.714
56301.000			8.143			-2.714
56401.000			8.142			-2.714
56501.000			8.141			-2.714
56602.000			8.142			-2.714
56700.000			8.143			-2.714
56800.000			8.142			-2.714
56900.000			8.142			-2.714
57000.000			8.141			-2.714
57101.000			8.141			-2.714
57201.000			8.141			-2.714
57301.000			8.140			-2.713
57401.000			8.140			-2.713
57500.000			8.140			-2.713
57600.000			8.140			-2.713
57701.000			8.140			-2.713
57800.000			8.139			-2.713
57900.000			8.139			-2.713
58001.000			8.138			-2.713
58101.000			8.139			-2.713
58201.000			8.139			-2.713
58301.000			8.140			-2.713
58400.000			8.138			-2.713
58500.000			8.138			-2.713
58601.000			8.139			-2.713
58700.000			8.137			-2.712
58800.000			8.137			-2.712
58902.000			8.138			-2.713
59001.000			8.138			-2.713
59100.000			8.137			-2.712
59201.000			8.136			-2.712
59300.000			8.136			-2.712
59400.000			8.137			-2.712
59501.000			8.136			-2.712
59600.000			8.136			-2.712
59701.000			8.136			-2.712
59802.000			8.135			-2.712
59900.000			8.135			-2.712
60000.000			8.136			-2.712
60100.000			8.136			-2.712
60200.000			8.136			-2.712
60301.000			8.135			-2.712
60400.000			8.135			-2.712
60501.000			8.134			-2.711
60602.000			8.134			-2.711
60700.000			8.133			-2.711
60800.000			8.134			-2.711
60901.000			8.134			-2.711
61000.000			8.133			-2.711
61100.000			8.133			-2.711
61201.000			8.133			-2.711
61301.000			8.133			-2.711
61401.000			8.133			-2.711
61501.000			8.132			-2.711
61600.000			8.132			-2.711
61700.000			8.132			-2.711
61801.000			8.132			-2.711
61900.000			8.133			-2.711
62000.000			8.132			-2.711
62102.000			8.131			-2.710
62201.000			8.131			-2.710
62300.000			8.130			-2.710
62401.000			8.130			-2.710
62500.000			8.130			-2.710
62600.000			8.131			-2.710
62701.000			8.131			-2.710
62801.000			8.130			-2.710
62901.000			8.131			-2.710
63001.000			8.130			-2.710
63100.000			8.130			-2.710
63200.000			8.130			-2.710
63300.000			8.129			-2.710
63400.000			8.129			-2.710
63501.000			8.130			-2.710
63601.000			8.129			-2.710
63701.000			8.129			-2.710
63801.000			8.129			-2.710
63900.000			8.129			-2.710
64000.000			8.128			-2.709
64101.000			8.128			-2.709
64200.000			8.128			-2.709
64300.000			8.127			-2.709
64402.000			8.127			-2.709
64501.000			8.126			-2.709
64600.000			8.127			-2.709
64701.000			8.127			-2.709
64800.000			8.126			-2.709
64900.000			8.127			-2.709
65001.000			8.127			-2.709
65100.000			8.127			-2.709
65201.000			8.127			-2.709
65302.000			8.126			-2.709
65400.000			8.125			-2.708
65500.000			8.125			-2.708
65601.000			8.126			-2.709
65700.000			8.125			-2.708
65800.000			8.124			-2.708
65901.000			8.125			-2.708
66001.000			8.126			-2.709
66101.000			8.125			-2.708
66202.000			8.124			-2.708
66300.000			8.124			-2.708
66400.000			8.124			-2.708
66500.000			8.124			-2.708
66600.000			8.124			-2.708
66701.000			8.124			-2.708
66801.000			8.123			-2.708
66901.000			8.124			-2.708
67002.000			8.122			-2.707
67100.000			8.123			-2.708
67200.000			8.123			-2.708
67301.000			8.123			-2.708
67400.000			8.123			-2.708
67500.000			8.123			-2.708
67601.000			8.121			-2.707
67701.000			8.122			-2.707
67801.000			8.123			-2.708
67901.000			8.123			-2.708
68000.000			8.122			-2.707
68100.000			8.122			-2.707
68201.000			8.121			-2.707
68300.000			8.121			-2.707
68400.000			8.121			-2.707
68502.000			8.121			-2.707
68601.000			8.121			-2.707
68700.000			8.121			-2.707
68801.000			8.121			-2.707
68900.000			8.121			-2.707
69000.000			8.120			-2.707
69101.000			8.120			-2.707
69200.000			8.120			-2.707
69301.000			8.119			-2.706
69402.000			8.119			-2.706
69500.000			8.119			-2.706
69600.000			8.118			-2.706
69700.000			8.118			-2.706
69800.000			8.120			-2.707
69901.000			8.119			-2.706
70000.000			8.118			-2.706
70101.000			8.119			-2.706
70202.000			8.119			-2.706
70300.000			8.119			-2.706
70400.000			8.118			-2.706
70501.000			8.118			-2.706
70600.000			8.119			-2.706
70700.000			8.118			-2.706
70801.000			8.118			-2.706
70901.000			8.118			-2.706
71001.000			8.117			-2.706
71101.000			8.116			-2.705
71200.000			8.116			-2.705
71300.000			8.116			-2.705
71401.000			8.116			-2.705
71500.000			8.116			-2.705
71600.000			8.116			-2.705
71701.000			8.115			-2.705
71801.000			8.116			-2.705
71901.000			8.117			-2.706
72001.000			8.115			-2.705
72100.000			8.115			-2.705
72200.000			8.115			-2.705
72301.000			8.114			-2.705
72400.000			8.115			-2.705
72500.000			8.115			-2.705
72602.000			8.114			-2.705
72701.000			8.115			-2.705
72800.000			8.115			-2.705
72900.000			8.114			-2.705
73000.000			8.114			-2.705
73101.000			8.114			-2.705
73200.000			8.114			-2.705
73300.000			8.114			-2.705
73402.000			8.114			-2.705
73501.000			8.113			-2.704
73600.000			8.114			-2.705
73701.000			8.114			-2.705
73800.000			8.114			-2.705
73900.000			8.113			-2.704
74001.000			8.112			-2.704
74100.000			8.112			-2.704
74201.000			8.113			-2.704
74302.000			8.112			-2.704
74400.000			8.111			-2.704
74500.000			8.111			-2.704
74601.000			8.111			-2.704
74700.000			8.111			-2.704
74800.000			8.111			-2.704
74901.000			8.112			-2.704
75001.000			8.112			-2.704
75101.000			8.112			-2.704
75201.000			8.110			-2.703
75300.000			8.110			-2.703
75400.000			8.111			-2.704
75501.000			8.112			-2.704
75600.000			8.111			-2.704
75700.000			8.110			-2.703
75802.000			8.110			-2.703
75901.000			8.111			-2.704
76000.000			8.110			-2.703
76100.000			8.109			-2.703
76200.000			8.109			-2.703
76301.000			8.109			-2.703
76400.000			8.108			-2.703
76500.000			8.109			-2.703
76602.000			8.109			-2.703
76701.000			8.109			-2.703
76800.000			8.109			-2.703
76901.000			8.109			-2.703
77000.000			8.108			-2.703
77100.000			8.108			-2.703
77201.000			8.109			-2.703
77300.000			8.109			-2.703
77401.000			8.108			-2.703
77502.000			8.107			-2.702
77600.000			8.107			-2.702
77700.000			8.108			-2.703
77801.000			8.107			-2.702
77900.000			8.107			-2.702
78000.000			8.106			-2.702
78101.000			8.106			-2.702
78200.000			8.106			-2.702
78301.000			8.106			-2.702
78402.000			8.107			-2.702
78500.000			8.106			-2.702
78600.000			8.106			-2.702
78701.000			8.105			-2.702
78800.000			8.106			-2.702
78900.000			8.106			-2.702
79001.000			8.106			-2.702
79101.000			8.105			-2.702
79202.000			8.105			-2.702
79300.000			8.105			-2.702
79400.000			8.104			-2.701
79501.000			8.104			-2.701
79600.000			8.104			-2.701
79700.000			8.103			-2.701
79801.000			8.104			-2.701
79901.000			8.104			-2.701
80001.000			8.104			-2.701
80101.000			8.104			-2.701
80200.000			8.104			-2.701
80300.000			8.103			-2.701
80401.000			8.104			-2.701
80500.000			8.104			-2.701
80600.000			8.103			-2.701
80702.000			8.102			-2.701
80801.000			8.102			-2.701
80900.000			8.101			-2.700
81001.000			8.102			-2.701
81100.000			8.102			-2.701
81200.000			8.102			-2.701
81301.000			8.102			-2.701
81400.000			8.102			-2.701
81501.000			8.102			-2.701
81602.000			8.102			-2.701
81700.000			8.102			-2.701
81800.000			8.101			-2.700
81901.000			8.103			-2.701
82000.000			8.102			-2.701
82100.000			8.101			-2.700
82201.000			8.100			-2.700
82301.000			8.101			-2.700
82402.000			8.100			-2.700
82500.000			8.101			-2.700
82600.000			8.100			-2.700
82701.000			8.100			-2.700
82800.000			8.099			-2.700
82900.000			8.099			-2.700
83001.000			8.099			-2.700
83101.000			8.100			-2.700
83201.000			8.101			-2.700
83301.000			8.100			-2.700
83400.000			8.100			-2.700
83500.000			8.100			-2.700
83601.000			8.099			-2.700
83700.000			8.098			-2.699
83800.000			8.099			-2.700
83902.000			8.099			-2.700
84001.000			8.099			-2.700
84101.000			8.099			-2.700
84201.000			8.099			-2.700
84300.000			8.099			-2.700
84400.000			8.098			-2.699
84501.000			8.099			-2.700
84600.000			8.098			-2.699
84700.000			8.098			-2.699
84802.000			8.099			-2.700
84901.000			8.099			-2.700
85000.000			8.097			-2.699
85101.000			8.096			-2.699
85200.000			8.096			-2.699
85300.000			8.096			-2.699
85401.000			8.097			-2.699
85500.000			8.097			-2.699
85602.000			8.098			-2.699
85701.000			8.097			-2.699
85801.000			8.096			-2.699
85901.000			8.096			-2.699
86000.000			8.095			-2.698
86100.000			8.095			-2.698
86201.000			8.095			-2.698
86300.000			8.095			-2.698
86400.000			8.095			-2.698
86502.000			8.095			-2.698
86601.000			8.095			-2.698
86700.000			8.094			-2.698
86801.000			8.094			-2.698
86900.000			8.093			-2.698
87000.000			8.093			-2.698
87101.000			8.093			-2.698
87200.000			8.094			-2.698
87301.000			8.094			-2.698
87402.000			8.094			-2.698
87500.000			8.094			-2.698
87600.000			8.094			-2.698
87701.000			8.095			-2.698
87800.000			8.094			-2.698
87900.000			8.093			-2.698
88001.000			8.093			-2.698
88100.000			8.092			-2.697
88201.000			8.093			-2.698
88302.000			8.092			-2.697
88400.000			8.092			-2.697
88500.000			8.092			-2.697
88601.000			8.093			-2.698
88700.000			8.093			-2.698
88800.000			8.092			-2.697
88900.000			8.092			-2.697
89001.000			8.093			-2.698
89102.000			8.092			-2.697
89201.000			8.092			-2.697
89300.000			8.092			-2.697
89401.000			8.092			-2.697
89500.000			8.092			-2.697
89600.000			8.092			-2.697
89701.000			8.092			-2.697
89800.000			8.092			-2.697
89901.000			8.092			-2.697
90002.000			8.092			-2.697
90100.000			8.092			-2.697
90200.000			8.092			-2.697
90301.000			8.090			-2.697
90400.000			8.089			-2.696
90500.000			8.089			-2.696
90601.000			8.090			-2.697
90701.000			8.091			-2.697
90801.000			8.090			-2.697
90901.000			8.089			-2.696
91000.000			8.089			-2.696
91100.000			8.089			-2.696
91201.000			8.088			-2.696
91300.000			8.089			-2.696
91400.000			8.089			-2.696
91502.000			8.090			-2.697
91601.000			8.089			-2.696
91700.000			8.088			-2.696
91801.000			8.088			-2.696
91900.000			8.089			-2.696
92000.000			8.089			-2.696
92100.000			8.090			-2.697
92200.000			8.090			-2.697
92301.000			8.088			-2.696
92401.000			8.088			-2.696
92501.000			8.087			-2.696
92601.000			8.088			-2.696
92700.000			8.088			-2.696
92800.000			8.087			-2.696
92901.000			8.087			-2.696
93000.000			8.086			-2.695
93100.000			8.086			-2.695
93202.000			8.087			-2.696
93301.000			8.087			-2.696
93400.000			8.086			-2.695
93501.000			8.086			-2.695
93600.000			8.086			-2.695
93700.000			8.087			-2.696
93801.000			8.087			-2.696
93900.000			8.086			-2.695
94000.000			8.086			-2.695
94102.000			8.086			-2.695
94201.000			8.086			-2.695
94300.000			8.085			-2.695
94401.000			8.085			-2.695
94500.000			8.085			-2.695
94600.000			8.085			-2.695
94701.000			8.085			-2.695
94800.000			8.086			-2.695
94901.000			8.085			-2.695
95002.000			8.084			-2.695
95100.000			8.084			-2.695
95200.000			8.084			-2.695
95300.000			8.085			-2.695
95400.000			8.085			-2.695
95501.000			8.083			-2.694
95600.000			8.084			-2.695
95700.000			8.085			-2.695
95802.000			8.084			-2.695
95901.000			8.084			-2.695
96000.000			8.084			-2.695
96101.000			8.084			-2.695
96200.000			8.082			-2.694
96300.000			8.083			-2.694
96401.000			8.084			-2.695
96500.000			8.083			-2.694
96601.000			8.083			-2.694
96702.000			8.082			-2.694
96800.000			8.082			-2.694
96900.000			8.082			-2.694
97001.000			8.082			-2.694
97100.000			8.082			-2.694
97200.000			8.081			-2.694
97301.000			8.081			-2.694
97401.000			8.082			-2.694
97501.000			8.081			-2.694
97601.000			8.082			-2.694
97700.000			8.081			-2.694
97800.000			8.081			-2.694
97901.000			8.081			-2.694
98000.000			8.081			-2.694
98100.000			8.081			-2.694
98202.000			8.083			-2.694
98301.000			8.082			-2.694
98402.000			8.080			-2.693
98500.000			8.081			-2.694
98600.000			8.081			-2.694
98701.000			8.079			-2.693
98800.000			8.080			-2.693
98900.000			8.081			-2.694
99001.000			8.081			-2.694
99101.000			8.081			-2.694
99201.000			8.080			-2.693
99301.000			8.079			-2.693
99400.000			8.079			-2.693
99500.000			8.079			-2.693
99601.000			8.080			-2.693
99700.000			8.079			-2.693
99800.000			8.079			-2.693
99901.000			8.078			-2.693
100001.000			8.079			-2.693
100101.000			8.079			-2.693
100201.000			8.079			-2.693
100300.000			8.078			-2.693
100400.000			8.078			-2.693
100501.000			8.078			-2.693
100600.000			8.078			-2.693
100700.000			8.078			-2.693
100802.000			8.077			-2.692
100901.000			8.077			-2.692
101000.000			8.078			-2.693
101101.000			8.079			-2.693
101200.000			8.078			-2.693
101300.000			8.078			-2.693
101401.000			8.076			-2.692
101500.000			8.077			-2.692
101600.000			8.076			-2.692
101702.000			8.075			-2.692
101801.000			8.076			-2.692
101901.000			8.077			-2.692
102000.000			8.076			-2.692
102100.000			8.076			-2.692
102201.000			8.077			-2.692
102300.000			8.077			-2.692
102400.000			8.077			-2.692
102502.000			8.076			-2.692
102601.000			8.076			-2.692
102700.000			8.076			-2.692
102801.000			8.076			-2.692
102900.000			8.075			-2.692
103000.000			8.076			-2.692
103101.000			8.076			-2.692
103200.000			8.076			-2.692
103300.000			8.076			-2.692
103402.000			8.076			-2.692
103501.000			8.076			-2.692
103600.000			8.077			-2.692
103701.000			8.076			-2.692
103800.000			8.075			-2.692
103900.000			8.075			-2.692
104001.000			8.075			-2.692
104100.000			8.075			-2.692
104201.000			8.075			-2.692
104302.000			8.074			-2.691
104400.000			8.073			-2.691
104500.000			8.073			-2.691
104601.000			8.074			-2.691
104700.000			8.074			-2.691
104800.000			8.075			-2.692
104900.000			8.075			-2.692
105001.000			8.073			-2.691
105102.000			8.073			-2.691
105201.000			8.073			-2.691
105300.000			8.074			-2.691
105401.000			8.074			-2.691
105500.000			8.074			-2.691
105600.000			8.073			-2.691
105701.000			8.073			-2.691
105800.000			8.073			-2.691
105901.000			8.073			-2.691
106002.000			8.073			-2.691
106100.000			8.073			-2.691
106200.000			8.073			-2.691
106301.000			8.073			-2.691
106400.000			8.072			-2.691
106500.000			8.071			-2.690
106601.000			8.072			-2.691
106701.000			8.072			-2.691
106801.000			8.071			-2.690
106901.000			8.070			-2.690
107000.000			8.071			-2.690
107100.000			8.072			-2.691
107201.000			8.071			-2.690
107300.000			8.072			-2.691
107400.000			8.072			-2.691
107502.000			8.072			-2.691
107601.000			8.071			-2.690
107701.000			8.072			-2.691
107801.000			8.071			-2.690
107900.000			8.071			-2.690
108000.000			8.071			-2.690
108100.000			8.071			-2.690
108200.000			8.070			-2.690
108301.000			8.070			-2.690
108401.000			8.070			-2.690
108501.000			8.071			-2.690
108601.000			8.071			-2.690
108700.000			8.069			-2.690
108800.000			8.070			-2.690
108901.000			8.071			-2.690
109000.000			8.070			-2.690
109100.000			8.070			-2.690
109202.000			8.069			-2.690
109301.000			8.068			-2.689
109400.000			8.070			-2.690
109501.000			8.068			-2.689
109600.000			8.068			-2.689
109700.000			8.068			-2.689
109801.000			8.068			-2.689
109900.000			8.068			-2.689
110000.000			8.069			-2.690
110102.000			8.068			-2.689
110201.000			8.067			-2.689
110300.000			8.068			-2.689
110401.000			8.069			-2.690
110500.000			8.069			-2.690
110600.000			8.068			-2.689
110701.000			8.067			-2.689
110800.000			8.067			-2.689
110901.000			8.068			-2.689
111002.000			8.069			-2.690
111101.000			8.068			-2.689
111200.000			8.067			-2.689
111300.000			8.068			-2.689
111400.000			8.067			-2.689
111501.000			8.067			-2.689
111600.000			8.066			-2.689
111700.000			8.066			-2.689
111802.000			8.066			-2.689
111901.000			8.066			-2.689
112000.000			8.065			-2.688
112101.000			8.065			-2.688
112200.000			8.066			-2.689
112300.000			8.066			-2.689
112401.000			8.066			-2.689
112500.000			8.066			-2.689
112601.000			8.066			-2.689
112702.000			8.066			-2.689
112800.000			8.066			-2.689
112900.000			8.065			-2.688
113001.000			8.065			-2.688
113100.000			8.065			-2.688
113200.000			8.066			-2.689
113301.000			8.066			-2.689
113401.000			8.065			-2.688
113501.000			8.065			-2.688
113601.000			8.065			-2.688
113700.000			8.064			-2.688
113800.000			8.063			-2.688
113901.000			8.063			-2.688
114000.000			8.063			-2.688
114100.000			8.064			-2.688
114201.000			8.064			-2.688
114301.000			8.064			-2.688
114402.000			8.065			-2.688
114500.000			8.065			-2.688
114600.000			8.063			-2.688
114701.000			8.062			-2.687
114800.000			8.063			-2.688
114900.000			8.064			-2.688
115001.000			8.064			-2.688
115101.000			8.063			-2.688
115201.000			8.063			-2.688
115301.000			8.063			-2.688
115400.000			8.063			-2.688
115500.000			8.064			-2.688
115601.000			8.063			-2.688
115700.000			8.062			-2.687
115800.000			8.062			-2.687
115902.000			8.063			-2.688
116001.000			8.062			-2.687
116101.000			8.062			-2.687
116201.000			8.063			-2.688
116300.000			8.062			-2.687
116400.000			8.062			-2.687
116501.000			8.062			-2.687
116600.000			8.062			-2.687
116700.000			8.062			-2.687
116802.000			8.061			-2.687
116901.000			8.061			-2.687
117000.000			8.061			-2.687
117101.000			8.061			-2.687
117200.000			8.062			-2.687
117300.000			8.062			-2.687
117401.000			8.061			-2.687
117500.000			8.061			-2.687
117602.000			8.061			-2.687
117701.000			8.061			-2.687
117801.000			8.060			-2.687
117901.000			8.061			-2.687
118000.000			8.061			-2.687
118100.000			8.060			-2.687
118201.000			8.060			-2.687
118300.000			8.061			-2.687
118400.000			8.061			-2.687
118502.000			8.061			-2.687
118601.000			8.060			-2.687
118700.000			8.060			-2.687
118801.000			8.060			-2.687
118900.000			8.059			-2.686
119000.000			8.060			-2.687
119101.000			8.059			-2.686
119200.000			8.059			-2.686
119301.000			8.060			-2.687
119402.000			8.060			-2.687
119501.000			8.059			-2.686
119600.000			8.058			-2.686
119701.000			8.060			-2.687
119800.000			8.060			-2.687
119900.000			8.059			-2.686
120001.000			8.058			-2.686
120100.000			8.058			-2.686
120201.000			8.059			-2.686
120302.000			8.059			-2.686
120400.000			8.059			-2.686
120500.000			8.058			-2.686
120601.000			8.058			-2.686
120700.000			8.057			-2.686
120800.000			8.058			-2.686
120900.000			8.059			-2.686
121001.000			8.058			-2.686
121102.000			8.057			-2.686
121201.000			8.058			-2.686
121300.000			8.058			-2.686
121401.000			8.057			-2.686
121500.000			8.057			-2.686
121600.000			8.057			-2.686
121701.000			8.058			-2.686
121800.000			8.058			-2.686
121901.000			8.057			-2.686
122002.000			8.057			-2.686
122100.000			8.056			-2.685
122200.000			8.056			-2.685
122301.000			8.056			-2.685
122400.000			8.056			-2.685
122500.000			8.056			-2.685
122601.000			8.056			-2.685
122701.000			8.056			-2.685
122801.000			8.056			-2.685
122901.000			8.055			-2.685
123000.000			8.056			-2.685
123100.000			8.056			-2.685
123201.000			8.056			-2.685
123300.000			8.056			-2.685
123400.000			8.056			-2.685
123502.000			8.055			-2.685
123601.000			8.055			-2.685
123701.000			8.053			-2.684
123801.000			8.054			-2.685
123900.000			8.055			-2.685
124000.000			8.055			-2.685
124100.000			8.055			-2.685
124200.000			8.055			-2.685
124301.000			8.055			-2.685
124401.000			8.055			-2.685
124501.000			8.054			-2.685
124601.000			8.054			-2.685
124700.000			8.054			-2.685
124800.000			8.053			-2.684
124901.000			8.054			-2.685
125000.000			8.054			-2.685
125100.000			8.053			-2.684
125202.000			8.053			-2.684
125301.000			8.054			-2.685
125400.000			8.054			-2.685
125501.000			8.054			-2.685
125600.000			8.053			-2.684
125700.000			8.054			-2.685
125801.000			8.054			-2.685
125900.000			8.054			-2.685
126000.000			8.053			-2.684
126102.000			8.054			-2.685
126201.000			8.053			-2.684
126300.000			8.052			-2.684
126401.000			8.053			-2.684
126500.000			8.054			-2.685
126600.000			8.053			-2.684
126701.000			8.054			-2.685
126800.000			8.053			-2.684
126901.000			8.052			-2.684
127002.000			8.052			-2.684
127100.000			8.052			-2.684
127200.000			8.052			-2.684
127300.000			8.052			-2.684
127400.000			8.051			-2.684
127501.000			8.052			-2.684
127600.000			8.052			-2.684
127700.000			8.052			-2.684
127802.000			8.051			-2.684
127901.000			8.051			-2.684
128000.000			8.051			-2.684
128101.000			8.051			-2.684
128200.000			8.051			-2.684
128300.000			8.052			-2.684
128401.000			8.051			-2.684
128500.000			8.052			-2.684
128601.000			8.052			-2.684
128702.000			8.051			-2.684
128801.000			8.051			-2.684
128900.000			8.052			-2.684
129001.000			8.051			-2.684
129100.000			8.050			-2.683
129200.000			8.050			-2.683
129301.000			8.049			-2.683
129400.000			8.050			-2.683
129501.000			8.050			-2.683
129602.000			8.051			-2.684
129700.000			8.050			-2.683
129800.000			8.051			-2.684
129901.000			8.050			-2.683
130000.000			8.050			-2.683
130100.000			8.049			-2.683
130201.000			8.049			-2.683
130301.000			8.049			-2.683
130402.000			8.049			-2.683
130501.000			8.049			-2.683
130600.000			8.050			-2.683
130701.000			8.049			-2.683
130800.000			8.047			-2.682
130900.000			8.048			-2.683
131001.000			8.048			-2.683
131100.000			8.047			-2.682
131201.000			8.048			-2.683
131302.000			8.049			-2.683
131400.000			8.048			-2.683
131500.000			8.049			-2.683
131601.000			8.048			-2.683
131700.000			8.047			-2.682
131800.000			8.048			-2.683
131901.000			8.048			-2.683
132000.000			8.047			-2.682
132101.000			8.047			-2.682
132202.000			8.047			-2.682
132300.000			8.048			-2.683
132400.000			8.048			-2.683
132501.000			8.048			-2.683
132600.000			8.047			-2.682
132700.000			8.048			-2.683
132801.000			8.048			-2.683
132900.000			8.048			-2.683
133001.000			8.047			-2.682
133102.000			8.048			-2.683
133200.000			8.048			-2.683
133300.000			8.048			-2.683
133401.000			8.047			-2.682
133500.000			8.047			-2.682
133600.000			8.047			-2.682
133700.000			8.046			-2.682
133800.000			8.047			-2.682
133902.000			8.047			-2.682
134001.000			8.046			-2.682
134101.000			8.046			-2.682
134201.000			8.046			-2.682
134300.000			8.046			-2.682
134400.000			8.046			-2.682
134501.000			8.045			-2.682
134600.000			8.046			-2.682
134700.000			8.046			-2.682
134802.000			8.046			-2.682
134901.000			8.045			-2.682
135001.000			8.045			-2.682
135101.000			8.045			-2.682
135200.000			8.046			-2.682
135300.000			8.046			-2.682
135401.000			8.046			-2.682
135500.000			8.045			-2.682
135600.000			8.045			-2.682
135702.000			8.045			-2.682
135801.000			8.045			-2.682
135901.000			8.045			-2.682
136001.000			8.044			-2.681
136100.000			8.045			-2.682
136200.000			8.045			-2.682
136301.000			8.044			-2.681
136400.000			8.044			-2.681
136500.000			8.044			-2.681
136601.000			8.044			-2.681
136701.000			8.044			-2.681
136802.000			8.044			-2.681
136900.000			8.045			-2.682
137000.000			8.044			-2.681
137101.000			8.044			-2.681
137200.000			8.044			-2.681
137300.000			8.044			-2.681
137401.000			8.043			-2.681
137500.000			8.044			-2.681
137601.000			8.044			-2.681
137702.000			8.043			-2.681
137800.000			8.043			-2.681
137900.000			8.044			-2.681
138001.000			8.044			-2.681
138100.000			8.042			-2.681
138200.000			8.042			-2.681
138301.000			8.042			-2.681
138400.000			8.042			-2.681
138501.000			8.043			-2.681
138602.000			8.043			-2.681
138701.000			8.043			-2.681
138800.000			8.042			-2.681
138901.000			8.043			-2.681
139000.000			8.042			-2.681
139100.000			8.042			-2.681
139201.000			8.041			-2.680
139300.000			8.041			-2.680
139400.000			8.042			-2.681
139502.000			8.042			-2.681
139601.000			8.042			-2.681
139700.000			8.042			-2.681
139801.000			8.042			-2.681
139900.000			8.042			-2.681
140000.000			8.041			-2.680
140100.000			8.040			-2.680
140200.000			8.041			-2.680
140301.000			8.041			-2.680
140401.000			8.040			-2.680
140501.000			8.041			-2.680
140601.000			8.041			-2.680
140700.000			8.041			-2.680
140800.000			8.040			-2.680
140901.000			8.040			-2.680
141000.000			8.041			-2.680
141100.000			8.041			-2.680
141202.000			8.040			-2.680
141301.000			8.040			-2.680
141401.000			8.040			-2.680
141501.000			8.041			-2.680
141600.000			8.041			-2.680
141700.000			8.040			-2.680
141801.000			8.041			-2.680
141900.000			8.041			-2.680
142000.000			8.040			-2.680
142102.000			8.040			-2.680
142201.000			8.039			-2.680
142301.000			8.039			-2.680
142401.000			8.039			-2.680
142500.000			8.039			-2.680
142600.000			8.039			-2.680
142701.000			8.039			-2.680
142800.000			8.039			-2.680
142900.000			8.040			-2.680
143001.000			8.040			-2.680
143101.000			8.040			-2.680
143202.000			8.039			-2.680
143300.000			8.038			-2.679
143400.000			8.038			-2.679
143501.000			8.039			-2.680
143600.000			8.039			-2.680
143700.000			8.040			-2.680
143801.000			8.039			-2.680
143900.000			8.038			-2.679
144001.000			8.038			-2.679
144102.000			8.038			-2.679
144201.000			8.038			-2.679
144300.000			8.039			-2.680
144401.000			8.039			-2.680
144500.000			8.038			-2.679
144600.000			8.038			-2.679
144701.000			8.036			-2.679
144800.000			8.038			-2.679
144900.000			8.037			-2.679
145002.000			8.037			-2.679
145101.000			8.036			-2.679
145200.000			8.036			-2.679
145301.000			8.037			-2.679
145400.000			8.037			-2.679
145500.000			8.037			-2.679
145601.000			8.036			-2.679
145700.000			8.036			-2.679
145800.000			8.036			-2.679
145902.000			8.037			-2.679
146001.000			8.037			-2.679
146100.000			8.037			-2.679
146201.000			8.036			-2.679
146300.000			8.036			-2.679
146400.000			8.036			-2.679
146500.000			8.036			-2.679
146600.000			8.036			-2.679
146701.000			8.036			-2.679
146801.000			8.036			-2.679
146901.000			8.036			-2.679
147002.000			8.035			-2.678
147100.000			8.035			-2.678
147200.000			8.035			-2.678
147301.000			8.036			-2.679
147400.000			8.037			-2.679
147500.000			8.036			-2.679
147601.000			8.036			-2.679
147701.000			8.036			-2.679
147801.000			8.036			-2.679
147902.000			8.035			-2.678
148000.000			8.035			-2.678
148100.000			8.035			-2.678
148201.000			8.036			-2.679
148300.000			8.036			-2.679
148400.000			8.035			-2.678
148501.000			8.035			-2.678
148600.000			8.036			-2.679
148701.000			8.035			-2.678
148802.000			8.034			-2.678
148901.000			8.034			-2.678
149000.000			8.034			-2.678
149101.000			8.034			-2.678
149200.000			8.035			-2.678
149300.000			8.035			-2.678
149401.000			8.034			-2.678
149500.000			8.034			-2.678
149600.000			8.034			-2.678
149702.000			8.033			-2.678
149801.000			8.032			-2.677
149901.000			8.034			-2.678
150000.000			8.034			-2.678
150100.000			8.034			-2.678
150201.000			8.034			-2.678
150300.000			8.033			-2.678
150400.000			8.033			-2.678
150501.000			8.033			-2.678
150601.000			8.034			-2.678
150701.000			8.034			-2.678
150801.000			8.033			-2.678
150900.000			8.032			-2.677
151000.000			8.033			-2.678
151101.000			8.033			-2.678
151200.000			8.033			-2.678
151300.000			8.032			-2.677
151401.000			8.032			-2.677
151501.000			8.032			-2.677
151601.000			8.032			-2.677
151701.000			8.032			-2.677
151800.000			8.033			-2.678
151900.000			8.032			-2.677
152001.000			8.032			-2.677
152100.000			8.032			-2.677
152200.000			8.033			-2.678
152302.000			8.033			-2.678
152401.000			8.033			-2.678
152501.000			8.032			-2.677
152601.000			8.032			-2.677
152700.000			8.032			-2.677
152800.000			8.032			-2.677
152900.000			8.033			-2.678
153000.000			8.033			-2.678
153101.000			8.032			-2.677
153200.000			8.031			-2.677
153301.000			8.032			-2.677
153402.000			8.031			-2.677
153500.000			8.031			-2.677
153600.000			8.031			-2.677
153701.000			8.030			-2.677
153800.000			8.031			-2.677
153900.000			8.031			-2.677
154001.000			8.031			-2.677
154101.000			8.031			-2.677
154201.000			8.031			-2.677
154302.000			8.030			-2.677
154400.000			8.030			-2.677
154500.000			8.030			-2.677
154601.000			8.031			-2.677
154700.000			8.030			-2.677
154800.000			8.031			-2.677
154901.000			8.031			-2.677
155001.000			8.030			-2.677
155101.000			8.030			-2.677
155202.000			8.030			-2.677
155300.000			8.029			-2.676
155400.000			8.030			-2.677
155501.000			8.031			-2.677
155600.000			8.031			-2.677
155700.000			8.029			-2.676
155801.000			8.029			-2.676
155900.000			8.030			-2.677
156002.000			8.029			-2.676
156101.000			8.030			-2.677
156200.000			8.029			-2.676
156301.000			8.030			-2.677
156400.000			8.029			-2.676
156500.000			8.029			-2.676
156601.000			8.029			-2.676
156700.000			8.030			-2.677
156800.000			8.030			-2.677
156902.000			8.029			-2.676
157001.000			8.029			-2.676
157101.000			8.029			-2.676
157201.000			8.028			-2.676
157300.000			8.029			-2.676
157400.000			8.029			-2.676
157501.000			8.030			-2.677
157600.000			8.029			-2.676
157700.000			8.028			-2.676
157801.000			8.028			-2.676
157901.000			8.028			-2.676
158001.000			8.027			-2.676
158101.000			8.027			-2.676
158200.000			8.028			-2.676
158300.000			8.029			-2.676
158401.000			8.028			-2.676
158500.000			8.027			-2.676
158600.000			8.027			-2.676
158701.000			8.028			-2.676
158801.000			8.028			-2.676
158901.000			8.028			-2.676
159002.000			8.028			-2.676
159100.000			8.028			-2.676
159200.000			8.027			-2.676
159300.000			8.027			-2.676
159400.000			8.027			-2.676
159501.000			8.027			-2.676
159600.000			8.027			-2.676
159700.000			8.026			-2.675
159802.000			8.026			-2.675
159901.000			8.026			-2.675
160000.000			8.026			-2.675
160101.000			8.026			-2.675
160200.000			8.026			-2.675
160300.000			8.027			-2.676
160401.000			8.026			-2.675
160500.000			8.026			-2.675
160600.000			8.026			-2.675
160702.000			8.027			-2.676
160801.000			8.028			-2.676
160901.000			8.025			-2.675
161001.000			8.025			-2.675
161100.000			8.026			-2.675
161200.000			8.027			-2.676
161301.000			8.027			-2.676
161400.000			8.026			-2.675
161500.000			8.026			-2.675
161602.000			8.026			-2.675
161701.000			8.025			-2.675
161801.000			8.025			-2.675
161901.000			8.025			-2.675
162000.000			8.025			-2.675
162100.000			8.026			-2.675
162201.000			8.025			-2.675
162300.000			8.025			-2.675
162400.000			8.024			-2.675
162500.000			8.025			-2.675
162601.000			8.025			-2.675
162702.000			8.025			-2.675
162800.000			8.025			-2.675
162900.000			8.024			-2.675
163001.000			8.025			-2.675
163100.000			8.026			-2.675
163200.000			8.024			-2.675
163301.000			8.024			-2.675
163400.000			8.024			-2.675
163501.000			8.024			-2.675
163602.000			8.024			-2.675
163700.000			8.025			-2.675
163800.000			8.025			-2.675
163901.000			8.024			-2.675
164000.000			8.024			-2.675
164100.000			8.024			-2.675
164201.000			8.024			-2.675
164300.000			8.023			-2.674
164401.000			8.024			-2.675
164502.000			8.024			-2.675
164600.000			8.025			-2.675
164700.000			8.025			-2.675
164801.000			8.024			-2.675
164900.000			8.024			-2.675
165000.000			8.024			-2.675
165101.000			8.024			-2.675
165200.000			8.024			-2.675
165301.000			8.023			-2.674
165402.000			8.022			-2.674
165500.000			8.024			-2.675
165600.000			8.024			-2.675
165700.000			8.023			-2.674
165800.000			8.023			-2.674
165901.000			8.022			-2.674
166000.000			8.021			-2.674
166100.000			8.023			-2.674
166202.000			8.024			-2.675
166301.000			8.023			-2.674
166401.000			8.023			-2.674
166501.000			8.022			-2.674
166600.000			8.022			-2.674
166700.000			8.022			-2.674
166801.000			8.022			-2.674
166900.000			8.022			-2.674
167000.000			8.022			-2.674
167102.000			8.021			-2.674
167201.000			8.022			-2.674
167301.000			8.023			-2.674
167401.000			8.022			-2.674
167500.000			8.021			-2.674
167600.000			8.021			-2.674
167701.000			8.021			-2.674
167800.000			8.022			-2.674
167900.000			8.022			-2.674
168001.000			8.022			-2.674
168101.000			8.022			-2.674
168201.000			8.022			-2.674
168301.000			8.021			-2.674
168400.000			8.022			-2.674
168500.000			8.022			-2.674
168601.000			8.023			-2.674
168700.000			8.022			-2.674
168800.000			8.021			-2.674
168900.000			8.021			-2.674
169001.000			8.020			-2.673
169102.000			8.020			-2.673
169200.000			8.021			-2.674
169300.000			8.021			-2.674
169401.000			8.019			-2.673
169500.000			8.020			-2.673
169600.000			8.021			-2.674
169701.000			8.020			-2.673
169800.000			8.019			-2.673
169901.000			8.020			-2.673
170002.000			8.021			-2.674
170101.000			8.020			-2.673
170200.000			8.021			-2.674
170301.000			8.020			-2.673
170400.000			8.021			-2.674
170500.000			8.020			-2.673
170601.000			8.019			-2.673
170700.000			8.020			-2.673
170801.000			8.020			-2.673
170902.000			8.019			-2.673
171001.000			8.019			-2.673
171100.000			8.019			-2.673
171201.000			8.020			-2.673
171300.000			8.019			-2.673
171400.000			8.019			-2.673
171501.000			8.019			-2.673
171600.000			8.019			-2.673
171701.000			8.019			-2.673
171802.000			8.019			-2.673
171901.000			8.019			-2.673
172000.000			8.019			-2.673
172100.000			8.019			-2.673
172200.000			8.019			-2.673
172301.000			8.019			-2.673
172400.000			8.018			-2.673
172500.000			8.018			-2.673
172601.000			8.018			-2.673
172701.000			8.019			-2.673
172801.000			8.018			-2.673
172901.000			8.019			-2.673
173000.000			8.019			-2.673
173100.000			8.018			-2.673
173201.000			8.018			-2.673
173300.000			8.018			-2.673
173400.000			8.018			-2.673
173501.000			8.017			-2.672
173601.000			8.018			-2.673
173701.000			8.017			-2.672
173801.000			8.018			-2.673
173900.000			8.017			-2.672
174000.000			8.017			-2.672
174101.000			8.017			-2.672
174200.000			8.018			-2.673
174300.000			8.018			-2.673
174401.000			8.018			-2.673
174501.000			8.018			-2.673
174601.000			8.018			-2.673
174702.000			8.017			-2.672
174800.000			8.018			-2.673
174900.000			8.017			-2.672
175001.000			8.017			-2.672
175100.000			8.017			-2.672
175200.000			8.017			-2.672
175300.000			8.017			-2.672
175400.000			8.017			-2.672
175502.000			8.016			-2.672
175601.000			8.017			-2.672
175700.000			8.018			-2.673
175801.000			8.017			-2.672
175900.000			8.016			-2.672
176000.000			8.016			-2.672
176101.000			8.016			-2.672
176200.000			8.016			-2.672
176300.000			8.016			-2.672
176402.000			8.016			-2.672
176501.000			8.016			-2.672
176600.000			8.016			-2.672
176701.000			8.017			-2.672
176800.000			8.016			-2.672
176900.000			8.015			-2.672
177001.000			8.014			-2.671
177100.000			8.017			-2.672
177200.000			8.016			-2.672
177302.000			8.016			-2.672
177401.000			8.016			-2.672
177501.000			8.015			-2.672
177601.000			8.015			-2.672
177700.000			8.015			-2.672
177800.000			8.015			-2.672
177901.000			8.016			-2.672
178000.000			8.015			-2.672
178100.000			8.015			-2.672
178201.000			8.015			-2.672
178301.000			8.015			-2.672
178402.000			8.015			-2.672
178500.000			8.016			-2.672
178600.000			8.015			-2.672
178701.000			8.014			-2.671
178800.000			8.014			-2.671
178900.000			8.014			-2.671
179001.000			8.014			-2.671
179100.000			8.014			-2.671
179201.000			8.014			-2.671
179302.000			8.014			-2.671
179401.000			8.014			-2.671
179500.000			8.015			-2.672
179601.000			8.015			-2.672
179700.000			8.015			-2.672
179800.000			8.014			-2.671
179901.000			8.015			-2.672
180000.000			8.015			-2.672
180101.000			8.014			-2.671
180202.000			8.014			-2.671
180301.000			8.014			-2.671
180400.000			8.014			-2.671
180501.000			8.013			-2.671
180600.000			8.013			-2.671
180700.000			8.013			-2.671
180801.000			8.013			-2.671
180900.000			8.012			-2.671
181000.000			8.012			-2.671
181102.000			8.013			-2.671
181201.000			8.012			-2.671
181300.000			8.012			-2.671
181401.000			8.012			-2.671
181500.000			8.013			-2.671
181600.000			8.013			-2.671
181700.000			8.012			-2.671
181800.000			8.013			-2.671
181901.000			8.012			-2.671
182001.000			8.013			-2.671
182101.000			8.013			-2.671
182201.000			8.012			-2.671
182300.000			8.012			-2.671
182400.000			8.013			-2.671
182501.000			8.012			-2.671
182600.000			8.013			-2.671
182700.000			8.012			-2.671
182801.000			8.012			-2.671
182901.000			8.012			-2.671
183001.000			8.012			-2.671
183101.000			8.011			-2.670
183200.000			8.012			-2.671
183300.000			8.012			-2.671
183401.000			8.012			-2.671
183500.000			8.012			-2.671
183600.000			8.012			-2.671
183701.000			8.012			-2.671
183801.000			8.012			-2.671
183901.000			8.012			-2.671
184001.000			8.012			-2.671
184100.000			8.011			-2.670
184200.000			8.011			-2.670
184301.000			8.011			-2.670
184400.000			8.011			-2.670
184500.000			8.010			-2.670
184601.000			8.010			-2.670
184701.000			8.012			-2.671
184802.000			8.011			-2.670
184901.000			8.011			-2.670
185000.000			8.011			-2.670
185101.000			8.010			-2.670
185200.000			8.010			-2.670
185300.000			8.011			-2.670
185401.000			8.011			-2.670
185500.000			8.010			-2.670
185601.000			8.009			-2.670
185702.000			8.010			-2.670
185801.000			8.010			-2.670
185900.000			8.009			-2.670
186001.000			8.010			-2.670
186100.000			8.011			-2.670
186200.000			8.011			-2.670
186301.000			8.011			-2.670
186400.000			8.010			-2.670
186501.000			8.009			-2.670
186602.000			8.009			-2.670
186701.000			8.009			-2.670
186800.000			8.009			-2.670
186901.000			8.009			-2.670
187000.000			8.009			-2.670
187100.000			8.009			-2.670
187201.000			8.009			-2.670
187300.000			8.009			-2.670
187400.000			8.009			-2.670
187502.000			8.010			-2.670
187601.000			8.009			-2.670
187700.000			8.009			-2.670
187801.000			8.009			-2.670
187900.000			8.008			-2.669
188000.000			8.008			-2.669
188100.000			8.009			-2.670
188200.000			8.008			-2.669
188301.000			8.009			-2.670
188401.000			8.008			-2.669
188501.000			8.009			-2.670
188602.000			8.009			-2.670
188700.000			8.009			-2.670
188800.000			8.009			-2.670
188901.000			8.009			-2.670
189000.000			8.009			-2.670
189100.000			8.008			-2.669
189201.000			8.009			-2.670
189300.000			8.009			-2.670
189401.000			8.008			-2.669
189502.000			8.007			-2.669
189601.000			8.008			-2.669
189700.000			8.008			-2.669
189801.000			8.007			-2.669
189900.000			8.008			-2.669
190000.000			8.008			-2.669
190101.000			8.008			-2.669
190200.000			8.008			-2.669
190300.000			8.007			-2.669
190402.000			8.008			-2.669
190501.000			8.008			-2.669
190600.000			8.007			-2.669
190701.000			8.007			-2.669
190800.000			8.008			-2.669
190900.000			8.008			-2.669
191001.000			8.007			-2.669
191100.000			8.007			-2.669
191200.000			8.008			-2.669
191302.000			8.007			-2.669
191401.000			8.006			-2.669
191502.000			8.007			-2.669
191600.000			8.007			-2.669
191700.000			8.006			-2.669
191801.000			8.007			-2.669
191900.000			8.006			-2.669
192000.000			8.006			-2.669
192101.000			8.006			-2.669
192201.000			8.006			-2.669
192301.000			8.007			-2.669
192402.000			8.007			-2.669
192500.000			8.006			-2.669
192600.000			8.006			-2.669
192701.000			8.005			-2.668
192800.000			8.005			-2.668
192900.000			8.006			-2.669
193001.000			8.005			-2.668
193100.000			8.005			-2.668
193201.000			8.005			-2.668
193302.000			8.006			-2.669
193400.000			8.005			-2.668
193500.000			8.006			-2.669
193601.000			8.005			-2.668
193700.000			8.004			-2.668
193800.000			8.004			-2.668
193901.000			8.005			-2.668
194000.000			8.005			-2.668
194101.000			8.005			-2.668
194202.000			8.004			-2.668
194301.000			8.004			-2.668
194400.000			8.005			-2.668
194500.000			8.005			-2.668
194600.000			8.005			-2.668
194701.000			8.005			-2.668
194800.000			8.004			-2.668
194900.000			8.005			-2.668
195001.000			8.004			-2.668
195101.000			8.003			-2.668
195201.000			8.004			-2.668
195301.000			8.003			-2.668
195400.000			8.004			-2.668
195500.000			8.004			-2.668
195601.000			8.004			-2.668
195700.000			8.003			-2.668
195800.000			8.003			-2.668
195901.000			8.004			-2.668
196001.000			8.004			-2.668
196101.000			8.004			-2.668
196201.000			8.004			-2.668
196300.000			8.003			-2.668
196400.000			8.004			-2.668
196501.000			8.004			-2.668
196600.000			8.004			-2.668
196700.000			8.003			-2.668
196801.000			8.002			-2.667
196901.000			8.003			-2.668
197001.000			8.005			-2.668
197101.000			8.004			-2.668
197200.000			8.002			-2.667
197300.000			8.002			-2.667
197401.000			8.001			-2.667
197500.000			8.001			-2.667
197600.000			8.002			-2.667
197700.000			8.002			-2.667
197801.000			8.002			-2.667
197902.000			8.003			-2.668
198001.000			8.003			-2.668
198100.000			8.003			-2.668
198201.000			8.002			-2.667
198300.000			8.002			-2.667
198400.000			8.003			-2.668
198501.000			8.002			-2.667
198600.000			8.001			-2.667
198700.000			8.001			-2.667
198802.000			8.002			-2.667
198901.000			8.002			-2.667
199000.000			8.002			-2.667
199101.000			8.002			-2.667
199200.000			8.002			-2.667
199300.000			8.002			-2.667
199401.000			8.002			-2.667
199500.000			8.002			-2.667
199600.000			8.002			-2.667
199702.000			8.001			-2.667
199801.000			8.001			-2.667
199900.000			8.001			-2.667
200001.000			8.000			-2.667
200100.000			8.002			-2.667
200200.000			8.002			-2.667
200301.000			8.001			-2.667
200400.000			8.000			-2.667
200500.000			8.001			-2.667
200602.000			8.002			-2.667
200701.000			8.000			-2.667
200800.000			8.001			-2.667
200900.000			8.001			-2.667
201000.000			8.001			-2.667
201101.000			8.000			-2.667
201200.000			8.001			-2.667
201300.000			8.001			-2.667
201402.000			8.002			-2.667
201501.000			8.001			-2.667
201601.000			8.001			-2.667
201701.000			8.000			-2.667
201800.000			8.000			-2.667
201900.000			8.000			-2.667
202001.000			8.000			-2.667
202100.000			8.000			-2.667
202200.000			8.000			-2.667
202302.000			8.001			-2.667
202401.000			8.001			-2.667
202501.000			8.000			-2.667
202601.000			8.001			-2.667
202700.000			8.000			-2.667
202800.000			8.000			-2.667
202901.000			8.000			-2.667
203000.000			7.999			-2.666
203100.000			8.000			-2.667
203202.000			8.000			-2.667
203301.000			8.000			-2.667
203401.000			7.999			-2.666
203501.000			7.998			-2.666
203600.000			7.999			-2.666
203700.000			7.999			-2.666
203801.000			8.000			-2.667
203900.000			7.999			-2.666
204000.000			7.998			-2.666
204100.000			7.999			-2.666
204200.000			7.999			-2.666
204302.000			7.998			-2.666
204401.000			7.999			-2.666
204500.000			7.999			-2.666
204601.000			7.998			-2.666
204700.000			7.999			-2.666
204800.000			7.999			-2.666
204901.000			7.998			-2.666
205000.000			7.998			-2.666
205100.000			7.999			-2.666
205201.000			7.998			-2.666
205301.000			7.998			-2.666
205401.000			7.999			-2.666
205501.000			7.998			-2.666
205600.000			7.997			-2.666
205700.000			7.997			-2.666
205801.000			7.998			-2.666
205900.000			7.998			-2.666
206000.000			7.998			-2.666
206101.000			7.998			-2.666
206200.000			7.999			-2.666
206301.000			7.999			-2.666
206402.000			7.999			-2.666
206500.000			7.998			-2.666
206600.000			7.997			-2.666
206701.000			7.997			-2.666
206800.000			7.997			-2.666
206900.000			7.997			-2.666
207001.000			7.997			-2.666
207100.000			7.997			-2.666
207200.000			7.998			-2.666
207302.000			7.998			-2.666
207401.000			7.997			-2.666
207501.000			7.997			-2.666
207600.000			7.996			-2.665
207700.000			7.996			-2.665
207801.000			7.996			-2.665
207900.000			7.997			-2.666
208000.000			7.996			-2.665
208101.000			7.996			-2.665
208201.000			7.995			-2.665
208301.000			7.996			-2.665
208402.000			7.996			-2.665
208500.000			7.996			-2.665
208600.000			7.996			-2.665
208701.000			7.997			-2.666
208800.000			7.997			-2.666
208900.000			7.996			-2.665
209001.000			7.997			-2.666
209100.000			7.997			-2.666
209201.000			7.996			-2.665
209302.000			7.996			-2.665
209401.000			7.995			-2.665
209500.000			7.996			-2.665
209601.000			7.996			-2.665
209700.000			7.996			-2.665
209800.000			7.997			-2.666
209901.000			7.996			-2.665
210000.000			7.995			-2.665
210100.000			7.996			-2.665
210202.000			7.995			-2.665
210301.000			7.995			-2.665
210402.000			7.996			-2.665
210500.000			7.997			-2.666
210600.000			7.996			-2.665
210701.000			7.995			-2.665
210800.000			7.995			-2.665
210900.000			7.994			-2.665
211001.000			7.995			-2.665
211100.000			7.995			-2.665
211201.000			7.996			-2.665
211302.000			7.995			-2.665
211401.000			7.995			-2.665
211500.000			7.995			-2.665
211601.000			7.996			-2.665
211700.000			7.994			-2.665
211800.000			7.996			-2.665
211901.000			7.995			-2.665
212000.000			7.994			-2.665
212100.000			7.994			-2.665
212202.000			7.994			-2.665
212301.000			7.994			-2.665
212401.000			7.994			-2.665
212501.000			7.994			-2.665
212600.000			7.994			-2.665
212700.000			7.994			-2.665
212801.000			7.993			-2.664
212900.000			7.994			-2.665
213000.000			7.993			-2.664
213102.000			7.994			-2.665
213201.000			7.993			-2.664
213301.000			7.993			-2.664
213401.000			7.994			-2.665
213500.000			7.994			-2.665
213600.000			7.993			-2.664
213700.000			7.994			-2.665
213800.000			7.994			-2.665
213901.000			7.993			-2.664
214000.000			7.993			-2.664
214101.000			7.994			-2.665
214202.000			7.994			-2.665
214301.000			7.994			-2.665
214400.000			7.993			-2.664
214501.000			7.993			-2.664
214600.000			7.993			-2.664
214700.000			7.993			-2.664
214801.000			7.992			-2.664
214900.000			7.992			-2.664
215000.000			7.992			-2.664
215102.000			7.992			-2.664
215201.000			7.993			-2.664
215301.000			7.993			-2.664
215401.000			7.993			-2.664
215500.000			7.992			-2.664
215600.000			7.992			-2.664
215701.000			7.993			-2.664
215800.000			7.991			-2.664
215900.000			7.992			-2.664
216001.000			7.993			-2.664
216101.000			7.992			-2.664
216201.000			7.991			-2.664
216301.000			7.993			-2.664
216400.000			7.991			-2.664
216500.000			7.991			-2.664
216601.000			7.993			-2.664
216700.000			7.993			-2.664
216800.000			7.992			-2.664
216900.000			7.993			-2.664
217000.000			7.993			-2.664
217102.000			7.992			-2.664
217201.000			7.992			-2.664
217300.000			7.992			-2.664
217401.000			7.992			-2.664
217500.000			7.992			-2.664
217600.000			7.993			-2.664
217701.000			7.993			-2.664
217800.000			7.993			-2.664
217900.000			7.993			-2.664
218001.000			7.994			-2.665
218101.000			7.992			-2.664
218201.000			7.992			-2.664
218301.000			7.992			-2.664
218400.000			7.992			-2.664
218500.000			7.992			-2.664
218601.000			7.992			-2.664
218700.000			7.991			-2.664
218800.000			7.992			-2.664
218901.000			7.992			-2.664
219001.000			7.993			-2.664
219101.000			7.991			-2.664
219202.000			7.992			-2.664
219300.000			7.992			-2.664
219400.000			7.992			-2.664
219501.000			7.992			-2.664
219600.000			7.991			-2.664
219700.000			7.990			-2.663
219801.000			7.990			-2.663
219900.000			7.992			-2.664
220002.000			7.992			-2.664
220101.000			7.991			-2.664
220201.000			7.991			-2.664
220301.000			7.990			-2.663
220400.000			7.991			-2.664
220500.000			7.991			-2.664
220601.000			7.990			-2.663
220700.000			7.990			-2.663
220800.000			7.990			-2.663
220901.000			7.990			-2.663
221001.000			7.991			-2.664
221101.000			7.990			-2.663
221201.000			7.990			-2.663
221300.000			7.990			-2.663
221400.000			7.990			-2.663
221501.000			7.991			-2.664
221600.000			7.991			-2.664
221700.000			7.990			-2.663
221801.000			7.990			-2.663
221901.000			7.990			-2.663
222001.000			7.990			-2.663
222102.000			7.990			-2.663
222200.000			7.990			-2.663
222300.000			7.989			-2.663
222401.000			7.990			-2.663
222500.000			7.990			-2.663
222600.000			7.989			-2.663
222701.000			7.990			-2.663
222800.000			7.988			-2.663
222901.000			7.989			-2.663
223002.000			7.989			-2.663
223101.000			7.989			-2.663
223200.000			7.989			-2.663
223300.000			7.989			-2.663
223400.000			7.989			-2.663
223501.000			7.989			-2.663
223600.000			7.989			-2.663
223700.000			7.989			-2.663
223801.000			7.989			-2.663
223901.000			7.988			-2.663
224001.000			7.989			-2.663
224102.000			7.988			-2.663
224200.000			7.989			-2.663
224300.000			7.988			-2.663
224401.000			7.988			-2.663
224500.000			7.988			-2.663
224600.000			7.989			-2.663
224701.000			7.989			-2.663
224800.000			7.988			-2.663
224900.000			7.988			-2.663
225002.000			7.987			-2.662
225101.000			7.987			-2.662
225200.000			7.988			-2.663
225301.000			7.988			-2.663
225400.000			7.989			-2.663
225500.000			7.989			-2.663
225601.000			7.988			-2.663
225700.000			7.987			-2.662
225800.000			7.987			-2.662
225902.000			7.988			-2.663
226001.000			7.988			-2.663
226101.000			7.988			-2.663
226201.000			7.988			-2.663
226300.000			7.988			-2.663
226400.000			7.988			-2.663
226500.000			7.988			-2.663
226600.000			7.988			-2.663
226701.000			7.987			-2.662
226800.000			7.987			-2.662
226901.000			7.987			-2.662
227002.000			7.987			-2.662
227101.000			7.987			-2.662
227200.000			7.988			-2.663
227301.000			7.989			-2.663
227400.000			7.989			-2.663
227500.000			7.988			-2.663
227601.000			7.987			-2.662
227700.000			7.986			-2.662
227800.000			7.988			-2.663
227901.000			7.987			-2.662
228001.000			7.986			-2.662
228101.000			7.987			-2.662
228201.000			7.987			-2.662
228300.000			7.988			-2.663
228400.000			7.987			-2.662
228501.000			7.987			-2.662
228600.000			7.986			-2.662
228700.000			7.986			-2.662
228801.000			7.986			-2.662
228901.000			7.987			-2.662
229001.000			7.987			-2.662
229102.000			7.986			-2.662
229200.000			7.986			-2.662
229300.000			7.986			-2.662
229401.000			7.987			-2.662
229500.000			7.986			-2.662
229600.000			7.985			-2.662
229700.000			7.985			-2.662
229800.000			7.986			-2.662
229901.000			7.986			-2.662
230001.000			7.986			-2.662
230101.000			7.986			-2.662
230201.000			7.986			-2.662
230300.000			7.985			-2.662
230400.000			7.986			-2.662
230501.000			7.986			-2.662
230600.000			7.985			-2.662
230700.000			7.986			-2.662
230801.000			7.986			-2.662
230901.000			7.986			-2.662
231001.000			7.986			-2.662
231102.000			7.985			-2.662
231200.000			7.985			-2.662
231300.000			7.985			-2.662
231401.000			7.985			-2.662
231500.000			7.985			-2.662
231600.000			7.986			-2.662
231701.000			7.985			-2.662
231800.000			7.986			-2.662
231901.000			7.985			-2.662
232002.000			7.986			-2.662
232101.000			7.985			-2.662
232200.000			7.985			-2.662
232301.000			7.984			-2.661
232400.000			7.983			-2.661
232500.000			7.984			-2.661
232601.000			7.984			-2.661
232700.000			7.984			-2.661
232800.000			7.985			-2.662
232902.000			7.985			-2.662
233001.000			7.984			-2.661
233101.000			7.983			-2.661
233200.000			7.984			-2.661
233300.000			7.984			-2.661
233401.000			7.984			-2.661
233500.000			7.985			-2.662
233600.000			7.983			-2.661
233701.000			7.984			-2.661
233801.000			7.984			-2.661
233901.000			7.985			-2.662
234002.000			7.984			-2.661
234100.000			7.984			-2.661
234200.000			7.984			-2.661
234301.000			7.983			-2.661
234400.000			7.983			-2.661
234500.000			7.984			-2.661
234601.000			7.984			-2.661
234700.000			7.983			-2.661
234801.000			7.984			-2.661
234902.000			7.983			-2.661
235001.000			7.983			-2.661
235100.000			7.983			-2.661
235201.000			7.983			-2.661
235300.000			7.984			-2.661
235400.000			7.984			-2.661
235501.000			7.983			-2.661
235600.000			7.983			-2.661
235700.000			7.983			-2.661
235802.000			7.982			-2.661
235901.000			7.983			-2.661
236000.000			7.982			-2.661
236100.000			7.982			-2.661
236200.000			7.983			-2.661
236301.000			7.982			-2.661
236400.000			7.983			-2.661
236500.000			7.982			-2.661
236601.000			7.982			-2.661
236700.000			7.982			-2.661
236801.000			7.982			-2.661
236902.000			7.983			-2.661
237000.000			7.983			-2.661
237100.000			7.982			-2.661
237201.000			7.982			-2.661
237300.000			7.983			-2.661
237400.000			7.983			-2.661
237501.000			7.981			-2.660
237600.000			7.981			-2.660
237701.000			7.981			-2.660
237802.000			7.981			-2.660
237901.000			7.981			-2.660
238000.000			7.982			-2.661
238101.000			7.982			-2.661
238200.000			7.981			-2.660
238300.000			7.981			-2.660
238401.000			7.982			-2.661
238500.000			7.981			-2.660
238600.000			7.981			-2.660
238702.000			7.982			-2.661
238801.000			7.982			-2.661
238901.000			7.982			-2.661
239001.000			7.981			-2.660
239100.000			7.981			-2.660
239200.000			7.981			-2.660
239300.000			7.982			-2.661
239400.000			7.981			-2.660
239501.000			7.980			-2.660
239600.000			7.981			-2.660
239701.000			7.981			-2.660
239802.000			7.981			-2.660
239901.000			7.980			-2.660
240000.000			7.981			-2.660
240101.000			7.981			-2.660
240200.000			7.981			-2.660
240300.000			7.981			-2.660
240401.000			7.980			-2.660
240500.000			7.980			-2.660
240600.000			7.981			-2.660
240702.000			7.981			-2.660
240801.000			7.981			-2.660
240900.000			7.981			-2.660
241001.000			7.981			-2.660
241100.000			7.981			-2.660
241200.000			7.980			-2.660
241301.000			7.980			-2.660
241400.000			7.980			-2.660
241500.000			7.979			-2.660
241602.000			7.980			-2.660
241701.000			7.981			-2.660
241801.000			7.981			-2.660
241901.000			7.981			-2.660
242000.000			7.980			-2.660
242100.000			7.981			-2.660
242201.000			7.980			-2.660
242300.000			7.980			-2.660
242400.000			7.980			-2.660
242500.000			7.981			-2.660
242601.000			7.981			-2.660
242702.000			7.980			-2.660
242801.000			7.979			-2.660
242900.000			7.980			-2.660
243001.000			7.979			-2.660
243100.000			7.979			-2.660
243200.000			7.979			-2.660
243301.000			7.980			-2.660
243400.000			7.980			-2.660
243500.000			7.979			-2.660
243602.000			7.979			-2.660
243701.000			7.979			-2.660
243800.000			7.980			-2.660
243901.000			7.979			-2.660
244000.000			7.979			-2.660
244100.000			7.979			-2.660
244201.000			7.979			-2.660
244300.000			7.980			-2.660
244400.000			7.979			-2.660
244501.000			7.978			-2.659
244601.000			7.979			-2.660
244701.000			7.979			-2.660
244801.000			7.979			-2.660
244900.000			7.979			-2.660
245000.000			7.979			-2.660
245101.000			7.978			-2.659
245200.000			7.978			-2.659
245300.000			7.978			-2.659
245401.000			7.978			-2.659
245500.000			7.977			-2.659
245602.000			7.979			-2.660
245701.000			7.979			-2.660
245800.000			7.978			-2.659
245901.000			7.978			-2.659
246000.000			7.978			-2.659
246100.000			7.979			-2.660
246201.000			7.979			-2.660
246300.000			7.978			-2.659
246400.000			7.979			-2.660
246501.000			7.979			-2.660
246601.000			7.979			-2.660
246701.000			7.978			-2.659
246801.000			7.977			-2.659
246900.000			7.978			-2.659
247000.000			7.978			-2.659
247101.000			7.978			-2.659
247200.000			7.978			-2.659
247300.000			7.978			-2.659
247401.000			7.978			-2.659
247500.000			7.978			-2.659
247601.000			7.978			-2.659
247702.000			7.978			-2.659
247801.000			7.978			-2.659
247900.000			7.978			-2.659
248001.000			7.978			-2.659
248100.000			7.978			-2.659
248200.000			7.978			-2.659
248301.000			7.977			-2.659
248400.000			7.977			-2.659
248500.000			7.977			-2.659
248602.000			7.976			-2.659
248701.000			7.977			-2.659
248802.000			7.977			-2.659
248900.000			7.977			-2.659
249000.000			7.977			-2.659
249101.000			7.977			-2.659
249200.000			7.977			-2.659
249300.000			7.977			-2.659
249401.000			7.978			-2.659
249500.000			7.978			-2.659
249601.000			7.977			-2.659
249702.000			7.976			-2.659
249801.000			7.977			-2.659
249900.000			7.978			-2.659
250001.000			7.976			-2.659
250100.000			7.976			-2.659
250200.000			7.976			-2.659
250301.000			7.976			-2.659
250400.000			7.977			-2.659
250500.000			7.977			-2.659
250602.000			7.976			-2.659
250701.000			7.976			-2.659
250801.000			7.976			-2.659
250901.000			7.976			-2.659
251000.000			7.976			-2.659
251100.000			7.977			-2.659
251201.000			7.977			-2.659
251300.000			7.977			-2.659
251400.000			7.976			-2.659
251501.000			7.974			-2.658
251601.000			7.976			-2.659
251701.000			7.976			-2.659
251801.000			7.976			-2.659
251900.000			7.976			-2.659
252000.000			7.976			-2.659
252100.000			7.976			-2.659
252200.000			7.976			-2.659
252301.000			7.975			-2.658
252400.000			7.975			-2.658
252500.000			7.975			-2.658
252602.000			7.976			-2.659
252701.000			7.975			-2.658
252800.000			7.975			-2.658
252901.000			7.975			-2.658
253000.000			7.976			-2.659
253100.000			7.975			-2.658
253201.000			7.975			-2.658
253300.000			7.974			-2.658
253400.000			7.974			-2.658
253502.000			7.975			-2.658
253601.000			7.975			-2.658
253701.000			7.974			-2.658
253801.000			7.974			-2.658
253900.000			7.974			-2.658
254000.000			7.974			-2.658
254101.000			7.975			-2.658
254200.000			7.975			-2.658
254300.000			7.974			-2.658
254401.000			7.974			-2.658
254501.000			7.974			-2.658
254601.000			7.974			-2.658
254702.000			7.975			-2.658
254800.000			7.975			-2.658
254900.000			7.974			-2.658
255001.000			7.973			-2.658
255100.000			7.974			-2.658
255200.000			7.974			-2.658
255300.000			7.974			-2.658
255400.000			7.974			-2.658
255502.000			7.975			-2.658
255601.000			7.974			-2.658
255701.000			7.974			-2.658
255801.000			7.973			-2.658
255900.000			7.974			-2.658
256000.000			7.975			-2.658
256101.000			7.974			-2.658
256200.000			7.974			-2.658
256300.000			7.974			-2.658
256401.000			7.973			-2.658
256501.000			7.973			-2.658
256601.000			7.973			-2.658
256701.000			7.973			-2.658
256800.000			7.973			-2.658
256900.000			7.974			-2.658
257001.000			7.972			-2.657
257100.000			7.972			-2.657
257200.000			7.972			-2.657
257301.000			7.973			-2.658
257400.000			7.972			-2.657
257501.000			7.972			-2.657
257602.000			7.972			-2.657
257700.000			7.972			-2.657
257800.000			7.972			-2.657
257901.000			7.973			-2.658
258000.000			7.972			-2.657
258100.000			7.973			-2.658
258201.000			7.972			-2.657
258300.000			7.972			-2.657
258400.000			7.972			-2.657
258502.000			7.972			-2.657
258601.000			7.972			-2.657
258701.000			7.973			-2.658
258800.000			7.972			-2.657
258900.000			7.971			-2.657
259001.000			7.972			-2.657
259100.000			7.973			-2.658
259200.000			7.972			-2.657
259301.000			7.971			-2.657
259400.000			7.971			-2.657
259501.000			7.971			-2.657
259602.000			7.971			-2.657
259701.000			7.972			-2.657
259800.000			7.971			-2.657
259901.000			7.971			-2.657
260000.000			7.971			-2.657
260100.000			7.971			-2.657
260201.000			7.971			-2.657
260300.000			7.971			-2.657
260400.000			7.971			-2.657
260502.000			7.971			-2.657
260601.000			7.971			-2.657
260700.000			7.970			-2.657
260801.000			7.970			-2.657
260900.000			7.970			-2.657
261000.000			7.970			-2.657
261101.000			7.971			-2.657
261200.000			7.971			-2.657
261300.000			7.970			-2.657
261402.000			7.970			-2.657
261501.000			7.971			-2.657
261602.000			7.971			-2.657
261700.000			7.970			-2.657
261800.000			7.971			-2.657
261901.000			7.970			-2.657
262000.000			7.970			-2.657
262100.000			7.970			-2.657
262201.000			7.970			-2.657
262300.000			7.970			-2.657
262401.000			7.970			-2.657
262502.000			7.969			-2.656
262601.000			7.970			-2.657
262700.000			7.971			-2.657
262801.000			7.971			-2.657
262900.000			7.971			-2.657
263000.000			7.971			-2.657
263101.000			7.970			-2.657
263200.000			7.970			-2.657
263300.000			7.969			-2.656
263402.000			7.969			-2.656
263501.000			7.969			-2.656
263600.000			7.969			-2.656
263701.000			7.969			-2.656
263800.000			7.969			-2.656
263900.000			7.969			-2.656
264001.000			7.970			-2.657
264100.000			7.969			-2.656
264200.000			7.968			-2.656
264301.000			7.969			-2.656
264401.000			7.969			-2.656
264501.000			7.969			-2.656
264601.000			7.968			-2.656
264700.000			7.970			-2.657
264800.000			7.969			-2.656
264900.000			7.969			-2.656
265000.000			7.967			-2.656
265101.000			7.967			-2.656
265200.000			7.969			-2.656
265300.000			7.970			-2.657
265402.000			7.970			-2.657
265501.000			7.968			-2.656
265600.000			7.968			-2.656
265701.000			7.968			-2.656
265800.000			7.969			-2.656
265900.000			7.969			-2.656
266001.000			7.969			-2.656
266100.000			7.968			-2.656
266200.000			7.968			-2.656
266302.000			7.967			-2.656
266401.000			7.967			-2.656
266501.000			7.968			-2.656
266601.000			7.967			-2.656
266700.000			7.968			-2.656
266800.000			7.969			-2.656
266901.000			7.968			-2.656
267000.000			7.967			-2.656
267100.000			7.968			-2.656
267201.000			7.968			-2.656
267301.000			7.967			-2.656
267401.000			7.968			-2.656
267502.000			7.967			-2.656
267600.000			7.968			-2.656
267700.000			7.967			-2.656
267801.000			7.967			-2.656
267900.000			7.967			-2.656
268000.000			7.968			-2.656
268100.000			7.968			-2.656
268200.000			7.967			-2.656
268301.000			7.967			-2.656
268401.000			7.968			-2.656
268501.000			7.969			-2.656
268601.000			7.968			-2.656
268700.000			7.967			-2.656
268800.000			7.966			-2.655
268901.000			7.965			-2.655
269000.000			7.966			-2.655
269100.000			7.967			-2.656
269201.000			7.966			-2.655
269301.000			7.967			-2.656
269401.000			7.967			-2.656
269502.000			7.966			-2.655
269600.000			7.966			-2.655
269700.000			7.966			-2.655
269801.000			7.966			-2.655
269900.000			7.966			-2.655
270000.000			7.966			-2.655
270101.000			7.966			-2.655
270200.000			7.966			-2.655
270300.000			7.966			-2.655
270402.000			7.966			-2.655
270501.000			7.966			-2.655
270600.000			7.967			-2.656
270701.000			7.966			-2.655
270800.000			7.967			-2.656
270900.000			7.966			-2.655
271001.000			7.965			-2.655
271100.000			7.966			-2.655
271200.000			7.967			-2.656
271302.000			7.965			-2.655
271401.000			7.965			-2.655
271502.000			7.964			-2.655
271600.000			7.965			-2.655
271700.000			7.965			-2.655
271801.000			7.966			-2.655
271900.000			7.965			-2.655
272000.000			7.965			-2.655
272101.000			7.965			-2.655
272200.000			7.965			-2.655
272301.000			7.965			-2.655
272402.000			7.965			-2.655
272501.000			7.965			-2.655
272600.000			7.965			-2.655
272701.000			7.965			-2.655
272800.000			7.965			-2.655
272900.000			7.966			-2.655
273001.000			7.965			-2.655
273100.000			7.964			-2.655
273200.000			7.965			-2.655
273302.000			7.965			-2.655
273401.000			7.965			-2.655
273501.000			7.965			-2.655
273601.000			7.965			-2.655
273700.000			7.965			-2.655
273800.000			7.965			-2.655
273901.000			7.964			-2.655
274000.000			7.964			-2.655
274100.000			7.965			-2.655
274201.000			7.964			-2.655
274301.000			7.965			-2.655
274402.000			7.965			-2.655
274501.000			7.965			-2.655
274600.000			7.965			-2.655
274701.000			7.965			-2.655
274800.000			7.964			-2.655
274900.000			7.965			-2.655
275001.000			7.965			-2.655
275100.000			7.965			-2.655
275200.000			7.965			-2.655
275302.000			7.964			-2.655
275401.000			7.965			-2.655
275501.000			7.964			-2.655
275601.000			7.964			-2.655
275700.000			7.964			-2.655
275800.000			7.963			-2.654
275901.000			7.963			-2.654
276000.000			7.964			-2.655
276100.000			7.964			-2.655
276201.000			7.964			-2.655
276301.000			7.965			-2.655
276401.000			7.964			-2.655
276502.000			7.963			-2.654
276600.000			7.962			-2.654
276700.000			7.962			-2.654
276801.000			7.963			-2.654
276900.000			7.963			-2.654
277000.000			7.963			-2.654
277101.000			7.963			-2.654
277200.000			7.963			-2.654
277301.000			7.963			-2.654
277402.000			7.963			-2.654
277500.000			7.963			-2.654
277600.000			7.962			-2.654
277700.000			7.962			-2.654
277800.000			7.962			-2.654
277901.000			7.962			-2.654
278000.000			7.963			-2.654
278100.000			7.963			-2.654
278201.000			7.962			-2.654
278301.000			7.962			-2.654
278401.000			7.963			-2.654
278501.000			7.963			-2.654
278600.000			7.964			-2.655
278700.000			7.962			-2.654
278801.000			7.962			-2.654
278900.000			7.962			-2.654
279000.000			7.962			-2.654
279101.000			7.963			-2.654
279200.000			7.963			-2.654
279301.000			7.962			-2.654
279402.000			7.962			-2.654
279500.000			7.962			-2.654
279600.000			7.962			-2.654
279701.000			7.962			-2.654
279800.000			7.963			-2.654
279900.000			7.963			-2.654
280001.000			7.963			-2.654
280100.000			7.962			-2.654
280200.000			7.960			-2.653
280302.000			7.960			-2.653
280401.000			7.961			-2.654
280500.000			7.961			-2.654
280601.000			7.961			-2.654
280700.000			7.962			-2.654
280800.000			7.961			-2.654
280900.000			7.961			-2.654
281000.000			7.961			-2.654
281101.000			7.961			-2.654
281201.000			7.961			-2.654
281301.000			7.962			-2.654
281402.000			7.962			-2.654
281500.000			7.962			-2.654
281600.000			7.962			-2.654
281701.000			7.961			-2.654
281800.000			7.961			-2.654
281900.000			7.962			-2.654
282001.000			7.962			-2.654
282100.000			7.961			-2.654
282201.000			7.961			-2.654
282302.000			7.961			-2.654
282400.000			7.961			-2.654
282500.000			7.960			-2.653
282601.000			7.960			-2.653
282700.000			7.962			-2.654
282800.000			7.961			-2.654
282901.000			7.961			-2.654
283000.000			7.961			-2.654
283101.000			7.961			-2.654
283202.000			7.961			-2.654
283301.000			7.960			-2.653
283400.000			7.961			-2.654
283501.000			7.960			-2.653
283600.000			7.961			-2.654
283700.000			7.961			-2.654
283801.000			7.960			-2.653
283900.000			7.960			-2.653
284000.000			7.960			-2.653
284102.000			7.959			-2.653
284201.000			7.959			-2.653
284302.000			7.961			-2.654
284400.000			7.960			-2.653
284500.000			7.960			-2.653
284601.000			7.960			-2.653
284700.000			7.960			-2.653
284800.000			7.960			-2.653
284901.000			7.960			-2.653
285000.000			7.960			-2.653
285101.000			7.960			-2.653
285202.000			7.959			-2.653
285301.000			7.960			-2.653
285400.000			7.960			-2.653
285501.000			7.960			-2.653
285600.000			7.960			-2.653
285700.000			7.960			-2.653
285801.000			7.960			-2.653
285900.000			7.959			-2.653
286000.000			7.959			-2.653
286102.000			7.959			-2.653
286201.000			7.959			-2.653
286300.000			7.959			-2.653
286401.000			7.959			-2.653
286500.000			7.959			-2.653
286600.000			7.959			-2.653
286701.000			7.959			-2.653
286800.000			7.959			-2.653
286900.000			7.959			-2.653
287001.000			7.959			-2.653
287101.000			7.959			-2.653
287202.000			7.959			-2.653
287301.000			7.958			-2.653
287400.000			7.958			-2.653
287501.000			7.958			-2.653
287600.000			7.958			-2.653
287700.000			7.958			-2.653
287801.000			7.959			-2.653
287900.000			7.959			-2.653
288000.000			7.959			-2.653
288101.000			7.958			-2.653
288201.000			7.959			-2.653
288301.000			7.959			-2.653
288401.000			7.959			-2.653
288500.000			7.958			-2.653
288600.000			7.959			-2.653
288701.000			7.958			-2.653
288800.000			7.958			-2.653
288900.000			7.959			-2.653
289001.000			7.960			-2.653
289100.000			7.959			-2.653
289201.000			7.958			-2.653
289302.000			7.959			-2.653
289401.000			7.958			-2.653
289500.000			7.958			-2.653
289601.000			7.957			-2.652
289700.000			7.958			-2.653
289800.000			7.959			-2.653
289901.000			7.959			-2.653
290000.000			7.959			-2.653
290100.000			7.958			-2.653
290202.000			7.959			-2.653
290301.000			7.959			-2.653
290402.000			7.958			-2.653
290500.000			7.958			-2.653
290600.000			7.958			-2.653
290701.000			7.958			-2.653
290800.000			7.958			-2.653
290900.000			7.957			-2.652
291001.000			7.958			-2.653
291100.000			7.958			-2.653
291201.000			7.957			-2.652
291302.000			7.958			-2.653
291401.000			7.958			-2.653
291500.000			7.957			-2.652
291601.000			7.957			-2.652
291700.000			7.957			-2.652
291800.000			7.957			-2.652
291901.000			7.957			-2.652
292000.000			7.956			-2.652
292100.000			7.957			-2.652
292202.000			7.957			-2.652
292301.000			7.956			-2.652
292401.000			7.957			-2.652
292501.000			7.957			-2.652
292600.000			7.956			-2.652
292700.000			7.956			-2.652
292801.000			7.957			-2.652
292900.000			7.956			-2.652
293000.000			7.956			-2.652
293101.000			7.956			-2.652
293201.000			7.956			-2.652
293301.000			7.956			-2.652
293402.000			7.955			-2.652
293500.000			7.956			-2.652
293600.000			7.956			-2.652
293700.000			7.956			-2.652
293800.000			7.956			-2.652
293901.000			7.957			-2.652
294000.000			7.956			-2.652
294100.000			7.956			-2.652
294202.000			7.955			-2.652
294301.000			7.956			-2.652
294401.000			7.956			-2.652
294501.000			7.956			-2.652
294600.000			7.956			-2.652
294700.000			7.955			-2.652
294801.000			7.955			-2.652
294900.000			7.955			-2.652
295000.000			7.956			-2.652
295101.000			7.955			-2.652
295201.000			7.955			-2.652
295301.000			7.955			-2.652
295402.000			7.955			-2.652
295500.000			7.955			-2.652
295600.000			7.955			-2.652
295701.000			7.956			-2.652
295800.000			7.956			-2.652
295900.000			7.955			-2.652
296001.000			7.955			-2.652
296100.000			7.955			-2.652
296201.000			7.955			-2.652
296302.000			7.956			-2.652
296401.000			7.955			-2.652
296500.000			7.954			-2.651
296601.000			7.954			-2.651
296700.000			7.954			-2.651
296800.000			7.954			-2.651
296900.000			7.955			-2.652
297000.000			7.955			-2.652
297101.000			7.955			-2.652
297201.000			7.954			-2.651
297301.000			7.954			-2.651
297402.000			7.954			-2.651
297500.000			7.955			-2.652
297600.000			7.956			-2.652
297701.000			7.955			-2.652
297800.000			7.954			-2.651
297900.000			7.954			-2.651
298001.000			7.954			-2.651
298100.000			7.953			-2.651
298201.000			7.954			-2.651
298302.000			7.954			-2.651
298401.000			7.954			-2.651
298500.000			7.954			-2.651
298601.000			7.954			-2.651
298700.000			7.954			-2.651
298800.000			7.953			-2.651
298901.000			7.953			-2.651
299000.000			7.954			-2.651
299100.000			7.954			-2.651
299201.000			7.955			-2.652
299301.000			7.954			-2.651
299401.000			7.955			-2.652
299501.000			7.954			-2.651
299600.000			7.954			-2.651
299700.000			7.954			-2.651
299801.000			7.954			-2.651
299900.000			7.954			-2.651
