# Acquired on 20/12/2023 11:46:32 
# SPIDER: Creep_-3mm_07714532C-2
# CREEP MEASUREMENT

# time [ms]		force [N]		stiffness [N/mm]
0.000			5.992			-1.997
100.000			6.619			-2.206
200.000			6.868			-2.289
301.000			6.897			-2.299
400.000			6.879			-2.293
501.000			6.863			-2.288
602.000			6.851			-2.284
700.000			6.832			-2.277
800.000			6.823			-2.274
901.000			6.815			-2.272
1000.000			6.807			-2.269
1100.000			6.801			-2.267
1202.000			6.796			-2.265
1301.000			6.790			-2.263
1401.000			6.779			-2.260
1500.000			6.775			-2.258
1600.000			6.769			-2.256
1701.000			6.766			-2.255
1800.000			6.763			-2.254
1900.000			6.759			-2.253
2002.000			6.755			-2.252
2101.000			6.749			-2.250
2200.000			6.744			-2.248
2301.000			6.741			-2.247
2400.000			6.739			-2.246
2500.000			6.735			-2.245
2601.000			6.733			-2.244
2701.000			6.731			-2.244
2801.000			6.728			-2.243
2902.000			6.721			-2.240
3000.000			6.720			-2.240
3100.000			6.718			-2.239
3201.000			6.715			-2.238
3300.000			6.713			-2.238
3400.000			6.711			-2.237
3502.000			6.709			-2.236
3601.000			6.706			-2.235
3700.000			6.704			-2.235
3801.000			6.701			-2.234
3900.000			6.699			-2.233
4000.000			6.697			-2.232
4101.000			6.695			-2.232
4200.000			6.693			-2.231
4301.000			6.690			-2.230
4402.000			6.687			-2.229
4500.000			6.687			-2.229
4601.000			6.685			-2.228
4700.000			6.684			-2.228
4800.000			6.682			-2.227
4901.000			6.681			-2.227
5000.000			6.678			-2.226
5101.000			6.676			-2.225
5202.000			6.675			-2.225
5300.000			6.674			-2.225
5400.000			6.673			-2.224
5501.000			6.671			-2.224
5600.000			6.670			-2.223
5700.000			6.668			-2.223
5802.000			6.666			-2.222
5901.000			6.665			-2.222
6000.000			6.663			-2.221
6101.000			6.662			-2.221
6200.000			6.661			-2.220
6300.000			6.659			-2.220
6401.000			6.657			-2.219
6500.000			6.656			-2.219
6601.000			6.654			-2.218
6702.000			6.653			-2.218
6800.000			6.652			-2.217
6900.000			6.651			-2.217
7001.000			6.650			-2.217
7100.000			6.648			-2.216
7200.000			6.647			-2.216
7301.000			6.647			-2.216
7401.000			6.645			-2.215
7501.000			6.644			-2.215
7601.000			6.643			-2.214
7700.000			6.641			-2.214
7801.000			6.641			-2.214
7900.000			6.640			-2.213
8000.000			6.639			-2.213
8101.000			6.637			-2.212
8201.000			6.636			-2.212
8301.000			6.637			-2.212
8401.000			6.636			-2.212
8500.000			6.635			-2.212
8600.000			6.633			-2.211
8701.000			6.630			-2.210
8800.000			6.630			-2.210
8900.000			6.630			-2.210
9002.000			6.629			-2.210
9101.000			6.628			-2.209
9200.000			6.626			-2.209
9301.000			6.625			-2.208
9400.000			6.625			-2.208
9500.000			6.623			-2.208
9601.000			6.622			-2.207
9701.000			6.622			-2.207
9801.000			6.621			-2.207
9901.000			6.622			-2.207
10000.000			6.621			-2.207
10100.000			6.620			-2.207
10201.000			6.618			-2.206
10300.000			6.617			-2.206
10400.000			6.616			-2.205
10502.000			6.615			-2.205
10601.000			6.614			-2.205
10700.000			6.614			-2.205
10801.000			6.612			-2.204
10900.000			6.611			-2.204
11001.000			6.611			-2.204
11100.000			6.609			-2.203
11200.000			6.609			-2.203
11302.000			6.609			-2.203
11401.000			6.609			-2.203
11500.000			6.609			-2.203
11601.000			6.608			-2.203
11700.000			6.606			-2.202
11800.000			6.604			-2.201
11901.000			6.604			-2.201
12000.000			6.603			-2.201
12101.000			6.602			-2.201
12202.000			6.602			-2.201
12300.000			6.601			-2.200
12400.000			6.600			-2.200
12501.000			6.599			-2.200
12600.000			6.599			-2.200
12700.000			6.599			-2.200
12801.000			6.598			-2.199
12901.000			6.597			-2.199
13001.000			6.596			-2.199
13101.000			6.597			-2.199
13200.000			6.596			-2.199
13300.000			6.597			-2.199
13401.000			6.595			-2.198
13500.000			6.593			-2.198
13600.000			6.592			-2.197
13702.000			6.592			-2.197
13801.000			6.592			-2.197
13900.000			6.590			-2.197
14001.000			6.591			-2.197
14100.000			6.591			-2.197
14201.000			6.590			-2.197
14300.000			6.589			-2.196
14400.000			6.588			-2.196
14502.000			6.588			-2.196
14601.000			6.587			-2.196
14700.000			6.586			-2.195
14801.000			6.586			-2.195
14900.000			6.586			-2.195
15000.000			6.585			-2.195
15101.000			6.583			-2.194
15200.000			6.583			-2.194
15301.000			6.583			-2.194
15402.000			6.582			-2.194
15500.000			6.581			-2.194
15600.000			6.581			-2.194
15701.000			6.580			-2.193
15800.000			6.579			-2.193
15900.000			6.579			-2.193
16001.000			6.579			-2.193
16101.000			6.577			-2.192
16201.000			6.578			-2.193
16301.000			6.577			-2.192
16400.000			6.576			-2.192
16500.000			6.576			-2.192
16601.000			6.576			-2.192
16700.000			6.576			-2.192
16800.000			6.574			-2.191
16902.000			6.574			-2.191
17001.000			6.574			-2.191
17100.000			6.574			-2.191
17201.000			6.573			-2.191
17300.000			6.571			-2.190
17401.000			6.570			-2.190
17500.000			6.570			-2.190
17600.000			6.571			-2.190
17702.000			6.570			-2.190
17801.000			6.570			-2.190
17900.000			6.569			-2.190
18001.000			6.568			-2.189
18100.000			6.568			-2.189
18200.000			6.568			-2.189
18301.000			6.566			-2.189
18400.000			6.567			-2.189
18500.000			6.566			-2.189
18602.000			6.566			-2.189
18701.000			6.566			-2.189
18800.000			6.565			-2.188
18901.000			6.565			-2.188
19000.000			6.563			-2.188
19100.000			6.563			-2.188
19201.000			6.562			-2.187
19300.000			6.562			-2.187
19401.000			6.563			-2.188
19502.000			6.562			-2.187
19600.000			6.561			-2.187
19700.000			6.561			-2.187
19801.000			6.560			-2.187
19900.000			6.559			-2.186
20000.000			6.559			-2.186
20101.000			6.560			-2.187
20201.000			6.560			-2.187
20301.000			6.559			-2.186
20401.000			6.557			-2.186
20500.000			6.556			-2.185
20601.000			6.556			-2.185
20700.000			6.557			-2.186
20800.000			6.557			-2.186
20901.000			6.556			-2.185
21001.000			6.555			-2.185
21101.000			6.555			-2.185
21201.000			6.554			-2.185
21300.000			6.554			-2.185
21400.000			6.554			-2.185
21501.000			6.553			-2.184
21600.000			6.552			-2.184
21700.000			6.553			-2.184
21802.000			6.553			-2.184
21901.000			6.552			-2.184
22000.000			6.552			-2.184
22101.000			6.551			-2.184
22200.000			6.551			-2.184
22300.000			6.551			-2.184
22401.000			6.549			-2.183
22501.000			6.548			-2.183
22601.000			6.549			-2.183
22702.000			6.548			-2.183
22800.000			6.548			-2.183
22900.000			6.548			-2.183
23001.000			6.548			-2.183
23100.000			6.547			-2.182
23200.000			6.548			-2.183
23302.000			6.546			-2.182
23401.000			6.544			-2.181
23501.000			6.545			-2.182
23601.000			6.545			-2.182
23700.000			6.545			-2.182
23801.000			6.545			-2.182
23900.000			6.545			-2.182
24000.000			6.545			-2.182
24101.000			6.544			-2.181
24201.000			6.543			-2.181
24301.000			6.542			-2.181
24401.000			6.542			-2.181
24500.000			6.542			-2.181
24600.000			6.541			-2.180
24701.000			6.541			-2.180
24800.000			6.541			-2.180
24901.000			6.541			-2.180
25002.000			6.540			-2.180
25101.000			6.539			-2.180
25200.000			6.539			-2.180
25301.000			6.540			-2.180
25400.000			6.540			-2.180
25500.000			6.539			-2.180
25601.000			6.539			-2.180
25701.000			6.538			-2.179
25801.000			6.538			-2.179
25901.000			6.539			-2.180
26000.000			6.538			-2.179
26100.000			6.537			-2.179
26201.000			6.537			-2.179
26300.000			6.535			-2.178
26400.000			6.536			-2.179
26502.000			6.536			-2.179
26601.000			6.534			-2.178
26700.000			6.534			-2.178
26801.000			6.535			-2.178
26900.000			6.534			-2.178
27001.000			6.532			-2.177
27100.000			6.532			-2.177
27200.000			6.532			-2.177
27302.000			6.533			-2.178
27401.000			6.533			-2.178
27500.000			6.532			-2.177
27601.000			6.532			-2.177
27700.000			6.531			-2.177
27800.000			6.529			-2.176
27901.000			6.531			-2.177
28000.000			6.531			-2.177
28101.000			6.530			-2.177
28202.000			6.530			-2.177
28300.000			6.529			-2.176
28400.000			6.530			-2.177
28501.000			6.529			-2.176
28600.000			6.528			-2.176
28700.000			6.528			-2.176
28801.000			6.528			-2.176
28901.000			6.528			-2.176
29001.000			6.527			-2.176
29102.000			6.528			-2.176
29200.000			6.526			-2.175
29300.000			6.526			-2.175
29401.000			6.526			-2.175
29500.000			6.525			-2.175
29600.000			6.526			-2.175
29702.000			6.526			-2.175
29801.000			6.525			-2.175
29901.000			6.524			-2.175
30001.000			6.524			-2.175
30100.000			6.524			-2.175
30201.000			6.522			-2.174
30300.000			6.522			-2.174
30400.000			6.522			-2.174
30502.000			6.523			-2.174
30601.000			6.523			-2.174
30700.000			6.522			-2.174
30801.000			6.522			-2.174
30900.000			6.522			-2.174
31000.000			6.522			-2.174
31101.000			6.520			-2.173
31200.000			6.520			-2.173
31301.000			6.521			-2.174
31402.000			6.520			-2.173
31500.000			6.520			-2.173
31600.000			6.520			-2.173
31701.000			6.520			-2.173
31800.000			6.519			-2.173
31900.000			6.519			-2.173
32001.000			6.519			-2.173
32101.000			6.518			-2.173
32201.000			6.518			-2.173
32301.000			6.517			-2.172
32400.000			6.517			-2.172
32500.000			6.517			-2.172
32601.000			6.517			-2.172
32700.000			6.517			-2.172
32800.000			6.517			-2.172
32902.000			6.516			-2.172
33001.000			6.515			-2.172
33100.000			6.515			-2.172
33201.000			6.516			-2.172
33300.000			6.515			-2.172
33401.000			6.514			-2.171
33500.000			6.514			-2.171
33600.000			6.514			-2.171
33702.000			6.514			-2.171
33801.000			6.514			-2.171
33900.000			6.513			-2.171
34001.000			6.513			-2.171
34100.000			6.513			-2.171
34200.000			6.514			-2.171
34301.000			6.514			-2.171
34401.000			6.512			-2.171
34501.000			6.512			-2.171
34601.000			6.512			-2.171
34700.000			6.513			-2.171
34800.000			6.512			-2.171
34901.000			6.511			-2.170
35000.000			6.511			-2.170
35100.000			6.510			-2.170
35202.000			6.511			-2.170
35301.000			6.510			-2.170
35400.000			6.510			-2.170
35501.000			6.509			-2.170
35600.000			6.508			-2.169
35700.000			6.508			-2.169
35801.000			6.509			-2.170
35900.000			6.508			-2.169
36001.000			6.507			-2.169
36102.000			6.507			-2.169
36200.000			6.507			-2.169
36300.000			6.506			-2.169
36401.000			6.507			-2.169
36500.000			6.507			-2.169
36601.000			6.508			-2.169
36700.000			6.507			-2.169
36801.000			6.506			-2.169
36902.000			6.506			-2.169
37000.000			6.506			-2.169
37100.000			6.506			-2.169
37201.000			6.506			-2.169
37300.000			6.505			-2.168
37400.000			6.505			-2.168
37501.000			6.504			-2.168
37601.000			6.504			-2.168
37701.000			6.504			-2.168
37801.000			6.504			-2.168
37900.000			6.503			-2.168
38000.000			6.505			-2.168
38101.000			6.505			-2.168
38200.000			6.504			-2.168
38300.000			6.504			-2.168
38402.000			6.502			-2.167
38501.000			6.502			-2.167
38601.000			6.502			-2.167
38701.000			6.502			-2.167
38800.000			6.502			-2.167
38900.000			6.502			-2.167
39001.000			6.501			-2.167
39100.000			6.501			-2.167
39200.000			6.501			-2.167
39302.000			6.500			-2.167
39401.000			6.500			-2.167
39500.000			6.500			-2.167
39601.000			6.500			-2.167
39700.000			6.499			-2.166
39801.000			6.500			-2.167
39900.000			6.500			-2.167
40000.000			6.499			-2.166
40102.000			6.498			-2.166
40201.000			6.498			-2.166
40300.000			6.498			-2.166
40401.000			6.498			-2.166
40500.000			6.498			-2.166
40600.000			6.498			-2.166
40701.000			6.498			-2.166
40800.000			6.498			-2.166
40901.000			6.498			-2.166
41002.000			6.498			-2.166
41101.000			6.498			-2.166
41200.000			6.497			-2.166
41301.000			6.497			-2.166
41400.000			6.496			-2.165
41500.000			6.496			-2.165
41601.000			6.495			-2.165
41701.000			6.495			-2.165
41801.000			6.495			-2.165
41902.000			6.495			-2.165
42000.000			6.495			-2.165
42100.000			6.495			-2.165
42201.000			6.494			-2.165
42300.000			6.494			-2.165
42400.000			6.494			-2.165
42502.000			6.494			-2.165
42601.000			6.494			-2.165
42701.000			6.493			-2.164
42801.000			6.493			-2.164
42900.000			6.493			-2.164
43001.000			6.493			-2.164
43100.000			6.493			-2.164
43200.000			6.492			-2.164
43301.000			6.492			-2.164
43401.000			6.492			-2.164
43501.000			6.491			-2.164
43601.000			6.491			-2.164
43700.000			6.491			-2.164
43800.000			6.491			-2.164
43901.000			6.491			-2.164
44000.000			6.490			-2.163
44100.000			6.490			-2.163
44202.000			6.491			-2.164
44301.000			6.490			-2.163
44400.000			6.490			-2.163
44501.000			6.490			-2.163
44600.000			6.490			-2.163
44700.000			6.490			-2.163
44801.000			6.490			-2.163
44900.000			6.490			-2.163
45001.000			6.489			-2.163
45102.000			6.489			-2.163
45200.000			6.488			-2.163
45300.000			6.488			-2.163
45401.000			6.488			-2.163
45500.000			6.488			-2.163
45600.000			6.489			-2.163
45701.000			6.488			-2.163
45801.000			6.488			-2.163
45901.000			6.488			-2.163
46001.000			6.488			-2.163
46100.000			6.486			-2.162
46201.000			6.486			-2.162
46300.000			6.485			-2.162
46400.000			6.485			-2.162
46501.000			6.486			-2.162
46600.000			6.486			-2.162
46701.000			6.486			-2.162
46802.000			6.485			-2.162
46900.000			6.486			-2.162
47000.000			6.485			-2.162
47101.000			6.484			-2.161
47200.000			6.485			-2.162
47300.000			6.484			-2.161
47401.000			6.484			-2.161
47501.000			6.484			-2.161
47601.000			6.484			-2.161
47701.000			6.484			-2.161
47800.000			6.483			-2.161
47900.000			6.482			-2.161
48001.000			6.483			-2.161
48100.000			6.483			-2.161
48200.000			6.482			-2.161
48302.000			6.483			-2.161
48401.000			6.483			-2.161
48500.000			6.482			-2.161
48601.000			6.483			-2.161
48700.000			6.482			-2.161
48800.000			6.481			-2.160
48901.000			6.481			-2.160
49000.000			6.482			-2.161
49101.000			6.481			-2.160
49202.000			6.480			-2.160
49301.000			6.481			-2.160
49401.000			6.481			-2.160
49500.000			6.481			-2.160
49600.000			6.481			-2.160
49701.000			6.480			-2.160
49800.000			6.479			-2.160
49900.000			6.480			-2.160
50002.000			6.480			-2.160
50101.000			6.480			-2.160
50200.000			6.479			-2.160
50301.000			6.478			-2.159
50400.000			6.478			-2.159
50500.000			6.478			-2.159
50601.000			6.479			-2.160
50700.000			6.478			-2.159
50801.000			6.478			-2.159
50902.000			6.478			-2.159
51000.000			6.478			-2.159
51100.000			6.478			-2.159
51201.000			6.478			-2.159
51300.000			6.476			-2.159
51400.000			6.477			-2.159
51501.000			6.477			-2.159
51601.000			6.477			-2.159
51701.000			6.477			-2.159
51801.000			6.476			-2.159
51900.000			6.477			-2.159
52000.000			6.477			-2.159
52101.000			6.477			-2.159
52200.000			6.476			-2.159
52300.000			6.476			-2.159
52402.000			6.476			-2.159
52501.000			6.476			-2.159
52601.000			6.475			-2.158
52700.000			6.475			-2.158
52800.000			6.474			-2.158
52901.000			6.474			-2.158
53000.000			6.475			-2.158
53100.000			6.476			-2.159
53202.000			6.475			-2.158
53301.000			6.474			-2.158
53400.000			6.474			-2.158
53501.000			6.474			-2.158
53600.000			6.474			-2.158
53700.000			6.474			-2.158
53801.000			6.474			-2.158
53900.000			6.475			-2.158
54000.000			6.474			-2.158
54102.000			6.472			-2.157
54201.000			6.471			-2.157
54300.000			6.471			-2.157
54401.000			6.472			-2.157
54500.000			6.472			-2.157
54600.000			6.472			-2.157
54701.000			6.472			-2.157
54800.000			6.471			-2.157
54901.000			6.470			-2.157
55002.000			6.471			-2.157
55100.000			6.471			-2.157
55200.000			6.472			-2.157
55301.000			6.471			-2.157
55400.000			6.471			-2.157
55500.000			6.471			-2.157
55601.000			6.469			-2.156
55701.000			6.470			-2.157
55802.000			6.470			-2.157
55900.000			6.470			-2.157
56000.000			6.470			-2.157
56101.000			6.470			-2.157
56200.000			6.469			-2.156
56300.000			6.469			-2.156
56401.000			6.469			-2.156
56501.000			6.468			-2.156
56601.000			6.469			-2.156
56701.000			6.469			-2.156
56800.000			6.469			-2.156
56900.000			6.468			-2.156
57001.000			6.468			-2.156
57100.000			6.468			-2.156
57200.000			6.468			-2.156
57301.000			6.467			-2.156
57401.000			6.468			-2.156
57501.000			6.468			-2.156
57601.000			6.468			-2.156
57700.000			6.467			-2.156
57800.000			6.465			-2.155
57901.000			6.466			-2.155
58000.000			6.466			-2.155
58100.000			6.467			-2.156
58202.000			6.466			-2.155
58301.000			6.466			-2.155
58400.000			6.467			-2.156
58501.000			6.466			-2.155
58600.000			6.466			-2.155
58700.000			6.465			-2.155
58801.000			6.466			-2.155
58900.000			6.467			-2.156
59002.000			6.465			-2.155
59101.000			6.464			-2.155
59201.000			6.465			-2.155
59301.000			6.465			-2.155
59400.000			6.464			-2.155
59500.000			6.464			-2.155
59601.000			6.464			-2.155
59700.000			6.464			-2.155
59800.000			6.464			-2.155
59902.000			6.464			-2.155
60001.000			6.464			-2.155
60100.000			6.463			-2.154
60201.000			6.463			-2.154
60300.000			6.464			-2.155
60400.000			6.464			-2.155
60501.000			6.462			-2.154
60600.000			6.462			-2.154
60701.000			6.463			-2.154
60802.000			6.462			-2.154
60900.000			6.462			-2.154
61000.000			6.462			-2.154
61101.000			6.461			-2.154
61200.000			6.462			-2.154
61300.000			6.462			-2.154
61402.000			6.461			-2.154
61501.000			6.461			-2.154
61601.000			6.461			-2.154
61701.000			6.460			-2.153
61800.000			6.461			-2.154
61900.000			6.460			-2.153
62001.000			6.461			-2.154
62100.000			6.461			-2.154
62201.000			6.460			-2.153
62301.000			6.459			-2.153
62401.000			6.460			-2.153
62501.000			6.460			-2.153
62600.000			6.460			-2.153
62700.000			6.459			-2.153
62801.000			6.459			-2.153
62900.000			6.459			-2.153
63000.000			6.460			-2.153
63102.000			6.459			-2.153
63201.000			6.458			-2.153
63300.000			6.458			-2.153
63401.000			6.457			-2.152
63500.000			6.458			-2.153
63600.000			6.457			-2.152
63701.000			6.457			-2.152
63800.000			6.458			-2.153
63901.000			6.457			-2.152
64002.000			6.456			-2.152
64100.000			6.457			-2.152
64200.000			6.456			-2.152
64301.000			6.457			-2.152
64400.000			6.457			-2.152
64500.000			6.456			-2.152
64601.000			6.456			-2.152
64701.000			6.457			-2.152
64801.000			6.456			-2.152
64901.000			6.456			-2.152
65000.000			6.457			-2.152
65100.000			6.456			-2.152
65201.000			6.456			-2.152
65300.000			6.455			-2.152
65401.000			6.455			-2.152
65500.000			6.455			-2.152
65601.000			6.455			-2.152
65702.000			6.455			-2.152
65800.000			6.455			-2.152
65900.000			6.454			-2.151
66001.000			6.454			-2.151
66100.000			6.454			-2.151
66200.000			6.454			-2.151
66301.000			6.454			-2.151
66401.000			6.454			-2.151
66501.000			6.454			-2.151
66601.000			6.454			-2.151
66700.000			6.454			-2.151
66800.000			6.453			-2.151
66901.000			6.453			-2.151
67000.000			6.453			-2.151
67100.000			6.453			-2.151
67202.000			6.453			-2.151
67301.000			6.452			-2.151
67400.000			6.453			-2.151
67501.000			6.452			-2.151
67600.000			6.452			-2.151
67700.000			6.452			-2.151
67801.000			6.453			-2.151
67900.000			6.452			-2.151
68001.000			6.452			-2.151
68102.000			6.451			-2.150
68201.000			6.451			-2.150
68300.000			6.452			-2.151
68401.000			6.452			-2.151
68500.000			6.451			-2.150
68601.000			6.451			-2.150
68700.000			6.452			-2.151
68800.000			6.451			-2.150
68902.000			6.450			-2.150
69001.000			6.451			-2.150
69100.000			6.452			-2.151
69201.000			6.450			-2.150
69300.000			6.450			-2.150
69400.000			6.451			-2.150
69501.000			6.450			-2.150
69600.000			6.450			-2.150
69701.000			6.450			-2.150
69802.000			6.449			-2.150
69900.000			6.449			-2.150
70000.000			6.450			-2.150
70101.000			6.450			-2.150
70200.000			6.449			-2.150
70300.000			6.449			-2.150
70401.000			6.450			-2.150
70501.000			6.449			-2.150
70601.000			6.449			-2.150
70702.000			6.449			-2.150
70800.000			6.448			-2.149
70900.000			6.448			-2.149
71001.000			6.449			-2.150
71100.000			6.448			-2.149
71200.000			6.448			-2.149
71301.000			6.448			-2.149
71401.000			6.449			-2.150
71501.000			6.449			-2.150
71601.000			6.449			-2.150
71700.000			6.448			-2.149
71801.000			6.448			-2.149
71900.000			6.448			-2.149
72000.000			6.449			-2.150
72101.000			6.449			-2.150
72201.000			6.447			-2.149
72301.000			6.447			-2.149
72401.000			6.446			-2.149
72500.000			6.446			-2.149
72600.000			6.446			-2.149
72701.000			6.445			-2.148
72800.000			6.446			-2.149
72900.000			6.446			-2.149
73002.000			6.447			-2.149
73101.000			6.447			-2.149
73200.000			6.446			-2.149
73301.000			6.446			-2.149
73400.000			6.445			-2.148
73500.000			6.445			-2.148
73601.000			6.445			-2.148
73700.000			6.444			-2.148
73801.000			6.445			-2.148
73902.000			6.446			-2.149
74001.000			6.445			-2.148
74100.000			6.445			-2.148
74201.000			6.445			-2.148
74300.000			6.444			-2.148
74400.000			6.445			-2.148
74501.000			6.444			-2.148
74600.000			6.445			-2.148
74701.000			6.444			-2.148
74802.000			6.444			-2.148
74900.000			6.443			-2.148
75001.000			6.443			-2.148
75100.000			6.443			-2.148
75200.000			6.444			-2.148
75301.000			6.443			-2.148
75400.000			6.443			-2.148
75501.000			6.443			-2.148
75602.000			6.442			-2.147
75700.000			6.442			-2.147
75800.000			6.442			-2.147
75901.000			6.442			-2.147
76000.000			6.443			-2.148
76100.000			6.443			-2.148
76201.000			6.442			-2.147
76301.000			6.442			-2.147
76401.000			6.442			-2.147
76501.000			6.442			-2.147
76600.000			6.442			-2.147
76700.000			6.442			-2.147
76801.000			6.442			-2.147
76900.000			6.441			-2.147
77000.000			6.441			-2.147
77102.000			6.442			-2.147
77201.000			6.442			-2.147
77300.000			6.442			-2.147
77401.000			6.442			-2.147
77500.000			6.441			-2.147
77600.000			6.441			-2.147
77701.000			6.441			-2.147
77800.000			6.441			-2.147
77901.000			6.440			-2.147
78002.000			6.441			-2.147
78101.000			6.440			-2.147
78201.000			6.440			-2.147
78300.000			6.441			-2.147
78400.000			6.439			-2.146
78501.000			6.439			-2.146
78600.000			6.440			-2.147
78700.000			6.439			-2.146
78802.000			6.439			-2.146
78901.000			6.438			-2.146
79000.000			6.440			-2.147
79101.000			6.440			-2.147
79200.000			6.439			-2.146
79300.000			6.439			-2.146
79401.000			6.440			-2.147
79500.000			6.440			-2.147
79600.000			6.439			-2.146
79702.000			6.439			-2.146
79801.000			6.438			-2.146
79900.000			6.439			-2.146
80001.000			6.440			-2.147
80100.000			6.438			-2.146
80200.000			6.437			-2.146
80301.000			6.438			-2.146
80400.000			6.438			-2.146
80501.000			6.438			-2.146
80602.000			6.437			-2.146
80700.000			6.437			-2.146
80800.000			6.436			-2.145
80901.000			6.437			-2.146
81000.000			6.436			-2.145
81100.000			6.437			-2.146
81201.000			6.438			-2.146
81301.000			6.436			-2.145
81402.000			6.437			-2.146
81500.000			6.437			-2.146
81600.000			6.437			-2.146
81701.000			6.437			-2.146
81800.000			6.436			-2.145
81900.000			6.437			-2.146
82001.000			6.435			-2.145
82101.000			6.435			-2.145
82201.000			6.436			-2.145
82302.000			6.436			-2.145
82400.000			6.435			-2.145
82500.000			6.435			-2.145
82601.000			6.434			-2.145
82700.000			6.434			-2.145
82800.000			6.434			-2.145
82901.000			6.435			-2.145
83001.000			6.434			-2.145
83101.000			6.434			-2.145
83201.000			6.434			-2.145
83300.000			6.434			-2.145
83400.000			6.434			-2.145
83501.000			6.434			-2.145
83600.000			6.434			-2.145
83700.000			6.434			-2.145
83802.000			6.433			-2.144
83901.000			6.432			-2.144
84000.000			6.433			-2.144
84101.000			6.434			-2.145
84200.000			6.433			-2.144
84300.000			6.433			-2.144
84401.000			6.433			-2.144
84500.000			6.432			-2.144
84602.000			6.432			-2.144
84701.000			6.432			-2.144
84800.000			6.432			-2.144
84901.000			6.432			-2.144
85000.000			6.432			-2.144
85100.000			6.432			-2.144
85201.000			6.432			-2.144
85300.000			6.431			-2.144
85400.000			6.431			-2.144
85502.000			6.432			-2.144
85601.000			6.432			-2.144
85700.000			6.432			-2.144
85801.000			6.432			-2.144
85900.000			6.431			-2.144
86000.000			6.431			-2.144
86101.000			6.431			-2.144
86200.000			6.431			-2.144
86301.000			6.431			-2.144
86402.000			6.432			-2.144
86500.000			6.431			-2.144
86600.000			6.430			-2.143
86701.000			6.431			-2.144
86800.000			6.431			-2.144
86900.000			6.430			-2.143
87001.000			6.431			-2.144
87101.000			6.431			-2.144
87201.000			6.430			-2.143
87301.000			6.429			-2.143
87400.000			6.431			-2.144
87500.000			6.431			-2.144
87601.000			6.429			-2.143
87700.000			6.429			-2.143
87801.000			6.430			-2.143
87901.000			6.430			-2.143
88001.000			6.429			-2.143
88102.000			6.430			-2.143
88200.000			6.429			-2.143
88300.000			6.429			-2.143
88401.000			6.429			-2.143
88500.000			6.429			-2.143
88600.000			6.428			-2.143
88701.000			6.428			-2.143
88801.000			6.428			-2.143
88901.000			6.428			-2.143
89001.000			6.428			-2.143
89100.000			6.428			-2.143
89200.000			6.427			-2.142
89301.000			6.427			-2.142
89400.000			6.427			-2.142
89500.000			6.427			-2.142
89602.000			6.427			-2.142
89701.000			6.427			-2.142
89801.000			6.427			-2.142
89901.000			6.427			-2.142
90000.000			6.427			-2.142
90100.000			6.427			-2.142
90201.000			6.426			-2.142
90300.000			6.426			-2.142
90400.000			6.427			-2.142
90502.000			6.428			-2.143
90601.000			6.426			-2.142
90700.000			6.427			-2.142
90801.000			6.426			-2.142
90900.000			6.426			-2.142
91001.000			6.425			-2.142
91100.000			6.425			-2.142
91200.000			6.426			-2.142
91302.000			6.426			-2.142
91401.000			6.427			-2.142
91500.000			6.425			-2.142
91601.000			6.425			-2.142
91700.000			6.425			-2.142
91800.000			6.425			-2.142
91901.000			6.424			-2.141
92000.000			6.425			-2.142
92101.000			6.425			-2.142
92202.000			6.425			-2.142
92300.000			6.424			-2.141
92400.000			6.424			-2.141
92501.000			6.425			-2.142
92600.000			6.425			-2.142
92700.000			6.424			-2.141
92801.000			6.422			-2.141
92901.000			6.424			-2.141
93001.000			6.424			-2.141
93101.000			6.423			-2.141
93200.000			6.423			-2.141
93300.000			6.423			-2.141
93401.000			6.423			-2.141
93500.000			6.423			-2.141
93600.000			6.424			-2.141
93702.000			6.424			-2.141
93801.000			6.424			-2.141
93901.000			6.424			-2.141
94001.000			6.423			-2.141
94100.000			6.423			-2.141
94201.000			6.423			-2.141
94300.000			6.423			-2.141
94400.000			6.423			-2.141
94501.000			6.423			-2.141
94601.000			6.422			-2.141
94701.000			6.421			-2.140
94801.000			6.422			-2.141
94900.000			6.422			-2.141
95000.000			6.422			-2.141
95101.000			6.422			-2.141
95200.000			6.422			-2.141
95300.000			6.420			-2.140
95402.000			6.421			-2.140
95501.000			6.422			-2.141
95600.000			6.421			-2.140
95701.000			6.421			-2.140
95800.000			6.421			-2.140
95900.000			6.421			-2.140
96001.000			6.421			-2.140
96100.000			6.421			-2.140
96201.000			6.421			-2.140
96302.000			6.421			-2.140
96400.000			6.421			-2.140
96500.000			6.421			-2.140
96601.000			6.421			-2.140
96700.000			6.421			-2.140
96800.000			6.420			-2.140
96901.000			6.420			-2.140
97001.000			6.420			-2.140
97101.000			6.420			-2.140
97201.000			6.420			-2.140
97300.000			6.420			-2.140
97401.000			6.419			-2.140
97500.000			6.419			-2.140
97600.000			6.419			-2.140
97701.000			6.419			-2.140
97800.000			6.420			-2.140
97901.000			6.419			-2.140
98002.000			6.419			-2.140
98100.000			6.419			-2.140
98200.000			6.420			-2.140
98301.000			6.420			-2.140
98400.000			6.419			-2.140
98500.000			6.419			-2.140
98601.000			6.420			-2.140
98701.000			6.420			-2.140
98801.000			6.419			-2.140
98902.000			6.419			-2.140
99000.000			6.418			-2.139
99100.000			6.418			-2.139
99201.000			6.418			-2.139
99300.000			6.418			-2.139
99400.000			6.418			-2.139
99501.000			6.417			-2.139
99601.000			6.418			-2.139
99701.000			6.418			-2.139
99801.000			6.417			-2.139
99900.000			6.417			-2.139
100000.000			6.416			-2.139
100101.000			6.416			-2.139
100200.000			6.417			-2.139
100300.000			6.417			-2.139
100401.000			6.418			-2.139
100501.000			6.417			-2.139
100602.000			6.417			-2.139
100700.000			6.417			-2.139
100800.000			6.417			-2.139
100901.000			6.416			-2.139
101000.000			6.417			-2.139
101100.000			6.417			-2.139
101201.000			6.417			-2.139
101301.000			6.416			-2.139
101401.000			6.416			-2.139
101501.000			6.416			-2.139
101600.000			6.416			-2.139
101700.000			6.415			-2.138
101801.000			6.415			-2.138
101900.000			6.415			-2.138
102000.000			6.415			-2.138
102102.000			6.415			-2.138
102201.000			6.415			-2.138
102301.000			6.415			-2.138
102401.000			6.415			-2.138
102500.000			6.415			-2.138
102600.000			6.414			-2.138
102701.000			6.414			-2.138
102800.000			6.415			-2.138
102900.000			6.415			-2.138
103002.000			6.415			-2.138
103101.000			6.414			-2.138
103200.000			6.415			-2.138
103301.000			6.414			-2.138
103400.000			6.414			-2.138
103500.000			6.414			-2.138
103601.000			6.414			-2.138
103700.000			6.414			-2.138
103802.000			6.413			-2.138
103901.000			6.414			-2.138
104000.000			6.414			-2.138
104101.000			6.414			-2.138
104200.000			6.414			-2.138
104300.000			6.413			-2.138
104401.000			6.413			-2.138
104500.000			6.412			-2.137
104601.000			6.413			-2.138
104702.000			6.412			-2.137
104800.000			6.412			-2.137
104900.000			6.413			-2.138
105001.000			6.413			-2.138
105100.000			6.413			-2.138
105200.000			6.412			-2.137
105301.000			6.413			-2.138
105401.000			6.412			-2.137
105501.000			6.412			-2.137
105602.000			6.413			-2.138
105700.000			6.413			-2.138
105800.000			6.412			-2.137
105901.000			6.413			-2.138
106000.000			6.412			-2.137
106100.000			6.412			-2.137
106201.000			6.412			-2.137
106301.000			6.412			-2.137
106401.000			6.411			-2.137
106501.000			6.411			-2.137
106600.000			6.411			-2.137
106700.000			6.412			-2.137
106801.000			6.412			-2.137
106900.000			6.411			-2.137
107001.000			6.411			-2.137
107101.000			6.411			-2.137
107201.000			6.410			-2.137
107301.000			6.410			-2.137
107400.000			6.411			-2.137
107500.000			6.411			-2.137
107601.000			6.410			-2.137
107700.000			6.410			-2.137
107800.000			6.410			-2.137
107902.000			6.410			-2.137
108001.000			6.410			-2.137
108101.000			6.412			-2.137
108201.000			6.411			-2.137
108300.000			6.411			-2.137
108400.000			6.410			-2.137
108501.000			6.410			-2.137
108600.000			6.410			-2.137
108700.000			6.409			-2.136
108802.000			6.409			-2.136
108901.000			6.410			-2.137
109000.000			6.409			-2.136
109101.000			6.409			-2.136
109200.000			6.409			-2.136
109300.000			6.409			-2.136
109401.000			6.408			-2.136
109500.000			6.409			-2.136
109601.000			6.409			-2.136
109702.000			6.408			-2.136
109801.000			6.408			-2.136
109900.000			6.408			-2.136
110001.000			6.407			-2.136
110100.000			6.408			-2.136
110201.000			6.408			-2.136
110300.000			6.408			-2.136
110400.000			6.408			-2.136
110502.000			6.408			-2.136
110601.000			6.408			-2.136
110700.000			6.408			-2.136
110801.000			6.407			-2.136
110900.000			6.408			-2.136
111000.000			6.407			-2.136
111101.000			6.407			-2.136
111200.000			6.407			-2.136
111301.000			6.408			-2.136
111402.000			6.407			-2.136
111500.000			6.407			-2.136
111600.000			6.408			-2.136
111701.000			6.408			-2.136
111800.000			6.407			-2.136
111900.000			6.407			-2.136
112001.000			6.406			-2.135
112101.000			6.407			-2.136
112201.000			6.407			-2.136
112302.000			6.406			-2.135
112400.000			6.407			-2.136
112500.000			6.407			-2.136
112601.000			6.407			-2.136
112700.000			6.405			-2.135
112800.000			6.406			-2.135
112901.000			6.407			-2.136
113001.000			6.407			-2.136
113101.000			6.406			-2.135
113201.000			6.406			-2.135
113300.000			6.406			-2.135
113401.000			6.406			-2.135
113500.000			6.405			-2.135
113600.000			6.406			-2.135
113701.000			6.406			-2.135
113801.000			6.407			-2.136
113901.000			6.406			-2.135
114001.000			6.405			-2.135
114100.000			6.404			-2.135
114200.000			6.405			-2.135
114301.000			6.406			-2.135
114400.000			6.405			-2.135
114500.000			6.405			-2.135
114602.000			6.405			-2.135
114701.000			6.404			-2.135
114800.000			6.405			-2.135
114901.000			6.404			-2.135
115000.000			6.405			-2.135
115100.000			6.405			-2.135
115201.000			6.404			-2.135
115300.000			6.403			-2.134
115400.000			6.403			-2.134
115502.000			6.404			-2.135
115601.000			6.405			-2.135
115700.000			6.404			-2.135
115801.000			6.403			-2.134
115900.000			6.404			-2.135
116000.000			6.404			-2.135
116101.000			6.404			-2.135
116200.000			6.404			-2.135
116301.000			6.403			-2.134
116402.000			6.402			-2.134
116500.000			6.402			-2.134
116601.000			6.403			-2.134
116700.000			6.403			-2.134
116800.000			6.404			-2.135
116901.000			6.403			-2.134
117000.000			6.403			-2.134
117100.000			6.403			-2.134
117202.000			6.403			-2.134
117301.000			6.402			-2.134
117400.000			6.402			-2.134
117501.000			6.402			-2.134
117600.000			6.402			-2.134
117700.000			6.402			-2.134
117801.000			6.403			-2.134
117900.000			6.402			-2.134
118001.000			6.402			-2.134
118102.000			6.403			-2.134
118200.000			6.402			-2.134
118300.000			6.402			-2.134
118401.000			6.401			-2.134
118500.000			6.402			-2.134
118600.000			6.401			-2.134
118701.000			6.402			-2.134
118801.000			6.402			-2.134
118901.000			6.401			-2.134
119001.000			6.401			-2.134
119100.000			6.402			-2.134
119200.000			6.401			-2.134
119301.000			6.401			-2.134
119400.000			6.401			-2.134
119500.000			6.400			-2.133
119601.000			6.400			-2.133
119701.000			6.401			-2.134
119802.000			6.401			-2.134
119900.000			6.401			-2.134
120000.000			6.401			-2.134
120101.000			6.400			-2.133
120200.000			6.400			-2.133
120300.000			6.401			-2.134
120401.000			6.401			-2.134
120501.000			6.401			-2.134
120601.000			6.400			-2.133
120701.000			6.400			-2.133
120800.000			6.399			-2.133
120900.000			6.399			-2.133
121001.000			6.400			-2.133
121100.000			6.400			-2.133
121200.000			6.399			-2.133
121302.000			6.398			-2.133
121401.000			6.400			-2.133
121500.000			6.398			-2.133
121601.000			6.398			-2.133
121700.000			6.398			-2.133
121800.000			6.399			-2.133
121901.000			6.399			-2.133
122000.000			6.400			-2.133
122100.000			6.399			-2.133
122202.000			6.399			-2.133
122301.000			6.399			-2.133
122400.000			6.399			-2.133
122501.000			6.399			-2.133
122600.000			6.399			-2.133
122700.000			6.399			-2.133
122801.000			6.398			-2.133
122900.000			6.398			-2.133
123001.000			6.399			-2.133
123101.000			6.397			-2.132
123201.000			6.398			-2.133
123301.000			6.399			-2.133
123400.000			6.399			-2.133
123500.000			6.398			-2.133
123601.000			6.398			-2.133
123700.000			6.398			-2.133
123800.000			6.398			-2.133
123902.000			6.398			-2.133
124001.000			6.397			-2.132
124101.000			6.397			-2.132
124201.000			6.398			-2.133
124300.000			6.398			-2.133
124400.000			6.397			-2.132
124501.000			6.397			-2.132
124600.000			6.397			-2.132
124700.000			6.396			-2.132
124802.000			6.397			-2.132
124901.000			6.397			-2.132
125001.000			6.397			-2.132
125101.000			6.397			-2.132
125200.000			6.397			-2.132
125300.000			6.396			-2.132
125401.000			6.395			-2.132
125500.000			6.397			-2.132
125600.000			6.397			-2.132
125702.000			6.396			-2.132
125801.000			6.395			-2.132
125901.000			6.396			-2.132
126001.000			6.396			-2.132
126100.000			6.396			-2.132
126201.000			6.395			-2.132
126300.000			6.396			-2.132
126400.000			6.396			-2.132
126501.000			6.396			-2.132
126601.000			6.396			-2.132
126701.000			6.396			-2.132
126801.000			6.396			-2.132
126900.000			6.395			-2.132
127000.000			6.395			-2.132
127101.000			6.395			-2.132
127200.000			6.395			-2.132
127300.000			6.394			-2.131
127401.000			6.395			-2.132
127501.000			6.395			-2.132
127601.000			6.395			-2.132
127701.000			6.395			-2.132
127800.000			6.394			-2.131
127900.000			6.395			-2.132
128001.000			6.395			-2.132
128100.000			6.395			-2.132
128200.000			6.396			-2.132
128301.000			6.394			-2.131
128401.000			6.394			-2.131
128501.000			6.394			-2.131
128601.000			6.394			-2.131
128700.000			6.394			-2.131
128800.000			6.394			-2.131
128901.000			6.395			-2.132
129000.000			6.394			-2.131
129100.000			6.394			-2.131
129202.000			6.394			-2.131
129301.000			6.395			-2.132
129402.000			6.395			-2.132
129500.000			6.394			-2.131
129600.000			6.393			-2.131
129701.000			6.393			-2.131
129800.000			6.393			-2.131
129900.000			6.393			-2.131
130001.000			6.393			-2.131
130101.000			6.393			-2.131
130201.000			6.392			-2.131
130302.000			6.394			-2.131
130400.000			6.393			-2.131
130500.000			6.392			-2.131
130601.000			6.393			-2.131
130700.000			6.394			-2.131
130800.000			6.393			-2.131
130901.000			6.393			-2.131
131001.000			6.392			-2.131
131101.000			6.392			-2.131
131201.000			6.392			-2.131
131300.000			6.392			-2.131
131400.000			6.392			-2.131
131501.000			6.391			-2.130
131600.000			6.392			-2.131
131700.000			6.393			-2.131
131801.000			6.393			-2.131
131901.000			6.392			-2.131
132001.000			6.392			-2.131
132101.000			6.391			-2.130
132200.000			6.391			-2.130
132300.000			6.391			-2.130
132401.000			6.392			-2.131
132500.000			6.392			-2.131
132601.000			6.392			-2.131
132700.000			6.392			-2.131
132801.000			6.392			-2.131
132902.000			6.392			-2.131
133001.000			6.392			-2.131
133100.000			6.391			-2.130
133201.000			6.391			-2.130
133300.000			6.391			-2.130
133400.000			6.392			-2.131
133501.000			6.392			-2.131
133600.000			6.391			-2.130
133701.000			6.390			-2.130
133802.000			6.390			-2.130
133901.000			6.391			-2.130
134000.000			6.391			-2.130
134101.000			6.391			-2.130
134200.000			6.392			-2.131
134300.000			6.391			-2.130
134401.000			6.389			-2.130
134500.000			6.390			-2.130
134600.000			6.390			-2.130
134702.000			6.390			-2.130
134801.000			6.390			-2.130
134900.000			6.389			-2.130
135001.000			6.388			-2.129
135100.000			6.390			-2.130
135200.000			6.390			-2.130
135301.000			6.389			-2.130
135400.000			6.390			-2.130
135500.000			6.390			-2.130
135602.000			6.389			-2.130
135701.000			6.389			-2.130
135802.000			6.389			-2.130
135900.000			6.390			-2.130
136000.000			6.390			-2.130
136101.000			6.389			-2.130
136200.000			6.389			-2.130
136300.000			6.389			-2.130
136401.000			6.388			-2.129
136500.000			6.389			-2.130
136601.000			6.389			-2.130
136702.000			6.388			-2.129
136801.000			6.388			-2.129
136900.000			6.387			-2.129
137001.000			6.387			-2.129
137100.000			6.387			-2.129
137200.000			6.387			-2.129
137301.000			6.388			-2.129
137400.000			6.388			-2.129
137500.000			6.387			-2.129
137602.000			6.388			-2.129
137701.000			6.389			-2.130
137800.000			6.389			-2.130
137901.000			6.389			-2.130
138000.000			6.387			-2.129
138100.000			6.386			-2.129
138201.000			6.388			-2.129
138300.000			6.387			-2.129
138400.000			6.387			-2.129
138501.000			6.387			-2.129
138601.000			6.387			-2.129
138701.000			6.387			-2.129
138801.000			6.387			-2.129
138900.000			6.387			-2.129
139001.000			6.387			-2.129
139100.000			6.387			-2.129
139200.000			6.388			-2.129
139301.000			6.388			-2.129
139400.000			6.387			-2.129
139501.000			6.386			-2.129
139602.000			6.387			-2.129
139701.000			6.386			-2.129
139800.000			6.386			-2.129
139901.000			6.386			-2.129
140000.000			6.386			-2.129
140100.000			6.386			-2.129
140201.000			6.385			-2.128
140300.000			6.386			-2.129
140400.000			6.386			-2.129
140502.000			6.386			-2.129
140601.000			6.386			-2.129
140700.000			6.386			-2.129
140801.000			6.386			-2.129
140900.000			6.385			-2.128
141000.000			6.384			-2.128
141101.000			6.385			-2.128
141200.000			6.386			-2.129
141300.000			6.386			-2.129
141402.000			6.387			-2.129
141501.000			6.385			-2.128
141601.000			6.386			-2.129
141701.000			6.386			-2.129
141800.000			6.386			-2.129
141900.000			6.387			-2.129
142001.000			6.385			-2.128
142100.000			6.384			-2.128
142201.000			6.385			-2.128
142300.000			6.385			-2.128
142401.000			6.385			-2.128
142502.000			6.384			-2.128
142600.000			6.384			-2.128
142700.000			6.385			-2.128
142801.000			6.385			-2.128
142900.000			6.384			-2.128
143000.000			6.385			-2.128
143101.000			6.385			-2.128
143200.000			6.384			-2.128
143301.000			6.384			-2.128
143402.000			6.384			-2.128
143501.000			6.384			-2.128
143600.000			6.384			-2.128
143701.000			6.385			-2.128
143800.000			6.384			-2.128
143900.000			6.383			-2.128
144001.000			6.384			-2.128
144100.000			6.385			-2.128
144200.000			6.383			-2.128
144302.000			6.383			-2.128
144401.000			6.384			-2.128
144500.000			6.384			-2.128
144601.000			6.384			-2.128
144700.000			6.384			-2.128
144800.000			6.385			-2.128
144901.000			6.382			-2.127
145000.000			6.384			-2.128
145100.000			6.384			-2.128
145202.000			6.383			-2.128
145301.000			6.383			-2.128
145401.000			6.383			-2.128
145500.000			6.383			-2.128
145600.000			6.383			-2.128
145701.000			6.383			-2.128
145800.000			6.384			-2.128
145900.000			6.383			-2.128
146001.000			6.382			-2.127
146101.000			6.382			-2.127
146201.000			6.383			-2.128
146302.000			6.381			-2.127
146400.000			6.383			-2.128
146500.000			6.382			-2.127
146601.000			6.381			-2.127
146700.000			6.382			-2.127
146800.000			6.382			-2.127
146901.000			6.382			-2.127
147000.000			6.383			-2.128
147101.000			6.381			-2.127
147202.000			6.382			-2.127
147300.000			6.381			-2.127
147400.000			6.381			-2.127
147501.000			6.383			-2.128
147600.000			6.383			-2.128
147700.000			6.382			-2.127
147801.000			6.380			-2.127
147900.000			6.380			-2.127
148000.000			6.381			-2.127
148102.000			6.381			-2.127
148201.000			6.381			-2.127
148300.000			6.382			-2.127
148401.000			6.381			-2.127
148500.000			6.380			-2.127
148601.000			6.381			-2.127
148700.000			6.381			-2.127
148800.000			6.381			-2.127
148901.000			6.381			-2.127
149001.000			6.381			-2.127
149101.000			6.379			-2.126
149202.000			6.380			-2.127
149300.000			6.381			-2.127
149400.000			6.380			-2.127
149501.000			6.381			-2.127
149600.000			6.381			-2.127
149700.000			6.380			-2.127
149801.000			6.381			-2.127
149900.000			6.381			-2.127
150001.000			6.379			-2.126
150102.000			6.379			-2.126
150201.000			6.379			-2.126
150300.000			6.380			-2.127
150401.000			6.379			-2.126
150500.000			6.379			-2.126
150600.000			6.379			-2.126
150701.000			6.380			-2.127
150800.000			6.380			-2.127
150900.000			6.380			-2.127
151002.000			6.379			-2.126
151101.000			6.379			-2.126
151200.000			6.380			-2.127
151301.000			6.380			-2.127
151400.000			6.378			-2.126
151500.000			6.379			-2.126
151601.000			6.379			-2.126
151700.000			6.378			-2.126
151801.000			6.379			-2.126
151901.000			6.379			-2.126
152001.000			6.379			-2.126
152102.000			6.379			-2.126
152200.000			6.379			-2.126
152300.000			6.379			-2.126
152401.000			6.379			-2.126
152500.000			6.378			-2.126
152600.000			6.377			-2.126
152701.000			6.378			-2.126
152800.000			6.378			-2.126
152901.000			6.378			-2.126
153002.000			6.379			-2.126
153101.000			6.379			-2.126
153200.000			6.378			-2.126
153301.000			6.378			-2.126
153400.000			6.378			-2.126
153500.000			6.378			-2.126
153601.000			6.378			-2.126
153700.000			6.377			-2.126
153800.000			6.378			-2.126
153902.000			6.378			-2.126
154001.000			6.377			-2.126
154101.000			6.377			-2.126
154201.000			6.377			-2.126
154300.000			6.378			-2.126
154400.000			6.377			-2.126
154501.000			6.377			-2.126
154600.000			6.377			-2.126
154700.000			6.377			-2.126
154801.000			6.378			-2.126
154901.000			6.378			-2.126
155002.000			6.377			-2.126
155100.000			6.376			-2.125
155200.000			6.376			-2.125
155301.000			6.377			-2.126
155400.000			6.376			-2.125
155500.000			6.376			-2.125
155601.000			6.376			-2.125
155700.000			6.377			-2.126
155801.000			6.377			-2.126
155902.000			6.376			-2.125
156001.000			6.377			-2.126
156100.000			6.377			-2.126
156201.000			6.377			-2.126
156300.000			6.377			-2.126
156400.000			6.378			-2.126
156501.000			6.377			-2.126
156600.000			6.377			-2.126
156700.000			6.377			-2.126
156802.000			6.377			-2.126
156901.000			6.376			-2.125
157001.000			6.376			-2.125
157101.000			6.376			-2.125
157200.000			6.376			-2.125
157300.000			6.376			-2.125
157401.000			6.376			-2.125
157500.000			6.376			-2.125
157600.000			6.376			-2.125
157701.000			6.376			-2.125
157801.000			6.375			-2.125
157901.000			6.376			-2.125
158001.000			6.375			-2.125
158100.000			6.376			-2.125
158201.000			6.375			-2.125
158300.000			6.374			-2.125
158400.000			6.375			-2.125
158501.000			6.375			-2.125
158600.000			6.375			-2.125
158701.000			6.375			-2.125
158802.000			6.375			-2.125
158901.000			6.374			-2.125
159000.000			6.374			-2.125
159101.000			6.375			-2.125
159200.000			6.375			-2.125
159300.000			6.374			-2.125
159401.000			6.374			-2.125
159500.000			6.374			-2.125
159600.000			6.374			-2.125
159702.000			6.375			-2.125
159801.000			6.375			-2.125
159901.000			6.374			-2.125
160001.000			6.373			-2.124
160100.000			6.372			-2.124
160200.000			6.373			-2.124
160301.000			6.375			-2.125
160400.000			6.375			-2.125
160500.000			6.374			-2.125
160601.000			6.374			-2.125
160701.000			6.374			-2.125
160801.000			6.374			-2.125
160901.000			6.374			-2.125
161000.000			6.374			-2.125
161100.000			6.374			-2.125
161201.000			6.374			-2.125
161300.000			6.374			-2.125
161401.000			6.373			-2.124
161500.000			6.373			-2.124
161601.000			6.373			-2.124
161702.000			6.373			-2.124
161801.000			6.372			-2.124
161900.000			6.373			-2.124
162001.000			6.374			-2.125
162100.000			6.373			-2.124
162200.000			6.373			-2.124
162301.000			6.373			-2.124
162400.000			6.373			-2.124
162501.000			6.373			-2.124
162602.000			6.373			-2.124
162701.000			6.373			-2.124
162800.000			6.372			-2.124
162901.000			6.372			-2.124
163000.000			6.373			-2.124
163100.000			6.373			-2.124
163201.000			6.373			-2.124
163300.000			6.373			-2.124
163401.000			6.372			-2.124
163502.000			6.372			-2.124
163601.000			6.372			-2.124
163700.000			6.372			-2.124
163801.000			6.372			-2.124
163900.000			6.372			-2.124
164000.000			6.372			-2.124
164101.000			6.372			-2.124
164200.000			6.371			-2.124
164300.000			6.372			-2.124
164402.000			6.372			-2.124
164501.000			6.372			-2.124
164601.000			6.372			-2.124
164700.000			6.371			-2.124
164800.000			6.371			-2.124
164901.000			6.370			-2.123
165000.000			6.370			-2.123
165100.000			6.371			-2.124
165201.000			6.371			-2.124
165301.000			6.370			-2.123
165401.000			6.371			-2.124
165502.000			6.371			-2.124
165600.000			6.371			-2.124
165700.000			6.370			-2.123
165801.000			6.370			-2.123
165900.000			6.370			-2.123
166000.000			6.371			-2.124
166101.000			6.369			-2.123
166200.000			6.369			-2.123
166301.000			6.369			-2.123
166402.000			6.370			-2.123
166501.000			6.370			-2.123
166600.000			6.370			-2.123
166701.000			6.371			-2.124
166800.000			6.370			-2.123
166900.000			6.370			-2.123
167001.000			6.370			-2.123
167100.000			6.371			-2.124
167200.000			6.370			-2.123
167302.000			6.370			-2.123
167401.000			6.370			-2.123
167501.000			6.369			-2.123
167601.000			6.369			-2.123
167700.000			6.369			-2.123
167801.000			6.369			-2.123
167900.000			6.369			-2.123
168000.000			6.369			-2.123
168101.000			6.370			-2.123
168200.000			6.369			-2.123
168301.000			6.369			-2.123
168402.000			6.369			-2.123
168501.000			6.368			-2.123
168600.000			6.368			-2.123
168701.000			6.368			-2.123
168800.000			6.368			-2.123
168900.000			6.369			-2.123
169001.000			6.369			-2.123
169100.000			6.369			-2.123
169200.000			6.368			-2.123
169302.000			6.369			-2.123
169401.000			6.369			-2.123
169500.000			6.369			-2.123
169601.000			6.368			-2.123
169700.000			6.368			-2.123
169800.000			6.370			-2.123
169901.000			6.368			-2.123
170000.000			6.367			-2.122
170100.000			6.367			-2.122
170202.000			6.368			-2.123
170301.000			6.367			-2.122
170401.000			6.367			-2.122
170501.000			6.367			-2.122
170600.000			6.367			-2.122
170700.000			6.368			-2.123
170801.000			6.367			-2.122
170900.000			6.367			-2.122
171001.000			6.368			-2.123
171100.000			6.368			-2.123
171201.000			6.368			-2.123
171302.000			6.367			-2.122
171400.000			6.368			-2.123
171500.000			6.367			-2.122
171601.000			6.366			-2.122
171700.000			6.367			-2.122
171800.000			6.367			-2.122
171901.000			6.368			-2.123
172000.000			6.366			-2.122
172101.000			6.367			-2.122
172202.000			6.367			-2.122
172301.000			6.367			-2.122
172400.000			6.366			-2.122
172501.000			6.366			-2.122
172600.000			6.366			-2.122
172700.000			6.366			-2.122
172801.000			6.366			-2.122
172900.000			6.366			-2.122
173000.000			6.367			-2.122
173102.000			6.367			-2.122
173201.000			6.366			-2.122
173300.000			6.367			-2.122
173401.000			6.366			-2.122
173500.000			6.366			-2.122
173600.000			6.366			-2.122
173701.000			6.366			-2.122
173800.000			6.365			-2.122
173900.000			6.366			-2.122
174001.000			6.366			-2.122
174101.000			6.366			-2.122
174202.000			6.365			-2.122
174300.000			6.366			-2.122
174400.000			6.366			-2.122
174501.000			6.366			-2.122
174600.000			6.366			-2.122
174700.000			6.366			-2.122
174801.000			6.366			-2.122
174900.000			6.365			-2.122
175001.000			6.366			-2.122
175102.000			6.365			-2.122
175201.000			6.366			-2.122
175300.000			6.366			-2.122
175401.000			6.365			-2.122
175500.000			6.365			-2.122
175600.000			6.366			-2.122
175701.000			6.365			-2.122
175800.000			6.365			-2.122
175900.000			6.365			-2.122
176002.000			6.365			-2.122
176101.000			6.365			-2.122
176201.000			6.364			-2.121
176301.000			6.365			-2.122
176400.000			6.365			-2.122
176500.000			6.365			-2.122
176601.000			6.365			-2.122
176700.000			6.364			-2.121
176800.000			6.365			-2.122
176901.000			6.365			-2.122
177001.000			6.365			-2.122
177101.000			6.365			-2.122
177202.000			6.365			-2.122
177300.000			6.364			-2.121
177401.000			6.364			-2.121
177500.000			6.365			-2.122
177600.000			6.364			-2.121
177701.000			6.363			-2.121
177800.000			6.364			-2.121
177900.000			6.363			-2.121
178002.000			6.363			-2.121
178101.000			6.363			-2.121
178201.000			6.363			-2.121
178301.000			6.363			-2.121
178400.000			6.364			-2.121
178500.000			6.364			-2.121
178601.000			6.364			-2.121
178700.000			6.364			-2.121
178800.000			6.364			-2.121
178901.000			6.363			-2.121
179001.000			6.363			-2.121
179101.000			6.364			-2.121
179202.000			6.364			-2.121
179300.000			6.363			-2.121
179400.000			6.363			-2.121
179501.000			6.363			-2.121
179600.000			6.363			-2.121
179700.000			6.363			-2.121
179801.000			6.363			-2.121
179900.000			6.364			-2.121
180001.000			6.364			-2.121
180102.000			6.363			-2.121
180201.000			6.362			-2.121
180300.000			6.363			-2.121
180401.000			6.363			-2.121
180500.000			6.363			-2.121
180601.000			6.363			-2.121
180700.000			6.363			-2.121
180800.000			6.362			-2.121
180901.000			6.363			-2.121
181001.000			6.363			-2.121
181101.000			6.363			-2.121
181201.000			6.362			-2.121
181300.000			6.362			-2.121
181400.000			6.361			-2.120
181501.000			6.362			-2.121
181600.000			6.362			-2.121
181700.000			6.362			-2.121
181801.000			6.361			-2.120
181901.000			6.362			-2.121
182001.000			6.361			-2.120
182101.000			6.362			-2.121
182200.000			6.363			-2.121
182300.000			6.362			-2.121
182401.000			6.362			-2.121
182500.000			6.362			-2.121
182600.000			6.362			-2.121
182701.000			6.362			-2.121
182801.000			6.361			-2.120
182901.000			6.362			-2.121
183002.000			6.361			-2.120
183100.000			6.362			-2.121
183200.000			6.362			-2.121
183301.000			6.361			-2.120
183400.000			6.360			-2.120
183500.000			6.362			-2.121
183601.000			6.362			-2.121
183700.000			6.360			-2.120
183802.000			6.361			-2.120
183901.000			6.362			-2.121
184000.000			6.362			-2.121
184101.000			6.361			-2.120
184200.000			6.361			-2.120
184300.000			6.361			-2.120
184401.000			6.361			-2.120
184500.000			6.361			-2.120
184600.000			6.361			-2.120
184702.000			6.361			-2.120
184801.000			6.362			-2.121
184901.000			6.361			-2.120
185001.000			6.360			-2.120
185100.000			6.361			-2.120
185200.000			6.360			-2.120
185301.000			6.360			-2.120
185400.000			6.360			-2.120
185500.000			6.361			-2.120
185601.000			6.360			-2.120
185701.000			6.359			-2.120
185801.000			6.359			-2.120
185901.000			6.359			-2.120
186000.000			6.359			-2.120
186100.000			6.359			-2.120
186201.000			6.359			-2.120
186300.000			6.359			-2.120
186400.000			6.359			-2.120
186501.000			6.359			-2.120
186601.000			6.359			-2.120
186701.000			6.359			-2.120
186802.000			6.360			-2.120
186900.000			6.360			-2.120
187001.000			6.360			-2.120
187100.000			6.360			-2.120
187200.000			6.359			-2.120
187301.000			6.359			-2.120
187400.000			6.359			-2.120
187500.000			6.359			-2.120
187602.000			6.359			-2.120
187701.000			6.360			-2.120
187801.000			6.360			-2.120
187901.000			6.359			-2.120
188000.000			6.357			-2.119
188100.000			6.359			-2.120
188201.000			6.359			-2.120
188300.000			6.359			-2.120
188400.000			6.359			-2.120
188501.000			6.359			-2.120
188601.000			6.358			-2.119
188701.000			6.358			-2.119
188802.000			6.358			-2.119
188900.000			6.359			-2.120
189000.000			6.359			-2.120
189101.000			6.358			-2.119
189200.000			6.358			-2.119
189300.000			6.358			-2.119
189401.000			6.358			-2.119
189500.000			6.358			-2.119
189601.000			6.358			-2.119
189702.000			6.358			-2.119
189801.000			6.358			-2.119
189900.000			6.358			-2.119
190001.000			6.359			-2.120
190100.000			6.359			-2.120
190201.000			6.358			-2.119
190300.000			6.358			-2.119
190400.000			6.358			-2.119
190501.000			6.359			-2.120
190601.000			6.358			-2.119
190701.000			6.358			-2.119
190802.000			6.358			-2.119
190900.000			6.359			-2.120
191000.000			6.358			-2.119
191101.000			6.357			-2.119
191200.000			6.357			-2.119
191300.000			6.357			-2.119
191401.000			6.358			-2.119
191500.000			6.357			-2.119
191601.000			6.357			-2.119
191702.000			6.357			-2.119
191801.000			6.357			-2.119
191900.000			6.357			-2.119
192001.000			6.357			-2.119
192100.000			6.358			-2.119
192200.000			6.358			-2.119
192301.000			6.357			-2.119
192400.000			6.357			-2.119
192500.000			6.356			-2.119
192602.000			6.357			-2.119
192701.000			6.357			-2.119
192800.000			6.357			-2.119
192901.000			6.357			-2.119
193000.000			6.357			-2.119
193100.000			6.358			-2.119
193201.000			6.357			-2.119
193300.000			6.357			-2.119
193401.000			6.357			-2.119
193501.000			6.356			-2.119
193601.000			6.356			-2.119
193702.000			6.357			-2.119
193800.000			6.356			-2.119
193900.000			6.356			-2.119
194001.000			6.355			-2.118
194100.000			6.355			-2.118
194200.000			6.356			-2.119
194301.000			6.356			-2.119
194400.000			6.356			-2.119
194501.000			6.357			-2.119
194602.000			6.355			-2.118
194701.000			6.354			-2.118
194800.000			6.355			-2.118
194901.000			6.356			-2.119
195000.000			6.356			-2.119
195100.000			6.355			-2.118
195201.000			6.355			-2.118
195300.000			6.355			-2.118
195400.000			6.355			-2.118
195502.000			6.357			-2.119
195601.000			6.356			-2.119
195701.000			6.355			-2.118
195801.000			6.355			-2.118
195900.000			6.356			-2.119
196000.000			6.356			-2.119
196101.000			6.355			-2.118
196200.000			6.355			-2.118
196300.000			6.354			-2.118
196401.000			6.355			-2.118
196501.000			6.355			-2.118
196602.000			6.356			-2.119
196701.000			6.355			-2.118
196800.000			6.355			-2.118
196901.000			6.355			-2.118
197000.000			6.355			-2.118
197100.000			6.355			-2.118
197201.000			6.355			-2.118
197300.000			6.355			-2.118
197400.000			6.355			-2.118
197502.000			6.355			-2.118
197601.000			6.354			-2.118
197700.000			6.354			-2.118
197801.000			6.354			-2.118
197900.000			6.354			-2.118
198000.000			6.354			-2.118
198101.000			6.354			-2.118
198200.000			6.355			-2.118
198300.000			6.355			-2.118
198401.000			6.354			-2.118
198501.000			6.354			-2.118
198601.000			6.354			-2.118
198701.000			6.355			-2.118
198800.000			6.354			-2.118
198900.000			6.354			-2.118
199001.000			6.354			-2.118
199100.000			6.354			-2.118
199200.000			6.354			-2.118
199301.000			6.353			-2.118
199401.000			6.352			-2.117
199501.000			6.353			-2.118
199602.000			6.353			-2.118
199700.000			6.354			-2.118
199801.000			6.353			-2.118
199900.000			6.353			-2.118
200000.000			6.353			-2.118
200101.000			6.353			-2.118
200200.000			6.353			-2.118
200300.000			6.353			-2.118
200402.000			6.353			-2.118
200501.000			6.354			-2.118
200600.000			6.354			-2.118
200701.000			6.353			-2.118
200800.000			6.352			-2.117
200900.000			6.353			-2.118
201001.000			6.353			-2.118
201100.000			6.353			-2.118
201200.000			6.353			-2.118
201302.000			6.354			-2.118
201401.000			6.354			-2.118
201500.000			6.353			-2.118
201601.000			6.353			-2.118
201700.000			6.353			-2.118
201800.000			6.353			-2.118
201901.000			6.353			-2.118
202000.000			6.353			-2.118
202100.000			6.352			-2.117
202202.000			6.353			-2.118
202301.000			6.353			-2.118
202400.000			6.353			-2.118
202501.000			6.352			-2.117
202600.000			6.352			-2.117
202700.000			6.351			-2.117
202801.000			6.353			-2.118
202900.000			6.351			-2.117
203001.000			6.352			-2.117
203101.000			6.351			-2.117
203201.000			6.351			-2.117
203302.000			6.352			-2.117
203400.000			6.351			-2.117
203500.000			6.352			-2.117
203601.000			6.351			-2.117
203700.000			6.350			-2.117
203800.000			6.351			-2.117
203901.000			6.352			-2.117
204001.000			6.352			-2.117
204101.000			6.352			-2.117
204202.000			6.351			-2.117
204300.000			6.351			-2.117
204400.000			6.351			-2.117
204501.000			6.351			-2.117
204600.000			6.351			-2.117
204700.000			6.350			-2.117
204801.000			6.351			-2.117
204900.000			6.351			-2.117
205001.000			6.351			-2.117
205102.000			6.351			-2.117
205200.000			6.350			-2.117
205300.000			6.350			-2.117
205401.000			6.350			-2.117
205500.000			6.350			-2.117
205600.000			6.351			-2.117
205701.000			6.351			-2.117
205801.000			6.350			-2.117
205901.000			6.350			-2.117
206002.000			6.350			-2.117
206100.000			6.351			-2.117
206201.000			6.351			-2.117
206300.000			6.350			-2.117
206400.000			6.350			-2.117
206501.000			6.349			-2.116
206600.000			6.348			-2.116
206700.000			6.350			-2.117
206802.000			6.351			-2.117
206901.000			6.349			-2.116
207000.000			6.349			-2.116
207101.000			6.350			-2.117
207200.000			6.350			-2.117
207300.000			6.350			-2.117
207401.000			6.350			-2.117
207500.000			6.349			-2.116
207600.000			6.349			-2.116
207702.000			6.349			-2.116
207801.000			6.349			-2.116
207901.000			6.350			-2.117
208001.000			6.350			-2.117
208100.000			6.350			-2.117
208200.000			6.349			-2.116
208301.000			6.350			-2.117
208400.000			6.351			-2.117
208500.000			6.351			-2.117
208601.000			6.350			-2.117
208701.000			6.349			-2.116
208801.000			6.349			-2.116
208901.000			6.350			-2.117
209000.000			6.350			-2.117
209100.000			6.350			-2.117
209201.000			6.349			-2.116
209300.000			6.349			-2.116
209401.000			6.349			-2.116
209500.000			6.349			-2.116
209601.000			6.349			-2.116
209702.000			6.349			-2.116
209801.000			6.349			-2.116
209900.000			6.347			-2.116
210001.000			6.348			-2.116
210100.000			6.347			-2.116
210200.000			6.348			-2.116
210301.000			6.349			-2.116
210400.000			6.348			-2.116
210500.000			6.349			-2.116
210602.000			6.349			-2.116
210701.000			6.348			-2.116
210800.000			6.347			-2.116
210901.000			6.348			-2.116
211000.000			6.347			-2.116
211100.000			6.348			-2.116
211201.000			6.348			-2.116
211300.000			6.348			-2.116
211400.000			6.348			-2.116
211502.000			6.348			-2.116
211601.000			6.347			-2.116
211700.000			6.346			-2.115
211801.000			6.348			-2.116
211900.000			6.348			-2.116
212000.000			6.349			-2.116
212101.000			6.349			-2.116
212200.000			6.349			-2.116
212300.000			6.347			-2.116
212402.000			6.347			-2.116
212501.000			6.347			-2.116
212602.000			6.348			-2.116
212700.000			6.348			-2.116
212800.000			6.349			-2.116
212901.000			6.348			-2.116
213000.000			6.347			-2.116
213100.000			6.347			-2.116
213201.000			6.348			-2.116
213301.000			6.347			-2.116
213401.000			6.346			-2.115
213502.000			6.346			-2.115
213600.000			6.347			-2.116
213700.000			6.348			-2.116
213801.000			6.346			-2.115
213900.000			6.348			-2.116
214000.000			6.348			-2.116
214101.000			6.346			-2.115
214200.000			6.347			-2.116
214301.000			6.347			-2.116
214402.000			6.348			-2.116
214500.000			6.346			-2.115
214600.000			6.346			-2.115
214701.000			6.346			-2.115
214800.000			6.347			-2.116
214900.000			6.347			-2.116
215001.000			6.347			-2.116
215100.000			6.347			-2.116
215201.000			6.346			-2.115
215302.000			6.347			-2.116
215401.000			6.347			-2.116
215500.000			6.348			-2.116
215601.000			6.348			-2.116
215700.000			6.347			-2.116
215801.000			6.346			-2.115
215900.000			6.346			-2.115
216000.000			6.346			-2.115
216101.000			6.347			-2.116
216201.000			6.347			-2.116
216301.000			6.347			-2.116
216401.000			6.345			-2.115
216500.000			6.345			-2.115
216600.000			6.345			-2.115
216701.000			6.346			-2.115
216800.000			6.345			-2.115
216900.000			6.345			-2.115
217001.000			6.346			-2.115
217101.000			6.345			-2.115
217201.000			6.346			-2.115
217301.000			6.346			-2.115
217400.000			6.346			-2.115
217500.000			6.345			-2.115
217601.000			6.345			-2.115
217700.000			6.345			-2.115
217800.000			6.345			-2.115
217901.000			6.345			-2.115
218001.000			6.345			-2.115
218101.000			6.346			-2.115
218202.000			6.345			-2.115
218300.000			6.345			-2.115
218400.000			6.344			-2.115
218501.000			6.343			-2.114
218600.000			6.344			-2.115
218700.000			6.344			-2.115
218801.000			6.344			-2.115
218901.000			6.345			-2.115
219002.000			6.345			-2.115
219101.000			6.344			-2.115
219200.000			6.344			-2.115
219301.000			6.344			-2.115
219400.000			6.344			-2.115
219500.000			6.344			-2.115
219601.000			6.344			-2.115
219700.000			6.344			-2.115
219800.000			6.344			-2.115
219902.000			6.344			-2.115
220001.000			6.344			-2.115
220100.000			6.344			-2.115
220201.000			6.343			-2.115
220300.000			6.343			-2.114
220400.000			6.345			-2.115
220501.000			6.345			-2.115
220600.000			6.345			-2.115
220700.000			6.345			-2.115
220802.000			6.345			-2.115
220901.000			6.345			-2.115
221001.000			6.346			-2.115
221101.000			6.342			-2.114
221200.000			6.343			-2.114
221300.000			6.343			-2.114
221401.000			6.343			-2.114
221500.000			6.344			-2.115
221600.000			6.345			-2.115
221702.000			6.345			-2.115
221801.000			6.343			-2.114
221901.000			6.343			-2.114
222001.000			6.344			-2.115
222100.000			6.344			-2.115
222201.000			6.344			-2.115
222300.000			6.343			-2.114
222400.000			6.344			-2.115
222501.000			6.344			-2.115
222601.000			6.344			-2.115
222701.000			6.345			-2.115
222802.000			6.343			-2.114
222900.000			6.343			-2.114
223000.000			6.344			-2.115
223101.000			6.344			-2.115
223200.000			6.343			-2.114
223300.000			6.343			-2.114
223401.000			6.343			-2.114
223500.000			6.342			-2.114
223601.000			6.342			-2.114
223702.000			6.343			-2.114
223800.000			6.343			-2.114
223900.000			6.343			-2.114
224001.000			6.344			-2.115
224100.000			6.343			-2.114
224200.000			6.342			-2.114
224301.000			6.342			-2.114
224400.000			6.343			-2.114
224501.000			6.343			-2.114
224602.000			6.342			-2.114
224700.000			6.342			-2.114
224800.000			6.343			-2.114
224901.000			6.342			-2.114
225000.000			6.343			-2.114
225100.000			6.342			-2.114
225201.000			6.343			-2.114
225300.000			6.343			-2.114
225402.000			6.343			-2.114
225501.000			6.342			-2.114
225601.000			6.342			-2.114
225701.000			6.342			-2.114
225800.000			6.342			-2.114
225900.000			6.342			-2.114
226001.000			6.342			-2.114
226100.000			6.341			-2.114
226200.000			6.341			-2.114
226302.000			6.342			-2.114
226401.000			6.341			-2.114
226501.000			6.341			-2.114
226601.000			6.341			-2.114
226700.000			6.341			-2.114
226800.000			6.341			-2.114
226901.000			6.341			-2.114
227000.000			6.342			-2.114
227100.000			6.342			-2.114
227201.000			6.341			-2.114
227301.000			6.342			-2.114
227401.000			6.341			-2.114
227501.000			6.341			-2.114
227600.000			6.341			-2.114
227700.000			6.341			-2.114
227801.000			6.340			-2.113
227900.000			6.341			-2.114
228000.000			6.341			-2.114
228101.000			6.340			-2.113
228201.000			6.340			-2.113
228301.000			6.340			-2.113
228401.000			6.341			-2.114
228500.000			6.341			-2.114
228601.000			6.341			-2.114
228700.000			6.341			-2.114
228800.000			6.340			-2.113
228901.000			6.340			-2.113
229000.000			6.341			-2.114
229101.000			6.340			-2.113
229202.000			6.341			-2.114
229301.000			6.341			-2.114
229400.000			6.340			-2.113
229501.000			6.340			-2.113
229600.000			6.340			-2.113
229700.000			6.340			-2.113
229801.000			6.340			-2.113
229900.000			6.341			-2.114
230000.000			6.342			-2.114
230102.000			6.341			-2.114
230201.000			6.340			-2.113
230300.000			6.341			-2.114
230401.000			6.341			-2.114
230500.000			6.340			-2.113
230600.000			6.340			-2.113
230701.000			6.340			-2.113
230800.000			6.340			-2.113
230900.000			6.341			-2.114
231002.000			6.340			-2.113
231101.000			6.339			-2.113
231200.000			6.340			-2.113
231301.000			6.340			-2.113
231400.000			6.340			-2.113
231500.000			6.340			-2.113
231601.000			6.339			-2.113
231700.000			6.340			-2.113
231801.000			6.340			-2.113
231901.000			6.340			-2.113
232001.000			6.340			-2.113
232101.000			6.339			-2.113
232200.000			6.339			-2.113
232300.000			6.339			-2.113
232401.000			6.339			-2.113
232500.000			6.340			-2.113
232600.000			6.340			-2.113
232701.000			6.340			-2.113
232801.000			6.339			-2.113
232901.000			6.340			-2.113
233001.000			6.339			-2.113
233100.000			6.338			-2.113
233200.000			6.339			-2.113
233301.000			6.340			-2.113
233400.000			6.339			-2.113
233500.000			6.339			-2.113
233601.000			6.339			-2.113
233701.000			6.338			-2.113
233801.000			6.338			-2.113
233902.000			6.338			-2.113
234000.000			6.339			-2.113
234100.000			6.338			-2.113
234201.000			6.338			-2.113
234300.000			6.338			-2.113
234400.000			6.339			-2.113
234501.000			6.338			-2.113
234600.000			6.338			-2.113
234701.000			6.338			-2.113
234802.000			6.338			-2.113
234900.000			6.338			-2.113
235001.000			6.339			-2.113
235100.000			6.338			-2.113
235200.000			6.339			-2.113
235301.000			6.338			-2.113
235400.000			6.338			-2.113
235500.000			6.337			-2.112
235602.000			6.338			-2.113
235701.000			6.337			-2.112
235801.000			6.339			-2.113
235901.000			6.338			-2.113
236000.000			6.338			-2.113
236100.000			6.338			-2.113
236201.000			6.338			-2.113
236300.000			6.338			-2.113
236400.000			6.339			-2.113
236501.000			6.337			-2.112
236601.000			6.338			-2.113
236701.000			6.338			-2.113
236801.000			6.338			-2.113
236900.000			6.338			-2.113
237000.000			6.337			-2.112
237101.000			6.337			-2.112
237200.000			6.337			-2.112
237300.000			6.337			-2.112
237401.000			6.337			-2.112
237501.000			6.338			-2.113
237601.000			6.338			-2.113
237702.000			6.338			-2.113
237800.000			6.338			-2.113
237900.000			6.338			-2.113
238001.000			6.337			-2.112
238100.000			6.336			-2.112
238201.000			6.337			-2.112
238300.000			6.337			-2.112
238400.000			6.337			-2.112
238502.000			6.337			-2.112
238601.000			6.338			-2.113
238701.000			6.336			-2.112
238801.000			6.336			-2.112
238900.000			6.337			-2.112
239000.000			6.336			-2.112
239101.000			6.336			-2.112
239200.000			6.337			-2.112
239300.000			6.336			-2.112
239401.000			6.336			-2.112
239501.000			6.335			-2.112
239601.000			6.336			-2.112
239701.000			6.337			-2.112
239800.000			6.337			-2.112
239900.000			6.337			-2.112
240001.000			6.336			-2.112
240100.000			6.336			-2.112
240200.000			6.336			-2.112
240301.000			6.336			-2.112
240401.000			6.335			-2.112
240501.000			6.336			-2.112
240602.000			6.336			-2.112
240700.000			6.335			-2.112
240800.000			6.335			-2.112
240901.000			6.336			-2.112
241000.000			6.334			-2.111
241100.000			6.335			-2.112
241201.000			6.336			-2.112
241301.000			6.335			-2.112
241402.000			6.336			-2.112
241501.000			6.336			-2.112
241600.000			6.336			-2.112
241701.000			6.336			-2.112
241800.000			6.335			-2.112
241900.000			6.334			-2.111
242001.000			6.334			-2.111
242100.000			6.335			-2.112
242201.000			6.335			-2.112
242302.000			6.335			-2.112
242401.000			6.335			-2.112
242500.000			6.335			-2.112
242601.000			6.335			-2.112
242700.000			6.335			-2.112
242800.000			6.335			-2.112
242901.000			6.334			-2.111
243000.000			6.333			-2.111
243100.000			6.335			-2.112
243202.000			6.335			-2.112
243301.000			6.336			-2.112
243400.000			6.336			-2.112
243501.000			6.335			-2.112
243600.000			6.335			-2.112
243700.000			6.335			-2.112
243801.000			6.334			-2.111
243900.000			6.334			-2.111
244000.000			6.334			-2.111
244102.000			6.335			-2.112
244201.000			6.335			-2.112
244300.000			6.334			-2.111
244401.000			6.334			-2.111
244500.000			6.335			-2.112
244601.000			6.334			-2.111
244700.000			6.334			-2.111
244800.000			6.333			-2.111
244901.000			6.333			-2.111
245001.000			6.334			-2.111
245101.000			6.334			-2.111
245202.000			6.335			-2.112
245300.000			6.334			-2.111
245400.000			6.334			-2.111
245501.000			6.334			-2.111
245600.000			6.335			-2.112
245700.000			6.334			-2.111
245801.000			6.334			-2.111
245901.000			6.333			-2.111
246001.000			6.333			-2.111
246102.000			6.334			-2.111
246200.000			6.333			-2.111
246300.000			6.332			-2.111
246401.000			6.333			-2.111
246500.000			6.333			-2.111
246600.000			6.334			-2.111
246701.000			6.334			-2.111
246800.000			6.333			-2.111
246901.000			6.333			-2.111
247002.000			6.333			-2.111
247100.000			6.333			-2.111
247200.000			6.333			-2.111
247301.000			6.334			-2.111
247400.000			6.334			-2.111
247500.000			6.334			-2.111
247601.000			6.333			-2.111
247700.000			6.332			-2.111
247802.000			6.333			-2.111
247901.000			6.333			-2.111
248001.000			6.333			-2.111
248101.000			6.333			-2.111
248200.000			6.333			-2.111
248300.000			6.334			-2.111
248401.000			6.334			-2.111
248500.000			6.333			-2.111
248600.000			6.333			-2.111
248701.000			6.334			-2.111
248801.000			6.333			-2.111
248901.000			6.333			-2.111
249001.000			6.332			-2.111
249100.000			6.333			-2.111
249200.000			6.334			-2.111
249301.000			6.334			-2.111
249400.000			6.332			-2.111
249500.000			6.333			-2.111
249601.000			6.331			-2.110
249701.000			6.333			-2.111
249801.000			6.334			-2.111
249902.000			6.333			-2.111
250000.000			6.332			-2.111
250100.000			6.332			-2.111
250201.000			6.333			-2.111
250300.000			6.333			-2.111
250400.000			6.333			-2.111
250501.000			6.332			-2.111
250601.000			6.332			-2.111
250701.000			6.332			-2.111
250802.000			6.332			-2.111
250900.000			6.332			-2.111
251001.000			6.332			-2.111
251100.000			6.332			-2.111
251200.000			6.332			-2.111
251301.000			6.332			-2.111
251400.000			6.331			-2.110
251500.000			6.331			-2.110
251602.000			6.331			-2.110
251701.000			6.332			-2.111
251800.000			6.331			-2.110
251901.000			6.331			-2.110
252000.000			6.332			-2.111
252100.000			6.333			-2.111
252201.000			6.332			-2.111
252300.000			6.332			-2.111
252400.000			6.333			-2.111
252502.000			6.332			-2.111
252601.000			6.330			-2.110
252700.000			6.331			-2.110
252801.000			6.332			-2.111
252900.000			6.331			-2.110
253000.000			6.332			-2.111
253101.000			6.331			-2.110
253200.000			6.330			-2.110
253300.000			6.330			-2.110
253402.000			6.331			-2.110
253501.000			6.332			-2.111
253600.000			6.330			-2.110
253701.000			6.330			-2.110
253800.000			6.331			-2.110
253900.000			6.331			-2.110
254001.000			6.331			-2.110
254100.000			6.329			-2.110
254201.000			6.330			-2.110
254301.000			6.330			-2.110
254401.000			6.330			-2.110
254502.000			6.331			-2.110
254600.000			6.331			-2.110
254700.000			6.331			-2.110
254801.000			6.329			-2.110
254900.000			6.331			-2.110
255000.000			6.330			-2.110
255101.000			6.329			-2.110
255201.000			6.330			-2.110
255301.000			6.331			-2.110
255402.000			6.329			-2.110
255500.000			6.330			-2.110
255600.000			6.330			-2.110
255701.000			6.330			-2.110
255800.000			6.330			-2.110
255900.000			6.330			-2.110
256001.000			6.330			-2.110
256100.000			6.329			-2.110
256201.000			6.329			-2.110
256302.000			6.330			-2.110
256400.000			6.330			-2.110
256500.000			6.330			-2.110
256601.000			6.330			-2.110
256700.000			6.329			-2.110
256800.000			6.329			-2.110
256901.000			6.329			-2.110
257000.000			6.330			-2.110
257101.000			6.330			-2.110
257202.000			6.330			-2.110
257301.000			6.329			-2.110
257401.000			6.329			-2.110
257500.000			6.329			-2.110
257600.000			6.329			-2.110
257701.000			6.330			-2.110
257800.000			6.330			-2.110
257900.000			6.329			-2.110
258001.000			6.329			-2.110
258101.000			6.329			-2.110
258201.000			6.329			-2.110
258301.000			6.329			-2.110
258400.000			6.329			-2.110
258500.000			6.330			-2.110
258601.000			6.329			-2.110
258700.000			6.328			-2.109
258800.000			6.329			-2.110
258901.000			6.329			-2.110
259000.000			6.330			-2.110
259101.000			6.330			-2.110
259202.000			6.329			-2.110
259300.000			6.329			-2.110
259400.000			6.330			-2.110
259501.000			6.329			-2.110
259600.000			6.329			-2.110
259700.000			6.329			-2.110
259801.000			6.329			-2.110
259900.000			6.328			-2.109
260001.000			6.328			-2.109
260102.000			6.328			-2.109
260201.000			6.328			-2.109
260300.000			6.328			-2.109
260401.000			6.329			-2.110
260500.000			6.328			-2.109
260601.000			6.328			-2.109
260700.000			6.328			-2.109
260800.000			6.329			-2.110
260901.000			6.328			-2.109
261001.000			6.327			-2.109
261101.000			6.327			-2.109
261201.000			6.328			-2.109
261300.000			6.328			-2.109
261400.000			6.328			-2.109
261501.000			6.329			-2.110
261600.000			6.328			-2.109
261700.000			6.328			-2.109
261801.000			6.327			-2.109
261901.000			6.328			-2.109
262001.000			6.328			-2.109
262102.000			6.328			-2.109
262200.000			6.328			-2.109
262300.000			6.327			-2.109
262401.000			6.327			-2.109
262500.000			6.327			-2.109
262600.000			6.328			-2.109
262701.000			6.328			-2.109
262800.000			6.328			-2.109
262901.000			6.327			-2.109
263002.000			6.327			-2.109
263100.000			6.326			-2.109
263200.000			6.327			-2.109
263301.000			6.327			-2.109
263400.000			6.326			-2.109
263500.000			6.327			-2.109
263601.000			6.327			-2.109
263700.000			6.327			-2.109
263802.000			6.327			-2.109
263901.000			6.327			-2.109
264000.000			6.327			-2.109
264101.000			6.327			-2.109
264200.000			6.326			-2.109
264300.000			6.326			-2.109
264401.000			6.327			-2.109
264500.000			6.327			-2.109
264600.000			6.326			-2.109
264702.000			6.326			-2.109
264801.000			6.326			-2.109
264901.000			6.327			-2.109
265001.000			6.327			-2.109
265100.000			6.326			-2.109
265200.000			6.327			-2.109
265301.000			6.327			-2.109
265400.000			6.326			-2.109
265500.000			6.326			-2.109
265602.000			6.326			-2.109
265701.000			6.326			-2.109
265801.000			6.326			-2.109
265901.000			6.326			-2.109
266000.000			6.326			-2.109
266100.000			6.325			-2.108
266201.000			6.326			-2.109
266300.000			6.326			-2.109
266400.000			6.326			-2.109
266501.000			6.326			-2.109
266601.000			6.325			-2.108
266701.000			6.325			-2.108
266801.000			6.326			-2.109
266900.000			6.326			-2.109
267001.000			6.325			-2.108
267100.000			6.326			-2.109
267200.000			6.326			-2.109
267301.000			6.327			-2.109
267400.000			6.325			-2.108
267501.000			6.325			-2.108
267602.000			6.326			-2.109
267701.000			6.326			-2.109
267800.000			6.326			-2.109
267901.000			6.325			-2.108
268000.000			6.325			-2.108
268100.000			6.325			-2.108
268201.000			6.326			-2.109
268300.000			6.326			-2.109
268400.000			6.325			-2.108
268502.000			6.325			-2.108
268601.000			6.326			-2.109
268700.000			6.326			-2.109
268801.000			6.326			-2.109
268900.000			6.326			-2.109
269000.000			6.325			-2.108
269101.000			6.325			-2.108
269200.000			6.325			-2.108
269300.000			6.325			-2.108
269402.000			6.324			-2.108
269501.000			6.325			-2.108
269601.000			6.325			-2.108
269701.000			6.324			-2.108
269800.000			6.325			-2.108
269900.000			6.325			-2.108
270001.000			6.325			-2.108
270100.000			6.324			-2.108
270201.000			6.324			-2.108
270301.000			6.325			-2.108
270401.000			6.324			-2.108
270502.000			6.325			-2.108
270600.000			6.325			-2.108
270700.000			6.325			-2.108
270801.000			6.325			-2.108
270900.000			6.325			-2.108
271000.000			6.325			-2.108
271101.000			6.324			-2.108
271200.000			6.325			-2.108
271301.000			6.325			-2.108
271402.000			6.324			-2.108
271500.000			6.324			-2.108
271600.000			6.324			-2.108
271701.000			6.325			-2.108
271800.000			6.324			-2.108
271900.000			6.324			-2.108
272001.000			6.324			-2.108
272100.000			6.324			-2.108
272201.000			6.324			-2.108
272302.000			6.323			-2.108
272401.000			6.323			-2.108
272500.000			6.323			-2.108
272601.000			6.324			-2.108
272700.000			6.323			-2.108
272800.000			6.323			-2.108
272901.000			6.323			-2.108
273000.000			6.323			-2.108
273101.000			6.323			-2.108
273202.000			6.322			-2.107
273301.000			6.322			-2.107
273401.000			6.323			-2.108
273500.000			6.323			-2.108
273600.000			6.322			-2.107
273701.000			6.322			-2.107
273800.000			6.323			-2.108
273900.000			6.321			-2.107
274001.000			6.323			-2.108
274101.000			6.322			-2.107
274201.000			6.322			-2.107
274301.000			6.323			-2.108
274400.000			6.322			-2.107
274500.000			6.323			-2.108
274601.000			6.323			-2.108
274700.000			6.322			-2.107
274800.000			6.322			-2.107
274901.000			6.322			-2.107
275001.000			6.323			-2.108
275101.000			6.323			-2.108
275201.000			6.324			-2.108
275300.000			6.323			-2.108
275400.000			6.323			-2.108
275501.000			6.323			-2.108
275600.000			6.323			-2.108
275700.000			6.322			-2.107
275801.000			6.322			-2.107
275901.000			6.322			-2.107
276001.000			6.322			-2.107
276102.000			6.323			-2.108
276200.000			6.322			-2.107
276300.000			6.322			-2.107
276401.000			6.322			-2.107
276500.000			6.323			-2.108
276601.000			6.322			-2.107
276700.000			6.323			-2.108
276800.000			6.323			-2.108
276902.000			6.323			-2.108
277001.000			6.322			-2.107
277100.000			6.321			-2.107
277201.000			6.321			-2.107
277300.000			6.322			-2.107
277400.000			6.322			-2.107
277501.000			6.322			-2.107
277600.000			6.322			-2.107
277700.000			6.321			-2.107
277802.000			6.322			-2.107
277901.000			6.323			-2.108
278001.000			6.323			-2.108
278101.000			6.322			-2.107
278200.000			6.322			-2.107
278300.000			6.322			-2.107
278401.000			6.322			-2.107
278500.000			6.322			-2.107
278600.000			6.323			-2.108
278702.000			6.322			-2.107
278801.000			6.321			-2.107
278901.000			6.321			-2.107
279001.000			6.321			-2.107
279100.000			6.322			-2.107
279200.000			6.322			-2.107
279301.000			6.321			-2.107
279400.000			6.321			-2.107
279500.000			6.322			-2.107
279601.000			6.322			-2.107
279701.000			6.321			-2.107
279802.000			6.321			-2.107
279901.000			6.321			-2.107
280000.000			6.321			-2.107
280101.000			6.321			-2.107
280200.000			6.323			-2.108
280300.000			6.322			-2.107
280401.000			6.320			-2.107
280500.000			6.321			-2.107
280601.000			6.321			-2.107
280702.000			6.320			-2.107
280801.000			6.320			-2.107
280900.000			6.321			-2.107
281001.000			6.320			-2.107
281100.000			6.319			-2.106
281200.000			6.319			-2.106
281301.000			6.321			-2.107
281400.000			6.321			-2.107
281501.000			6.321			-2.107
281602.000			6.321			-2.107
281701.000			6.320			-2.107
281800.000			6.320			-2.107
281901.000			6.320			-2.107
282000.000			6.320			-2.107
282100.000			6.319			-2.106
282201.000			6.319			-2.106
282300.000			6.320			-2.107
282401.000			6.321			-2.107
282502.000			6.320			-2.107
282601.000			6.320			-2.107
282700.000			6.320			-2.107
282801.000			6.320			-2.107
282900.000			6.320			-2.107
283001.000			6.321			-2.107
283100.000			6.320			-2.107
283200.000			6.319			-2.106
283301.000			6.319			-2.106
283401.000			6.320			-2.107
283501.000			6.321			-2.107
283601.000			6.321			-2.107
283700.000			6.320			-2.107
283800.000			6.320			-2.107
283901.000			6.320			-2.107
284000.000			6.320			-2.107
284100.000			6.321			-2.107
284201.000			6.319			-2.106
284301.000			6.319			-2.106
284401.000			6.319			-2.106
284501.000			6.319			-2.106
284600.000			6.319			-2.106
284700.000			6.319			-2.106
284801.000			6.320			-2.107
284900.000			6.320			-2.107
285000.000			6.319			-2.106
285101.000			6.319			-2.106
285201.000			6.320			-2.107
285301.000			6.320			-2.107
285402.000			6.319			-2.106
285500.000			6.319			-2.106
285600.000			6.319			-2.106
285701.000			6.318			-2.106
285800.000			6.318			-2.106
285900.000			6.318			-2.106
286001.000			6.319			-2.106
286100.000			6.319			-2.106
286202.000			6.319			-2.106
286301.000			6.320			-2.107
286401.000			6.319			-2.106
286501.000			6.319			-2.106
286600.000			6.319			-2.106
286700.000			6.319			-2.106
286801.000			6.319			-2.106
286900.000			6.318			-2.106
287000.000			6.318			-2.106
287101.000			6.318			-2.106
287201.000			6.319			-2.106
287301.000			6.319			-2.106
287401.000			6.318			-2.106
287500.000			6.319			-2.106
287600.000			6.318			-2.106
287701.000			6.319			-2.106
287800.000			6.318			-2.106
287900.000			6.319			-2.106
288001.000			6.319			-2.106
288100.000			6.318			-2.106
288201.000			6.317			-2.106
288302.000			6.317			-2.106
288400.000			6.318			-2.106
288500.000			6.319			-2.106
288601.000			6.319			-2.106
288700.000			6.317			-2.106
288800.000			6.317			-2.106
288901.000			6.317			-2.106
289000.000			6.318			-2.106
289100.000			6.319			-2.106
289202.000			6.318			-2.106
289301.000			6.317			-2.106
289401.000			6.317			-2.106
289500.000			6.318			-2.106
289600.000			6.318			-2.106
289701.000			6.318			-2.106
289800.000			6.318			-2.106
289900.000			6.317			-2.106
290001.000			6.318			-2.106
290101.000			6.317			-2.106
290201.000			6.317			-2.106
290302.000			6.318			-2.106
290400.000			6.318			-2.106
290500.000			6.317			-2.106
290601.000			6.318			-2.106
290700.000			6.318			-2.106
290800.000			6.318			-2.106
290901.000			6.317			-2.106
291001.000			6.317			-2.106
291101.000			6.317			-2.106
291202.000			6.317			-2.106
291300.000			6.317			-2.106
291400.000			6.317			-2.106
291501.000			6.317			-2.106
291600.000			6.317			-2.106
291700.000			6.317			-2.106
291801.000			6.317			-2.106
291900.000			6.317			-2.106
292001.000			6.318			-2.106
292102.000			6.318			-2.106
292201.000			6.316			-2.105
292300.000			6.317			-2.106
292401.000			6.317			-2.106
292500.000			6.317			-2.106
292601.000			6.317			-2.106
292700.000			6.317			-2.106
292800.000			6.317			-2.106
292901.000			6.317			-2.106
293001.000			6.316			-2.105
293101.000			6.317			-2.106
293201.000			6.316			-2.105
293300.000			6.317			-2.106
293400.000			6.317			-2.106
293501.000			6.317			-2.106
293600.000			6.317			-2.106
293700.000			6.316			-2.105
293801.000			6.317			-2.106
293901.000			6.317			-2.106
294001.000			6.317			-2.106
294101.000			6.316			-2.105
294200.000			6.316			-2.105
294300.000			6.316			-2.105
294401.000			6.315			-2.105
294500.000			6.316			-2.105
294600.000			6.315			-2.105
294701.000			6.316			-2.105
294801.000			6.316			-2.105
294901.000			6.316			-2.105
295002.000			6.316			-2.105
295100.000			6.316			-2.105
295200.000			6.316			-2.105
295301.000			6.317			-2.106
295400.000			6.316			-2.105
295500.000			6.315			-2.105
295601.000			6.316			-2.105
295700.000			6.316			-2.105
295802.000			6.317			-2.106
295901.000			6.316			-2.105
296000.000			6.314			-2.105
296101.000			6.316			-2.105
296200.000			6.316			-2.105
296300.000			6.315			-2.105
296401.000			6.315			-2.105
296500.000			6.315			-2.105
296600.000			6.315			-2.105
296702.000			6.315			-2.105
296801.000			6.315			-2.105
296901.000			6.316			-2.105
297001.000			6.316			-2.105
297100.000			6.316			-2.105
297200.000			6.315			-2.105
297301.000			6.315			-2.105
297400.000			6.315			-2.105
297500.000			6.314			-2.105
297601.000			6.314			-2.105
297701.000			6.314			-2.105
297801.000			6.314			-2.105
297902.000			6.314			-2.105
298000.000			6.314			-2.105
298100.000			6.315			-2.105
298201.000			6.314			-2.105
298300.000			6.314			-2.105
298400.000			6.314			-2.105
298501.000			6.314			-2.105
298600.000			6.314			-2.105
298701.000			6.313			-2.104
298802.000			6.314			-2.105
298900.000			6.316			-2.105
299001.000			6.314			-2.105
299100.000			6.315			-2.105
299200.000			6.315			-2.105
299301.000			6.314			-2.105
299400.000			6.314			-2.105
299500.000			6.314			-2.105
299602.000			6.314			-2.105
299701.000			6.314			-2.105
299801.000			6.315			-2.105
299901.000			6.315			-2.105
