# Acquired on 10/01/2024 18:10:27 
# SPIDER: Creep_-2mm_07714532C-1
# CREEP MEASUREMENT

# time [ms]		force [N]		stiffness [N/mm]
1.000			1.689			-0.845
101.000			2.040			-1.020
201.000			2.191			-1.095
300.000			2.210			-1.105
400.000			2.197			-1.099
501.000			2.181			-1.091
600.000			2.175			-1.088
701.000			2.169			-1.085
802.000			2.165			-1.082
900.000			2.161			-1.081
1000.000			2.157			-1.079
1101.000			2.154			-1.077
1200.000			2.148			-1.074
1300.000			2.145			-1.073
1402.000			2.142			-1.071
1501.000			2.141			-1.070
1600.000			2.139			-1.069
1701.000			2.137			-1.069
1800.000			2.135			-1.068
1900.000			2.131			-1.065
2001.000			2.130			-1.065
2100.000			2.128			-1.064
2201.000			2.127			-1.063
2302.000			2.126			-1.063
2400.000			2.124			-1.062
2500.000			2.122			-1.061
2601.000			2.121			-1.060
2700.000			2.118			-1.059
2801.000			2.118			-1.059
2901.000			2.117			-1.058
3001.000			2.115			-1.058
3101.000			2.114			-1.057
3200.000			2.113			-1.056
3300.000			2.111			-1.056
3401.000			2.110			-1.055
3500.000			2.109			-1.054
3600.000			2.107			-1.054
3702.000			2.106			-1.053
3800.000			2.107			-1.053
3900.000			2.106			-1.053
4001.000			2.105			-1.052
4100.000			2.103			-1.051
4200.000			2.102			-1.051
4301.000			2.101			-1.051
4401.000			2.102			-1.051
4501.000			2.102			-1.051
4601.000			2.101			-1.050
4700.000			2.100			-1.050
4800.000			17.567			-8.783
4977.000			2.097			-1.049
5065.000			2.095			-1.048
5153.000			2.095			-1.048
5240.000			2.096			-1.048
5328.000			2.094			-1.047
5416.000			2.093			-1.046
5504.000			2.093			-1.046
5600.000			2.092			-1.046
5701.000			2.091			-1.046
5802.000			2.091			-1.046
5900.000			2.090			-1.045
6001.000			2.090			-1.045
6100.000			2.090			-1.045
6200.000			2.090			-1.045
6301.000			2.089			-1.044
6400.000			2.088			-1.044
6501.000			2.088			-1.044
6602.000			2.087			-1.044
6700.000			2.086			-1.043
6800.000			2.086			-1.043
6901.000			2.086			-1.043
7000.000			2.085			-1.042
7100.000			2.085			-1.042
7201.000			2.084			-1.042
7301.000			2.083			-1.042
7401.000			2.083			-1.041
7501.000			2.082			-1.041
7600.000			2.081			-1.041
7700.000			2.081			-1.041
7801.000			2.081			-1.040
7900.000			2.081			-1.040
8001.000			2.081			-1.040
8102.000			2.080			-1.040
8200.000			2.080			-1.040
8300.000			2.080			-1.040
8401.000			2.080			-1.040
8500.000			2.078			-1.039
8600.000			2.078			-1.039
8701.000			2.078			-1.039
8801.000			2.077			-1.039
8901.000			2.078			-1.039
9001.000			2.076			-1.038
9100.000			2.076			-1.038
9201.000			2.076			-1.038
9300.000			2.075			-1.037
9400.000			2.074			-1.037
9502.000			2.074			-1.037
9601.000			2.074			-1.037
9700.000			2.075			-1.038
9801.000			2.074			-1.037
9900.000			2.072			-1.036
10000.000			2.072			-1.036
10101.000			2.072			-1.036
10200.000			2.073			-1.036
10301.000			2.073			-1.036
10402.000			2.072			-1.036
10500.000			2.072			-1.036
10600.000			2.071			-1.036
10701.000			2.071			-1.036
10800.000			2.071			-1.035
10900.000			2.069			-1.035
11001.000			2.069			-1.035
11101.000			2.069			-1.035
11201.000			2.068			-1.034
11301.000			2.069			-1.034
11400.000			2.068			-1.034
11500.000			2.068			-1.034
11601.000			2.068			-1.034
11700.000			2.068			-1.034
11800.000			2.067			-1.033
11902.000			2.066			-1.033
12001.000			2.067			-1.033
12100.000			2.066			-1.033
12201.000			2.066			-1.033
12300.000			2.066			-1.033
12401.000			2.065			-1.033
12500.000			2.065			-1.033
12601.000			2.066			-1.033
12702.000			2.065			-1.032
12800.000			2.064			-1.032
12900.000			2.064			-1.032
13001.000			2.064			-1.032
13100.000			2.064			-1.032
13200.000			2.063			-1.031
13301.000			2.062			-1.031
13401.000			2.062			-1.031
13501.000			2.062			-1.031
13601.000			2.061			-1.031
13700.000			2.061			-1.030
13800.000			2.062			-1.031
13901.000			2.062			-1.031
14000.000			2.062			-1.031
14100.000			2.061			-1.030
14202.000			2.059			-1.030
14301.000			2.059			-1.030
14400.000			2.060			-1.030
14501.000			2.060			-1.030
14600.000			2.059			-1.030
14700.000			2.058			-1.029
14801.000			2.058			-1.029
14901.000			2.059			-1.030
15001.000			2.059			-1.029
15101.000			2.057			-1.029
15200.000			2.057			-1.029
15300.000			2.057			-1.029
15401.000			2.056			-1.028
15500.000			2.057			-1.028
15601.000			2.057			-1.028
15701.000			2.056			-1.028
15801.000			2.056			-1.028
15901.000			2.056			-1.028
16000.000			2.057			-1.029
16100.000			2.057			-1.029
16201.000			2.057			-1.028
16300.000			2.056			-1.028
16400.000			2.057			-1.028
16502.000			2.055			-1.027
16601.000			2.054			-1.027
16700.000			2.055			-1.028
16801.000			2.055			-1.027
16900.000			2.055			-1.027
17000.000			2.055			-1.028
17101.000			2.056			-1.028
17200.000			2.054			-1.027
17301.000			2.054			-1.027
17402.000			2.054			-1.027
17500.000			2.054			-1.027
17600.000			2.054			-1.027
17701.000			2.055			-1.028
17800.000			2.054			-1.027
17900.000			2.053			-1.026
18001.000			2.053			-1.027
18101.000			2.054			-1.027
18201.000			2.053			-1.026
18301.000			2.052			-1.026
18400.000			2.053			-1.026
18500.000			2.052			-1.026
18601.000			2.052			-1.026
18700.000			2.052			-1.026
18802.000			2.052			-1.026
18901.000			2.052			-1.026
19000.000			2.052			-1.026
19101.000			2.051			-1.025
19200.000			2.051			-1.026
19300.000			2.052			-1.026
19401.000			2.050			-1.025
19500.000			2.052			-1.026
19601.000			2.052			-1.026
19702.000			2.050			-1.025
19800.000			2.049			-1.025
19900.000			2.049			-1.024
20001.000			2.050			-1.025
20100.000			2.050			-1.025
20200.000			2.049			-1.024
20301.000			2.049			-1.025
20401.000			2.049			-1.024
20501.000			2.048			-1.024
20601.000			2.048			-1.024
20700.000			2.048			-1.024
20800.000			2.048			-1.024
20901.000			2.048			-1.024
21000.000			2.048			-1.024
21100.000			2.048			-1.024
21202.000			2.048			-1.024
21301.000			2.047			-1.024
21400.000			2.048			-1.024
21501.000			2.048			-1.024
21600.000			2.047			-1.023
21700.000			2.046			-1.023
21801.000			2.047			-1.023
21901.000			2.047			-1.023
22002.000			2.046			-1.023
22101.000			2.046			-1.023
22200.000			2.047			-1.024
22301.000			2.046			-1.023
22400.000			2.045			-1.023
22500.000			2.045			-1.023
22601.000			2.045			-1.022
22701.000			2.044			-1.022
22801.000			2.045			-1.022
22901.000			2.045			-1.023
23000.000			2.045			-1.023
23100.000			2.045			-1.023
23201.000			2.045			-1.023
23300.000			2.045			-1.022
23400.000			2.045			-1.022
23502.000			2.045			-1.022
23601.000			2.044			-1.022
23700.000			2.044			-1.022
23801.000			2.044			-1.022
23900.000			2.044			-1.022
24000.000			2.045			-1.022
24101.000			2.044			-1.022
24200.000			2.044			-1.022
24301.000			2.044			-1.022
24402.000			2.044			-1.022
24500.000			2.043			-1.021
24600.000			2.043			-1.022
24701.000			2.044			-1.022
24800.000			2.043			-1.022
24900.000			2.043			-1.022
25002.000			2.043			-1.022
25101.000			2.043			-1.022
25201.000			2.042			-1.021
25300.000			2.043			-1.021
25400.000			2.043			-1.022
25501.000			2.042			-1.021
25600.000			2.042			-1.021
25700.000			2.042			-1.021
25802.000			2.043			-1.021
25901.000			2.040			-1.020
26000.000			2.041			-1.020
26101.000			2.042			-1.021
26200.000			2.041			-1.020
26300.000			2.041			-1.020
26401.000			2.041			-1.021
26500.000			2.041			-1.020
26601.000			2.040			-1.020
26702.000			2.041			-1.020
26800.000			2.041			-1.020
26900.000			2.040			-1.020
27001.000			2.041			-1.020
27100.000			2.041			-1.021
27200.000			2.041			-1.021
27302.000			2.041			-1.020
27401.000			2.039			-1.020
27500.000			2.039			-1.019
27601.000			2.040			-1.020
27700.000			2.040			-1.020
27800.000			2.040			-1.020
27901.000			2.040			-1.020
28000.000			2.039			-1.020
28101.000			2.039			-1.019
28202.000			2.039			-1.020
28300.000			2.040			-1.020
28401.000			2.039			-1.020
28500.000			2.039			-1.019
28600.000			2.038			-1.019
28701.000			2.038			-1.019
28800.000			2.039			-1.019
28901.000			2.039			-1.019
29002.000			2.039			-1.019
29100.000			2.038			-1.019
29200.000			2.037			-1.019
29301.000			2.038			-1.019
29400.000			2.038			-1.019
29500.000			2.038			-1.019
29601.000			2.037			-1.018
29701.000			2.038			-1.019
29801.000			2.037			-1.019
29901.000			2.037			-1.019
30000.000			2.037			-1.019
30100.000			2.037			-1.018
30201.000			2.036			-1.018
30300.000			2.037			-1.019
30400.000			2.037			-1.019
30502.000			2.036			-1.018
30601.000			2.036			-1.018
30700.000			2.036			-1.018
30801.000			2.035			-1.018
30900.000			2.035			-1.018
31000.000			2.036			-1.018
31101.000			2.035			-1.017
31201.000			2.034			-1.017
31301.000			2.035			-1.018
31401.000			2.035			-1.018
31500.000			2.036			-1.018
31601.000			2.035			-1.018
31700.000			2.035			-1.017
31800.000			2.036			-1.018
31901.000			2.036			-1.018
32001.000			2.035			-1.017
32101.000			2.035			-1.017
32201.000			2.035			-1.017
32300.000			2.034			-1.017
32400.000			2.034			-1.017
32501.000			2.034			-1.017
32600.000			2.034			-1.017
32700.000			2.033			-1.017
32802.000			2.035			-1.017
32901.000			2.035			-1.017
33000.000			2.034			-1.017
33101.000			2.034			-1.017
33200.000			2.034			-1.017
33300.000			2.033			-1.017
33401.000			2.034			-1.017
33501.000			2.034			-1.017
33601.000			2.034			-1.017
33701.000			2.034			-1.017
33800.000			2.034			-1.017
33900.000			2.034			-1.017
34001.000			2.034			-1.017
34100.000			2.034			-1.017
34200.000			2.034			-1.017
34302.000			2.033			-1.017
34401.000			2.034			-1.017
34500.000			2.034			-1.017
34601.000			2.033			-1.016
34700.000			2.032			-1.016
34801.000			2.032			-1.016
34900.000			2.032			-1.016
35001.000			2.032			-1.016
35102.000			2.032			-1.016
35200.000			2.033			-1.016
35300.000			2.032			-1.016
35401.000			2.032			-1.016
35500.000			2.031			-1.016
35600.000			2.031			-1.016
35701.000			2.032			-1.016
35801.000			2.032			-1.016
35901.000			2.032			-1.016
36001.000			2.032			-1.016
36100.000			2.032			-1.016
36200.000			2.032			-1.016
36301.000			2.031			-1.016
36400.000			2.031			-1.016
36500.000			2.030			-1.015
36602.000			2.031			-1.015
36701.000			2.031			-1.015
36800.000			2.030			-1.015
36901.000			2.030			-1.015
37000.000			2.031			-1.015
37100.000			2.031			-1.015
37201.000			2.031			-1.016
37300.000			2.030			-1.015
37401.000			2.030			-1.015
37502.000			2.031			-1.015
37600.000			2.030			-1.015
37700.000			2.030			-1.015
37801.000			2.030			-1.015
37900.000			2.030			-1.015
38001.000			2.030			-1.015
38101.000			2.030			-1.015
38201.000			2.029			-1.015
38302.000			2.028			-1.014
38400.000			2.029			-1.014
38500.000			2.029			-1.015
38601.000			2.030			-1.015
38700.000			2.029			-1.014
38800.000			2.028			-1.014
38902.000			2.029			-1.014
39001.000			2.029			-1.014
39100.000			2.029			-1.014
39201.000			2.029			-1.014
39300.000			2.029			-1.014
39400.000			2.029			-1.015
39501.000			2.028			-1.014
39600.000			2.027			-1.014
39701.000			2.028			-1.014
39802.000			2.028			-1.014
39901.000			2.028			-1.014
40000.000			2.027			-1.014
40101.000			2.028			-1.014
40200.000			2.029			-1.015
40300.000			2.029			-1.014
40401.000			2.027			-1.013
40501.000			2.027			-1.014
40601.000			2.027			-1.014
40701.000			2.027			-1.013
40800.000			2.026			-1.013
40900.000			2.027			-1.013
41001.000			2.028			-1.014
41100.000			2.028			-1.014
41201.000			2.027			-1.014
41301.000			2.027			-1.014
41401.000			2.027			-1.014
41501.000			2.027			-1.013
41600.000			2.027			-1.014
41700.000			2.027			-1.013
41801.000			2.028			-1.014
41900.000			2.026			-1.013
42001.000			2.027			-1.013
42102.000			2.027			-1.014
42200.000			2.026			-1.013
42300.000			2.027			-1.013
42401.000			2.027			-1.013
42500.000			2.027			-1.014
42600.000			2.026			-1.013
42701.000			2.026			-1.013
42801.000			2.026			-1.013
42901.000			2.027			-1.014
43001.000			2.027			-1.013
43100.000			2.026			-1.013
43200.000			2.026			-1.013
43301.000			2.026			-1.013
43400.000			2.027			-1.014
43500.000			2.027			-1.014
43602.000			2.026			-1.013
43701.000			2.026			-1.013
43800.000			2.027			-1.013
43901.000			2.027			-1.013
44000.000			2.027			-1.014
44100.000			2.025			-1.013
44201.000			2.025			-1.012
44301.000			2.025			-1.013
44402.000			2.025			-1.013
44500.000			2.025			-1.013
44600.000			2.025			-1.013
44701.000			2.026			-1.013
44800.000			2.026			-1.013
44900.000			2.025			-1.012
45001.000			2.026			-1.013
45101.000			2.026			-1.013
45201.000			2.025			-1.013
45301.000			2.025			-1.012
45400.000			2.025			-1.012
45500.000			2.025			-1.012
45601.000			2.025			-1.013
45700.000			2.024			-1.012
45800.000			2.024			-1.012
45902.000			2.025			-1.012
46001.000			2.025			-1.013
46100.000			2.026			-1.013
46201.000			2.025			-1.013
46300.000			2.025			-1.013
46400.000			2.026			-1.013
46501.000			2.026			-1.013
46601.000			2.026			-1.013
46701.000			2.024			-1.012
46801.000			2.024			-1.012
46900.000			2.024			-1.012
47000.000			2.025			-1.012
47101.000			2.025			-1.012
47200.000			2.025			-1.012
47300.000			2.025			-1.012
47402.000			2.025			-1.012
47501.000			2.025			-1.012
47601.000			2.026			-1.013
47700.000			2.024			-1.012
47800.000			2.024			-1.012
47901.000			2.024			-1.012
48000.000			2.024			-1.012
48100.000			2.024			-1.012
48202.000			2.025			-1.013
48301.000			2.025			-1.013
48400.000			2.023			-1.012
48501.000			2.024			-1.012
48600.000			2.024			-1.012
48700.000			2.023			-1.011
48801.000			2.022			-1.011
48900.000			2.023			-1.012
49001.000			2.023			-1.011
49102.000			2.024			-1.012
49200.000			2.024			-1.012
49300.000			2.024			-1.012
49401.000			2.023			-1.012
49500.000			2.024			-1.012
49600.000			2.024			-1.012
49701.000			2.023			-1.011
49801.000			2.024			-1.012
49901.000			2.023			-1.012
50001.000			2.023			-1.012
50100.000			2.024			-1.012
50200.000			2.024			-1.012
50301.000			2.023			-1.011
50400.000			2.023			-1.012
50501.000			2.023			-1.011
50602.000			2.023			-1.012
50700.000			2.023			-1.011
50801.000			2.023			-1.011
50900.000			2.023			-1.011
51000.000			2.022			-1.011
51101.000			2.023			-1.012
51200.000			2.023			-1.012
51301.000			2.023			-1.012
51402.000			2.023			-1.011
51500.000			2.023			-1.011
51600.000			2.023			-1.011
51701.000			2.022			-1.011
51800.000			2.022			-1.011
51900.000			2.022			-1.011
52002.000			2.021			-1.011
52101.000			2.022			-1.011
52200.000			2.022			-1.011
52301.000			2.022			-1.011
52400.000			2.021			-1.011
52500.000			2.022			-1.011
52601.000			2.023			-1.012
52700.000			2.021			-1.011
52801.000			2.023			-1.012
52902.000			2.023			-1.011
53000.000			2.022			-1.011
53100.000			2.021			-1.011
53201.000			2.021			-1.011
53300.000			2.022			-1.011
53400.000			2.022			-1.011
53502.000			2.021			-1.011
53601.000			2.022			-1.011
53700.000			2.021			-1.011
53801.000			2.021			-1.011
53900.000			2.021			-1.011
54001.000			2.021			-1.011
54100.000			2.020			-1.010
54200.000			2.021			-1.010
54302.000			2.022			-1.011
54401.000			2.022			-1.011
54500.000			2.021			-1.011
54601.000			2.021			-1.011
54700.000			2.020			-1.010
54800.000			2.021			-1.010
54901.000			2.021			-1.011
55001.000			2.020			-1.010
55101.000			2.020			-1.010
55201.000			2.021			-1.010
55300.000			2.021			-1.010
55400.000			2.020			-1.010
55501.000			2.019			-1.010
55600.000			2.019			-1.009
55700.000			2.020			-1.010
55802.000			2.020			-1.010
55901.000			2.019			-1.010
56000.000			2.019			-1.009
56101.000			2.019			-1.010
56200.000			2.020			-1.010
56300.000			2.021			-1.010
56401.000			2.019			-1.009
56500.000			2.019			-1.010
56601.000			2.019			-1.010
56702.000			2.019			-1.009
56800.000			2.019			-1.010
56900.000			2.018			-1.009
57001.000			2.018			-1.009
57100.000			2.019			-1.009
57201.000			2.019			-1.009
57300.000			2.019			-1.009
57401.000			2.019			-1.009
57502.000			2.019			-1.009
57600.000			2.019			-1.010
57700.000			2.019			-1.009
57801.000			2.020			-1.010
57900.000			2.018			-1.009
58000.000			2.018			-1.009
58101.000			2.017			-1.009
58201.000			2.018			-1.009
58301.000			2.019			-1.010
58401.000			2.019			-1.009
58500.000			2.018			-1.009
58600.000			2.019			-1.010
58701.000			2.019			-1.010
58800.000			2.019			-1.009
58900.000			2.019			-1.009
59002.000			2.018			-1.009
59101.000			2.018			-1.009
59200.000			2.018			-1.009
59301.000			2.018			-1.009
59400.000			2.018			-1.009
59500.000			2.018			-1.009
59601.000			2.018			-1.009
59701.000			2.019			-1.010
59801.000			2.019			-1.010
59902.000			2.019			-1.009
60000.000			2.019			-1.010
60100.000			2.020			-1.010
60201.000			2.019			-1.010
60300.000			2.018			-1.009
60401.000			2.018			-1.009
60501.000			2.018			-1.009
60601.000			2.018			-1.009
60701.000			2.019			-1.010
60800.000			2.019			-1.009
60900.000			2.019			-1.010
61001.000			2.018			-1.009
61100.000			2.017			-1.009
61200.000			2.018			-1.009
61302.000			2.018			-1.009
61401.000			2.018			-1.009
61500.000			2.017			-1.009
61601.000			2.018			-1.009
61700.000			2.018			-1.009
61800.000			2.018			-1.009
61901.000			2.017			-1.009
62001.000			2.016			-1.008
62101.000			2.018			-1.009
62202.000			2.019			-1.009
62300.000			2.017			-1.009
62400.000			2.017			-1.009
62501.000			2.018			-1.009
62600.000			2.017			-1.009
62700.000			2.018			-1.009
62802.000			2.018			-1.009
62901.000			2.018			-1.009
63000.000			2.018			-1.009
63101.000			2.016			-1.008
63200.000			2.016			-1.008
63300.000			2.017			-1.008
63401.000			2.017			-1.008
63500.000			2.017			-1.009
63602.000			2.017			-1.008
63701.000			2.018			-1.009
63800.000			2.018			-1.009
63901.000			2.018			-1.009
64000.000			2.017			-1.009
64100.000			2.016			-1.008
64201.000			2.016			-1.008
64300.000			2.016			-1.008
64401.000			2.017			-1.008
64502.000			2.016			-1.008
64600.000			2.016			-1.008
64700.000			2.016			-1.008
64801.000			2.016			-1.008
64900.000			2.016			-1.008
65000.000			2.015			-1.008
65101.000			2.016			-1.008
65201.000			2.016			-1.008
65301.000			2.016			-1.008
65401.000			2.016			-1.008
65500.000			2.017			-1.008
65600.000			2.017			-1.008
65701.000			2.017			-1.008
65800.000			2.015			-1.008
65901.000			2.016			-1.008
66002.000			2.016			-1.008
66100.000			2.016			-1.008
66200.000			2.016			-1.008
66301.000			2.016			-1.008
66400.000			2.017			-1.008
66500.000			2.016			-1.008
66601.000			2.016			-1.008
66701.000			2.017			-1.008
66802.000			2.016			-1.008
66900.000			2.016			-1.008
67000.000			2.016			-1.008
67101.000			2.016			-1.008
67200.000			2.015			-1.008
67300.000			2.016			-1.008
67401.000			2.015			-1.008
67501.000			2.015			-1.008
67601.000			2.016			-1.008
67701.000			2.016			-1.008
67800.000			2.015			-1.007
67900.000			2.016			-1.008
68001.000			2.016			-1.008
68100.000			2.016			-1.008
68200.000			2.016			-1.008
68302.000			2.016			-1.008
68401.000			2.016			-1.008
68500.000			2.016			-1.008
68601.000			2.016			-1.008
68700.000			2.015			-1.008
68800.000			2.015			-1.007
68901.000			2.014			-1.007
69000.000			2.015			-1.007
69101.000			2.015			-1.008
69202.000			2.014			-1.007
69300.000			2.014			-1.007
69400.000			2.014			-1.007
69501.000			2.016			-1.008
69600.000			2.015			-1.007
69700.000			2.015			-1.007
69801.000			2.014			-1.007
69901.000			2.015			-1.007
70002.000			2.015			-1.007
70100.000			2.015			-1.007
70200.000			2.015			-1.008
70301.000			2.015			-1.007
70400.000			2.014			-1.007
70500.000			2.014			-1.007
70601.000			2.014			-1.007
70701.000			2.014			-1.007
70801.000			2.014			-1.007
70901.000			2.014			-1.007
71000.000			2.015			-1.007
71100.000			2.014			-1.007
71201.000			2.014			-1.007
71300.000			2.014			-1.007
71400.000			2.015			-1.007
71502.000			2.015			-1.008
71601.000			2.014			-1.007
71700.000			2.014			-1.007
71801.000			2.015			-1.008
71900.000			2.014			-1.007
72000.000			2.014			-1.007
72101.000			2.013			-1.007
72201.000			2.014			-1.007
72301.000			2.014			-1.007
72401.000			2.014			-1.007
72500.000			2.013			-1.007
72600.000			2.013			-1.006
72701.000			2.013			-1.006
72800.000			2.014			-1.007
72900.000			2.014			-1.007
73002.000			2.014			-1.007
73101.000			2.015			-1.007
73201.000			2.014			-1.007
73300.000			2.013			-1.006
73400.000			2.013			-1.006
73501.000			2.013			-1.007
73600.000			2.014			-1.007
73700.000			2.013			-1.007
73802.000			2.013			-1.007
73901.000			2.013			-1.007
74000.000			2.013			-1.007
74101.000			2.013			-1.006
74200.000			2.012			-1.006
74300.000			2.014			-1.007
74401.000			2.013			-1.007
74501.000			2.013			-1.007
74601.000			2.012			-1.006
74702.000			2.012			-1.006
74800.000			2.012			-1.006
74900.000			2.013			-1.007
75001.000			2.013			-1.006
75100.000			2.012			-1.006
75200.000			2.013			-1.007
75302.000			2.012			-1.006
75401.000			2.013			-1.006
75500.000			2.013			-1.006
75601.000			2.013			-1.006
75700.000			2.012			-1.006
75800.000			2.013			-1.006
75901.000			2.013			-1.007
76000.000			2.012			-1.006
76101.000			2.012			-1.006
76202.000			2.012			-1.006
76300.000			2.012			-1.006
76401.000			2.013			-1.006
76500.000			2.013			-1.007
76600.000			2.012			-1.006
76701.000			2.012			-1.006
76800.000			2.012			-1.006
76901.000			2.012			-1.006
77002.000			2.012			-1.006
77100.000			2.012			-1.006
77200.000			2.013			-1.006
77301.000			2.013			-1.006
77400.000			2.012			-1.006
77500.000			2.012			-1.006
77601.000			2.012			-1.006
77701.000			2.012			-1.006
77801.000			2.013			-1.006
77901.000			2.012			-1.006
78000.000			2.011			-1.005
78100.000			2.011			-1.006
78201.000			2.012			-1.006
78300.000			2.012			-1.006
78401.000			2.012			-1.006
78502.000			2.012			-1.006
78601.000			2.012			-1.006
78700.000			2.011			-1.005
78801.000			2.011			-1.005
78900.000			2.011			-1.006
79000.000			2.012			-1.006
79101.000			2.012			-1.006
79201.000			2.011			-1.005
79301.000			2.010			-1.005
79401.000			2.011			-1.005
79500.000			2.010			-1.005
79601.000			2.011			-1.005
79700.000			2.012			-1.006
79800.000			2.011			-1.006
79901.000			2.010			-1.005
80001.000			2.009			-1.005
80101.000			2.010			-1.005
80201.000			2.011			-1.005
80300.000			2.010			-1.005
80400.000			2.011			-1.005
80501.000			2.011			-1.005
80600.000			2.010			-1.005
80700.000			2.011			-1.006
80802.000			2.011			-1.005
80901.000			2.011			-1.005
81000.000			2.010			-1.005
81101.000			2.011			-1.005
81200.000			2.009			-1.004
81300.000			2.009			-1.005
81401.000			2.010			-1.005
81500.000			2.009			-1.005
81601.000			2.008			-1.004
81702.000			2.008			-1.004
81800.000			2.010			-1.005
81900.000			2.010			-1.005
82001.000			2.010			-1.005
82100.000			2.008			-1.004
82200.000			2.009			-1.004
82301.000			2.010			-1.005
82401.000			2.010			-1.005
82501.000			2.008			-1.004
82601.000			2.008			-1.004
82700.000			2.008			-1.004
82801.000			2.008			-1.004
82900.000			2.009			-1.004
83000.000			2.009			-1.004
83101.000			2.009			-1.004
83201.000			2.008			-1.004
83301.000			2.009			-1.005
83401.000			2.009			-1.004
83500.000			2.009			-1.004
83600.000			2.009			-1.005
83701.000			2.009			-1.004
83800.000			2.008			-1.004
83900.000			2.008			-1.004
84002.000			2.009			-1.004
84101.000			2.009			-1.004
84200.000			2.008			-1.004
84301.000			2.008			-1.004
84400.000			2.008			-1.004
84500.000			2.008			-1.004
84601.000			2.008			-1.004
84700.000			2.009			-1.004
84801.000			2.008			-1.004
84902.000			2.008			-1.004
85000.000			2.008			-1.004
85100.000			2.008			-1.004
85201.000			2.008			-1.004
85300.000			2.008			-1.004
85400.000			2.007			-1.004
85501.000			2.009			-1.004
85601.000			2.008			-1.004
85701.000			2.008			-1.004
85801.000			2.009			-1.004
85900.000			2.007			-1.004
86001.000			2.007			-1.004
86100.000			2.007			-1.004
86200.000			2.008			-1.004
86301.000			2.007			-1.003
86401.000			2.007			-1.004
86501.000			2.007			-1.004
86601.000			2.008			-1.004
86700.000			2.008			-1.004
86800.000			2.008			-1.004
86901.000			2.009			-1.004
87000.000			2.008			-1.004
87100.000			2.008			-1.004
87202.000			2.008			-1.004
87301.000			2.007			-1.004
87400.000			2.008			-1.004
87501.000			2.008			-1.004
87600.000			2.008			-1.004
87700.000			2.008			-1.004
87801.000			2.008			-1.004
87900.000			2.008			-1.004
88001.000			2.008			-1.004
88102.000			2.007			-1.004
88200.000			2.007			-1.004
88300.000			2.007			-1.004
88401.000			2.007			-1.003
88500.000			2.008			-1.004
88600.000			2.008			-1.004
88701.000			2.007			-1.003
88801.000			2.007			-1.003
88901.000			2.008			-1.004
89001.000			2.006			-1.003
89100.000			2.007			-1.004
89201.000			2.007			-1.003
89300.000			2.007			-1.004
89400.000			2.007			-1.004
89501.000			2.007			-1.003
89601.000			2.006			-1.003
89701.000			2.006			-1.003
89801.000			2.007			-1.004
89900.000			2.008			-1.004
90000.000			2.008			-1.004
90101.000			2.007			-1.004
90200.000			2.007			-1.004
90300.000			2.007			-1.003
90402.000			2.006			-1.003
90501.000			2.007			-1.003
90600.000			2.007			-1.003
90701.000			2.007			-1.004
90800.000			2.007			-1.004
90900.000			2.006			-1.003
91001.000			2.005			-1.003
91101.000			2.006			-1.003
91201.000			2.007			-1.004
91301.000			2.006			-1.003
91400.000			2.007			-1.003
91500.000			2.007			-1.003
91601.000			2.006			-1.003
91700.000			2.006			-1.003
91800.000			2.007			-1.003
91902.000			2.007			-1.003
92001.000			2.006			-1.003
92100.000			2.006			-1.003
92201.000			2.007			-1.003
92300.000			2.007			-1.004
92401.000			2.006			-1.003
92500.000			2.006			-1.003
92600.000			2.006			-1.003
92702.000			2.007			-1.003
92801.000			2.006			-1.003
92900.000			2.005			-1.003
93001.000			2.006			-1.003
93100.000			2.007			-1.004
93200.000			2.006			-1.003
93301.000			2.005			-1.002
93400.000			2.006			-1.003
93501.000			2.005			-1.003
93602.000			2.006			-1.003
93700.000			2.006			-1.003
93800.000			2.006			-1.003
93901.000			2.005			-1.003
94000.000			2.006			-1.003
94100.000			2.005			-1.003
94201.000			2.005			-1.003
94301.000			2.006			-1.003
94401.000			2.005			-1.002
94501.000			2.005			-1.002
94600.000			2.006			-1.003
94700.000			2.006			-1.003
94801.000			2.006			-1.003
94900.000			2.006			-1.003
95000.000			2.006			-1.003
95102.000			2.005			-1.003
95201.000			2.005			-1.003
95300.000			2.005			-1.003
95401.000			2.006			-1.003
95500.000			2.006			-1.003
95601.000			2.005			-1.003
95700.000			2.005			-1.002
95800.000			2.005			-1.003
95902.000			2.005			-1.003
96001.000			2.005			-1.003
96100.000			2.004			-1.002
96201.000			2.003			-1.002
96300.000			2.005			-1.003
96400.000			2.006			-1.003
96501.000			2.006			-1.003
96600.000			2.005			-1.003
96701.000			2.005			-1.003
96802.000			2.005			-1.003
96900.000			2.004			-1.002
97000.000			2.005			-1.002
97101.000			2.005			-1.003
97200.000			2.005			-1.002
97300.000			2.004			-1.002
97401.000			2.005			-1.002
97501.000			2.005			-1.002
97601.000			2.004			-1.002
97701.000			2.003			-1.002
97800.000			2.003			-1.001
97900.000			2.003			-1.002
98001.000			2.002			-1.001
98100.000			2.003			-1.002
98200.000			2.003			-1.002
98302.000			2.003			-1.002
98401.000			2.005			-1.002
98500.000			2.004			-1.002
98601.000			2.003			-1.002
98700.000			2.003			-1.002
98801.000			2.002			-1.001
98900.000			2.003			-1.002
99000.000			2.004			-1.002
99102.000			2.004			-1.002
99201.000			2.003			-1.002
99300.000			2.003			-1.002
99401.000			2.004			-1.002
99500.000			2.003			-1.002
99600.000			2.003			-1.002
99701.000			2.003			-1.001
99801.000			2.002			-1.001
99901.000			2.001			-1.001
100002.000			2.002			-1.001
100100.000			2.003			-1.001
100200.000			2.003			-1.001
100301.000			2.003			-1.002
100400.000			2.003			-1.001
100500.000			2.003			-1.002
100602.000			2.003			-1.001
100701.000			2.002			-1.001
100800.000			2.002			-1.001
100901.000			2.003			-1.001
101000.000			2.001			-1.001
101100.000			2.001			-1.001
101201.000			2.002			-1.001
101300.000			2.002			-1.001
101401.000			2.002			-1.001
101502.000			2.002			-1.001
101600.000			2.003			-1.001
101700.000			2.002			-1.001
101801.000			2.002			-1.001
101900.000			2.002			-1.001
102001.000			2.001			-1.001
102100.000			2.002			-1.001
102201.000			2.002			-1.001
102302.000			2.003			-1.001
102400.000			2.003			-1.001
102500.000			2.003			-1.001
102601.000			2.002			-1.001
102700.000			2.002			-1.001
102800.000			2.000			-1.000
102901.000			2.000			-1.000
103001.000			2.001			-1.001
103101.000			2.001			-1.001
103201.000			2.001			-1.001
103300.000			2.001			-1.001
103400.000			2.001			-1.001
103501.000			2.001			-1.000
103600.000			2.001			-1.000
103700.000			2.001			-1.001
103802.000			2.001			-1.001
103901.000			2.002			-1.001
104000.000			2.002			-1.001
104101.000			2.002			-1.001
104200.000			2.002			-1.001
104300.000			2.002			-1.001
104401.000			2.001			-1.001
104501.000			2.001			-1.000
104601.000			2.001			-1.001
104702.000			2.001			-1.001
104800.000			2.002			-1.001
104900.000			2.001			-1.001
105001.000			2.002			-1.001
105100.000			2.002			-1.001
105201.000			2.002			-1.001
105301.000			2.001			-1.001
105401.000			2.002			-1.001
105501.000			2.001			-1.001
105600.000			2.001			-1.001
105700.000			2.002			-1.001
105801.000			2.002			-1.001
105900.000			2.002			-1.001
106000.000			2.002			-1.001
106102.000			2.002			-1.001
106201.000			2.002			-1.001
106300.000			2.001			-1.000
106401.000			2.000			-1.000
106500.000			2.002			-1.001
106600.000			2.001			-1.001
106701.000			2.001			-1.000
106800.000			2.002			-1.001
106901.000			2.002			-1.001
107002.000			2.001			-1.001
107100.000			2.001			-1.000
107200.000			2.001			-1.001
107301.000			2.001			-1.001
107400.000			2.002			-1.001
107500.000			2.002			-1.001
107601.000			2.002			-1.001
107701.000			2.002			-1.001
107801.000			2.002			-1.001
107901.000			2.002			-1.001
108000.000			2.002			-1.001
108100.000			2.001			-1.000
108201.000			2.001			-1.001
108300.000			2.001			-1.001
108401.000			2.000			-1.000
108501.000			2.001			-1.000
108601.000			2.001			-1.001
108701.000			2.001			-1.000
108800.000			2.001			-1.001
108900.000			2.000			-1.000
109001.000			2.000			-1.000
109100.000			2.000			-1.000
109200.000			1.999			-1.000
109302.000			2.001			-1.000
109401.000			2.001			-1.000
109500.000			2.001			-1.001
109601.000			2.001			-1.000
109700.000			2.001			-1.000
109800.000			2.001			-1.001
109901.000			2.001			-1.001
110000.000			2.001			-1.000
110101.000			2.000			-1.000
110202.000			2.000			-1.000
110300.000			2.000			-1.000
110400.000			2.001			-1.000
110501.000			2.001			-1.000
110600.000			2.000			-1.000
110700.000			2.000			-1.000
110801.000			2.000			-1.000
110901.000			2.002			-1.001
111001.000			2.001			-1.001
111101.000			2.000			-1.000
111200.000			2.000			-1.000
111300.000			2.000			-1.000
111401.000			2.001			-1.000
111500.000			2.000			-1.000
111601.000			2.000			-1.000
111701.000			1.999			-1.000
111801.000			2.000			-1.000
111901.000			2.000			-1.000
112000.000			2.001			-1.000
112100.000			2.001			-1.001
112201.000			2.001			-1.000
112300.000			1.999			-1.000
112400.000			2.000			-1.000
112502.000			1.999			-1.000
112601.000			1.999			-1.000
112700.000			2.000			-1.000
112801.000			2.001			-1.000
112900.000			2.000			-1.000
113000.000			1.999			-1.000
113101.000			1.999			-1.000
113200.000			1.999			-0.999
113301.000			1.999			-1.000
113402.000			1.999			-1.000
113500.000			2.000			-1.000
113600.000			2.000			-1.000
113701.000			1.999			-0.999
113800.000			1.998			-0.999
113900.000			1.999			-1.000
114001.000			2.000			-1.000
114101.000			2.000			-1.000
114201.000			1.998			-0.999
114301.000			1.999			-0.999
114400.000			1.999			-1.000
114500.000			1.999			-1.000
114601.000			2.000			-1.000
114700.000			2.000			-1.000
114801.000			1.998			-0.999
114901.000			1.998			-0.999
115001.000			1.998			-0.999
115101.000			1.998			-0.999
115200.000			1.999			-0.999
115300.000			1.999			-1.000
115401.000			1.999			-0.999
115500.000			1.999			-0.999
115600.000			1.998			-0.999
115702.000			1.998			-0.999
115801.000			1.998			-0.999
115900.000			1.998			-0.999
116001.000			1.998			-0.999
116100.000			1.999			-0.999
116200.000			2.000			-1.000
116301.000			1.999			-0.999
116400.000			1.998			-0.999
116501.000			1.997			-0.999
116602.000			1.998			-0.999
116700.000			1.998			-0.999
116800.000			1.998			-0.999
116901.000			1.999			-0.999
117000.000			1.998			-0.999
117100.000			1.998			-0.999
117201.000			1.998			-0.999
117301.000			1.997			-0.999
117401.000			1.998			-0.999
117501.000			1.998			-0.999
117600.000			1.998			-0.999
117700.000			1.997			-0.999
117801.000			1.997			-0.998
117900.000			1.997			-0.999
118001.000			1.998			-0.999
118101.000			1.998			-0.999
118201.000			1.998			-0.999
118301.000			1.997			-0.999
118400.000			1.998			-0.999
118500.000			1.998			-0.999
118601.000			1.998			-0.999
118700.000			1.998			-0.999
118800.000			1.998			-0.999
118902.000			1.998			-0.999
119001.000			1.998			-0.999
119100.000			1.998			-0.999
119201.000			1.997			-0.999
119300.000			1.997			-0.999
119400.000			1.996			-0.998
119501.000			1.998			-0.999
119600.000			1.997			-0.999
119701.000			1.998			-0.999
119802.000			1.998			-0.999
119901.000			1.998			-0.999
120000.000			1.998			-0.999
120101.000			1.997			-0.999
120200.000			1.997			-0.998
120300.000			1.996			-0.998
120401.000			1.997			-0.998
120501.000			1.997			-0.999
120601.000			1.997			-0.999
120702.000			1.998			-0.999
120800.000			1.997			-0.999
120900.000			1.997			-0.998
121001.000			1.997			-0.998
121100.000			1.998			-0.999
121201.000			1.998			-0.999
121301.000			1.997			-0.999
121401.000			1.997			-0.998
121502.000			1.997			-0.998
121600.000			1.997			-0.999
121700.000			1.997			-0.998
121801.000			1.997			-0.999
121900.000			1.997			-0.999
122000.000			1.997			-0.998
122101.000			1.997			-0.998
122201.000			1.998			-0.999
122301.000			1.997			-0.998
122401.000			1.997			-0.998
122500.000			1.997			-0.998
122600.000			1.997			-0.998
122701.000			1.996			-0.998
122800.000			1.997			-0.998
122900.000			1.997			-0.999
123002.000			1.997			-0.999
123101.000			1.997			-0.998
123200.000			1.996			-0.998
123301.000			1.997			-0.998
123400.000			1.997			-0.998
123500.000			1.996			-0.998
123601.000			1.996			-0.998
123700.000			1.996			-0.998
123801.000			1.996			-0.998
123902.000			1.996			-0.998
124000.000			1.996			-0.998
124100.000			1.997			-0.998
124201.000			1.996			-0.998
124300.000			1.995			-0.997
124401.000			1.995			-0.997
124500.000			1.996			-0.998
124601.000			1.997			-0.999
124702.000			1.996			-0.998
124800.000			1.996			-0.998
124900.000			1.996			-0.998
125001.000			1.996			-0.998
125100.000			1.996			-0.998
125200.000			1.996			-0.998
125301.000			1.996			-0.998
125401.000			1.996			-0.998
125501.000			1.997			-0.998
125601.000			1.997			-0.998
125700.000			1.996			-0.998
125800.000			1.996			-0.998
125901.000			1.995			-0.998
126000.000			1.995			-0.998
126100.000			1.997			-0.998
126202.000			1.997			-0.998
126301.000			1.996			-0.998
126400.000			1.995			-0.998
126501.000			1.996			-0.998
126600.000			1.997			-0.999
126700.000			1.996			-0.998
126801.000			1.996			-0.998
126900.000			1.997			-0.998
127001.000			1.996			-0.998
127102.000			1.995			-0.998
127200.000			1.996			-0.998
127300.000			1.996			-0.998
127401.000			1.997			-0.998
127500.000			1.996			-0.998
127601.000			1.995			-0.998
127700.000			1.996			-0.998
127801.000			1.996			-0.998
127902.000			1.996			-0.998
128001.000			1.995			-0.998
128100.000			1.996			-0.998
128201.000			1.997			-0.998
128300.000			1.997			-0.998
128400.000			1.996			-0.998
128501.000			1.996			-0.998
128600.000			1.996			-0.998
128701.000			1.996			-0.998
128802.000			1.996			-0.998
128900.000			1.996			-0.998
129000.000			1.995			-0.997
129101.000			1.995			-0.998
129200.000			1.997			-0.998
129300.000			1.997			-0.998
129401.000			1.996			-0.998
129501.000			1.996			-0.998
129601.000			1.996			-0.998
129701.000			1.995			-0.998
129800.000			1.995			-0.998
129900.000			1.996			-0.998
130001.000			1.995			-0.998
130100.000			1.995			-0.998
130200.000			1.994			-0.997
130302.000			1.995			-0.998
130401.000			1.995			-0.997
130500.000			1.995			-0.998
130601.000			1.996			-0.998
130700.000			1.996			-0.998
130801.000			1.996			-0.998
130900.000			1.996			-0.998
131000.000			1.996			-0.998
131102.000			1.996			-0.998
131201.000			1.995			-0.998
131300.000			1.996			-0.998
131401.000			1.996			-0.998
131500.000			1.997			-0.998
131600.000			1.996			-0.998
131701.000			1.996			-0.998
131800.000			1.995			-0.997
131901.000			1.995			-0.998
132002.000			1.995			-0.998
132101.000			1.995			-0.997
132200.000			1.994			-0.997
132301.000			1.995			-0.997
132400.000			1.995			-0.997
132500.000			1.996			-0.998
132601.000			1.996			-0.998
132700.000			1.995			-0.998
132801.000			1.995			-0.998
132902.000			1.996			-0.998
133000.000			1.995			-0.997
133100.000			1.995			-0.998
133201.000			1.995			-0.998
133300.000			1.995			-0.998
133400.000			1.995			-0.998
133501.000			1.995			-0.997
133601.000			1.995			-0.997
133701.000			1.995			-0.997
133802.000			1.996			-0.998
133900.000			1.996			-0.998
134001.000			1.996			-0.998
134100.000			1.995			-0.997
134200.000			1.994			-0.997
134301.000			1.994			-0.997
134400.000			1.993			-0.997
134501.000			1.994			-0.997
134602.000			1.995			-0.997
134701.000			1.994			-0.997
134800.000			1.995			-0.997
134901.000			1.995			-0.997
135000.000			1.995			-0.997
135100.000			1.994			-0.997
135201.000			1.994			-0.997
135300.000			1.995			-0.998
135401.000			1.995			-0.997
135502.000			1.993			-0.997
135601.000			1.994			-0.997
135700.000			1.995			-0.998
135801.000			1.995			-0.998
135900.000			1.994			-0.997
136000.000			1.995			-0.997
136101.000			1.995			-0.998
136200.000			1.994			-0.997
136301.000			1.994			-0.997
136402.000			1.993			-0.997
136500.000			1.994			-0.997
136600.000			1.994			-0.997
136701.000			1.995			-0.998
136800.000			1.994			-0.997
136900.000			1.994			-0.997
137001.000			1.994			-0.997
137101.000			1.995			-0.997
137202.000			1.995			-0.998
137301.000			1.994			-0.997
137400.000			1.994			-0.997
137501.000			1.994			-0.997
137600.000			1.994			-0.997
137700.000			1.993			-0.997
137801.000			1.993			-0.997
137900.000			1.995			-0.998
138001.000			1.995			-0.997
138102.000			1.994			-0.997
138201.000			1.994			-0.997
138300.000			1.993			-0.997
138401.000			1.993			-0.997
138500.000			1.994			-0.997
138600.000			1.994			-0.997
138701.000			1.993			-0.997
138800.000			1.993			-0.996
138901.000			1.994			-0.997
139002.000			1.994			-0.997
139100.000			1.994			-0.997
139200.000			1.995			-0.997
139301.000			1.994			-0.997
139400.000			1.994			-0.997
139500.000			1.994			-0.997
139601.000			1.993			-0.997
139700.000			1.993			-0.997
139801.000			1.993			-0.996
139902.000			1.994			-0.997
140000.000			1.994			-0.997
140100.000			1.994			-0.997
140201.000			1.994			-0.997
140300.000			1.994			-0.997
140401.000			1.995			-0.998
140500.000			1.994			-0.997
140601.000			1.995			-0.998
140702.000			1.994			-0.997
140801.000			1.994			-0.997
140900.000			1.994			-0.997
141001.000			1.994			-0.997
141100.000			1.993			-0.997
141200.000			1.994			-0.997
141301.000			1.993			-0.996
141400.000			1.994			-0.997
141501.000			1.995			-0.997
141602.000			1.993			-0.997
141700.000			1.994			-0.997
141800.000			1.993			-0.997
141901.000			1.993			-0.996
142000.000			1.993			-0.996
142100.000			1.993			-0.996
142201.000			1.994			-0.997
142301.000			1.994			-0.997
142401.000			1.994			-0.997
142502.000			1.993			-0.996
142600.000			1.993			-0.996
142700.000			1.993			-0.996
142801.000			1.993			-0.996
142900.000			1.992			-0.996
143000.000			1.992			-0.996
143101.000			1.993			-0.997
143201.000			1.993			-0.996
143301.000			1.993			-0.996
143401.000			1.994			-0.997
143500.000			1.992			-0.996
143601.000			1.992			-0.996
143700.000			1.992			-0.996
143800.000			1.994			-0.997
143901.000			1.993			-0.997
144001.000			1.992			-0.996
144101.000			1.993			-0.996
144202.000			1.992			-0.996
144300.000			1.993			-0.996
144400.000			1.992			-0.996
144501.000			1.992			-0.996
144600.000			1.992			-0.996
144700.000			1.991			-0.996
144801.000			1.992			-0.996
144901.000			1.993			-0.996
145001.000			1.992			-0.996
145101.000			1.992			-0.996
145200.000			1.992			-0.996
145300.000			1.991			-0.996
145401.000			1.992			-0.996
145500.000			1.993			-0.996
145600.000			1.992			-0.996
145701.000			1.992			-0.996
145801.000			1.993			-0.996
145901.000			1.992			-0.996
146001.000			1.992			-0.996
146100.000			1.992			-0.996
146200.000			1.992			-0.996
146301.000			1.992			-0.996
146400.000			1.992			-0.996
146500.000			1.993			-0.996
146602.000			1.992			-0.996
146701.000			1.991			-0.996
146802.000			1.991			-0.996
146900.000			1.991			-0.996
147000.000			1.992			-0.996
147101.000			1.991			-0.996
147200.000			1.992			-0.996
147300.000			1.992			-0.996
147401.000			1.993			-0.996
147501.000			1.992			-0.996
147601.000			1.991			-0.996
147701.000			1.991			-0.995
147800.000			1.992			-0.996
147900.000			1.991			-0.996
148001.000			1.991			-0.996
148100.000			1.992			-0.996
148200.000			1.991			-0.995
148301.000			1.990			-0.995
148401.000			1.990			-0.995
148501.000			1.991			-0.996
148601.000			1.990			-0.995
148700.000			1.990			-0.995
148800.000			1.991			-0.995
148901.000			1.991			-0.995
149000.000			1.991			-0.996
149100.000			1.991			-0.995
149201.000			1.991			-0.995
149301.000			1.992			-0.996
149401.000			1.991			-0.996
149501.000			1.991			-0.996
149600.000			1.991			-0.995
149700.000			1.991			-0.995
149801.000			1.992			-0.996
149900.000			1.991			-0.996
150001.000			1.990			-0.995
150101.000			1.991			-0.995
150201.000			1.991			-0.995
150302.000			1.990			-0.995
150400.000			1.991			-0.995
150500.000			1.991			-0.996
150601.000			1.991			-0.995
150700.000			1.991			-0.996
150800.000			1.991			-0.996
150901.000			1.991			-0.995
151001.000			1.990			-0.995
151101.000			1.990			-0.995
151201.000			1.990			-0.995
151300.000			1.990			-0.995
151400.000			1.990			-0.995
151501.000			1.991			-0.995
151600.000			1.990			-0.995
151700.000			1.990			-0.995
151801.000			1.990			-0.995
151901.000			1.990			-0.995
152001.000			1.990			-0.995
152101.000			1.989			-0.995
152200.000			1.991			-0.995
152300.000			1.991			-0.995
152401.000			1.990			-0.995
152500.000			1.991			-0.995
152600.000			1.991			-0.995
152702.000			1.989			-0.995
152801.000			1.989			-0.995
152901.000			1.990			-0.995
153001.000			1.990			-0.995
153100.000			1.989			-0.994
153201.000			1.989			-0.994
153300.000			1.990			-0.995
153400.000			1.990			-0.995
153501.000			1.991			-0.995
153601.000			1.991			-0.996
153701.000			1.990			-0.995
153801.000			1.990			-0.995
153900.000			1.990			-0.995
154000.000			1.990			-0.995
154101.000			1.990			-0.995
154200.000			1.989			-0.995
154300.000			1.989			-0.995
154401.000			1.990			-0.995
154501.000			1.990			-0.995
154601.000			1.990			-0.995
154701.000			1.989			-0.995
154800.000			1.990			-0.995
154900.000			1.990			-0.995
155001.000			1.989			-0.995
155100.000			1.990			-0.995
155200.000			1.988			-0.994
155301.000			1.988			-0.994
155401.000			1.990			-0.995
155501.000			1.990			-0.995
155601.000			1.990			-0.995
155700.000			1.990			-0.995
155800.000			1.989			-0.995
155901.000			1.989			-0.994
156000.000			1.989			-0.994
156100.000			1.989			-0.994
156201.000			1.989			-0.994
156301.000			1.989			-0.994
156402.000			1.988			-0.994
156500.000			1.989			-0.995
156600.000			1.990			-0.995
156701.000			1.989			-0.994
156800.000			1.989			-0.995
156900.000			1.990			-0.995
157001.000			1.990			-0.995
157100.000			1.991			-0.995
157201.000			1.990			-0.995
157302.000			1.989			-0.994
157400.000			1.989			-0.995
157500.000			1.989			-0.995
157601.000			1.989			-0.994
157700.000			1.988			-0.994
157800.000			1.988			-0.994
157901.000			1.988			-0.994
158000.000			1.989			-0.995
158101.000			1.989			-0.995
158202.000			1.989			-0.995
158300.000			1.989			-0.995
158400.000			1.989			-0.995
158501.000			1.989			-0.995
158600.000			1.989			-0.995
158700.000			1.989			-0.994
158801.000			1.988			-0.994
158900.000			1.989			-0.995
159001.000			1.990			-0.995
159102.000			1.989			-0.994
159200.000			1.989			-0.994
159300.000			1.989			-0.995
159401.000			1.990			-0.995
159500.000			1.988			-0.994
159601.000			1.988			-0.994
159700.000			1.988			-0.994
159800.000			1.989			-0.994
159902.000			1.988			-0.994
160001.000			1.988			-0.994
160100.000			1.987			-0.993
160201.000			1.989			-0.995
160300.000			1.990			-0.995
160400.000			1.989			-0.994
160501.000			1.989			-0.994
160600.000			1.989			-0.994
160700.000			1.988			-0.994
160802.000			1.989			-0.994
160901.000			1.988			-0.994
161000.000			1.989			-0.994
161101.000			1.989			-0.995
161200.000			1.989			-0.994
161300.000			1.988			-0.994
161401.000			1.988			-0.994
161500.000			1.989			-0.995
161601.000			1.989			-0.994
161702.000			1.988			-0.994
161801.000			1.989			-0.994
161900.000			1.989			-0.994
162001.000			1.990			-0.995
162100.000			1.989			-0.995
162200.000			1.989			-0.994
162301.000			1.988			-0.994
162400.000			1.987			-0.994
162501.000			1.988			-0.994
162602.000			1.989			-0.994
162701.000			1.989			-0.994
162801.000			1.988			-0.994
162900.000			1.988			-0.994
163000.000			1.988			-0.994
163101.000			1.988			-0.994
163200.000			1.989			-0.994
163300.000			1.988			-0.994
163402.000			1.989			-0.994
163501.000			1.989			-0.995
163600.000			1.988			-0.994
163701.000			1.988			-0.994
163800.000			1.988			-0.994
163900.000			1.988			-0.994
164001.000			1.988			-0.994
164100.000			1.989			-0.995
164200.000			1.989			-0.995
164302.000			1.988			-0.994
164401.000			1.988			-0.994
164500.000			1.989			-0.994
164601.000			1.989			-0.995
164700.000			1.988			-0.994
164800.000			1.988			-0.994
164901.000			1.988			-0.994
165000.000			1.988			-0.994
165100.000			1.988			-0.994
165202.000			1.988			-0.994
165301.000			1.987			-0.994
165400.000			1.987			-0.994
165501.000			1.988			-0.994
165600.000			1.989			-0.995
165700.000			1.989			-0.994
165801.000			1.988			-0.994
165900.000			1.987			-0.994
166001.000			1.987			-0.994
166101.000			1.988			-0.994
166201.000			1.988			-0.994
166301.000			1.988			-0.994
166400.000			1.988			-0.994
166500.000			1.988			-0.994
166601.000			1.988			-0.994
166700.000			1.988			-0.994
166800.000			1.987			-0.993
166901.000			1.987			-0.994
167001.000			1.988			-0.994
167101.000			1.987			-0.994
167201.000			1.988			-0.994
167300.000			1.988			-0.994
167400.000			1.988			-0.994
167501.000			1.987			-0.994
167600.000			1.987			-0.993
167700.000			1.987			-0.993
167801.000			1.987			-0.993
167901.000			1.986			-0.993
168001.000			1.987			-0.993
168101.000			1.988			-0.994
168200.000			1.987			-0.994
168300.000			1.987			-0.993
168401.000			1.986			-0.993
168500.000			1.986			-0.993
168600.000			1.987			-0.993
168701.000			1.987			-0.993
168801.000			1.987			-0.994
168901.000			1.987			-0.993
169001.000			1.987			-0.993
169100.000			1.987			-0.993
169201.000			1.987			-0.993
169300.000			1.987			-0.994
169400.000			1.987			-0.994
169501.000			1.987			-0.993
169600.000			1.987			-0.993
169701.000			1.987			-0.994
169802.000			1.988			-0.994
169901.000			1.988			-0.994
170000.000			1.987			-0.993
170101.000			1.987			-0.993
170200.000			1.988			-0.994
170300.000			1.987			-0.993
170401.000			1.986			-0.993
170500.000			1.986			-0.993
170601.000			1.986			-0.993
170702.000			1.986			-0.993
170800.000			1.986			-0.993
170900.000			1.987			-0.993
171001.000			1.988			-0.994
171100.000			1.988			-0.994
171200.000			1.987			-0.994
171301.000			1.987			-0.994
171400.000			1.988			-0.994
171501.000			1.987			-0.993
171602.000			1.986			-0.993
171700.000			1.987			-0.994
171800.000			1.986			-0.993
171901.000			1.988			-0.994
172000.000			1.987			-0.993
172100.000			1.987			-0.994
172201.000			1.987			-0.993
172301.000			1.987			-0.993
172402.000			1.987			-0.993
172501.000			1.986			-0.993
172600.000			1.986			-0.993
172701.000			1.986			-0.993
172800.000			1.987			-0.993
172900.000			1.986			-0.993
173001.000			1.986			-0.993
173100.000			1.986			-0.993
173201.000			1.986			-0.993
173302.000			1.985			-0.993
173401.000			1.986			-0.993
173500.000			1.986			-0.993
173601.000			1.985			-0.993
173700.000			1.986			-0.993
173800.000			1.987			-0.993
173901.000			1.987			-0.993
174000.000			1.987			-0.994
174101.000			1.987			-0.994
174202.000			1.986			-0.993
174301.000			1.986			-0.993
174400.000			1.986			-0.993
174501.000			1.986			-0.993
174600.000			1.985			-0.993
174700.000			1.987			-0.993
174801.000			1.986			-0.993
174900.000			1.987			-0.993
175001.000			1.986			-0.993
175102.000			1.985			-0.993
175201.000			1.985			-0.992
175300.000			1.985			-0.993
175401.000			1.986			-0.993
175500.000			1.987			-0.993
175601.000			1.987			-0.993
175700.000			1.985			-0.993
175800.000			1.986			-0.993
175902.000			1.987			-0.994
176001.000			1.986			-0.993
176101.000			1.984			-0.992
176201.000			1.985			-0.992
176300.000			1.986			-0.993
176400.000			1.986			-0.993
176501.000			1.986			-0.993
176600.000			1.985			-0.993
176700.000			1.985			-0.993
176802.000			1.986			-0.993
176901.000			1.986			-0.993
177001.000			1.986			-0.993
177101.000			1.985			-0.993
177200.000			1.985			-0.993
177300.000			1.985			-0.993
177401.000			1.986			-0.993
177500.000			1.986			-0.993
177600.000			1.987			-0.993
177702.000			1.986			-0.993
177801.000			1.986			-0.993
177901.000			1.985			-0.992
178001.000			1.985			-0.992
178100.000			1.985			-0.993
178200.000			1.985			-0.993
178301.000			1.985			-0.993
178400.000			1.985			-0.993
178500.000			1.986			-0.993
178602.000			1.986			-0.993
178701.000			1.984			-0.992
178802.000			1.985			-0.993
178900.000			1.985			-0.992
179000.000			1.985			-0.992
179101.000			1.986			-0.993
179200.000			1.986			-0.993
179300.000			1.986			-0.993
179401.000			1.986			-0.993
179501.000			1.985			-0.993
179601.000			1.985			-0.992
179702.000			1.985			-0.993
179800.000			1.985			-0.992
179900.000			1.986			-0.993
180001.000			1.986			-0.993
180100.000			1.986			-0.993
180200.000			1.987			-0.993
180301.000			1.986			-0.993
180401.000			1.985			-0.993
180501.000			1.985			-0.993
180602.000			1.986			-0.993
180700.000			1.985			-0.992
180800.000			1.985			-0.993
180901.000			1.985			-0.993
181000.000			1.986			-0.993
181100.000			1.986			-0.993
181201.000			1.986			-0.993
181301.000			1.986			-0.993
181401.000			1.985			-0.993
181501.000			1.985			-0.992
181600.000			1.987			-0.993
181700.000			1.987			-0.993
181801.000			1.986			-0.993
181900.000			1.986			-0.993
182001.000			1.986			-0.993
182100.000			1.985			-0.993
182201.000			1.987			-0.993
182302.000			1.987			-0.993
182401.000			1.987			-0.993
182500.000			1.986			-0.993
182601.000			1.985			-0.993
182700.000			1.987			-0.993
182800.000			1.985			-0.993
182901.000			1.984			-0.992
183000.000			1.985			-0.992
183101.000			1.986			-0.993
183202.000			1.986			-0.993
183300.000			1.985			-0.992
183400.000			1.985			-0.993
183501.000			1.985			-0.993
183600.000			1.985			-0.993
183700.000			1.985			-0.993
183801.000			1.985			-0.993
183900.000			1.985			-0.993
184001.000			1.986			-0.993
184102.000			1.986			-0.993
184200.000			1.986			-0.993
184300.000			1.986			-0.993
184401.000			1.985			-0.993
184500.000			1.985			-0.992
184600.000			1.984			-0.992
184701.000			1.984			-0.992
184800.000			1.984			-0.992
184901.000			1.985			-0.992
185002.000			1.985			-0.993
185100.000			1.985			-0.993
185201.000			1.985			-0.993
185300.000			1.985			-0.993
185400.000			1.985			-0.992
185501.000			1.984			-0.992
185600.000			1.985			-0.993
185700.000			1.985			-0.992
185802.000			1.985			-0.993
185901.000			1.985			-0.993
186000.000			1.985			-0.993
186101.000			1.985			-0.992
186200.000			1.985			-0.992
186300.000			1.984			-0.992
186401.000			1.983			-0.992
186500.000			1.984			-0.992
186601.000			1.985			-0.993
186702.000			1.984			-0.992
186801.000			1.984			-0.992
186900.000			1.985			-0.992
187001.000			1.984			-0.992
187100.000			1.984			-0.992
187200.000			1.985			-0.992
187301.000			1.984			-0.992
187400.000			1.985			-0.992
187501.000			1.984			-0.992
187602.000			1.984			-0.992
187701.000			1.985			-0.993
187800.000			1.986			-0.993
187901.000			1.985			-0.992
188000.000			1.985			-0.993
188100.000			1.985			-0.992
188201.000			1.984			-0.992
188300.000			1.985			-0.992
188402.000			1.984			-0.992
188501.000			1.985			-0.992
188601.000			1.985			-0.993
188701.000			1.984			-0.992
188800.000			1.984			-0.992
188900.000			1.985			-0.992
189001.000			1.985			-0.992
189100.000			1.984			-0.992
189200.000			1.984			-0.992
189301.000			1.984			-0.992
189401.000			1.984			-0.992
189501.000			1.985			-0.992
189601.000			1.985			-0.992
189700.000			1.984			-0.992
189800.000			1.984			-0.992
189901.000			1.984			-0.992
190000.000			1.984			-0.992
190100.000			1.984			-0.992
190202.000			1.985			-0.992
190301.000			1.984			-0.992
190401.000			1.984			-0.992
190501.000			1.984			-0.992
190600.000			1.984			-0.992
190700.000			1.985			-0.992
190801.000			1.984			-0.992
190900.000			1.985			-0.992
191000.000			1.985			-0.992
191102.000			1.985			-0.993
191201.000			1.985			-0.992
191300.000			1.984			-0.992
191401.000			1.984			-0.992
191500.000			1.985			-0.993
191601.000			1.985			-0.992
191700.000			1.985			-0.992
191800.000			1.985			-0.992
191901.000			1.983			-0.992
192001.000			1.983			-0.992
192101.000			1.984			-0.992
192201.000			1.984			-0.992
192300.000			1.984			-0.992
192400.000			1.984			-0.992
192501.000			1.985			-0.992
192600.000			1.984			-0.992
192700.000			1.984			-0.992
192801.000			1.985			-0.992
192901.000			1.983			-0.992
193001.000			1.985			-0.992
193101.000			1.985			-0.993
193200.000			1.985			-0.992
193300.000			1.985			-0.993
193401.000			1.985			-0.992
193500.000			1.985			-0.992
193600.000			1.985			-0.993
193701.000			1.985			-0.992
193801.000			1.984			-0.992
193901.000			1.984			-0.992
194001.000			1.984			-0.992
194100.000			1.984			-0.992
194200.000			1.984			-0.992
194301.000			1.983			-0.992
194400.000			1.985			-0.992
194500.000			1.985			-0.993
194601.000			1.984			-0.992
194701.000			1.983			-0.992
194802.000			1.984			-0.992
194900.000			1.985			-0.993
195000.000			1.985			-0.992
195101.000			1.985			-0.992
195200.000			1.985			-0.992
195300.000			1.984			-0.992
195401.000			1.985			-0.993
195501.000			1.985			-0.993
195601.000			1.985			-0.993
195702.000			1.984			-0.992
195800.000			1.984			-0.992
195900.000			1.983			-0.992
196001.000			1.983			-0.992
196100.000			1.984			-0.992
196200.000			1.984			-0.992
196301.000			1.985			-0.992
196401.000			1.985			-0.992
196501.000			1.985			-0.992
196602.000			1.985			-0.993
196700.000			1.985			-0.992
196800.000			1.986			-0.993
196901.000			1.985			-0.993
197000.000			1.985			-0.992
197100.000			1.985			-0.993
197201.000			1.985			-0.992
197301.000			1.985			-0.993
197401.000			1.985			-0.992
197502.000			1.984			-0.992
197600.000			1.984			-0.992
197700.000			1.984			-0.992
197801.000			1.984			-0.992
197900.000			1.984			-0.992
198001.000			1.983			-0.992
198100.000			1.984			-0.992
198201.000			1.984			-0.992
198302.000			1.985			-0.992
198401.000			1.985			-0.992
198500.000			1.985			-0.992
198601.000			1.984			-0.992
198700.000			1.985			-0.993
198800.000			1.985			-0.993
198901.000			1.984			-0.992
199000.000			1.984			-0.992
199100.000			1.984			-0.992
199202.000			1.984			-0.992
199301.000			1.984			-0.992
199400.000			1.984			-0.992
199501.000			1.984			-0.992
199600.000			1.984			-0.992
199700.000			1.984			-0.992
199801.000			1.984			-0.992
199900.000			1.984			-0.992
200000.000			1.984			-0.992
200102.000			1.984			-0.992
200201.000			1.984			-0.992
200300.000			1.984			-0.992
200401.000			1.984			-0.992
200500.000			1.984			-0.992
200600.000			1.984			-0.992
200701.000			1.984			-0.992
200800.000			1.983			-0.991
200901.000			1.983			-0.991
201002.000			1.983			-0.992
201100.000			1.985			-0.992
201201.000			1.984			-0.992
201300.000			1.983			-0.992
201400.000			1.983			-0.991
201501.000			1.984			-0.992
201600.000			1.984			-0.992
201700.000			1.983			-0.991
201802.000			1.983			-0.992
201901.000			1.983			-0.991
202000.000			1.983			-0.991
202101.000			1.982			-0.991
202200.000			1.983			-0.992
202300.000			1.984			-0.992
202401.000			1.983			-0.992
202500.000			1.983			-0.991
202601.000			1.984			-0.992
202702.000			1.983			-0.991
202800.000			1.983			-0.991
202900.000			1.983			-0.991
203001.000			1.983			-0.991
203100.000			1.983			-0.991
203200.000			1.983			-0.992
203301.000			1.983			-0.992
203401.000			1.982			-0.991
203501.000			1.982			-0.991
203602.000			1.982			-0.991
203700.000			1.983			-0.991
203800.000			1.982			-0.991
203901.000			1.982			-0.991
204000.000			1.982			-0.991
204100.000			1.983			-0.991
204201.000			1.983			-0.991
204301.000			1.983			-0.991
204402.000			1.982			-0.991
204500.000			1.983			-0.991
204600.000			1.982			-0.991
204701.000			1.982			-0.991
204800.000			1.982			-0.991
204900.000			1.983			-0.991
205001.000			1.983			-0.991
205101.000			1.982			-0.991
205201.000			1.981			-0.991
205302.000			1.982			-0.991
205400.000			1.982			-0.991
205500.000			1.983			-0.991
205601.000			1.983			-0.991
205700.000			1.982			-0.991
205800.000			1.982			-0.991
205901.000			1.983			-0.992
206001.000			1.984			-0.992
206101.000			1.983			-0.992
206201.000			1.982			-0.991
206300.000			1.982			-0.991
206400.000			1.984			-0.992
206501.000			1.984			-0.992
206600.000			1.982			-0.991
206700.000			1.982			-0.991
206802.000			1.982			-0.991
206901.000			1.982			-0.991
207001.000			1.982			-0.991
207101.000			1.982			-0.991
207200.000			1.981			-0.991
207300.000			1.981			-0.991
207401.000			1.981			-0.991
207500.000			1.981			-0.990
207601.000			1.981			-0.991
207701.000			1.982			-0.991
207801.000			1.982			-0.991
207901.000			1.981			-0.991
208000.000			1.981			-0.991
208100.000			1.981			-0.990
208201.000			1.981			-0.990
208300.000			1.981			-0.991
208400.000			1.981			-0.991
208501.000			1.982			-0.991
208601.000			1.981			-0.991
208701.000			1.981			-0.990
208801.000			1.982			-0.991
208900.000			1.981			-0.990
209000.000			1.980			-0.990
209101.000			1.980			-0.990
209200.000			1.981			-0.991
209300.000			1.981			-0.991
209402.000			1.981			-0.991
209501.000			1.981			-0.990
209601.000			1.981			-0.991
209701.000			1.981			-0.991
209800.000			1.982			-0.991
209900.000			1.982			-0.991
210001.000			1.981			-0.991
210100.000			1.980			-0.990
210200.000			1.981			-0.990
210302.000			1.980			-0.990
210401.000			1.982			-0.991
210500.000			1.982			-0.991
210601.000			1.981			-0.991
210700.000			1.981			-0.990
210801.000			1.980			-0.990
210900.000			1.980			-0.990
211000.000			1.981			-0.990
211102.000			1.981			-0.990
211201.000			1.981			-0.990
211300.000			1.981			-0.990
211401.000			1.982			-0.991
211500.000			1.981			-0.990
211600.000			1.981			-0.991
211701.000			1.981			-0.990
211800.000			1.980			-0.990
211900.000			1.980			-0.990
212002.000			1.980			-0.990
212101.000			1.981			-0.990
212200.000			1.980			-0.990
212301.000			1.980			-0.990
212400.000			1.980			-0.990
212500.000			1.980			-0.990
212601.000			1.980			-0.990
212700.000			1.981			-0.990
212801.000			1.981			-0.990
212902.000			1.980			-0.990
213001.000			1.980			-0.990
213100.000			1.980			-0.990
213201.000			1.981			-0.991
213300.000			1.981			-0.991
213400.000			1.982			-0.991
213501.000			1.981			-0.990
213601.000			1.980			-0.990
213701.000			1.980			-0.990
213802.000			1.980			-0.990
213900.000			1.979			-0.989
214001.000			1.979			-0.990
214100.000			1.981			-0.990
214200.000			1.980			-0.990
214301.000			1.980			-0.990
214400.000			1.981			-0.990
214501.000			1.980			-0.990
214602.000			1.980			-0.990
214701.000			1.981			-0.990
214800.000			1.981			-0.990
214901.000			1.980			-0.990
215000.000			1.980			-0.990
215100.000			1.980			-0.990
215201.000			1.981			-0.990
215300.000			1.979			-0.990
215401.000			1.980			-0.990
215502.000			1.980			-0.990
215600.000			1.980			-0.990
215700.000			1.979			-0.989
215801.000			1.979			-0.990
215900.000			1.979			-0.990
216000.000			1.979			-0.990
216101.000			1.980			-0.990
216200.000			1.980			-0.990
216301.000			1.980			-0.990
216402.000			1.980			-0.990
216500.000			1.981			-0.990
216600.000			1.981			-0.990
216701.000			1.980			-0.990
216800.000			1.980			-0.990
216900.000			1.980			-0.990
217001.000			1.980			-0.990
217101.000			1.979			-0.990
217202.000			1.980			-0.990
217301.000			1.981			-0.990
217400.000			1.980			-0.990
217501.000			1.980			-0.990
217600.000			1.979			-0.990
217700.000			1.980			-0.990
217801.000			1.980			-0.990
217900.000			1.980			-0.990
218001.000			1.980			-0.990
218102.000			1.980			-0.990
218200.000			1.979			-0.989
218300.000			1.979			-0.990
218401.000			1.979			-0.989
218500.000			1.978			-0.989
218600.000			1.979			-0.989
218701.000			1.978			-0.989
218800.000			1.978			-0.989
218901.000			1.979			-0.989
219002.000			1.979			-0.990
219100.000			1.980			-0.990
219200.000			1.980			-0.990
219301.000			1.981			-0.990
219400.000			1.980			-0.990
219500.000			1.981			-0.990
219601.000			1.980			-0.990
219701.000			1.980			-0.990
219801.000			1.979			-0.990
219902.000			1.980			-0.990
220000.000			1.980			-0.990
220100.000			1.979			-0.989
220201.000			1.980			-0.990
220300.000			1.981			-0.990
220401.000			1.978			-0.989
220500.000			1.978			-0.989
220601.000			1.979			-0.989
220702.000			1.980			-0.990
220801.000			1.979			-0.990
220900.000			1.979			-0.989
221001.000			1.979			-0.989
221100.000			1.979			-0.989
221200.000			1.979			-0.989
221301.000			1.978			-0.989
221400.000			1.979			-0.989
221501.000			1.980			-0.990
221602.000			1.980			-0.990
221700.000			1.980			-0.990
221800.000			1.979			-0.990
221901.000			1.980			-0.990
222000.000			1.980			-0.990
222100.000			1.979			-0.989
222201.000			1.979			-0.990
222301.000			1.979			-0.990
222401.000			1.979			-0.989
222502.000			1.979			-0.990
222600.000			1.979			-0.990
222700.000			1.978			-0.989
222801.000			1.978			-0.989
222900.000			1.979			-0.990
223000.000			1.979			-0.990
223101.000			1.979			-0.990
223201.000			1.978			-0.989
223301.000			1.979			-0.989
223401.000			1.979			-0.989
223500.000			1.979			-0.990
223601.000			1.979			-0.990
223700.000			1.978			-0.989
223800.000			1.977			-0.989
223901.000			1.978			-0.989
224001.000			1.979			-0.989
224101.000			1.978			-0.989
224202.000			1.978			-0.989
224300.000			1.978			-0.989
224400.000			1.978			-0.989
224501.000			1.979			-0.989
224600.000			1.978			-0.989
224700.000			1.978			-0.989
224801.000			1.978			-0.989
224901.000			1.978			-0.989
225001.000			1.977			-0.989
225102.000			1.977			-0.989
225200.000			1.977			-0.989
225300.000			1.979			-0.989
225401.000			1.978			-0.989
225500.000			1.978			-0.989
225600.000			1.978			-0.989
225701.000			1.978			-0.989
225801.000			1.977			-0.989
225901.000			1.978			-0.989
226001.000			1.979			-0.990
226100.000			1.979			-0.989
226200.000			1.978			-0.989
226301.000			1.977			-0.989
226400.000			1.978			-0.989
226500.000			1.979			-0.989
226601.000			1.978			-0.989
226701.000			1.978			-0.989
226802.000			1.977			-0.989
226900.000			1.979			-0.989
227000.000			1.977			-0.989
227101.000			1.977			-0.989
227200.000			1.977			-0.989
227300.000			1.977			-0.989
227401.000			1.977			-0.989
227501.000			1.978			-0.989
227601.000			1.978			-0.989
227702.000			1.978			-0.989
227800.000			1.978			-0.989
227900.000			1.978			-0.989
228001.000			1.978			-0.989
228100.000			1.978			-0.989
228200.000			1.977			-0.989
228301.000			1.978			-0.989
228401.000			1.978			-0.989
228501.000			1.979			-0.990
228601.000			1.979			-0.989
228700.000			1.978			-0.989
228800.000			1.978			-0.989
228901.000			1.978			-0.989
229000.000			1.978			-0.989
229100.000			1.979			-0.989
229201.000			1.979			-0.989
229301.000			1.979			-0.989
229401.000			1.978			-0.989
229501.000			1.978			-0.989
229600.000			1.979			-0.990
229700.000			1.978			-0.989
229801.000			1.977			-0.988
229900.000			1.978			-0.989
230001.000			1.977			-0.989
230100.000			1.979			-0.989
230201.000			1.978			-0.989
230302.000			1.977			-0.989
230400.000			1.977			-0.988
230500.000			1.977			-0.989
230601.000			1.978			-0.989
230700.000			1.978			-0.989
230800.000			1.978			-0.989
230901.000			1.977			-0.988
231000.000			1.978			-0.989
231101.000			1.978			-0.989
231202.000			1.977			-0.989
231300.000			1.979			-0.989
231400.000			1.977			-0.989
231501.000			1.977			-0.988
231600.000			1.978			-0.989
231700.000			1.977			-0.989
231801.000			1.977			-0.989
231901.000			1.978			-0.989
232001.000			1.977			-0.988
232101.000			1.977			-0.988
232200.000			1.977			-0.989
232300.000			1.977			-0.989
232401.000			1.977			-0.988
232500.000			1.977			-0.989
232600.000			1.977			-0.989
232701.000			1.977			-0.989
232801.000			1.977			-0.988
232901.000			1.977			-0.988
233001.000			1.978			-0.989
233100.000			1.977			-0.989
233201.000			1.977			-0.988
233300.000			1.977			-0.988
233400.000			1.977			-0.989
233501.000			1.977			-0.989
233600.000			1.977			-0.989
233701.000			1.977			-0.989
233802.000			1.977			-0.989
233900.000			1.978			-0.989
234000.000			1.977			-0.989
234101.000			1.977			-0.988
234200.000			1.977			-0.989
234300.000			1.976			-0.988
234401.000			1.977			-0.988
234501.000			1.977			-0.988
234601.000			1.978			-0.989
234702.000			1.977			-0.989
234800.000			1.977			-0.989
234900.000			1.977			-0.988
235001.000			1.977			-0.989
235100.000			1.976			-0.988
235200.000			1.977			-0.988
235301.000			1.976			-0.988
235401.000			1.976			-0.988
235501.000			1.977			-0.989
235602.000			1.977			-0.989
235700.000			1.977			-0.988
235800.000			1.976			-0.988
235901.000			1.977			-0.988
236000.000			1.977			-0.989
236100.000			1.977			-0.988
236201.000			1.977			-0.989
236301.000			1.976			-0.988
236402.000			1.977			-0.989
236501.000			1.977			-0.988
236600.000			1.977			-0.989
236701.000			1.977			-0.988
236800.000			1.977			-0.988
236900.000			1.977			-0.988
237001.000			1.977			-0.988
237100.000			1.976			-0.988
237200.000			1.976			-0.988
237302.000			1.976			-0.988
237401.000			1.977			-0.988
237500.000			1.977			-0.988
237601.000			1.978			-0.989
237700.000			1.976			-0.988
237800.000			1.976			-0.988
237901.000			1.976			-0.988
238000.000			1.977			-0.988
238101.000			1.976			-0.988
238202.000			1.976			-0.988
238301.000			1.977			-0.988
238400.000			1.977			-0.988
238501.000			1.976			-0.988
238600.000			1.977			-0.988
238700.000			1.977			-0.988
238801.000			1.977			-0.988
238900.000			1.977			-0.988
239000.000			1.977			-0.989
239102.000			1.976			-0.988
239201.000			1.976			-0.988
239300.000			1.976			-0.988
239401.000			1.977			-0.988
239500.000			1.977			-0.988
239601.000			1.976			-0.988
239700.000			1.976			-0.988
239800.000			1.976			-0.988
239901.000			1.976			-0.988
240001.000			1.977			-0.989
240101.000			1.976			-0.988
240201.000			1.975			-0.988
240300.000			1.976			-0.988
240400.000			1.976			-0.988
240501.000			1.976			-0.988
240600.000			1.977			-0.989
240700.000			1.977			-0.988
240802.000			1.976			-0.988
240901.000			1.976			-0.988
241000.000			1.976			-0.988
241101.000			1.975			-0.988
241200.000			1.975			-0.988
241300.000			1.976			-0.988
241401.000			1.975			-0.988
241500.000			1.976			-0.988
241600.000			1.975			-0.988
241702.000			1.976			-0.988
241801.000			1.975			-0.988
241900.000			1.976			-0.988
242001.000			1.976			-0.988
242100.000			1.976			-0.988
242200.000			1.976			-0.988
242301.000			1.977			-0.988
242400.000			1.977			-0.988
242501.000			1.976			-0.988
242602.000			1.975			-0.988
242701.000			1.975			-0.988
242801.000			1.975			-0.988
242900.000			1.976			-0.988
243000.000			1.975			-0.988
243101.000			1.976			-0.988
243200.000			1.975			-0.987
243300.000			1.974			-0.987
243402.000			1.975			-0.987
243501.000			1.976			-0.988
243600.000			1.976			-0.988
243701.000			1.975			-0.988
243800.000			1.975			-0.988
243900.000			1.976			-0.988
244001.000			1.976			-0.988
244100.000			1.976			-0.988
244200.000			1.977			-0.988
244302.000			1.975			-0.987
244401.000			1.975			-0.988
244500.000			1.975			-0.988
244601.000			1.975			-0.988
244700.000			1.975			-0.988
244800.000			1.976			-0.988
244901.000			1.975			-0.988
245000.000			1.975			-0.987
245100.000			1.976			-0.988
245202.000			1.976			-0.988
245301.000			1.977			-0.988
245400.000			1.976			-0.988
245501.000			1.975			-0.988
245600.000			1.976			-0.988
245700.000			1.976			-0.988
245801.000			1.976			-0.988
245900.000			1.976			-0.988
246001.000			1.976			-0.988
246101.000			1.976			-0.988
246201.000			1.975			-0.987
246301.000			1.975			-0.987
246400.000			1.975			-0.988
246500.000			1.975			-0.988
246601.000			1.975			-0.988
246700.000			1.975			-0.987
246800.000			1.975			-0.988
246902.000			1.976			-0.988
247001.000			1.975			-0.988
247101.000			1.976			-0.988
247201.000			1.975			-0.987
247300.000			1.976			-0.988
247400.000			1.976			-0.988
247501.000			1.975			-0.987
247600.000			1.976			-0.988
247700.000			1.976			-0.988
247802.000			1.975			-0.988
247901.000			1.975			-0.987
248001.000			1.975			-0.988
248101.000			1.975			-0.987
248200.000			1.974			-0.987
248300.000			1.975			-0.987
248401.000			1.975			-0.988
248500.000			1.975			-0.988
248600.000			1.975			-0.988
248702.000			1.974			-0.987
248801.000			1.974			-0.987
248900.000			1.975			-0.987
249001.000			1.974			-0.987
249100.000			1.973			-0.987
249201.000			1.973			-0.987
249300.000			1.975			-0.987
249400.000			1.976			-0.988
249501.000			1.976			-0.988
249601.000			1.975			-0.988
249701.000			1.975			-0.987
249801.000			1.977			-0.988
249900.000			1.976			-0.988
250000.000			1.975			-0.988
250101.000			1.975			-0.988
250200.000			1.976			-0.988
250300.000			1.976			-0.988
250401.000			1.975			-0.987
250501.000			1.975			-0.987
250601.000			1.975			-0.988
250701.000			1.975			-0.988
250800.000			1.975			-0.988
250900.000			1.975			-0.988
251001.000			1.974			-0.987
251100.000			1.974			-0.987
251200.000			1.974			-0.987
251302.000			1.975			-0.987
251401.000			1.975			-0.988
251500.000			1.975			-0.988
251601.000			1.976			-0.988
251700.000			1.974			-0.987
251800.000			1.974			-0.987
251901.000			1.975			-0.987
252000.000			1.976			-0.988
252100.000			1.975			-0.988
252202.000			1.974			-0.987
252301.000			1.975			-0.988
252401.000			1.975			-0.988
252500.000			1.975			-0.987
252600.000			1.975			-0.988
252701.000			1.975			-0.988
252800.000			1.975			-0.988
252900.000			1.975			-0.988
253002.000			1.975			-0.987
253101.000			1.974			-0.987
253201.000			1.975			-0.987
253301.000			1.975			-0.988
253400.000			1.975			-0.987
253500.000			1.974			-0.987
253601.000			1.974			-0.987
253700.000			1.975			-0.987
253800.000			1.974			-0.987
253902.000			1.974			-0.987
254001.000			1.974			-0.987
254101.000			1.974			-0.987
254201.000			1.975			-0.987
254300.000			1.974			-0.987
254400.000			1.973			-0.986
254501.000			1.975			-0.987
254600.000			1.974			-0.987
254700.000			1.974			-0.987
254802.000			1.974			-0.987
254901.000			1.974			-0.987
255000.000			1.974			-0.987
255101.000			1.974			-0.987
255200.000			1.975			-0.988
255300.000			1.975			-0.987
255401.000			1.975			-0.987
255500.000			1.975			-0.987
255601.000			1.974			-0.987
255701.000			1.974			-0.987
255801.000			1.975			-0.987
255901.000			1.975			-0.987
256000.000			1.975			-0.987
256100.000			1.974			-0.987
256201.000			1.974			-0.987
256300.000			1.974			-0.987
256400.000			1.974			-0.987
256502.000			1.974			-0.987
256601.000			1.974			-0.987
256701.000			1.975			-0.987
256801.000			1.974			-0.987
256900.000			1.974			-0.987
257000.000			1.974			-0.987
257101.000			1.974			-0.987
257200.000			1.974			-0.987
257300.000			1.974			-0.987
257402.000			1.975			-0.988
257501.000			1.974			-0.987
257600.000			1.975			-0.987
257701.000			1.975			-0.987
257800.000			1.974			-0.987
257900.000			1.973			-0.987
258001.000			1.973			-0.987
258100.000			1.973			-0.987
258200.000			1.975			-0.987
258302.000			1.974			-0.987
258401.000			1.974			-0.987
258500.000			1.974			-0.987
258601.000			1.974			-0.987
258700.000			1.975			-0.987
258801.000			1.974			-0.987
258900.000			1.974			-0.987
259000.000			1.974			-0.987
259101.000			1.975			-0.987
259201.000			1.974			-0.987
259301.000			1.973			-0.987
259401.000			1.974			-0.987
259500.000			1.974			-0.987
259600.000			1.974			-0.987
259701.000			1.974			-0.987
259800.000			1.974			-0.987
259900.000			1.974			-0.987
260002.000			1.974			-0.987
260101.000			1.975			-0.987
260201.000			1.975			-0.987
260301.000			1.975			-0.987
260400.000			1.974			-0.987
260500.000			1.974			-0.987
260601.000			1.974			-0.987
260700.000			1.974			-0.987
260800.000			1.974			-0.987
260902.000			1.975			-0.987
261001.000			1.974			-0.987
261100.000			1.974			-0.987
261201.000			1.974			-0.987
261300.000			1.973			-0.986
261400.000			1.974			-0.987
261501.000			1.974			-0.987
261600.000			1.974			-0.987
261700.000			1.974			-0.987
261802.000			1.975			-0.987
261901.000			1.974			-0.987
262001.000			1.974			-0.987
262100.000			1.973			-0.986
262200.000			1.974			-0.987
262301.000			1.974			-0.987
262400.000			1.976			-0.988
262500.000			1.973			-0.987
262602.000			1.973			-0.987
262701.000			1.973			-0.987
262800.000			1.974			-0.987
262901.000			1.974			-0.987
263000.000			1.973			-0.987
263100.000			1.972			-0.986
263201.000			1.974			-0.987
263300.000			1.975			-0.987
263400.000			1.975			-0.987
263502.000			1.974			-0.987
263601.000			1.973			-0.987
263700.000			1.973			-0.987
263801.000			1.973			-0.986
263900.000			1.972			-0.986
264000.000			1.973			-0.986
264101.000			1.973			-0.987
264200.000			1.974			-0.987
264301.000			1.973			-0.987
264402.000			1.974			-0.987
264501.000			1.974			-0.987
264600.000			1.974			-0.987
264701.000			1.973			-0.986
264800.000			1.974			-0.987
264900.000			1.974			-0.987
265001.000			1.973			-0.986
265100.000			1.973			-0.986
265202.000			1.973			-0.987
265301.000			1.974			-0.987
265401.000			1.973			-0.987
265501.000			1.974			-0.987
265600.000			1.973			-0.986
265700.000			1.973			-0.986
265801.000			1.973			-0.986
265900.000			1.973			-0.986
266000.000			1.974			-0.987
266102.000			1.974			-0.987
266201.000			1.973			-0.986
266300.000			1.973			-0.987
266401.000			1.973			-0.987
266500.000			1.973			-0.987
266600.000			1.974			-0.987
266701.000			1.975			-0.987
266800.000			1.973			-0.987
266900.000			1.974			-0.987
267002.000			1.973			-0.987
267101.000			1.973			-0.986
267200.000			1.973			-0.986
267301.000			1.973			-0.986
267400.000			1.973			-0.987
267500.000			1.973			-0.987
267601.000			1.973			-0.986
267700.000			1.973			-0.986
267800.000			1.973			-0.986
267902.000			1.973			-0.987
268001.000			1.974			-0.987
268100.000			1.973			-0.987
268201.000			1.973			-0.986
268300.000			1.974			-0.987
268401.000			1.973			-0.987
268500.000			1.973			-0.986
268600.000			1.972			-0.986
268702.000			1.973			-0.987
268801.000			1.973			-0.987
268901.000			1.973			-0.986
269001.000			1.974			-0.987
269100.000			1.973			-0.987
269200.000			1.972			-0.986
269301.000			1.973			-0.986
269400.000			1.973			-0.986
269500.000			1.973			-0.987
269602.000			1.973			-0.986
269701.000			1.973			-0.986
269801.000			1.973			-0.986
269901.000			1.973			-0.987
270000.000			1.974			-0.987
270100.000			1.973			-0.986
270201.000			1.973			-0.986
270300.000			1.973			-0.987
270400.000			1.973			-0.986
270502.000			1.974			-0.987
270601.000			1.973			-0.986
270700.000			1.972			-0.986
270801.000			1.973			-0.986
270900.000			1.972			-0.986
271000.000			1.973			-0.986
271101.000			1.972			-0.986
271200.000			1.972			-0.986
271300.000			1.973			-0.986
271402.000			1.973			-0.987
271501.000			1.973			-0.986
271601.000			1.972			-0.986
271700.000			1.973			-0.986
271800.000			1.973			-0.986
271901.000			1.973			-0.987
272000.000			1.973			-0.986
272100.000			1.973			-0.987
272202.000			1.973			-0.987
272301.000			1.973			-0.986
272401.000			1.973			-0.986
272501.000			1.973			-0.986
272600.000			1.973			-0.987
272700.000			1.974			-0.987
272801.000			1.973			-0.987
272900.000			1.973			-0.986
273000.000			1.972			-0.986
273102.000			1.972			-0.986
273201.000			1.972			-0.986
273300.000			1.972			-0.986
273401.000			1.973			-0.987
273500.000			1.973			-0.987
273600.000			1.972			-0.986
273701.000			1.973			-0.986
273800.000			1.974			-0.987
273900.000			1.973			-0.986
274002.000			1.974			-0.987
274101.000			1.973			-0.986
274200.000			1.974			-0.987
274301.000			1.973			-0.986
274400.000			1.974			-0.987
274500.000			1.974			-0.987
274601.000			1.973			-0.987
274700.000			1.973			-0.987
274802.000			1.974			-0.987
274901.000			1.974			-0.987
275001.000			1.973			-0.987
275101.000			1.973			-0.987
275200.000			1.973			-0.986
275300.000			1.973			-0.986
275401.000			1.974			-0.987
275500.000			1.974			-0.987
275600.000			1.974			-0.987
275702.000			1.973			-0.987
275801.000			1.974			-0.987
275900.000			1.973			-0.986
276001.000			1.973			-0.986
276100.000			1.973			-0.987
276200.000			1.973			-0.987
276301.000			1.973			-0.986
276400.000			1.973			-0.987
276500.000			1.973			-0.987
276602.000			1.974			-0.987
276701.000			1.973			-0.987
276800.000			1.973			-0.987
276901.000			1.974			-0.987
277000.000			1.974			-0.987
277100.000			1.975			-0.987
277201.000			1.973			-0.986
277300.000			1.973			-0.986
277400.000			1.974			-0.987
277502.000			1.974			-0.987
277601.000			1.974			-0.987
277700.000			1.973			-0.986
277801.000			1.973			-0.986
277900.000			1.974			-0.987
278001.000			1.974			-0.987
278100.000			1.973			-0.987
278200.000			1.973			-0.987
278301.000			1.973			-0.986
278401.000			1.974			-0.987
278501.000			1.973			-0.987
278601.000			1.974			-0.987
278700.000			1.973			-0.987
278800.000			1.973			-0.986
278901.000			1.973			-0.987
279000.000			1.974			-0.987
279100.000			1.973			-0.987
279201.000			1.974			-0.987
279301.000			1.974			-0.987
279401.000			1.974			-0.987
279501.000			1.975			-0.987
279600.000			1.975			-0.987
279700.000			1.974			-0.987
279801.000			1.974			-0.987
279900.000			1.973			-0.986
280000.000			1.973			-0.987
280101.000			1.973			-0.987
280201.000			1.974			-0.987
280301.000			1.974			-0.987
280401.000			1.973			-0.987
280500.000			1.973			-0.987
280600.000			1.973			-0.986
280701.000			1.973			-0.986
280800.000			1.972			-0.986
280900.000			1.973			-0.986
281002.000			1.973			-0.987
281101.000			1.974			-0.987
281201.000			1.972			-0.986
281300.000			1.972			-0.986
281400.000			1.974			-0.987
281501.000			1.973			-0.986
281600.000			1.973			-0.986
281700.000			1.973			-0.987
281801.000			1.974			-0.987
281901.000			1.972			-0.986
282001.000			1.972			-0.986
282101.000			1.973			-0.987
282200.000			1.972			-0.986
282300.000			1.972			-0.986
282401.000			1.972			-0.986
282500.000			1.972			-0.986
282600.000			1.973			-0.986
282702.000			1.973			-0.986
282801.000			1.972			-0.986
282900.000			1.973			-0.986
283001.000			1.972			-0.986
283100.000			1.972			-0.986
283200.000			1.973			-0.986
283301.000			1.973			-0.987
283400.000			1.972			-0.986
283500.000			1.972			-0.986
283602.000			1.972			-0.986
283701.000			1.972			-0.986
283800.000			1.972			-0.986
283901.000			1.972			-0.986
284000.000			1.971			-0.986
284100.000			1.971			-0.986
284201.000			1.971			-0.986
284300.000			1.971			-0.986
284402.000			1.971			-0.986
284501.000			1.973			-0.986
284601.000			1.973			-0.986
284701.000			1.972			-0.986
284800.000			1.970			-0.985
284900.000			1.970			-0.985
285001.000			1.971			-0.985
285100.000			1.970			-0.985
285200.000			1.971			-0.985
285302.000			1.972			-0.986
285401.000			1.971			-0.986
285500.000			1.970			-0.985
285601.000			1.971			-0.985
285700.000			1.971			-0.985
285800.000			1.971			-0.985
285901.000			1.971			-0.985
286000.000			1.970			-0.985
286100.000			1.971			-0.986
286202.000			1.971			-0.986
286301.000			1.971			-0.986
286400.000			1.971			-0.986
286501.000			1.970			-0.985
286600.000			1.970			-0.985
286700.000			1.970			-0.985
286801.000			1.971			-0.986
286900.000			1.972			-0.986
287001.000			1.972			-0.986
287102.000			1.972			-0.986
287201.000			1.970			-0.985
287300.000			1.972			-0.986
287401.000			1.973			-0.986
287500.000			1.971			-0.986
287601.000			1.970			-0.985
287700.000			1.971			-0.986
287800.000			1.970			-0.985
287902.000			1.972			-0.986
288001.000			1.971			-0.986
288100.000			1.971			-0.985
288201.000			1.971			-0.986
288300.000			1.971			-0.985
288400.000			1.970			-0.985
288501.000			1.970			-0.985
288600.000			1.970			-0.985
288700.000			1.971			-0.985
288802.000			1.971			-0.986
288901.000			1.971			-0.985
289000.000			1.971			-0.986
289101.000			1.972			-0.986
289200.000			1.971			-0.985
289300.000			1.971			-0.985
289401.000			1.970			-0.985
289500.000			1.971			-0.985
289600.000			1.970			-0.985
289702.000			1.971			-0.985
289801.000			1.971			-0.986
289900.000			1.971			-0.985
290001.000			1.971			-0.985
290100.000			1.970			-0.985
290200.000			1.970			-0.985
290301.000			1.970			-0.985
290400.000			1.971			-0.986
290501.000			1.971			-0.985
290602.000			1.970			-0.985
290701.000			1.971			-0.985
290801.000			1.971			-0.986
290900.000			1.971			-0.986
291000.000			1.971			-0.985
291101.000			1.970			-0.985
291200.000			1.971			-0.985
291300.000			1.971			-0.986
291402.000			1.972			-0.986
291501.000			1.969			-0.985
291600.000			1.970			-0.985
291701.000			1.970			-0.985
291800.000			1.970			-0.985
291900.000			1.970			-0.985
292001.000			1.970			-0.985
292100.000			1.971			-0.985
292200.000			1.970			-0.985
292302.000			1.970			-0.985
292401.000			1.970			-0.985
292500.000			1.970			-0.985
292601.000			1.970			-0.985
292700.000			1.969			-0.985
292800.000			1.969			-0.985
292901.000			1.971			-0.985
293000.000			1.969			-0.985
293101.000			1.970			-0.985
293202.000			1.971			-0.985
293301.000			1.970			-0.985
293400.000			1.970			-0.985
293501.000			1.970			-0.985
293600.000			1.970			-0.985
293700.000			1.969			-0.984
293801.000			1.971			-0.985
293900.000			1.971			-0.985
294002.000			1.970			-0.985
294101.000			1.970			-0.985
294201.000			1.970			-0.985
294301.000			1.969			-0.985
294400.000			1.969			-0.985
294500.000			1.969			-0.984
294601.000			1.970			-0.985
294700.000			1.970			-0.985
294800.000			1.970			-0.985
294902.000			1.970			-0.985
295001.000			1.970			-0.985
295100.000			1.970			-0.985
295201.000			1.970			-0.985
295300.000			1.970			-0.985
295400.000			1.970			-0.985
295501.000			1.969			-0.985
295600.000			1.970			-0.985
295700.000			1.970			-0.985
295802.000			1.969			-0.985
295901.000			1.970			-0.985
296001.000			1.970			-0.985
296101.000			1.970			-0.985
296200.000			1.970			-0.985
296300.000			1.969			-0.985
296401.000			1.970			-0.985
296500.000			1.970			-0.985
296600.000			1.970			-0.985
296702.000			1.971			-0.985
296801.000			1.970			-0.985
296900.000			1.970			-0.985
297001.000			1.968			-0.984
297100.000			1.969			-0.984
297201.000			1.969			-0.985
297300.000			1.969			-0.984
297400.000			1.969			-0.984
297501.000			1.970			-0.985
297601.000			1.969			-0.984
297701.000			1.969			-0.984
297802.000			1.970			-0.985
297900.000			1.970			-0.985
298000.000			1.969			-0.985
298101.000			1.969			-0.985
298200.000			1.969			-0.985
298300.000			1.969			-0.984
298401.000			1.969			-0.984
298501.000			1.969			-0.985
298601.000			1.970			-0.985
298702.000			1.969			-0.985
298800.000			1.969			-0.984
298900.000			1.968			-0.984
299001.000			1.969			-0.984
299100.000			1.968			-0.984
299200.000			1.969			-0.985
299301.000			1.969			-0.984
299401.000			1.968			-0.984
299501.000			1.969			-0.985
299602.000			1.969			-0.985
299700.000			1.969			-0.985
299800.000			1.969			-0.985
299901.000			1.969			-0.984
