# Acquired on 20/12/2023 12:22:43 
# SPIDER: Creep_5mm_07714532C-1
# CREEP MEASUREMENT

# time [ms]		force [N]		stiffness [N/mm]
0.000			-6.001			-1.200
102.000			-6.568			-1.314
201.000			-6.831			-1.366
301.000			-6.845			-1.369
400.000			-6.816			-1.363
500.000			-6.792			-1.358
601.000			-6.773			-1.355
700.000			-6.757			-1.351
800.000			-6.740			-1.348
902.000			-6.728			-1.346
1001.000			-6.706			-1.341
1100.000			-6.695			-1.339
1201.000			-6.687			-1.337
1300.000			-6.679			-1.336
1400.000			-6.671			-1.334
1501.000			-6.662			-1.332
1601.000			-6.654			-1.331
1701.000			-6.647			-1.329
1801.000			-6.636			-1.327
1900.000			-6.630			-1.326
2000.000			-6.624			-1.325
2101.000			-6.619			-1.324
2200.000			-6.613			-1.323
2300.000			-6.608			-1.322
2402.000			-6.603			-1.321
2501.000			-6.594			-1.319
2600.000			-6.589			-1.318
2701.000			-6.584			-1.317
2800.000			-6.581			-1.316
2900.000			-6.578			-1.316
3001.000			-6.573			-1.315
3101.000			-6.569			-1.314
3202.000			-6.562			-1.312
3300.000			-6.558			-1.312
3400.000			-6.555			-1.311
3501.000			-6.551			-1.310
3600.000			-6.548			-1.310
3700.000			-6.546			-1.309
3801.000			-6.543			-1.309
3901.000			-6.538			-1.308
4001.000			-6.533			-1.307
4101.000			-6.531			-1.306
4200.000			-6.528			-1.306
4300.000			-6.524			-1.305
4401.000			-6.521			-1.304
4500.000			-6.519			-1.304
4601.000			-6.517			-1.303
4702.000			-6.512			-1.302
4800.000			-6.509			-1.302
4900.000			-6.507			-1.301
5001.000			-6.504			-1.301
5100.000			-6.502			-1.300
5200.000			-6.499			-1.300
5301.000			-6.497			-1.299
5401.000			-6.493			-1.299
5501.000			-6.490			-1.298
5601.000			-6.488			-1.298
5700.000			-6.486			-1.297
5800.000			-6.485			-1.297
5901.000			-6.483			-1.297
6000.000			-6.481			-1.296
6100.000			-6.479			-1.296
6202.000			-6.475			-1.295
6301.000			-6.472			-1.294
6400.000			-6.471			-1.294
6500.000			-6.469			-1.294
6600.000			-6.467			-1.293
6701.000			-6.466			-1.293
6800.000			-6.463			-1.293
6900.000			-6.460			-1.292
7002.000			-6.459			-1.292
7101.000			-6.457			-1.291
7200.000			-6.456			-1.291
7301.000			-6.454			-1.291
7400.000			-6.452			-1.290
7500.000			-6.451			-1.290
7601.000			-6.447			-1.289
7701.000			-6.446			-1.289
7801.000			-6.445			-1.289
7901.000			-6.443			-1.289
8000.000			-6.441			-1.288
8100.000			-6.439			-1.288
8201.000			-6.439			-1.288
8300.000			-6.437			-1.287
8400.000			-6.434			-1.287
8502.000			-6.432			-1.286
8601.000			-6.431			-1.286
8700.000			-6.429			-1.286
8801.000			-6.428			-1.286
8900.000			-6.427			-1.285
9000.000			-6.426			-1.285
9101.000			-6.423			-1.285
9201.000			-6.423			-1.285
9301.000			-6.421			-1.284
9401.000			-6.419			-1.284
9500.000			-6.417			-1.283
9600.000			-6.417			-1.283
9700.000			-6.415			-1.283
9800.000			-6.412			-1.282
9901.000			-6.411			-1.282
10001.000			-6.410			-1.282
10101.000			-6.409			-1.282
10201.000			-6.408			-1.282
10300.000			-6.406			-1.281
10400.000			-6.405			-1.281
10501.000			-6.404			-1.281
10600.000			-6.402			-1.280
10700.000			-6.401			-1.280
10802.000			-6.400			-1.280
10901.000			-6.399			-1.280
11000.000			-6.398			-1.280
11101.000			-6.396			-1.279
11200.000			-6.394			-1.279
11300.000			-6.393			-1.279
11401.000			-6.392			-1.278
11501.000			-6.391			-1.278
11601.000			-6.389			-1.278
11702.000			-6.389			-1.278
11800.000			-6.387			-1.277
11900.000			-6.387			-1.277
12001.000			-6.385			-1.277
12100.000			-6.385			-1.277
12200.000			-6.383			-1.277
12301.000			-6.382			-1.276
12401.000			-6.382			-1.276
12501.000			-6.381			-1.276
12601.000			-6.379			-1.276
12700.000			-6.378			-1.276
12800.000			-6.375			-1.275
12900.000			-6.374			-1.275
13000.000			-6.373			-1.275
13102.000			-6.372			-1.274
13201.000			-6.373			-1.275
13300.000			-6.372			-1.274
13401.000			-6.370			-1.274
13500.000			-6.368			-1.274
13600.000			-6.366			-1.273
13701.000			-6.367			-1.273
13800.000			-6.366			-1.273
13901.000			-6.364			-1.273
14002.000			-6.364			-1.273
14100.000			-6.363			-1.273
14200.000			-6.362			-1.272
14301.000			-6.360			-1.272
14400.000			-6.359			-1.272
14500.000			-6.358			-1.272
14601.000			-6.356			-1.271
14701.000			-6.356			-1.271
14801.000			-6.356			-1.271
14901.000			-6.353			-1.271
15000.000			-6.353			-1.271
15100.000			-6.352			-1.270
15201.000			-6.351			-1.270
15300.000			-6.352			-1.270
15400.000			-6.351			-1.270
15502.000			-6.349			-1.270
15601.000			-6.349			-1.270
15700.000			-6.347			-1.269
15801.000			-6.346			-1.269
15900.000			-6.345			-1.269
16000.000			-6.344			-1.269
16100.000			-6.344			-1.269
16200.000			-6.342			-1.268
16302.000			-6.343			-1.269
16401.000			-6.340			-1.268
16500.000			-6.340			-1.268
16601.000			-6.339			-1.268
16700.000			-6.339			-1.268
16800.000			-6.338			-1.268
16901.000			-6.337			-1.267
17000.000			-6.337			-1.267
17101.000			-6.335			-1.267
17202.000			-6.334			-1.267
17300.000			-6.334			-1.267
17400.000			-6.333			-1.267
17501.000			-6.332			-1.266
17600.000			-6.331			-1.266
17700.000			-6.330			-1.266
17802.000			-6.330			-1.266
17901.000			-6.329			-1.266
18001.000			-6.328			-1.266
18101.000			-6.327			-1.265
18200.000			-6.326			-1.265
18300.000			-6.326			-1.265
18401.000			-6.324			-1.265
18500.000			-6.323			-1.265
18601.000			-6.323			-1.265
18702.000			-6.322			-1.264
18800.000			-6.321			-1.264
18900.000			-6.321			-1.264
19001.000			-6.320			-1.264
19100.000			-6.320			-1.264
19200.000			-6.320			-1.264
19300.000			-6.318			-1.264
19401.000			-6.318			-1.264
19502.000			-6.317			-1.263
19600.000			-6.316			-1.263
19700.000			-6.315			-1.263
19801.000			-6.315			-1.263
19900.000			-6.314			-1.263
20000.000			-6.314			-1.263
20101.000			-6.312			-1.262
20201.000			-6.311			-1.262
20301.000			-6.310			-1.262
20401.000			-6.310			-1.262
20500.000			-6.309			-1.262
20600.000			-6.310			-1.262
20701.000			-6.309			-1.262
20800.000			-6.306			-1.261
20900.000			-6.306			-1.261
21002.000			-6.305			-1.261
21101.000			-6.305			-1.261
21200.000			-6.305			-1.261
21301.000			-6.304			-1.261
21400.000			-6.303			-1.261
21500.000			-6.303			-1.261
21601.000			-6.302			-1.260
21701.000			-6.301			-1.260
21801.000			-6.300			-1.260
21901.000			-6.301			-1.260
22000.000			-6.300			-1.260
22100.000			-6.299			-1.260
22201.000			-6.298			-1.260
22300.000			-6.297			-1.259
22400.000			-6.297			-1.259
22502.000			-6.296			-1.259
22601.000			-6.295			-1.259
22701.000			-6.296			-1.259
22800.000			-6.295			-1.259
22900.000			-6.294			-1.259
23001.000			-6.294			-1.259
23100.000			-6.293			-1.259
23200.000			-6.292			-1.258
23302.000			-6.292			-1.258
23401.000			-6.291			-1.258
23500.000			-6.290			-1.258
23601.000			-6.290			-1.258
23700.000			-6.290			-1.258
23800.000			-6.289			-1.258
23901.000			-6.287			-1.257
24000.000			-6.286			-1.257
24101.000			-6.286			-1.257
24202.000			-6.286			-1.257
24300.000			-6.285			-1.257
24400.000			-6.285			-1.257
24501.000			-6.284			-1.257
24600.000			-6.283			-1.257
24700.000			-6.283			-1.257
24801.000			-6.283			-1.257
24901.000			-6.282			-1.256
25001.000			-6.281			-1.256
25101.000			-6.280			-1.256
25200.000			-6.280			-1.256
25300.000			-6.280			-1.256
25401.000			-6.279			-1.256
25500.000			-6.279			-1.256
25600.000			-6.278			-1.256
25702.000			-6.278			-1.256
25801.000			-6.277			-1.255
25901.000			-6.277			-1.255
26000.000			-6.277			-1.255
26100.000			-6.276			-1.255
26201.000			-6.274			-1.255
26300.000			-6.273			-1.255
26400.000			-6.273			-1.255
26502.000			-6.273			-1.255
26601.000			-6.273			-1.255
26700.000			-6.272			-1.254
26801.000			-6.272			-1.254
26900.000			-6.271			-1.254
27000.000			-6.271			-1.254
27101.000			-6.271			-1.254
27201.000			-6.270			-1.254
27301.000			-6.269			-1.254
27402.000			-6.269			-1.254
27500.000			-6.269			-1.254
27600.000			-6.269			-1.254
27701.000			-6.268			-1.254
27800.000			-6.267			-1.253
27900.000			-6.266			-1.253
28001.000			-6.266			-1.253
28101.000			-6.265			-1.253
28201.000			-6.263			-1.253
28301.000			-6.263			-1.253
28400.000			-6.263			-1.253
28500.000			-6.262			-1.252
28601.000			-6.261			-1.252
28700.000			-6.261			-1.252
28800.000			-6.261			-1.252
28902.000			-6.260			-1.252
29001.000			-6.260			-1.252
29101.000			-6.260			-1.252
29200.000			-6.260			-1.252
29300.000			-6.259			-1.252
29401.000			-6.259			-1.252
29500.000			-6.258			-1.252
29600.000			-6.257			-1.251
29702.000			-6.257			-1.251
29801.000			-6.256			-1.251
29900.000			-6.256			-1.251
30001.000			-6.255			-1.251
30100.000			-6.254			-1.251
30200.000			-6.253			-1.251
30301.000			-6.254			-1.251
30401.000			-6.254			-1.251
30501.000			-6.253			-1.251
30601.000			-6.252			-1.250
30700.000			-6.251			-1.250
30800.000			-6.251			-1.250
30901.000			-6.251			-1.250
31000.000			-6.250			-1.250
31100.000			-6.250			-1.250
31202.000			-6.250			-1.250
31301.000			-6.249			-1.250
31400.000			-6.249			-1.250
31501.000			-6.248			-1.250
31600.000			-6.247			-1.249
31700.000			-6.247			-1.249
31801.000			-6.247			-1.249
31900.000			-6.247			-1.249
32002.000			-6.246			-1.249
32101.000			-6.247			-1.249
32200.000			-6.246			-1.249
32301.000			-6.245			-1.249
32400.000			-6.245			-1.249
32500.000			-6.245			-1.249
32601.000			-6.244			-1.249
32700.000			-6.244			-1.249
32801.000			-6.243			-1.249
32902.000			-6.243			-1.249
33000.000			-6.242			-1.248
33100.000			-6.241			-1.248
33201.000			-6.240			-1.248
33300.000			-6.240			-1.248
33400.000			-6.239			-1.248
33502.000			-6.239			-1.248
33601.000			-6.238			-1.248
33701.000			-6.238			-1.248
33801.000			-6.238			-1.248
33900.000			-6.239			-1.248
34000.000			-6.237			-1.247
34101.000			-6.236			-1.247
34200.000			-6.236			-1.247
34301.000			-6.236			-1.247
34402.000			-6.236			-1.247
34501.000			-6.236			-1.247
34600.000			-6.235			-1.247
34701.000			-6.234			-1.247
34800.000			-6.234			-1.247
34900.000			-6.235			-1.247
35001.000			-6.234			-1.247
35101.000			-6.234			-1.247
35202.000			-6.233			-1.247
35301.000			-6.233			-1.247
35400.000			-6.232			-1.246
35501.000			-6.231			-1.246
35600.000			-6.230			-1.246
35700.000			-6.230			-1.246
35801.000			-6.229			-1.246
35901.000			-6.229			-1.246
36001.000			-6.229			-1.246
36101.000			-6.228			-1.246
36200.000			-6.228			-1.246
36300.000			-6.228			-1.246
36401.000			-6.227			-1.245
36500.000			-6.227			-1.245
36600.000			-6.227			-1.245
36702.000			-6.227			-1.245
36801.000			-6.226			-1.245
36900.000			-6.226			-1.245
37001.000			-6.225			-1.245
37100.000			-6.224			-1.245
37200.000			-6.224			-1.245
37301.000			-6.224			-1.245
37400.000			-6.223			-1.245
37501.000			-6.223			-1.245
37602.000			-6.223			-1.244
37700.000			-6.222			-1.244
37800.000			-6.221			-1.244
37901.000			-6.221			-1.244
38000.000			-6.222			-1.244
38100.000			-6.221			-1.244
38202.000			-6.221			-1.244
38301.000			-6.221			-1.244
38400.000			-6.219			-1.244
38500.000			-6.218			-1.244
38600.000			-6.217			-1.243
38701.000			-6.218			-1.244
38800.000			-6.217			-1.243
38900.000			-6.217			-1.243
39002.000			-6.216			-1.243
39101.000			-6.217			-1.243
39200.000			-6.216			-1.243
39301.000			-6.216			-1.243
39400.000			-6.217			-1.243
39500.000			-6.216			-1.243
39601.000			-6.214			-1.243
39700.000			-6.214			-1.243
39801.000			-6.214			-1.243
39902.000			-6.213			-1.243
40000.000			-6.214			-1.243
40100.000			-6.214			-1.243
40201.000			-6.214			-1.243
40300.000			-6.213			-1.243
40400.000			-6.213			-1.243
40501.000			-6.213			-1.243
40601.000			-6.212			-1.242
40701.000			-6.211			-1.242
40801.000			-6.210			-1.242
40900.000			-6.209			-1.242
41000.000			-6.210			-1.242
41101.000			-6.211			-1.242
41200.000			-6.209			-1.242
41301.000			-6.209			-1.242
41402.000			-6.209			-1.242
41500.000			-6.209			-1.242
41600.000			-6.208			-1.242
41700.000			-6.208			-1.242
41800.000			-6.207			-1.241
41901.000			-6.207			-1.241
42000.000			-6.207			-1.241
42101.000			-6.207			-1.241
42202.000			-6.207			-1.241
42300.000			-6.207			-1.241
42400.000			-6.206			-1.241
42501.000			-6.206			-1.241
42600.000			-6.205			-1.241
42700.000			-6.205			-1.241
42802.000			-6.204			-1.241
42901.000			-6.204			-1.241
43000.000			-6.204			-1.241
43101.000			-6.203			-1.241
43200.000			-6.203			-1.241
43300.000			-6.203			-1.241
43401.000			-6.202			-1.240
43500.000			-6.202			-1.240
43601.000			-6.202			-1.240
43702.000			-6.201			-1.240
43800.000			-6.201			-1.240
43900.000			-6.200			-1.240
44001.000			-6.200			-1.240
44100.000			-6.200			-1.240
44200.000			-6.200			-1.240
44301.000			-6.198			-1.240
44401.000			-6.199			-1.240
44501.000			-6.198			-1.240
44601.000			-6.198			-1.240
44700.000			-6.198			-1.240
44800.000			-6.197			-1.239
44900.000			-6.198			-1.240
45000.000			-6.197			-1.239
45101.000			-6.197			-1.239
45201.000			-6.197			-1.239
45301.000			-6.197			-1.239
45401.000			-6.196			-1.239
45500.000			-6.196			-1.239
45600.000			-6.195			-1.239
45701.000			-6.195			-1.239
45800.000			-6.195			-1.239
45900.000			-6.194			-1.239
46002.000			-6.194			-1.239
46101.000			-6.193			-1.239
46200.000			-6.194			-1.239
46301.000			-6.193			-1.239
46400.000			-6.193			-1.239
46500.000			-6.191			-1.238
46601.000			-6.191			-1.238
46700.000			-6.192			-1.238
46801.000			-6.191			-1.238
46902.000			-6.190			-1.238
47000.000			-6.191			-1.238
47100.000			-6.191			-1.238
47201.000			-6.191			-1.238
47300.000			-6.190			-1.238
47400.000			-6.190			-1.238
47501.000			-6.189			-1.238
47601.000			-6.189			-1.238
47701.000			-6.189			-1.238
47801.000			-6.189			-1.238
47900.000			-6.188			-1.238
48000.000			-6.188			-1.238
48100.000			-6.187			-1.237
48200.000			-6.187			-1.237
48301.000			-6.186			-1.237
48401.000			-6.187			-1.237
48501.000			-6.186			-1.237
48601.000			-6.185			-1.237
48700.000			-6.185			-1.237
48800.000			-6.185			-1.237
48901.000			-6.185			-1.237
49000.000			-6.184			-1.237
49100.000			-6.183			-1.237
49202.000			-6.183			-1.237
49301.000			-6.183			-1.237
49400.000			-6.183			-1.237
49501.000			-6.184			-1.237
49600.000			-6.183			-1.237
49700.000			-6.182			-1.236
49801.000			-6.182			-1.236
49900.000			-6.182			-1.236
50001.000			-6.181			-1.236
50102.000			-6.181			-1.236
50200.000			-6.179			-1.236
50300.000			-6.179			-1.236
50401.000			-6.179			-1.236
50500.000			-6.180			-1.236
50600.000			-6.179			-1.236
50701.000			-6.179			-1.236
50801.000			-6.179			-1.236
50901.000			-6.179			-1.236
51001.000			-6.179			-1.236
51100.000			-6.178			-1.236
51200.000			-6.178			-1.236
51300.000			-6.178			-1.236
51400.000			-6.177			-1.235
51501.000			-6.176			-1.235
51601.000			-6.176			-1.235
51701.000			-6.176			-1.235
51801.000			-6.175			-1.235
51900.000			-6.176			-1.235
52000.000			-6.175			-1.235
52101.000			-6.175			-1.235
52200.000			-6.175			-1.235
52300.000			-6.175			-1.235
52402.000			-6.174			-1.235
52501.000			-6.173			-1.235
52600.000			-6.174			-1.235
52701.000			-6.174			-1.235
52800.000			-6.174			-1.235
52900.000			-6.173			-1.235
53001.000			-6.173			-1.235
53101.000			-6.173			-1.235
53201.000			-6.173			-1.235
53301.000			-6.174			-1.235
53400.000			-6.173			-1.235
53500.000			-6.172			-1.234
53601.000			-6.171			-1.234
53700.000			-6.171			-1.234
53800.000			-6.170			-1.234
53902.000			-6.170			-1.234
54001.000			-6.170			-1.234
54100.000			-6.169			-1.234
54201.000			-6.170			-1.234
54300.000			-6.170			-1.234
54400.000			-6.170			-1.234
54500.000			-6.169			-1.234
54600.000			-6.169			-1.234
54702.000			-6.169			-1.234
54801.000			-6.169			-1.234
54900.000			-6.169			-1.234
55001.000			-6.169			-1.234
55100.000			-6.168			-1.234
55200.000			-6.168			-1.234
55301.000			-6.168			-1.234
55400.000			-6.167			-1.233
55501.000			-6.168			-1.234
55602.000			-6.167			-1.233
55700.000			-6.166			-1.233
55800.000			-6.165			-1.233
55901.000			-6.166			-1.233
56000.000			-6.166			-1.233
56100.000			-6.165			-1.233
56201.000			-6.165			-1.233
56301.000			-6.165			-1.233
56401.000			-6.165			-1.233
56501.000			-6.164			-1.233
56600.000			-6.163			-1.233
56700.000			-6.163			-1.233
56801.000			-6.163			-1.233
56900.000			-6.163			-1.233
57000.000			-6.162			-1.232
57102.000			-6.162			-1.232
57201.000			-6.163			-1.233
57300.000			-6.163			-1.233
57401.000			-6.161			-1.232
57500.000			-6.162			-1.232
57600.000			-6.161			-1.232
57700.000			-6.160			-1.232
57800.000			-6.160			-1.232
57902.000			-6.160			-1.232
58001.000			-6.160			-1.232
58100.000			-6.159			-1.232
58201.000			-6.159			-1.232
58300.000			-6.158			-1.232
58400.000			-6.158			-1.232
58501.000			-6.159			-1.232
58600.000			-6.159			-1.232
58701.000			-6.159			-1.232
58802.000			-6.158			-1.232
58900.000			-6.158			-1.232
59000.000			-6.157			-1.231
59101.000			-6.157			-1.231
59200.000			-6.156			-1.231
59300.000			-6.156			-1.231
59401.000			-6.157			-1.231
59501.000			-6.156			-1.231
59601.000			-6.156			-1.231
59701.000			-6.155			-1.231
59800.000			-6.155			-1.231
59900.000			-6.155			-1.231
60001.000			-6.155			-1.231
60100.000			-6.154			-1.231
60200.000			-6.154			-1.231
60302.000			-6.154			-1.231
60401.000			-6.154			-1.231
60500.000			-6.152			-1.230
60601.000			-6.152			-1.230
60700.000			-6.153			-1.231
60800.000			-6.152			-1.230
60900.000			-6.153			-1.231
61000.000			-6.153			-1.231
61102.000			-6.152			-1.230
61201.000			-6.152			-1.230
61300.000			-6.152			-1.230
61401.000			-6.152			-1.230
61500.000			-6.152			-1.230
61600.000			-6.151			-1.230
61701.000			-6.150			-1.230
61801.000			-6.151			-1.230
61901.000			-6.150			-1.230
62001.000			-6.150			-1.230
62100.000			-6.151			-1.230
62200.000			-6.150			-1.230
62301.000			-6.150			-1.230
62400.000			-6.150			-1.230
62500.000			-6.149			-1.230
62602.000			-6.149			-1.230
62701.000			-6.149			-1.230
62800.000			-6.148			-1.230
62901.000			-6.148			-1.230
63000.000			-6.148			-1.230
63100.000			-6.147			-1.229
63201.000			-6.148			-1.230
63300.000			-6.147			-1.229
63401.000			-6.147			-1.229
63502.000			-6.147			-1.229
63600.000			-6.145			-1.229
63700.000			-6.145			-1.229
63801.000			-6.145			-1.229
63900.000			-6.145			-1.229
64000.000			-6.145			-1.229
64100.000			-6.145			-1.229
64201.000			-6.144			-1.229
64302.000			-6.144			-1.229
64400.000			-6.145			-1.229
64500.000			-6.144			-1.229
64601.000			-6.145			-1.229
64700.000			-6.145			-1.229
64800.000			-6.143			-1.229
64901.000			-6.143			-1.229
65001.000			-6.144			-1.229
65101.000			-6.143			-1.229
65201.000			-6.142			-1.228
65300.000			-6.142			-1.228
65400.000			-6.142			-1.228
65501.000			-6.142			-1.228
65600.000			-6.142			-1.228
65701.000			-6.141			-1.228
65802.000			-6.141			-1.228
65901.000			-6.140			-1.228
66000.000			-6.140			-1.228
66101.000			-6.140			-1.228
66200.000			-6.140			-1.228
66300.000			-6.140			-1.228
66401.000			-6.140			-1.228
66501.000			-6.140			-1.228
66601.000			-6.140			-1.228
66701.000			-6.140			-1.228
66800.000			-6.139			-1.228
66900.000			-6.139			-1.228
67001.000			-6.138			-1.228
67100.000			-6.139			-1.228
67200.000			-6.138			-1.228
67300.000			-6.138			-1.228
67401.000			-6.138			-1.228
67502.000			-6.138			-1.228
67600.000			-6.138			-1.228
67700.000			-6.137			-1.227
67801.000			-6.136			-1.227
67900.000			-6.135			-1.227
68000.000			-6.135			-1.227
68101.000			-6.136			-1.227
68201.000			-6.136			-1.227
68301.000			-6.136			-1.227
68401.000			-6.136			-1.227
68500.000			-6.135			-1.227
68600.000			-6.134			-1.227
68701.000			-6.134			-1.227
68800.000			-6.135			-1.227
68900.000			-6.134			-1.227
69002.000			-6.133			-1.227
69101.000			-6.134			-1.227
69200.000			-6.133			-1.227
69301.000			-6.132			-1.226
69400.000			-6.133			-1.227
69500.000			-6.132			-1.226
69601.000			-6.132			-1.226
69700.000			-6.132			-1.226
69801.000			-6.131			-1.226
69902.000			-6.131			-1.226
70000.000			-6.130			-1.226
70100.000			-6.131			-1.226
70201.000			-6.131			-1.226
70300.000			-6.130			-1.226
70400.000			-6.130			-1.226
70500.000			-6.130			-1.226
70601.000			-6.130			-1.226
70702.000			-6.130			-1.226
70800.000			-6.130			-1.226
70900.000			-6.129			-1.226
71001.000			-6.129			-1.226
71100.000			-6.130			-1.226
71200.000			-6.129			-1.226
71301.000			-6.130			-1.226
71401.000			-6.128			-1.226
71501.000			-6.129			-1.226
71601.000			-6.128			-1.226
71700.000			-6.128			-1.226
71800.000			-6.127			-1.225
71901.000			-6.127			-1.225
72000.000			-6.127			-1.225
72100.000			-6.128			-1.226
72202.000			-6.127			-1.225
72301.000			-6.126			-1.225
72400.000			-6.126			-1.225
72501.000			-6.126			-1.225
72600.000			-6.127			-1.225
72700.000			-6.127			-1.225
72801.000			-6.126			-1.225
72901.000			-6.126			-1.225
73001.000			-6.125			-1.225
73102.000			-6.125			-1.225
73200.000			-6.125			-1.225
73300.000			-6.125			-1.225
73401.000			-6.124			-1.225
73500.000			-6.124			-1.225
73600.000			-6.125			-1.225
73702.000			-6.123			-1.225
73801.000			-6.124			-1.225
73901.000			-6.123			-1.225
74000.000			-6.123			-1.225
74100.000			-6.122			-1.224
74201.000			-6.123			-1.225
74300.000			-6.123			-1.225
74400.000			-6.123			-1.225
74502.000			-6.123			-1.225
74601.000			-6.122			-1.224
74700.000			-6.122			-1.224
74801.000			-6.121			-1.224
74900.000			-6.121			-1.224
75000.000			-6.121			-1.224
75101.000			-6.121			-1.224
75200.000			-6.120			-1.224
75301.000			-6.119			-1.224
75402.000			-6.121			-1.224
75500.000			-6.121			-1.224
75600.000			-6.119			-1.224
75701.000			-6.120			-1.224
75800.000			-6.120			-1.224
75900.000			-6.121			-1.224
76001.000			-6.120			-1.224
76101.000			-6.119			-1.224
76201.000			-6.118			-1.224
76301.000			-6.118			-1.224
76400.000			-6.118			-1.224
76500.000			-6.118			-1.224
76601.000			-6.118			-1.224
76700.000			-6.119			-1.224
76800.000			-6.119			-1.224
76902.000			-6.119			-1.224
77001.000			-6.118			-1.224
77101.000			-6.118			-1.224
77200.000			-6.118			-1.224
77300.000			-6.118			-1.224
77401.000			-6.116			-1.223
77500.000			-6.116			-1.223
77600.000			-6.118			-1.224
77702.000			-6.116			-1.223
77801.000			-6.116			-1.223
77901.000			-6.116			-1.223
78001.000			-6.115			-1.223
78100.000			-6.115			-1.223
78200.000			-6.116			-1.223
78301.000			-6.116			-1.223
78400.000			-6.115			-1.223
78500.000			-6.114			-1.223
78602.000			-6.114			-1.223
78701.000			-6.114			-1.223
78800.000			-6.113			-1.223
78901.000			-6.114			-1.223
79000.000			-6.113			-1.223
79100.000			-6.114			-1.223
79201.000			-6.114			-1.223
79301.000			-6.113			-1.223
79401.000			-6.113			-1.223
79502.000			-6.113			-1.223
79600.000			-6.113			-1.223
79700.000			-6.113			-1.223
79801.000			-6.113			-1.223
79900.000			-6.113			-1.223
80000.000			-6.112			-1.222
80100.000			-6.111			-1.222
80201.000			-6.112			-1.222
80302.000			-6.112			-1.222
80400.000			-6.111			-1.222
80500.000			-6.112			-1.222
80601.000			-6.111			-1.222
80700.000			-6.111			-1.222
80800.000			-6.110			-1.222
80902.000			-6.110			-1.222
81001.000			-6.109			-1.222
81100.000			-6.110			-1.222
81201.000			-6.110			-1.222
81300.000			-6.110			-1.222
81400.000			-6.110			-1.222
81501.000			-6.109			-1.222
81600.000			-6.110			-1.222
81701.000			-6.110			-1.222
81802.000			-6.109			-1.222
81900.000			-6.109			-1.222
82000.000			-6.108			-1.222
82101.000			-6.109			-1.222
82200.000			-6.108			-1.222
82300.000			-6.108			-1.222
82401.000			-6.107			-1.221
82501.000			-6.108			-1.222
82601.000			-6.109			-1.222
82701.000			-6.109			-1.222
82800.000			-6.108			-1.222
82900.000			-6.107			-1.221
83001.000			-6.107			-1.221
83100.000			-6.106			-1.221
83200.000			-6.107			-1.221
83302.000			-6.107			-1.221
83401.000			-6.106			-1.221
83501.000			-6.106			-1.221
83600.000			-6.105			-1.221
83700.000			-6.105			-1.221
83801.000			-6.105			-1.221
83900.000			-6.106			-1.221
84000.000			-6.106			-1.221
84102.000			-6.105			-1.221
84201.000			-6.105			-1.221
84300.000			-6.105			-1.221
84401.000			-6.104			-1.221
84500.000			-6.104			-1.221
84600.000			-6.103			-1.221
84701.000			-6.103			-1.221
84800.000			-6.103			-1.221
84901.000			-6.103			-1.221
85002.000			-6.102			-1.220
85100.000			-6.104			-1.221
85200.000			-6.104			-1.221
85301.000			-6.102			-1.220
85400.000			-6.102			-1.220
85500.000			-6.103			-1.221
85601.000			-6.101			-1.220
85701.000			-6.101			-1.220
85801.000			-6.102			-1.220
85901.000			-6.101			-1.220
86000.000			-6.101			-1.220
86100.000			-6.101			-1.220
86201.000			-6.100			-1.220
86300.000			-6.101			-1.220
86400.000			-6.100			-1.220
86502.000			-6.100			-1.220
86601.000			-6.100			-1.220
86701.000			-6.100			-1.220
86800.000			-6.100			-1.220
86900.000			-6.100			-1.220
87001.000			-6.099			-1.220
87100.000			-6.099			-1.220
87200.000			-6.100			-1.220
87302.000			-6.099			-1.220
87401.000			-6.099			-1.220
87500.000			-6.098			-1.220
87601.000			-6.099			-1.220
87700.000			-6.099			-1.220
87800.000			-6.099			-1.220
87901.000			-6.098			-1.220
88000.000			-6.098			-1.220
88101.000			-6.097			-1.219
88202.000			-6.098			-1.220
88300.000			-6.097			-1.219
88400.000			-6.097			-1.219
88501.000			-6.097			-1.219
88600.000			-6.097			-1.219
88700.000			-6.097			-1.219
88801.000			-6.096			-1.219
88900.000			-6.096			-1.219
89001.000			-6.096			-1.219
89102.000			-6.096			-1.219
89200.000			-6.096			-1.219
89300.000			-6.095			-1.219
89401.000			-6.095			-1.219
89500.000			-6.096			-1.219
89600.000			-6.096			-1.219
89700.000			-6.095			-1.219
89801.000			-6.095			-1.219
89902.000			-6.096			-1.219
90001.000			-6.095			-1.219
90100.000			-6.094			-1.219
90201.000			-6.095			-1.219
90300.000			-6.094			-1.219
90400.000			-6.094			-1.219
90501.000			-6.093			-1.219
90601.000			-6.094			-1.219
90701.000			-6.094			-1.219
90801.000			-6.093			-1.219
90900.000			-6.092			-1.218
91000.000			-6.092			-1.218
91101.000			-6.094			-1.219
91200.000			-6.091			-1.218
91300.000			-6.091			-1.218
91402.000			-6.092			-1.218
91501.000			-6.092			-1.218
91600.000			-6.092			-1.218
91701.000			-6.091			-1.218
91800.000			-6.091			-1.218
91900.000			-6.092			-1.218
92001.000			-6.091			-1.218
92100.000			-6.091			-1.218
92201.000			-6.092			-1.218
92302.000			-6.091			-1.218
92401.000			-6.091			-1.218
92500.000			-6.090			-1.218
92601.000			-6.090			-1.218
92700.000			-6.091			-1.218
92800.000			-6.091			-1.218
92900.000			-6.090			-1.218
93001.000			-6.090			-1.218
93102.000			-6.091			-1.218
93200.000			-6.090			-1.218
93300.000			-6.089			-1.218
93401.000			-6.090			-1.218
93500.000			-6.089			-1.218
93600.000			-6.089			-1.218
93701.000			-6.088			-1.218
93801.000			-6.088			-1.218
93901.000			-6.088			-1.218
94002.000			-6.088			-1.218
94100.000			-6.087			-1.217
94200.000			-6.088			-1.218
94301.000			-6.088			-1.218
94400.000			-6.088			-1.218
94500.000			-6.087			-1.217
94601.000			-6.087			-1.217
94701.000			-6.088			-1.218
94801.000			-6.086			-1.217
94901.000			-6.086			-1.217
95000.000			-6.087			-1.217
95100.000			-6.087			-1.217
95201.000			-6.086			-1.217
95300.000			-6.086			-1.217
95400.000			-6.086			-1.217
95502.000			-6.086			-1.217
95601.000			-6.085			-1.217
95701.000			-6.085			-1.217
95801.000			-6.086			-1.217
95900.000			-6.086			-1.217
96000.000			-6.086			-1.217
96100.000			-6.085			-1.217
96200.000			-6.084			-1.217
96301.000			-6.084			-1.217
96401.000			-6.084			-1.217
96501.000			-6.084			-1.217
96601.000			-6.084			-1.217
96700.000			-6.083			-1.217
96800.000			-6.085			-1.217
96901.000			-6.085			-1.217
97000.000			-6.084			-1.217
97100.000			-6.083			-1.217
97202.000			-6.083			-1.217
97301.000			-6.082			-1.216
97400.000			-6.083			-1.217
97501.000			-6.084			-1.217
97600.000			-6.084			-1.217
97700.000			-6.083			-1.217
97801.000			-6.082			-1.216
97900.000			-6.082			-1.216
98001.000			-6.082			-1.216
98102.000			-6.082			-1.216
98200.000			-6.081			-1.216
98300.000			-6.081			-1.216
98401.000			-6.081			-1.216
98500.000			-6.081			-1.216
98600.000			-6.082			-1.216
98701.000			-6.081			-1.216
98801.000			-6.081			-1.216
98901.000			-6.081			-1.216
99001.000			-6.081			-1.216
99100.000			-6.080			-1.216
99200.000			-6.079			-1.216
99300.000			-6.080			-1.216
99400.000			-6.080			-1.216
99501.000			-6.080			-1.216
99600.000			-6.080			-1.216
99701.000			-6.080			-1.216
99802.000			-6.079			-1.216
99900.000			-6.079			-1.216
100000.000			-6.079			-1.216
100101.000			-6.079			-1.216
100200.000			-6.080			-1.216
100300.000			-6.079			-1.216
100401.000			-6.079			-1.216
100501.000			-6.078			-1.216
100601.000			-6.079			-1.216
100701.000			-6.078			-1.216
100800.000			-6.077			-1.215
100900.000			-6.078			-1.216
101001.000			-6.078			-1.216
101100.000			-6.077			-1.215
101200.000			-6.077			-1.215
101302.000			-6.077			-1.215
101401.000			-6.077			-1.215
101500.000			-6.076			-1.215
101601.000			-6.076			-1.215
101700.000			-6.077			-1.215
101800.000			-6.077			-1.215
101901.000			-6.077			-1.215
102000.000			-6.076			-1.215
102100.000			-6.076			-1.215
102202.000			-6.076			-1.215
102301.000			-6.076			-1.215
102400.000			-6.076			-1.215
102500.000			-6.076			-1.215
102600.000			-6.076			-1.215
102701.000			-6.076			-1.215
102800.000			-6.075			-1.215
102900.000			-6.075			-1.215
103002.000			-6.075			-1.215
103101.000			-6.074			-1.215
103200.000			-6.075			-1.215
103301.000			-6.075			-1.215
103400.000			-6.074			-1.215
103500.000			-6.073			-1.215
103601.000			-6.073			-1.215
103700.000			-6.074			-1.215
103801.000			-6.074			-1.215
103902.000			-6.074			-1.215
104000.000			-6.074			-1.215
104100.000			-6.074			-1.215
104201.000			-6.074			-1.215
104300.000			-6.074			-1.215
104400.000			-6.074			-1.215
104501.000			-6.074			-1.215
104601.000			-6.073			-1.215
104701.000			-6.072			-1.214
104801.000			-6.072			-1.214
104900.000			-6.072			-1.214
105000.000			-6.072			-1.214
105101.000			-6.072			-1.214
105200.000			-6.072			-1.214
105300.000			-6.071			-1.214
105402.000			-6.071			-1.214
105501.000			-6.071			-1.214
105600.000			-6.072			-1.214
105700.000			-6.071			-1.214
105800.000			-6.072			-1.214
105901.000			-6.071			-1.214
106000.000			-6.071			-1.214
106100.000			-6.070			-1.214
106202.000			-6.070			-1.214
106301.000			-6.070			-1.214
106401.000			-6.070			-1.214
106501.000			-6.071			-1.214
106600.000			-6.069			-1.214
106700.000			-6.070			-1.214
106801.000			-6.071			-1.214
106900.000			-6.070			-1.214
107000.000			-6.069			-1.214
107102.000			-6.069			-1.214
107201.000			-6.068			-1.214
107300.000			-6.069			-1.214
107401.000			-6.069			-1.214
107500.000			-6.069			-1.214
107600.000			-6.069			-1.214
107701.000			-6.069			-1.214
107800.000			-6.069			-1.214
107901.000			-6.069			-1.214
108002.000			-6.068			-1.214
108101.000			-6.068			-1.214
108200.000			-6.067			-1.213
108301.000			-6.066			-1.213
108400.000			-6.067			-1.213
108500.000			-6.067			-1.213
108601.000			-6.068			-1.214
108700.000			-6.067			-1.213
108802.000			-6.067			-1.213
108901.000			-6.067			-1.213
109000.000			-6.067			-1.213
109101.000			-6.067			-1.213
109200.000			-6.066			-1.213
109300.000			-6.066			-1.213
109401.000			-6.067			-1.213
109500.000			-6.066			-1.213
109601.000			-6.066			-1.213
109702.000			-6.066			-1.213
109801.000			-6.066			-1.213
109900.000			-6.065			-1.213
110001.000			-6.064			-1.213
110100.000			-6.064			-1.213
110200.000			-6.064			-1.213
110301.000			-6.066			-1.213
110400.000			-6.065			-1.213
110501.000			-6.065			-1.213
110602.000			-6.064			-1.213
110700.000			-6.063			-1.213
110800.000			-6.063			-1.213
110901.000			-6.064			-1.213
111000.000			-6.064			-1.213
111100.000			-6.064			-1.213
111202.000			-6.064			-1.213
111301.000			-6.063			-1.213
111401.000			-6.063			-1.213
111501.000			-6.064			-1.213
111600.000			-6.063			-1.213
111700.000			-6.063			-1.213
111801.000			-6.063			-1.213
111900.000			-6.063			-1.213
112000.000			-6.062			-1.212
112102.000			-6.061			-1.212
112201.000			-6.061			-1.212
112301.000			-6.061			-1.212
112400.000			-6.060			-1.212
112500.000			-6.061			-1.212
112601.000			-6.061			-1.212
112700.000			-6.062			-1.212
112800.000			-6.061			-1.212
112902.000			-6.061			-1.212
113001.000			-6.060			-1.212
113100.000			-6.060			-1.212
113201.000			-6.060			-1.212
113300.000			-6.060			-1.212
113400.000			-6.060			-1.212
113501.000			-6.060			-1.212
113600.000			-6.060			-1.212
113701.000			-6.060			-1.212
113802.000			-6.060			-1.212
113900.000			-6.059			-1.212
114000.000			-6.060			-1.212
114101.000			-6.059			-1.212
114200.000			-6.059			-1.212
114300.000			-6.060			-1.212
114401.000			-6.060			-1.212
114501.000			-6.060			-1.212
114601.000			-6.060			-1.212
114701.000			-6.060			-1.212
114800.000			-6.058			-1.212
114900.000			-6.057			-1.211
115001.000			-6.057			-1.211
115100.000			-6.056			-1.211
115200.000			-6.057			-1.211
115302.000			-6.059			-1.212
115401.000			-6.057			-1.211
115501.000			-6.057			-1.211
115600.000			-6.056			-1.211
115700.000			-6.055			-1.211
115801.000			-6.056			-1.211
115900.000			-6.057			-1.211
116000.000			-6.057			-1.211
116101.000			-6.057			-1.211
116201.000			-6.056			-1.211
116301.000			-6.056			-1.211
116401.000			-6.056			-1.211
116500.000			-6.055			-1.211
116600.000			-6.056			-1.211
116701.000			-6.056			-1.211
116800.000			-6.056			-1.211
116900.000			-6.055			-1.211
117002.000			-6.056			-1.211
117101.000			-6.056			-1.211
117200.000			-6.055			-1.211
117301.000			-6.054			-1.211
117400.000			-6.054			-1.211
117500.000			-6.054			-1.211
117601.000			-6.056			-1.211
117700.000			-6.055			-1.211
117800.000			-6.055			-1.211
117902.000			-6.055			-1.211
118001.000			-6.055			-1.211
118100.000			-6.055			-1.211
118201.000			-6.054			-1.211
118300.000			-6.053			-1.211
118400.000			-6.053			-1.211
118500.000			-6.053			-1.211
118600.000			-6.053			-1.211
118702.000			-6.053			-1.211
118801.000			-6.054			-1.211
118900.000			-6.054			-1.211
119001.000			-6.053			-1.211
119100.000			-6.052			-1.210
119200.000			-6.052			-1.210
119301.000			-6.053			-1.211
119400.000			-6.052			-1.210
119501.000			-6.051			-1.210
119602.000			-6.051			-1.210
119700.000			-6.051			-1.210
119800.000			-6.053			-1.211
119901.000			-6.051			-1.210
120000.000			-6.052			-1.210
120100.000			-6.053			-1.211
120201.000			-6.052			-1.210
120301.000			-6.051			-1.210
120401.000			-6.052			-1.210
120501.000			-6.051			-1.210
120600.000			-6.050			-1.210
120700.000			-6.051			-1.210
120801.000			-6.051			-1.210
120900.000			-6.051			-1.210
121000.000			-6.050			-1.210
121102.000			-6.050			-1.210
121201.000			-6.051			-1.210
121300.000			-6.051			-1.210
121401.000			-6.050			-1.210
121500.000			-6.049			-1.210
121600.000			-6.049			-1.210
121700.000			-6.049			-1.210
121800.000			-6.049			-1.210
121901.000			-6.049			-1.210
122001.000			-6.049			-1.210
122101.000			-6.049			-1.210
122201.000			-6.049			-1.210
122300.000			-6.048			-1.210
122400.000			-6.048			-1.210
122501.000			-6.048			-1.210
122600.000			-6.048			-1.210
122700.000			-6.048			-1.210
122802.000			-6.047			-1.209
122901.000			-6.047			-1.209
123000.000			-6.047			-1.209
123101.000			-6.048			-1.210
123200.000			-6.048			-1.210
123300.000			-6.047			-1.209
123401.000			-6.047			-1.209
123500.000			-6.047			-1.209
123601.000			-6.046			-1.209
123702.000			-6.047			-1.209
123800.000			-6.047			-1.209
123900.000			-6.047			-1.209
124001.000			-6.047			-1.209
124100.000			-6.046			-1.209
124200.000			-6.047			-1.209
124301.000			-6.047			-1.209
124401.000			-6.047			-1.209
124501.000			-6.048			-1.210
124602.000			-6.047			-1.209
124700.000			-6.045			-1.209
124800.000			-6.045			-1.209
124900.000			-6.046			-1.209
125000.000			-6.045			-1.209
125101.000			-6.045			-1.209
125200.000			-6.046			-1.209
125301.000			-6.046			-1.209
125402.000			-6.045			-1.209
125500.000			-6.044			-1.209
125600.000			-6.045			-1.209
125701.000			-6.045			-1.209
125800.000			-6.045			-1.209
125900.000			-6.044			-1.209
126001.000			-6.044			-1.209
126101.000			-6.043			-1.209
126201.000			-6.044			-1.209
126301.000			-6.045			-1.209
126400.000			-6.044			-1.209
126500.000			-6.043			-1.209
126601.000			-6.042			-1.208
126700.000			-6.043			-1.209
126800.000			-6.044			-1.209
126901.000			-6.043			-1.209
127001.000			-6.043			-1.209
127101.000			-6.043			-1.209
127201.000			-6.043			-1.209
127300.000			-6.042			-1.208
127400.000			-6.042			-1.208
127501.000			-6.042			-1.208
127600.000			-6.042			-1.208
127700.000			-6.043			-1.209
127802.000			-6.043			-1.209
127901.000			-6.042			-1.208
128000.000			-6.041			-1.208
128100.000			-6.041			-1.208
128200.000			-6.041			-1.208
128301.000			-6.042			-1.208
128400.000			-6.042			-1.208
128500.000			-6.041			-1.208
128602.000			-6.042			-1.208
128701.000			-6.041			-1.208
128800.000			-6.041			-1.208
128901.000			-6.040			-1.208
129000.000			-6.040			-1.208
129100.000			-6.040			-1.208
129201.000			-6.040			-1.208
129300.000			-6.040			-1.208
129401.000			-6.039			-1.208
129502.000			-6.039			-1.208
129601.000			-6.040			-1.208
129700.000			-6.040			-1.208
129801.000			-6.040			-1.208
129900.000			-6.039			-1.208
130000.000			-6.039			-1.208
130101.000			-6.040			-1.208
130200.000			-6.040			-1.208
130301.000			-6.039			-1.208
130402.000			-6.038			-1.208
130500.000			-6.039			-1.208
130600.000			-6.039			-1.208
130701.000			-6.039			-1.208
130800.000			-6.039			-1.208
130900.000			-6.039			-1.208
131001.000			-6.040			-1.208
131101.000			-6.039			-1.208
131202.000			-6.038			-1.208
131300.000			-6.037			-1.207
131400.000			-6.038			-1.208
131501.000			-6.038			-1.208
131600.000			-6.037			-1.207
131700.000			-6.037			-1.207
131801.000			-6.037			-1.207
131900.000			-6.037			-1.207
132001.000			-6.037			-1.207
132102.000			-6.036			-1.207
132200.000			-6.037			-1.207
132300.000			-6.036			-1.207
132401.000			-6.036			-1.207
132500.000			-6.036			-1.207
132600.000			-6.036			-1.207
132701.000			-6.036			-1.207
132801.000			-6.036			-1.207
132901.000			-6.036			-1.207
133002.000			-6.036			-1.207
133100.000			-6.036			-1.207
133200.000			-6.036			-1.207
133301.000			-6.035			-1.207
133400.000			-6.035			-1.207
133500.000			-6.036			-1.207
133601.000			-6.036			-1.207
133701.000			-6.036			-1.207
133801.000			-6.036			-1.207
133902.000			-6.035			-1.207
134000.000			-6.035			-1.207
134100.000			-6.034			-1.207
134201.000			-6.035			-1.207
134300.000			-6.036			-1.207
134400.000			-6.035			-1.207
134500.000			-6.035			-1.207
134601.000			-6.034			-1.207
134702.000			-6.034			-1.207
134801.000			-6.034			-1.207
134900.000			-6.034			-1.207
135001.000			-6.034			-1.207
135100.000			-6.033			-1.207
135200.000			-6.033			-1.207
135301.000			-6.033			-1.207
135400.000			-6.033			-1.207
135501.000			-6.032			-1.206
135602.000			-6.032			-1.206
135701.000			-6.033			-1.207
135800.000			-6.032			-1.206
135901.000			-6.032			-1.206
136000.000			-6.033			-1.207
136100.000			-6.032			-1.206
136201.000			-6.032			-1.206
136300.000			-6.032			-1.206
136401.000			-6.032			-1.206
136502.000			-6.033			-1.207
136601.000			-6.033			-1.207
136700.000			-6.032			-1.206
136801.000			-6.031			-1.206
136900.000			-6.031			-1.206
137000.000			-6.031			-1.206
137101.000			-6.031			-1.206
137200.000			-6.031			-1.206
137301.000			-6.031			-1.206
137402.000			-6.030			-1.206
137500.000			-6.031			-1.206
137600.000			-6.030			-1.206
137700.000			-6.030			-1.206
137800.000			-6.031			-1.206
137901.000			-6.030			-1.206
138000.000			-6.030			-1.206
138100.000			-6.030			-1.206
138202.000			-6.030			-1.206
138301.000			-6.030			-1.206
138400.000			-6.031			-1.206
138501.000			-6.030			-1.206
138600.000			-6.031			-1.206
138700.000			-6.030			-1.206
138801.000			-6.029			-1.206
138900.000			-6.029			-1.206
139000.000			-6.029			-1.206
139102.000			-6.028			-1.206
139201.000			-6.028			-1.206
139301.000			-6.029			-1.206
139401.000			-6.028			-1.206
139500.000			-6.029			-1.206
139600.000			-6.029			-1.206
139701.000			-6.028			-1.206
139800.000			-6.027			-1.205
139900.000			-6.028			-1.206
140001.000			-6.028			-1.206
140101.000			-6.027			-1.205
140201.000			-6.027			-1.205
140301.000			-6.027			-1.205
140400.000			-6.027			-1.205
140500.000			-6.028			-1.206
140601.000			-6.028			-1.206
140700.000			-6.027			-1.205
140800.000			-6.028			-1.206
140902.000			-6.028			-1.206
141001.000			-6.027			-1.205
141102.000			-6.027			-1.205
141200.000			-6.026			-1.205
141300.000			-6.025			-1.205
141401.000			-6.026			-1.205
141500.000			-6.026			-1.205
141600.000			-6.026			-1.205
141701.000			-6.026			-1.205
141801.000			-6.026			-1.205
141901.000			-6.026			-1.205
142001.000			-6.026			-1.205
142100.000			-6.026			-1.205
142200.000			-6.026			-1.205
142301.000			-6.025			-1.205
142400.000			-6.025			-1.205
142500.000			-6.025			-1.205
142601.000			-6.025			-1.205
142701.000			-6.025			-1.205
142801.000			-6.025			-1.205
142901.000			-6.025			-1.205
143000.000			-6.024			-1.205
143100.000			-6.025			-1.205
143201.000			-6.024			-1.205
143300.000			-6.024			-1.205
143400.000			-6.024			-1.205
143501.000			-6.024			-1.205
143601.000			-6.024			-1.205
143701.000			-6.024			-1.205
143801.000			-6.024			-1.205
143900.000			-6.024			-1.205
144000.000			-6.024			-1.205
144100.000			-6.023			-1.205
144200.000			-6.024			-1.205
144301.000			-6.024			-1.205
144401.000			-6.022			-1.204
144501.000			-6.022			-1.204
144602.000			-6.022			-1.204
144700.000			-6.022			-1.204
144800.000			-6.021			-1.204
144901.000			-6.021			-1.204
145000.000			-6.023			-1.205
145100.000			-6.022			-1.204
145201.000			-6.022			-1.204
145301.000			-6.022			-1.204
145401.000			-6.022			-1.204
145502.000			-6.022			-1.204
145600.000			-6.022			-1.204
145700.000			-6.022			-1.204
145801.000			-6.022			-1.204
145900.000			-6.021			-1.204
146000.000			-6.021			-1.204
146101.000			-6.021			-1.204
146201.000			-6.020			-1.204
146301.000			-6.020			-1.204
146402.000			-6.020			-1.204
146500.000			-6.020			-1.204
146600.000			-6.021			-1.204
146701.000			-6.021			-1.204
146800.000			-6.020			-1.204
146900.000			-6.020			-1.204
147001.000			-6.020			-1.204
147101.000			-6.020			-1.204
147202.000			-6.020			-1.204
147301.000			-6.019			-1.204
147400.000			-6.019			-1.204
147501.000			-6.018			-1.204
147600.000			-6.019			-1.204
147700.000			-6.018			-1.204
147801.000			-6.018			-1.204
147900.000			-6.019			-1.204
148000.000			-6.018			-1.204
148102.000			-6.019			-1.204
148201.000			-6.019			-1.204
148300.000			-6.019			-1.204
148401.000			-6.019			-1.204
148500.000			-6.018			-1.204
148600.000			-6.017			-1.203
148701.000			-6.017			-1.203
148800.000			-6.018			-1.204
148900.000			-6.018			-1.204
149002.000			-6.018			-1.204
149101.000			-6.018			-1.204
149200.000			-6.017			-1.203
149301.000			-6.017			-1.203
149400.000			-6.017			-1.203
149500.000			-6.017			-1.203
149601.000			-6.017			-1.203
149700.000			-6.016			-1.203
149800.000			-6.015			-1.203
149902.000			-6.016			-1.203
150001.000			-6.016			-1.203
150101.000			-6.016			-1.203
150201.000			-6.016			-1.203
150300.000			-6.016			-1.203
150400.000			-6.016			-1.203
150500.000			-6.016			-1.203
150600.000			-6.016			-1.203
150701.000			-6.016			-1.203
150801.000			-6.016			-1.203
150901.000			-6.016			-1.203
151001.000			-6.014			-1.203
151100.000			-6.014			-1.203
151200.000			-6.014			-1.203
151301.000			-6.014			-1.203
151400.000			-6.015			-1.203
151500.000			-6.015			-1.203
151601.000			-6.014			-1.203
151701.000			-6.013			-1.203
151801.000			-6.013			-1.203
151901.000			-6.014			-1.203
152000.000			-6.015			-1.203
152100.000			-6.014			-1.203
152201.000			-6.014			-1.203
152300.000			-6.014			-1.203
152400.000			-6.015			-1.203
152502.000			-6.015			-1.203
152601.000			-6.014			-1.203
152701.000			-6.013			-1.203
152801.000			-6.013			-1.203
152900.000			-6.014			-1.203
153000.000			-6.013			-1.203
153101.000			-6.013			-1.203
153200.000			-6.013			-1.203
153300.000			-6.012			-1.202
153402.000			-6.013			-1.203
153501.000			-6.013			-1.203
153600.000			-6.013			-1.203
153700.000			-6.013			-1.203
153800.000			-6.013			-1.203
153901.000			-6.013			-1.203
154000.000			-6.012			-1.202
154100.000			-6.012			-1.202
154201.000			-6.012			-1.202
154301.000			-6.012			-1.202
154401.000			-6.012			-1.202
154501.000			-6.013			-1.203
154600.000			-6.011			-1.202
154700.000			-6.010			-1.202
154801.000			-6.011			-1.202
154900.000			-6.011			-1.202
155000.000			-6.011			-1.202
155102.000			-6.011			-1.202
155201.000			-6.011			-1.202
155301.000			-6.011			-1.202
155401.000			-6.011			-1.202
155500.000			-6.011			-1.202
155600.000			-6.011			-1.202
155701.000			-6.011			-1.202
155800.000			-6.011			-1.202
155900.000			-6.010			-1.202
156002.000			-6.010			-1.202
156101.000			-6.010			-1.202
156200.000			-6.012			-1.202
156301.000			-6.011			-1.202
156400.000			-6.010			-1.202
156500.000			-6.009			-1.202
156601.000			-6.010			-1.202
156700.000			-6.010			-1.202
156800.000			-6.009			-1.202
156902.000			-6.010			-1.202
157001.000			-6.009			-1.202
157101.000			-6.010			-1.202
157200.000			-6.009			-1.202
157300.000			-6.008			-1.202
157401.000			-6.008			-1.202
157500.000			-6.009			-1.202
157600.000			-6.009			-1.202
157701.000			-6.008			-1.202
157801.000			-6.008			-1.202
157901.000			-6.009			-1.202
158002.000			-6.008			-1.202
158100.000			-6.009			-1.202
158200.000			-6.008			-1.202
158301.000			-6.007			-1.201
158400.000			-6.008			-1.202
158500.000			-6.009			-1.202
158601.000			-6.008			-1.202
158701.000			-6.007			-1.201
158801.000			-6.008			-1.202
158902.000			-6.008			-1.202
159000.000			-6.008			-1.202
159100.000			-6.008			-1.202
159201.000			-6.008			-1.202
159300.000			-6.007			-1.201
159400.000			-6.006			-1.201
159501.000			-6.007			-1.201
159600.000			-6.007			-1.201
159701.000			-6.007			-1.201
159802.000			-6.006			-1.201
159900.000			-6.006			-1.201
160000.000			-6.006			-1.201
160100.000			-6.006			-1.201
160200.000			-6.007			-1.201
160301.000			-6.006			-1.201
160400.000			-6.006			-1.201
160501.000			-6.005			-1.201
160602.000			-6.004			-1.201
160701.000			-6.006			-1.201
160800.000			-6.007			-1.201
160901.000			-6.006			-1.201
161000.000			-6.006			-1.201
161100.000			-6.005			-1.201
161201.000			-6.006			-1.201
161300.000			-6.005			-1.201
161401.000			-6.003			-1.201
161502.000			-6.004			-1.201
161601.000			-6.005			-1.201
161700.000			-6.004			-1.201
161801.000			-6.005			-1.201
161900.000			-6.005			-1.201
162000.000			-6.004			-1.201
162101.000			-6.004			-1.201
162200.000			-6.004			-1.201
162301.000			-6.004			-1.201
162402.000			-6.004			-1.201
162500.000			-6.003			-1.201
162600.000			-6.004			-1.201
162701.000			-6.003			-1.201
162800.000			-6.004			-1.201
162900.000			-6.003			-1.201
163001.000			-6.004			-1.201
163100.000			-6.003			-1.201
163202.000			-6.003			-1.201
163301.000			-6.003			-1.201
163400.000			-6.003			-1.201
163501.000			-6.003			-1.201
163600.000			-6.003			-1.201
163700.000			-6.003			-1.201
163801.000			-6.003			-1.201
163900.000			-6.001			-1.200
164000.000			-6.002			-1.200
164102.000			-6.002			-1.200
164201.000			-6.002			-1.200
164300.000			-6.002			-1.200
164401.000			-6.003			-1.201
164500.000			-6.002			-1.200
164600.000			-6.002			-1.200
164701.000			-6.002			-1.200
164800.000			-6.001			-1.200
164900.000			-6.002			-1.200
165002.000			-6.002			-1.200
165101.000			-6.000			-1.200
165200.000			-6.001			-1.200
165301.000			-6.001			-1.200
165400.000			-6.000			-1.200
165500.000			-6.000			-1.200
165601.000			-6.001			-1.200
165700.000			-6.000			-1.200
165801.000			-6.000			-1.200
165902.000			-6.000			-1.200
166001.000			-6.001			-1.200
166100.000			-6.000			-1.200
166201.000			-6.000			-1.200
166300.000			-5.999			-1.200
166400.000			-5.998			-1.200
166500.000			-5.999			-1.200
166600.000			-6.000			-1.200
166701.000			-5.999			-1.200
166801.000			-5.999			-1.200
166901.000			-6.000			-1.200
167001.000			-6.000			-1.200
167100.000			-5.999			-1.200
167200.000			-5.998			-1.200
167301.000			-5.999			-1.200
167400.000			-5.999			-1.200
167500.000			-5.998			-1.200
167601.000			-5.999			-1.200
167700.000			-6.000			-1.200
167801.000			-5.998			-1.200
167902.000			-5.997			-1.199
168001.000			-5.997			-1.199
168100.000			-5.997			-1.199
168201.000			-5.998			-1.200
168300.000			-5.997			-1.199
168400.000			-5.997			-1.199
168501.000			-5.998			-1.200
168600.000			-5.997			-1.199
168700.000			-5.997			-1.199
168802.000			-5.998			-1.200
168901.000			-5.997			-1.199
169001.000			-5.998			-1.200
169101.000			-5.998			-1.200
169200.000			-5.997			-1.199
169300.000			-5.996			-1.199
169401.000			-5.997			-1.199
169500.000			-5.997			-1.199
169600.000			-5.996			-1.199
169700.000			-5.998			-1.200
169801.000			-5.995			-1.199
169902.000			-5.995			-1.199
170001.000			-5.996			-1.199
170100.000			-5.996			-1.199
170201.000			-5.996			-1.199
170300.000			-5.996			-1.199
170400.000			-5.995			-1.199
170501.000			-5.995			-1.199
170600.000			-5.995			-1.199
170700.000			-5.995			-1.199
170802.000			-5.996			-1.199
170901.000			-5.996			-1.199
171001.000			-5.996			-1.199
171101.000			-5.995			-1.199
171200.000			-5.996			-1.199
171300.000			-5.996			-1.199
171401.000			-5.995			-1.199
171500.000			-5.996			-1.199
171600.000			-5.995			-1.199
171701.000			-5.995			-1.199
171801.000			-5.995			-1.199
171901.000			-5.995			-1.199
172001.000			-5.993			-1.199
172100.000			-5.993			-1.199
172200.000			-5.994			-1.199
172301.000			-5.995			-1.199
172400.000			-5.995			-1.199
172500.000			-5.994			-1.199
172601.000			-5.993			-1.199
172701.000			-5.993			-1.199
172802.000			-5.993			-1.199
172901.000			-5.993			-1.199
173000.000			-5.993			-1.199
173101.000			-5.993			-1.199
173200.000			-5.993			-1.199
173300.000			-5.993			-1.199
173401.000			-5.992			-1.198
173500.000			-5.991			-1.198
173600.000			-5.991			-1.198
173702.000			-5.992			-1.198
173801.000			-5.993			-1.199
173901.000			-5.992			-1.198
174001.000			-5.992			-1.198
174100.000			-5.992			-1.198
174200.000			-5.992			-1.198
174301.000			-5.992			-1.198
174400.000			-5.992			-1.198
174500.000			-5.993			-1.199
174601.000			-5.992			-1.198
174701.000			-5.993			-1.199
174801.000			-5.992			-1.198
174901.000			-5.992			-1.198
175000.000			-5.992			-1.198
175100.000			-5.992			-1.198
175201.000			-5.991			-1.198
175300.000			-5.991			-1.198
175400.000			-5.992			-1.198
175501.000			-5.991			-1.198
175601.000			-5.990			-1.198
175701.000			-5.991			-1.198
175802.000			-5.991			-1.198
175900.000			-5.991			-1.198
176000.000			-5.990			-1.198
176100.000			-5.991			-1.198
176200.000			-5.990			-1.198
176301.000			-5.990			-1.198
176400.000			-5.990			-1.198
176500.000			-5.989			-1.198
176602.000			-5.990			-1.198
176701.000			-5.990			-1.198
176801.000			-5.990			-1.198
176901.000			-5.989			-1.198
177000.000			-5.990			-1.198
177100.000			-5.990			-1.198
177201.000			-5.990			-1.198
177300.000			-5.989			-1.198
177400.000			-5.988			-1.198
177501.000			-5.989			-1.198
177601.000			-5.989			-1.198
177701.000			-5.990			-1.198
177802.000			-5.989			-1.198
177900.000			-5.988			-1.198
178000.000			-5.989			-1.198
178101.000			-5.988			-1.198
178200.000			-5.988			-1.198
178300.000			-5.988			-1.198
178401.000			-5.988			-1.198
178500.000			-5.988			-1.198
178600.000			-5.988			-1.198
178702.000			-5.989			-1.198
178801.000			-5.988			-1.198
178900.000			-5.988			-1.198
179001.000			-5.989			-1.198
179100.000			-5.988			-1.198
179200.000			-5.988			-1.198
179300.000			-5.988			-1.198
179400.000			-5.988			-1.198
179501.000			-5.988			-1.198
179600.000			-5.987			-1.197
179701.000			-5.987			-1.197
179802.000			-5.987			-1.197
179900.000			-5.986			-1.197
180000.000			-5.987			-1.197
180101.000			-5.987			-1.197
180200.000			-5.987			-1.197
180300.000			-5.986			-1.197
180401.000			-5.987			-1.197
180500.000			-5.987			-1.197
180600.000			-5.986			-1.197
180702.000			-5.987			-1.197
180801.000			-5.987			-1.197
180900.000			-5.986			-1.197
181001.000			-5.986			-1.197
181100.000			-5.985			-1.197
181200.000			-5.985			-1.197
181301.000			-5.985			-1.197
181400.000			-5.985			-1.197
181500.000			-5.986			-1.197
181602.000			-5.986			-1.197
181701.000			-5.985			-1.197
181801.000			-5.985			-1.197
181901.000			-5.985			-1.197
182000.000			-5.985			-1.197
182100.000			-5.984			-1.197
182201.000			-5.985			-1.197
182300.000			-5.984			-1.197
182400.000			-5.984			-1.197
182500.000			-5.985			-1.197
182601.000			-5.985			-1.197
182702.000			-5.984			-1.197
182800.000			-5.984			-1.197
182900.000			-5.985			-1.197
183001.000			-5.984			-1.197
183100.000			-5.984			-1.197
183200.000			-5.984			-1.197
183301.000			-5.984			-1.197
183400.000			-5.983			-1.197
183501.000			-5.983			-1.197
183602.000			-5.983			-1.197
183701.000			-5.983			-1.197
183800.000			-5.983			-1.197
183901.000			-5.983			-1.197
184000.000			-5.983			-1.197
184100.000			-5.984			-1.197
184201.000			-5.984			-1.197
184300.000			-5.984			-1.197
184400.000			-5.984			-1.197
184502.000			-5.983			-1.197
184601.000			-5.982			-1.196
184701.000			-5.982			-1.196
184801.000			-5.982			-1.196
184900.000			-5.982			-1.196
185000.000			-5.982			-1.196
185101.000			-5.982			-1.196
185200.000			-5.981			-1.196
185300.000			-5.982			-1.196
185401.000			-5.982			-1.196
185501.000			-5.981			-1.196
185602.000			-5.982			-1.196
185701.000			-5.982			-1.196
185800.000			-5.982			-1.196
185901.000			-5.982			-1.196
186000.000			-5.982			-1.196
186100.000			-5.982			-1.196
186201.000			-5.981			-1.196
186300.000			-5.982			-1.196
186400.000			-5.982			-1.196
186502.000			-5.982			-1.196
186601.000			-5.981			-1.196
186700.000			-5.981			-1.196
186801.000			-5.981			-1.196
186900.000			-5.982			-1.196
187000.000			-5.980			-1.196
187101.000			-5.981			-1.196
187200.000			-5.981			-1.196
187300.000			-5.980			-1.196
187402.000			-5.980			-1.196
187501.000			-5.981			-1.196
187601.000			-5.980			-1.196
187701.000			-5.980			-1.196
187800.000			-5.979			-1.196
187900.000			-5.980			-1.196
188001.000			-5.980			-1.196
188100.000			-5.979			-1.196
188200.000			-5.979			-1.196
188301.000			-5.979			-1.196
188401.000			-5.980			-1.196
188501.000			-5.980			-1.196
188602.000			-5.981			-1.196
188700.000			-5.980			-1.196
188800.000			-5.979			-1.196
188900.000			-5.979			-1.196
189000.000			-5.979			-1.196
189101.000			-5.979			-1.196
189200.000			-5.979			-1.196
189300.000			-5.980			-1.196
189401.000			-5.979			-1.196
189501.000			-5.978			-1.196
189601.000			-5.979			-1.196
189701.000			-5.979			-1.196
189800.000			-5.979			-1.196
189900.000			-5.979			-1.196
190001.000			-5.978			-1.196
190100.000			-5.977			-1.195
190200.000			-5.978			-1.196
190301.000			-5.978			-1.196
190401.000			-5.979			-1.196
190501.000			-5.978			-1.196
190602.000			-5.977			-1.195
190700.000			-5.977			-1.195
190800.000			-5.978			-1.196
190901.000			-5.978			-1.196
191000.000			-5.977			-1.195
191100.000			-5.977			-1.195
191201.000			-5.977			-1.195
191300.000			-5.977			-1.195
191401.000			-5.977			-1.195
191502.000			-5.977			-1.195
191601.000			-5.977			-1.195
191700.000			-5.978			-1.196
191801.000			-5.978			-1.196
191900.000			-5.977			-1.195
192000.000			-5.976			-1.195
192100.000			-5.977			-1.195
192200.000			-5.977			-1.195
192301.000			-5.977			-1.195
192401.000			-5.976			-1.195
192501.000			-5.976			-1.195
192601.000			-5.977			-1.195
192700.000			-5.977			-1.195
192800.000			-5.977			-1.195
192901.000			-5.976			-1.195
193000.000			-5.976			-1.195
193100.000			-5.976			-1.195
193201.000			-5.976			-1.195
193300.000			-5.977			-1.195
193401.000			-5.976			-1.195
193502.000			-5.975			-1.195
193600.000			-5.974			-1.195
193700.000			-5.975			-1.195
193801.000			-5.975			-1.195
193900.000			-5.977			-1.195
194000.000			-5.976			-1.195
194101.000			-5.977			-1.195
194200.000			-5.976			-1.195
194300.000			-5.976			-1.195
194402.000			-5.975			-1.195
194501.000			-5.975			-1.195
194600.000			-5.975			-1.195
194701.000			-5.976			-1.195
194800.000			-5.975			-1.195
194900.000			-5.975			-1.195
195001.000			-5.975			-1.195
195100.000			-5.975			-1.195
195200.000			-5.974			-1.195
195300.000			-5.973			-1.195
195401.000			-5.974			-1.195
195502.000			-5.974			-1.195
195600.000			-5.974			-1.195
195700.000			-5.975			-1.195
195801.000			-5.973			-1.195
195900.000			-5.973			-1.195
196000.000			-5.974			-1.195
196101.000			-5.973			-1.195
196200.000			-5.974			-1.195
196300.000			-5.974			-1.195
196402.000			-5.974			-1.195
196501.000			-5.973			-1.195
196600.000			-5.973			-1.195
196701.000			-5.973			-1.195
196800.000			-5.974			-1.195
196900.000			-5.974			-1.195
197001.000			-5.973			-1.195
197100.000			-5.974			-1.195
197200.000			-5.974			-1.195
197302.000			-5.972			-1.194
197401.000			-5.973			-1.195
197501.000			-5.973			-1.195
197601.000			-5.971			-1.194
197700.000			-5.972			-1.194
197800.000			-5.972			-1.194
197901.000			-5.973			-1.195
198000.000			-5.972			-1.194
198100.000			-5.972			-1.194
198201.000			-5.972			-1.194
198301.000			-5.971			-1.194
198402.000			-5.972			-1.194
198501.000			-5.971			-1.194
198600.000			-5.971			-1.194
198701.000			-5.972			-1.194
198800.000			-5.971			-1.194
198900.000			-5.971			-1.194
199001.000			-5.972			-1.194
199100.000			-5.972			-1.194
199200.000			-5.972			-1.194
199302.000			-5.971			-1.194
199401.000			-5.971			-1.194
199501.000			-5.972			-1.194
199601.000			-5.971			-1.194
199700.000			-5.971			-1.194
199800.000			-5.971			-1.194
199901.000			-5.971			-1.194
200000.000			-5.970			-1.194
200100.000			-5.970			-1.194
200201.000			-5.970			-1.194
200301.000			-5.971			-1.194
200401.000			-5.970			-1.194
200501.000			-5.970			-1.194
200600.000			-5.970			-1.194
200700.000			-5.970			-1.194
200801.000			-5.970			-1.194
200900.000			-5.970			-1.194
201000.000			-5.969			-1.194
201101.000			-5.969			-1.194
201201.000			-5.969			-1.194
201301.000			-5.969			-1.194
201402.000			-5.970			-1.194
201500.000			-5.969			-1.194
201600.000			-5.969			-1.194
201700.000			-5.970			-1.194
201800.000			-5.969			-1.194
201901.000			-5.969			-1.194
202000.000			-5.969			-1.194
202100.000			-5.969			-1.194
202202.000			-5.968			-1.194
202301.000			-5.968			-1.194
202401.000			-5.968			-1.194
202501.000			-5.969			-1.194
202600.000			-5.969			-1.194
202700.000			-5.968			-1.194
202801.000			-5.968			-1.194
202900.000			-5.969			-1.194
203000.000			-5.969			-1.194
203101.000			-5.968			-1.194
203201.000			-5.968			-1.194
203301.000			-5.968			-1.194
203401.000			-5.968			-1.194
203500.000			-5.968			-1.194
203600.000			-5.967			-1.193
203701.000			-5.967			-1.193
203800.000			-5.967			-1.193
203900.000			-5.967			-1.193
204001.000			-5.968			-1.194
204101.000			-5.967			-1.193
204201.000			-5.968			-1.194
204301.000			-5.967			-1.193
204400.000			-5.967			-1.193
204500.000			-5.966			-1.193
204601.000			-5.966			-1.193
204700.000			-5.967			-1.193
204800.000			-5.966			-1.193
204900.000			-5.967			-1.193
205001.000			-5.967			-1.193
205102.000			-5.967			-1.193
205201.000			-5.967			-1.193
205300.000			-5.967			-1.193
205401.000			-5.967			-1.193
205500.000			-5.966			-1.193
205600.000			-5.966			-1.193
205701.000			-5.966			-1.193
205800.000			-5.966			-1.193
205900.000			-5.965			-1.193
206002.000			-5.965			-1.193
206101.000			-5.966			-1.193
206200.000			-5.966			-1.193
206301.000			-5.966			-1.193
206400.000			-5.966			-1.193
206500.000			-5.966			-1.193
206601.000			-5.966			-1.193
206700.000			-5.965			-1.193
206800.000			-5.965			-1.193
206902.000			-5.965			-1.193
207001.000			-5.965			-1.193
207101.000			-5.965			-1.193
207201.000			-5.965			-1.193
207300.000			-5.966			-1.193
207400.000			-5.966			-1.193
207501.000			-5.965			-1.193
207600.000			-5.965			-1.193
207700.000			-5.966			-1.193
207801.000			-5.965			-1.193
207901.000			-5.965			-1.193
208002.000			-5.965			-1.193
208100.000			-5.964			-1.193
208200.000			-5.964			-1.193
208301.000			-5.964			-1.193
208400.000			-5.964			-1.193
208500.000			-5.964			-1.193
208601.000			-5.964			-1.193
208700.000			-5.963			-1.193
208801.000			-5.963			-1.193
208902.000			-5.964			-1.193
209001.000			-5.963			-1.193
209100.000			-5.962			-1.192
209201.000			-5.963			-1.193
209300.000			-5.963			-1.193
209400.000			-5.963			-1.193
209501.000			-5.963			-1.193
209600.000			-5.963			-1.193
209700.000			-5.963			-1.193
209802.000			-5.964			-1.193
209901.000			-5.962			-1.192
210000.000			-5.962			-1.192
210101.000			-5.963			-1.193
210200.000			-5.962			-1.192
210300.000			-5.962			-1.192
210401.000			-5.961			-1.192
210500.000			-5.962			-1.192
210600.000			-5.962			-1.192
210702.000			-5.961			-1.192
210801.000			-5.961			-1.192
210900.000			-5.962			-1.192
211001.000			-5.962			-1.192
211100.000			-5.962			-1.192
211200.000			-5.961			-1.192
211300.000			-5.961			-1.192
211400.000			-5.960			-1.192
211501.000			-5.961			-1.192
211601.000			-5.961			-1.192
211701.000			-5.961			-1.192
211801.000			-5.961			-1.192
211900.000			-5.961			-1.192
212000.000			-5.960			-1.192
212101.000			-5.961			-1.192
212200.000			-5.962			-1.192
212300.000			-5.961			-1.192
212401.000			-5.961			-1.192
212501.000			-5.961			-1.192
212601.000			-5.961			-1.192
212701.000			-5.960			-1.192
212800.000			-5.960			-1.192
212900.000			-5.960			-1.192
213001.000			-5.961			-1.192
213100.000			-5.960			-1.192
213200.000			-5.960			-1.192
213301.000			-5.959			-1.192
213401.000			-5.960			-1.192
213501.000			-5.960			-1.192
213601.000			-5.959			-1.192
213700.000			-5.959			-1.192
213800.000			-5.959			-1.192
213901.000			-5.959			-1.192
214000.000			-5.959			-1.192
214100.000			-5.959			-1.192
214201.000			-5.959			-1.192
214300.000			-5.959			-1.192
214402.000			-5.959			-1.192
214501.000			-5.959			-1.192
214600.000			-5.960			-1.192
214701.000			-5.959			-1.192
214800.000			-5.959			-1.192
214900.000			-5.958			-1.192
215001.000			-5.958			-1.192
215100.000			-5.958			-1.192
215200.000			-5.959			-1.192
215302.000			-5.958			-1.192
215401.000			-5.958			-1.192
215501.000			-5.958			-1.192
215601.000			-5.959			-1.192
215700.000			-5.959			-1.192
215800.000			-5.958			-1.192
215901.000			-5.957			-1.191
216000.000			-5.957			-1.191
216100.000			-5.958			-1.192
216201.000			-5.958			-1.192
216301.000			-5.958			-1.192
216401.000			-5.958			-1.192
216501.000			-5.957			-1.191
216600.000			-5.957			-1.191
216700.000			-5.958			-1.192
216801.000			-5.958			-1.192
216900.000			-5.958			-1.192
217000.000			-5.957			-1.191
217101.000			-5.958			-1.192
217201.000			-5.957			-1.191
217301.000			-5.957			-1.191
217402.000			-5.957			-1.191
217500.000			-5.957			-1.191
217600.000			-5.956			-1.191
217700.000			-5.956			-1.191
217800.000			-5.957			-1.191
217901.000			-5.957			-1.191
218000.000			-5.957			-1.191
218100.000			-5.957			-1.191
218202.000			-5.956			-1.191
218301.000			-5.955			-1.191
218401.000			-5.956			-1.191
218501.000			-5.956			-1.191
218600.000			-5.956			-1.191
218700.000			-5.955			-1.191
218801.000			-5.955			-1.191
218900.000			-5.955			-1.191
219000.000			-5.956			-1.191
219101.000			-5.956			-1.191
219201.000			-5.956			-1.191
219301.000			-5.955			-1.191
219401.000			-5.955			-1.191
219500.000			-5.955			-1.191
219600.000			-5.955			-1.191
219701.000			-5.954			-1.191
219800.000			-5.954			-1.191
219900.000			-5.955			-1.191
220001.000			-5.955			-1.191
220101.000			-5.954			-1.191
220201.000			-5.955			-1.191
220302.000			-5.955			-1.191
220400.000			-5.954			-1.191
220500.000			-5.954			-1.191
220601.000			-5.954			-1.191
220700.000			-5.954			-1.191
220800.000			-5.954			-1.191
220900.000			-5.955			-1.191
221000.000			-5.954			-1.191
221102.000			-5.955			-1.191
221201.000			-5.955			-1.191
221300.000			-5.954			-1.191
221401.000			-5.954			-1.191
221500.000			-5.954			-1.191
221600.000			-5.953			-1.191
221701.000			-5.953			-1.191
221800.000			-5.952			-1.190
221900.000			-5.952			-1.190
222002.000			-5.952			-1.190
222101.000			-5.953			-1.191
222200.000			-5.953			-1.191
222301.000			-5.953			-1.191
222400.000			-5.954			-1.191
222500.000			-5.953			-1.191
222601.000			-5.953			-1.191
222700.000			-5.952			-1.190
222800.000			-5.952			-1.190
222902.000			-5.952			-1.190
223001.000			-5.952			-1.190
223101.000			-5.953			-1.191
223201.000			-5.952			-1.190
223300.000			-5.952			-1.190
223400.000			-5.952			-1.190
223501.000			-5.952			-1.190
223600.000			-5.953			-1.191
223700.000			-5.953			-1.191
223802.000			-5.953			-1.191
223901.000			-5.953			-1.191
224002.000			-5.952			-1.190
224100.000			-5.952			-1.190
224200.000			-5.953			-1.191
224301.000			-5.952			-1.190
224400.000			-5.952			-1.190
224500.000			-5.951			-1.190
224601.000			-5.951			-1.190
224700.000			-5.951			-1.190
224801.000			-5.952			-1.190
224902.000			-5.953			-1.191
225000.000			-5.952			-1.190
225100.000			-5.952			-1.190
225201.000			-5.953			-1.191
225300.000			-5.951			-1.190
225400.000			-5.950			-1.190
225501.000			-5.950			-1.190
225600.000			-5.951			-1.190
225701.000			-5.951			-1.190
225802.000			-5.950			-1.190
225901.000			-5.952			-1.190
226000.000			-5.951			-1.190
226101.000			-5.950			-1.190
226200.000			-5.951			-1.190
226300.000			-5.951			-1.190
226401.000			-5.950			-1.190
226500.000			-5.950			-1.190
226601.000			-5.950			-1.190
226702.000			-5.950			-1.190
226801.000			-5.950			-1.190
226900.000			-5.950			-1.190
227001.000			-5.950			-1.190
227100.000			-5.951			-1.190
227200.000			-5.950			-1.190
227300.000			-5.950			-1.190
227400.000			-5.949			-1.190
227501.000			-5.950			-1.190
227601.000			-5.950			-1.190
227701.000			-5.950			-1.190
227801.000			-5.950			-1.190
227900.000			-5.948			-1.190
228000.000			-5.948			-1.190
228101.000			-5.948			-1.190
228200.000			-5.949			-1.190
228300.000			-5.949			-1.190
228401.000			-5.950			-1.190
228501.000			-5.949			-1.190
228601.000			-5.948			-1.190
228702.000			-5.949			-1.190
228800.000			-5.949			-1.190
228900.000			-5.949			-1.190
229001.000			-5.949			-1.190
229100.000			-5.949			-1.190
229200.000			-5.949			-1.190
229301.000			-5.948			-1.190
229400.000			-5.948			-1.190
229501.000			-5.948			-1.190
229602.000			-5.948			-1.190
229701.000			-5.948			-1.190
229800.000			-5.948			-1.190
229901.000			-5.948			-1.190
230000.000			-5.948			-1.190
230100.000			-5.947			-1.189
230201.000			-5.947			-1.189
230300.000			-5.948			-1.190
230400.000			-5.947			-1.189
230502.000			-5.947			-1.189
230601.000			-5.947			-1.189
230701.000			-5.947			-1.189
230800.000			-5.947			-1.189
230900.000			-5.947			-1.189
231001.000			-5.947			-1.189
231100.000			-5.947			-1.189
231200.000			-5.947			-1.189
231301.000			-5.947			-1.189
231401.000			-5.948			-1.190
231501.000			-5.947			-1.189
231601.000			-5.947			-1.189
231700.000			-5.947			-1.189
231800.000			-5.947			-1.189
231901.000			-5.947			-1.189
232000.000			-5.945			-1.189
232100.000			-5.946			-1.189
232201.000			-5.947			-1.189
232301.000			-5.947			-1.189
232401.000			-5.946			-1.189
232502.000			-5.946			-1.189
232600.000			-5.947			-1.189
232700.000			-5.947			-1.189
232801.000			-5.946			-1.189
232900.000			-5.947			-1.189
233000.000			-5.947			-1.189
233101.000			-5.946			-1.189
233200.000			-5.946			-1.189
233301.000			-5.945			-1.189
233402.000			-5.944			-1.189
233500.000			-5.945			-1.189
233600.000			-5.945			-1.189
233700.000			-5.946			-1.189
233800.000			-5.946			-1.189
233901.000			-5.945			-1.189
234000.000			-5.944			-1.189
234100.000			-5.945			-1.189
234202.000			-5.945			-1.189
234301.000			-5.946			-1.189
234401.000			-5.945			-1.189
234501.000			-5.945			-1.189
234600.000			-5.945			-1.189
234700.000			-5.945			-1.189
234801.000			-5.945			-1.189
234900.000			-5.945			-1.189
235000.000			-5.944			-1.189
235101.000			-5.944			-1.189
235201.000			-5.945			-1.189
235301.000			-5.944			-1.189
235401.000			-5.945			-1.189
235500.000			-5.946			-1.189
235600.000			-5.946			-1.189
235701.000			-5.944			-1.189
235800.000			-5.944			-1.189
235900.000			-5.944			-1.189
236001.000			-5.944			-1.189
236101.000			-5.944			-1.189
236201.000			-5.943			-1.189
236302.000			-5.943			-1.189
236400.000			-5.945			-1.189
236500.000			-5.945			-1.189
236601.000			-5.944			-1.189
236700.000			-5.943			-1.189
236800.000			-5.943			-1.189
236900.000			-5.943			-1.189
237000.000			-5.943			-1.189
237102.000			-5.943			-1.189
237201.000			-5.942			-1.188
237300.000			-5.943			-1.189
237401.000			-5.942			-1.188
237500.000			-5.942			-1.188
237600.000			-5.942			-1.188
237701.000			-5.942			-1.188
237800.000			-5.942			-1.188
237900.000			-5.942			-1.188
238002.000			-5.942			-1.188
238101.000			-5.942			-1.188
238201.000			-5.942			-1.188
238301.000			-5.941			-1.188
238400.000			-5.941			-1.188
238500.000			-5.942			-1.188
238601.000			-5.942			-1.188
238700.000			-5.942			-1.188
238800.000			-5.942			-1.188
238902.000			-5.941			-1.188
239001.000			-5.941			-1.188
239101.000			-5.942			-1.188
239201.000			-5.941			-1.188
239300.000			-5.941			-1.188
239400.000			-5.941			-1.188
239501.000			-5.941			-1.188
239600.000			-5.941			-1.188
239700.000			-5.941			-1.188
239801.000			-5.941			-1.188
239901.000			-5.942			-1.188
240002.000			-5.941			-1.188
240101.000			-5.942			-1.188
240200.000			-5.943			-1.189
240301.000			-5.942			-1.188
240400.000			-5.940			-1.188
240500.000			-5.940			-1.188
240601.000			-5.941			-1.188
240700.000			-5.941			-1.188
240801.000			-5.941			-1.188
240902.000			-5.940			-1.188
241001.000			-5.940			-1.188
241100.000			-5.941			-1.188
241201.000			-5.940			-1.188
241300.000			-5.940			-1.188
241400.000			-5.939			-1.188
241501.000			-5.939			-1.188
241600.000			-5.940			-1.188
241701.000			-5.940			-1.188
241802.000			-5.940			-1.188
241901.000			-5.940			-1.188
242000.000			-5.939			-1.188
242101.000			-5.939			-1.188
242200.000			-5.939			-1.188
242300.000			-5.939			-1.188
242401.000			-5.940			-1.188
242500.000			-5.940			-1.188
242600.000			-5.940			-1.188
242702.000			-5.939			-1.188
242801.000			-5.939			-1.188
242900.000			-5.939			-1.188
243001.000			-5.940			-1.188
243100.000			-5.940			-1.188
243200.000			-5.939			-1.188
243300.000			-5.939			-1.188
243400.000			-5.939			-1.188
243501.000			-5.939			-1.188
243601.000			-5.939			-1.188
243701.000			-5.938			-1.188
243802.000			-5.939			-1.188
243900.000			-5.939			-1.188
244000.000			-5.940			-1.188
244101.000			-5.939			-1.188
244200.000			-5.938			-1.188
244300.000			-5.939			-1.188
244401.000			-5.938			-1.188
244500.000			-5.937			-1.187
244601.000			-5.937			-1.187
244702.000			-5.938			-1.188
244800.000			-5.938			-1.188
244900.000			-5.938			-1.188
245001.000			-5.938			-1.188
245100.000			-5.937			-1.187
245200.000			-5.937			-1.187
245301.000			-5.937			-1.187
245400.000			-5.937			-1.187
245501.000			-5.937			-1.187
245602.000			-5.938			-1.188
245701.000			-5.939			-1.188
245800.000			-5.939			-1.188
245901.000			-5.938			-1.188
246000.000			-5.938			-1.188
246100.000			-5.938			-1.188
246201.000			-5.937			-1.187
246300.000			-5.938			-1.188
246400.000			-5.937			-1.187
246502.000			-5.938			-1.188
246601.000			-5.938			-1.188
246702.000			-5.938			-1.188
246800.000			-5.936			-1.187
246900.000			-5.937			-1.187
247001.000			-5.937			-1.187
247100.000			-5.937			-1.187
247200.000			-5.936			-1.187
247301.000			-5.936			-1.187
247401.000			-5.935			-1.187
247501.000			-5.936			-1.187
247602.000			-5.937			-1.187
247700.000			-5.936			-1.187
247800.000			-5.935			-1.187
247901.000			-5.936			-1.187
248000.000			-5.936			-1.187
248100.000			-5.936			-1.187
248201.000			-5.936			-1.187
248300.000			-5.936			-1.187
248401.000			-5.935			-1.187
248502.000			-5.935			-1.187
248601.000			-5.935			-1.187
248700.000			-5.935			-1.187
248801.000			-5.935			-1.187
248900.000			-5.935			-1.187
249000.000			-5.935			-1.187
249101.000			-5.935			-1.187
249200.000			-5.935			-1.187
249300.000			-5.934			-1.187
249402.000			-5.935			-1.187
249501.000			-5.936			-1.187
249600.000			-5.935			-1.187
249700.000			-5.934			-1.187
249800.000			-5.934			-1.187
249901.000			-5.935			-1.187
250000.000			-5.935			-1.187
250100.000			-5.935			-1.187
250201.000			-5.935			-1.187
250301.000			-5.936			-1.187
250401.000			-5.935			-1.187
250501.000			-5.935			-1.187
250600.000			-5.935			-1.187
250700.000			-5.935			-1.187
250801.000			-5.935			-1.187
250900.000			-5.935			-1.187
251000.000			-5.934			-1.187
251101.000			-5.934			-1.187
251201.000			-5.934			-1.187
251301.000			-5.934			-1.187
251402.000			-5.934			-1.187
251500.000			-5.934			-1.187
251600.000			-5.933			-1.187
251701.000			-5.934			-1.187
251800.000			-5.933			-1.187
251900.000			-5.933			-1.187
252001.000			-5.933			-1.187
252100.000			-5.934			-1.187
252201.000			-5.933			-1.187
252302.000			-5.933			-1.187
252400.000			-5.933			-1.187
252500.000			-5.932			-1.186
252601.000			-5.932			-1.186
252700.000			-5.931			-1.186
252800.000			-5.931			-1.186
252900.000			-5.931			-1.186
253000.000			-5.931			-1.186
253102.000			-5.933			-1.187
253201.000			-5.933			-1.187
253301.000			-5.933			-1.187
253401.000			-5.932			-1.186
253500.000			-5.932			-1.186
253600.000			-5.932			-1.186
253701.000			-5.933			-1.187
253800.000			-5.932			-1.186
253900.000			-5.932			-1.186
254002.000			-5.932			-1.186
254101.000			-5.932			-1.186
254201.000			-5.932			-1.186
254301.000			-5.932			-1.186
254400.000			-5.932			-1.186
254500.000			-5.932			-1.186
254601.000			-5.931			-1.186
254700.000			-5.931			-1.186
254800.000			-5.931			-1.186
254901.000			-5.931			-1.186
255001.000			-5.931			-1.186
255101.000			-5.930			-1.186
255201.000			-5.930			-1.186
255300.000			-5.931			-1.186
255400.000			-5.930			-1.186
255501.000			-5.930			-1.186
255600.000			-5.930			-1.186
255700.000			-5.931			-1.186
255801.000			-5.931			-1.186
255901.000			-5.930			-1.186
256002.000			-5.931			-1.186
256101.000			-5.931			-1.186
256200.000			-5.930			-1.186
256301.000			-5.930			-1.186
256400.000			-5.931			-1.186
256500.000			-5.931			-1.186
256601.000			-5.931			-1.186
256700.000			-5.930			-1.186
256800.000			-5.930			-1.186
256902.000			-5.929			-1.186
257001.000			-5.930			-1.186
257100.000			-5.929			-1.186
257201.000			-5.929			-1.186
257300.000			-5.930			-1.186
257400.000			-5.931			-1.186
257501.000			-5.930			-1.186
257600.000			-5.929			-1.186
257700.000			-5.930			-1.186
257802.000			-5.929			-1.186
257901.000			-5.929			-1.186
258001.000			-5.929			-1.186
258101.000			-5.931			-1.186
258200.000			-5.930			-1.186
258300.000			-5.929			-1.186
258401.000			-5.930			-1.186
258500.000			-5.930			-1.186
258600.000			-5.929			-1.186
258701.000			-5.928			-1.186
258801.000			-5.927			-1.185
258901.000			-5.928			-1.186
259001.000			-5.929			-1.186
259100.000			-5.929			-1.186
259200.000			-5.929			-1.186
259300.000			-5.929			-1.186
259400.000			-5.929			-1.186
259501.000			-5.929			-1.186
259600.000			-5.928			-1.186
259700.000			-5.927			-1.185
259802.000			-5.927			-1.185
259901.000			-5.927			-1.185
260000.000			-5.927			-1.185
260101.000			-5.927			-1.185
260200.000			-5.927			-1.185
260300.000			-5.927			-1.185
260401.000			-5.927			-1.185
260500.000			-5.928			-1.186
260600.000			-5.927			-1.185
260702.000			-5.927			-1.185
260801.000			-5.928			-1.186
260901.000			-5.928			-1.186
261001.000			-5.928			-1.186
261100.000			-5.927			-1.185
261200.000			-5.927			-1.185
261301.000			-5.927			-1.185
261400.000			-5.927			-1.185
261500.000			-5.927			-1.185
261601.000			-5.928			-1.186
261701.000			-5.927			-1.185
261801.000			-5.927			-1.185
261901.000			-5.926			-1.185
262000.000			-5.926			-1.185
262100.000			-5.926			-1.185
262201.000			-5.925			-1.185
262300.000			-5.925			-1.185
262400.000			-5.926			-1.185
262500.000			-5.927			-1.185
262601.000			-5.926			-1.185
262702.000			-5.924			-1.185
262801.000			-5.925			-1.185
262900.000			-5.926			-1.185
263001.000			-5.925			-1.185
263100.000			-5.926			-1.185
263200.000			-5.927			-1.185
263301.000			-5.927			-1.185
263400.000			-5.927			-1.185
263500.000			-5.927			-1.185
263602.000			-5.926			-1.185
263701.000			-5.926			-1.185
263800.000			-5.925			-1.185
263901.000			-5.925			-1.185
264000.000			-5.926			-1.185
264100.000			-5.926			-1.185
264201.000			-5.925			-1.185
264300.000			-5.925			-1.185
264400.000			-5.925			-1.185
264502.000			-5.925			-1.185
264601.000			-5.925			-1.185
264700.000			-5.925			-1.185
264801.000			-5.925			-1.185
264900.000			-5.926			-1.185
265000.000			-5.925			-1.185
265101.000			-5.924			-1.185
265200.000			-5.924			-1.185
265300.000			-5.925			-1.185
265402.000			-5.924			-1.185
265501.000			-5.924			-1.185
265602.000			-5.925			-1.185
265700.000			-5.925			-1.185
265800.000			-5.923			-1.185
265901.000			-5.924			-1.185
266000.000			-5.924			-1.185
266100.000			-5.924			-1.185
266201.000			-5.924			-1.185
266301.000			-5.923			-1.185
266401.000			-5.924			-1.185
266502.000			-5.924			-1.185
266600.000			-5.923			-1.185
266700.000			-5.923			-1.185
266801.000			-5.923			-1.185
266900.000			-5.924			-1.185
267000.000			-5.924			-1.185
267101.000			-5.924			-1.185
267200.000			-5.923			-1.185
267301.000			-5.923			-1.185
267402.000			-5.923			-1.185
267501.000			-5.923			-1.185
267600.000			-5.923			-1.185
267701.000			-5.924			-1.185
267800.000			-5.924			-1.185
267900.000			-5.923			-1.185
268001.000			-5.923			-1.185
268100.000			-5.923			-1.185
268200.000			-5.923			-1.185
268302.000			-5.923			-1.185
268401.000			-5.922			-1.184
268500.000			-5.922			-1.184
268601.000			-5.922			-1.184
268700.000			-5.923			-1.185
268800.000			-5.922			-1.184
268900.000			-5.922			-1.184
269000.000			-5.922			-1.184
269101.000			-5.923			-1.185
269201.000			-5.922			-1.184
269301.000			-5.922			-1.184
269402.000			-5.921			-1.184
269500.000			-5.922			-1.184
269600.000			-5.923			-1.185
269701.000			-5.922			-1.184
269800.000			-5.922			-1.184
269900.000			-5.923			-1.185
270001.000			-5.923			-1.185
270101.000			-5.922			-1.184
270201.000			-5.921			-1.184
270302.000			-5.922			-1.184
270400.000			-5.922			-1.184
270500.000			-5.921			-1.184
270601.000			-5.922			-1.184
270700.000			-5.922			-1.184
270800.000			-5.920			-1.184
270901.000			-5.921			-1.184
271001.000			-5.921			-1.184
271101.000			-5.921			-1.184
271202.000			-5.922			-1.184
271300.000			-5.921			-1.184
271400.000			-5.919			-1.184
271501.000			-5.920			-1.184
271600.000			-5.920			-1.184
271700.000			-5.921			-1.184
271801.000			-5.921			-1.184
271900.000			-5.921			-1.184
272002.000			-5.921			-1.184
272101.000			-5.920			-1.184
272200.000			-5.920			-1.184
272301.000			-5.921			-1.184
272400.000			-5.920			-1.184
272500.000			-5.920			-1.184
272601.000			-5.919			-1.184
272700.000			-5.919			-1.184
272800.000			-5.920			-1.184
272902.000			-5.920			-1.184
273001.000			-5.920			-1.184
273101.000			-5.919			-1.184
273201.000			-5.919			-1.184
273300.000			-5.919			-1.184
273400.000			-5.919			-1.184
273501.000			-5.920			-1.184
273600.000			-5.919			-1.184
273700.000			-5.919			-1.184
273801.000			-5.918			-1.184
273901.000			-5.919			-1.184
274001.000			-5.919			-1.184
274101.000			-5.919			-1.184
274200.000			-5.918			-1.184
274300.000			-5.919			-1.184
274401.000			-5.919			-1.184
274500.000			-5.919			-1.184
274600.000			-5.918			-1.184
274701.000			-5.918			-1.184
274801.000			-5.919			-1.184
274901.000			-5.919			-1.184
275002.000			-5.919			-1.184
275100.000			-5.919			-1.184
275200.000			-5.918			-1.184
275300.000			-5.918			-1.184
275400.000			-5.919			-1.184
275501.000			-5.918			-1.184
275600.000			-5.918			-1.184
275700.000			-5.917			-1.183
275802.000			-5.917			-1.183
275901.000			-5.918			-1.184
276000.000			-5.917			-1.183
276101.000			-5.917			-1.183
276200.000			-5.918			-1.184
276300.000			-5.918			-1.184
276401.000			-5.918			-1.184
276500.000			-5.918			-1.184
276600.000			-5.917			-1.183
276702.000			-5.918			-1.184
276801.000			-5.918			-1.184
276901.000			-5.917			-1.183
277001.000			-5.918			-1.184
277100.000			-5.917			-1.183
277200.000			-5.917			-1.183
277301.000			-5.917			-1.183
277400.000			-5.917			-1.183
277500.000			-5.917			-1.183
277601.000			-5.918			-1.184
277701.000			-5.917			-1.183
277801.000			-5.917			-1.183
277901.000			-5.917			-1.183
278000.000			-5.917			-1.183
278100.000			-5.916			-1.183
278201.000			-5.916			-1.183
278300.000			-5.916			-1.183
278400.000			-5.916			-1.183
278500.000			-5.916			-1.183
278600.000			-5.917			-1.183
278702.000			-5.916			-1.183
278801.000			-5.916			-1.183
278900.000			-5.917			-1.183
279001.000			-5.916			-1.183
279100.000			-5.917			-1.183
279200.000			-5.917			-1.183
279301.000			-5.917			-1.183
279400.000			-5.917			-1.183
279500.000			-5.917			-1.183
279602.000			-5.917			-1.183
279701.000			-5.917			-1.183
279801.000			-5.917			-1.183
279901.000			-5.916			-1.183
280000.000			-5.915			-1.183
280100.000			-5.915			-1.183
280201.000			-5.915			-1.183
280300.000			-5.915			-1.183
280400.000			-5.915			-1.183
280502.000			-5.915			-1.183
280601.000			-5.915			-1.183
280701.000			-5.915			-1.183
280801.000			-5.916			-1.183
280900.000			-5.916			-1.183
281000.000			-5.915			-1.183
281101.000			-5.915			-1.183
281200.000			-5.916			-1.183
281300.000			-5.916			-1.183
281401.000			-5.916			-1.183
281501.000			-5.915			-1.183
281602.000			-5.915			-1.183
281700.000			-5.915			-1.183
281800.000			-5.916			-1.183
281901.000			-5.914			-1.183
282000.000			-5.915			-1.183
282100.000			-5.915			-1.183
282201.000			-5.915			-1.183
282300.000			-5.915			-1.183
282401.000			-5.915			-1.183
282502.000			-5.916			-1.183
282601.000			-5.915			-1.183
282700.000			-5.915			-1.183
282801.000			-5.914			-1.183
282900.000			-5.914			-1.183
283000.000			-5.914			-1.183
283101.000			-5.914			-1.183
283200.000			-5.914			-1.183
283300.000			-5.912			-1.182
283402.000			-5.913			-1.183
283501.000			-5.914			-1.183
283600.000			-5.913			-1.183
283701.000			-5.913			-1.183
283800.000			-5.914			-1.183
283900.000			-5.914			-1.183
284001.000			-5.913			-1.183
284100.000			-5.913			-1.183
284200.000			-5.913			-1.183
284302.000			-5.913			-1.183
284401.000			-5.913			-1.183
284500.000			-5.913			-1.183
284601.000			-5.913			-1.183
284700.000			-5.913			-1.183
284800.000			-5.913			-1.183
284900.000			-5.914			-1.183
285000.000			-5.914			-1.183
285101.000			-5.913			-1.183
285201.000			-5.913			-1.183
285301.000			-5.913			-1.183
285402.000			-5.912			-1.182
285500.000			-5.912			-1.182
285600.000			-5.913			-1.183
285701.000			-5.912			-1.182
285800.000			-5.912			-1.182
285900.000			-5.912			-1.182
286001.000			-5.912			-1.182
286101.000			-5.912			-1.182
286201.000			-5.912			-1.182
286302.000			-5.912			-1.182
286400.000			-5.912			-1.182
286500.000			-5.912			-1.182
286601.000			-5.912			-1.182
286700.000			-5.911			-1.182
286800.000			-5.911			-1.182
286901.000			-5.911			-1.182
287000.000			-5.911			-1.182
287101.000			-5.911			-1.182
287202.000			-5.911			-1.182
287300.000			-5.912			-1.182
287400.000			-5.912			-1.182
287501.000			-5.912			-1.182
287600.000			-5.912			-1.182
287700.000			-5.910			-1.182
287801.000			-5.911			-1.182
287900.000			-5.911			-1.182
288002.000			-5.910			-1.182
288101.000			-5.909			-1.182
288201.000			-5.910			-1.182
288301.000			-5.911			-1.182
288400.000			-5.911			-1.182
288500.000			-5.912			-1.182
288601.000			-5.911			-1.182
288700.000			-5.910			-1.182
288800.000			-5.910			-1.182
288902.000			-5.910			-1.182
289001.000			-5.910			-1.182
289101.000			-5.910			-1.182
289201.000			-5.910			-1.182
289300.000			-5.910			-1.182
289400.000			-5.910			-1.182
289501.000			-5.910			-1.182
289600.000			-5.910			-1.182
289700.000			-5.910			-1.182
289801.000			-5.910			-1.182
289901.000			-5.910			-1.182
290001.000			-5.910			-1.182
290101.000			-5.910			-1.182
290200.000			-5.909			-1.182
290300.000			-5.909			-1.182
290401.000			-5.908			-1.182
290500.000			-5.909			-1.182
290600.000			-5.910			-1.182
290701.000			-5.909			-1.182
290801.000			-5.909			-1.182
290901.000			-5.909			-1.182
291002.000			-5.910			-1.182
291100.000			-5.910			-1.182
291200.000			-5.910			-1.182
291300.000			-5.910			-1.182
291400.000			-5.909			-1.182
291501.000			-5.909			-1.182
291600.000			-5.909			-1.182
291700.000			-5.909			-1.182
291802.000			-5.908			-1.182
291901.000			-5.908			-1.182
292000.000			-5.908			-1.182
292101.000			-5.909			-1.182
292200.000			-5.909			-1.182
292300.000			-5.909			-1.182
292401.000			-5.909			-1.182
292500.000			-5.908			-1.182
292600.000			-5.907			-1.181
292702.000			-5.909			-1.182
292801.000			-5.909			-1.182
292901.000			-5.909			-1.182
293001.000			-5.909			-1.182
293100.000			-5.907			-1.181
293200.000			-5.907			-1.181
293301.000			-5.907			-1.181
293400.000			-5.908			-1.182
293500.000			-5.908			-1.182
293601.000			-5.906			-1.181
293701.000			-5.907			-1.181
293801.000			-5.907			-1.181
293901.000			-5.906			-1.181
294000.000			-5.906			-1.181
294100.000			-5.906			-1.181
294201.000			-5.908			-1.182
294300.000			-5.906			-1.181
294400.000			-5.907			-1.181
294500.000			-5.907			-1.181
294601.000			-5.907			-1.181
294702.000			-5.907			-1.181
294801.000			-5.908			-1.182
294900.000			-5.908			-1.182
295001.000			-5.907			-1.181
295100.000			-5.907			-1.181
295200.000			-5.907			-1.181
295301.000			-5.907			-1.181
295400.000			-5.906			-1.181
295500.000			-5.906			-1.181
295602.000			-5.907			-1.181
295701.000			-5.907			-1.181
295800.000			-5.906			-1.181
295901.000			-5.906			-1.181
296000.000			-5.906			-1.181
296100.000			-5.906			-1.181
296201.000			-5.907			-1.181
296300.000			-5.907			-1.181
296400.000			-5.906			-1.181
296502.000			-5.906			-1.181
296601.000			-5.905			-1.181
296701.000			-5.905			-1.181
296801.000			-5.906			-1.181
296900.000			-5.906			-1.181
297000.000			-5.906			-1.181
297101.000			-5.906			-1.181
297200.000			-5.907			-1.181
297300.000			-5.905			-1.181
297401.000			-5.905			-1.181
297501.000			-5.905			-1.181
297602.000			-5.905			-1.181
297701.000			-5.905			-1.181
297800.000			-5.905			-1.181
297901.000			-5.905			-1.181
298000.000			-5.905			-1.181
298100.000			-5.905			-1.181
298201.000			-5.905			-1.181
298300.000			-5.906			-1.181
298400.000			-5.905			-1.181
298502.000			-5.904			-1.181
298601.000			-5.905			-1.181
298700.000			-5.905			-1.181
298801.000			-5.905			-1.181
298900.000			-5.905			-1.181
299000.000			-5.905			-1.181
299101.000			-5.904			-1.181
299200.000			-5.903			-1.181
299300.000			-5.903			-1.181
299402.000			-5.905			-1.181
299501.000			-5.905			-1.181
299601.000			-5.906			-1.181
299701.000			-5.905			-1.181
299800.000			-5.905			-1.181
299900.000			-5.904			-1.181
