# Acquired on 26/01/2024 15:30:00 
# SPIDER: Creep_6mm_HM077x145x38AB-1
# CREEP MEASUREMENT

# time [ms]		force [N]		stiffness [N/mm]
1.000			-20.683			-3.447
104.000			-21.049			-3.508
203.000			-21.087			-3.515
305.000			-21.013			-3.502
404.000			-20.953			-3.492
504.000			-20.907			-3.484
605.000			-20.830			-3.472
703.000			-20.798			-3.466
804.000			-20.770			-3.462
905.000			-20.743			-3.457
1004.000			-20.719			-3.453
1104.000			-20.696			-3.449
1205.000			-20.674			-3.446
1304.000			-20.637			-3.440
1403.000			-20.619			-3.436
1505.000			-20.601			-3.434
1604.000			-20.585			-3.431
1705.000			-20.569			-3.428
1804.000			-20.554			-3.426
1903.000			-20.541			-3.424
2005.000			-20.528			-3.421
2104.000			-20.502			-3.417
2204.000			-20.490			-3.415
2305.000			-20.477			-3.413
2404.000			-20.466			-3.411
2504.000			-20.454			-3.409
2605.000			-20.443			-3.407
2704.000			-20.433			-3.405
2804.000			-20.413			-3.402
2905.000			-20.403			-3.401
3004.000			-20.394			-3.399
3103.000			-20.384			-3.397
3205.000			-20.375			-3.396
3304.000			-20.367			-3.394
3404.000			-20.358			-3.393
3505.000			-20.341			-3.390
3604.000			-20.334			-3.389
3704.000			-20.326			-3.388
3805.000			-20.318			-3.386
3904.000			-20.312			-3.385
4004.000			-20.304			-3.384
4105.000			-20.297			-3.383
4204.000			-20.283			-3.381
4303.000			-20.277			-3.379
4405.000			-20.270			-3.378
4504.000			-20.262			-3.377
4604.000			-20.256			-3.376
4705.000			-20.250			-3.375
4804.000			-20.243			-3.374
4905.000			-20.237			-3.373
5003.000			-20.225			-3.371
5104.000			-20.220			-3.370
5205.000			-20.215			-3.369
5304.000			-20.210			-3.368
5404.000			-20.204			-3.367
5504.000			-20.197			-3.366
5604.000			-20.191			-3.365
5704.000			-20.181			-3.363
5805.000			-20.175			-3.363
5904.000			-20.171			-3.362
6004.000			-20.166			-3.361
6105.000			-20.161			-3.360
6204.000			-20.155			-3.359
6304.000			-20.150			-3.358
6405.000			-20.142			-3.357
6504.000			-20.137			-3.356
6604.000			-20.133			-3.355
6704.000			-20.128			-3.355
6804.000			-20.123			-3.354
6904.000			-20.118			-3.353
7005.000			-20.113			-3.352
7104.000			-20.104			-3.351
7203.000			-20.099			-3.350
7305.000			-20.095			-3.349
7404.000			-20.092			-3.349
7504.000			-20.087			-3.348
7605.000			-20.083			-3.347
7704.000			-20.079			-3.347
7804.000			-20.076			-3.346
7903.000			-20.067			-3.345
8004.000			-20.063			-3.344
8105.000			-20.060			-3.343
8204.000			-20.055			-3.343
8304.000			-20.051			-3.342
8404.000			-20.048			-3.341
8504.000			-20.045			-3.341
8604.000			-20.037			-3.339
8705.000			-20.033			-3.339
8804.000			-20.030			-3.338
8904.000			-20.025			-3.338
9005.000			-20.022			-3.337
9103.000			-20.019			-3.336
9204.000			-20.015			-3.336
9305.000			-20.008			-3.335
9404.000			-20.005			-3.334
9504.000			-20.001			-3.334
9604.000			-19.999			-3.333
9704.000			-19.996			-3.333
9804.000			-19.992			-3.332
9905.000			-19.989			-3.331
10004.000			-19.985			-3.331
10104.000			-19.979			-3.330
10205.000			-19.975			-3.329
10303.000			-19.972			-3.329
10404.000			-19.970			-3.328
10505.000			-19.967			-3.328
10604.000			-19.964			-3.327
10704.000			-19.961			-3.327
10805.000			-19.954			-3.326
10904.000			-19.951			-3.325
11003.000			-19.949			-3.325
11105.000			-19.945			-3.324
11204.000			-19.942			-3.324
11305.000			-19.940			-3.323
11404.000			-19.936			-3.323
11504.000			-19.930			-3.322
11605.000			-19.927			-3.321
11703.000			-19.925			-3.321
11804.000			-19.922			-3.320
11905.000			-19.920			-3.320
12004.000			-19.917			-3.320
12104.000			-19.913			-3.319
12205.000			-19.908			-3.318
12304.000			-19.906			-3.318
12403.000			-19.904			-3.317
12505.000			-19.902			-3.317
12604.000			-19.898			-3.316
12704.000			-19.895			-3.316
12805.000			-19.892			-3.315
12904.000			-19.889			-3.315
13004.000			-19.885			-3.314
13104.000			-19.882			-3.314
13204.000			-19.879			-3.313
13304.000			-19.877			-3.313
13405.000			-19.874			-3.312
13504.000			-19.871			-3.312
13604.000			-19.870			-3.312
13705.000			-19.865			-3.311
13803.000			-19.862			-3.310
13904.000			-19.860			-3.310
14005.000			-19.858			-3.310
14104.000			-19.856			-3.309
14204.000			-19.853			-3.309
14304.000			-19.851			-3.308
14404.000			-19.845			-3.308
14504.000			-19.843			-3.307
14604.000			-19.841			-3.307
14704.000			-19.839			-3.306
14805.000			-19.836			-3.306
14904.000			-19.834			-3.306
15004.000			-19.832			-3.305
15105.000			-19.826			-3.304
15203.000			-19.824			-3.304
15304.000			-19.823			-3.304
15405.000			-19.821			-3.304
15504.000			-19.819			-3.303
15604.000			-19.817			-3.303
15705.000			-19.815			-3.302
15804.000			-19.813			-3.302
15903.000			-19.807			-3.301
16005.000			-19.806			-3.301
16104.000			-19.805			-3.301
16204.000			-19.802			-3.300
16305.000			-19.800			-3.300
16404.000			-19.798			-3.300
16504.000			-19.796			-3.299
16604.000			-19.792			-3.299
16704.000			-19.790			-3.298
16804.000			-19.788			-3.298
16905.000			-19.785			-3.298
17004.000			-19.783			-3.297
17104.000			-19.781			-3.297
17205.000			-19.779			-3.296
17303.000			-19.775			-3.296
17404.000			-19.773			-3.296
17505.000			-19.772			-3.295
17604.000			-19.769			-3.295
17705.000			-19.767			-3.294
17804.000			-19.765			-3.294
17904.000			-19.764			-3.294
18004.000			-19.761			-3.293
18104.000			-19.758			-3.293
18203.000			-19.756			-3.293
18305.000			-19.755			-3.292
18404.000			-19.752			-3.292
18504.000			-19.750			-3.292
18605.000			-19.749			-3.292
18703.000			-19.747			-3.291
18804.000			-19.743			-3.291
18905.000			-19.742			-3.290
19004.000			-19.741			-3.290
19104.000			-19.738			-3.290
19205.000			-19.737			-3.289
19304.000			-19.733			-3.289
19403.000			-19.731			-3.289
19505.000			-19.729			-3.288
19604.000			-19.727			-3.288
19704.000			-19.725			-3.287
19805.000			-19.723			-3.287
19904.000			-19.722			-3.287
20004.000			-19.719			-3.287
20104.000			-19.718			-3.286
20204.000			-19.714			-3.286
20304.000			-19.712			-3.285
20405.000			-19.711			-3.285
20504.000			-19.711			-3.285
20604.000			-19.710			-3.285
20705.000			-19.707			-3.284
20803.000			-19.704			-3.284
20905.000			-19.702			-3.284
21004.000			-19.700			-3.283
21104.000			-19.698			-3.283
21205.000			-19.696			-3.283
21304.000			-19.694			-3.282
21404.000			-19.693			-3.282
21504.000			-19.691			-3.282
21604.000			-19.689			-3.281
21704.000			-19.686			-3.281
21805.000			-19.684			-3.281
21904.000			-19.683			-3.281
22004.000			-19.682			-3.280
22105.000			-19.680			-3.280
22203.000			-19.678			-3.280
22304.000			-19.677			-3.280
22405.000			-19.674			-3.279
22504.000			-19.672			-3.279
22604.000			-19.670			-3.278
22705.000			-19.669			-3.278
22804.000			-19.666			-3.278
22903.000			-19.664			-3.277
23005.000			-19.663			-3.277
23104.000			-19.661			-3.277
23204.000			-19.659			-3.277
23305.000			-19.657			-3.276
23404.000			-19.656			-3.276
23504.000			-19.655			-3.276
23604.000			-19.653			-3.275
23704.000			-19.651			-3.275
23804.000			-19.649			-3.275
23904.000			-19.647			-3.274
24004.000			-19.646			-3.274
24105.000			-19.645			-3.274
24204.000			-19.643			-3.274
24303.000			-19.641			-3.273
24405.000			-19.639			-3.273
24504.000			-19.638			-3.273
24604.000			-19.635			-3.272
24705.000			-19.634			-3.272
24804.000			-19.633			-3.272
24904.000			-19.632			-3.272
25004.000			-19.630			-3.272
25104.000			-19.627			-3.271
25204.000			-19.625			-3.271
25305.000			-19.624			-3.271
25404.000			-19.623			-3.270
25504.000			-19.622			-3.270
25605.000			-19.621			-3.270
25703.000			-19.619			-3.270
25804.000			-19.617			-3.270
25905.000			-19.616			-3.269
26004.000			-19.612			-3.269
26104.000			-19.612			-3.269
26204.000			-19.610			-3.268
26304.000			-19.608			-3.268
26403.000			-19.607			-3.268
26505.000			-19.607			-3.268
26604.000			-19.605			-3.268
26704.000			-19.603			-3.267
26805.000			-19.599			-3.266
26903.000			-19.598			-3.266
27004.000			-19.597			-3.266
27105.000			-19.596			-3.266
27204.000			-19.595			-3.266
27305.000			-19.594			-3.266
27404.000			-19.593			-3.265
27504.000			-19.589			-3.265
27605.000			-19.588			-3.265
27704.000			-19.588			-3.265
27803.000			-19.587			-3.264
27905.000			-19.585			-3.264
28004.000			-19.583			-3.264
28104.000			-19.581			-3.264
28205.000			-19.579			-3.263
28304.000			-19.579			-3.263
28404.000			-19.578			-3.263
28504.000			-19.576			-3.263
28604.000			-19.574			-3.262
28704.000			-19.573			-3.262
28805.000			-19.572			-3.262
28904.000			-19.570			-3.262
29004.000			-19.568			-3.261
29105.000			-19.567			-3.261
29203.000			-19.566			-3.261
29304.000			-19.565			-3.261
29405.000			-19.562			-3.260
29504.000			-19.561			-3.260
29604.000			-19.560			-3.260
29705.000			-19.558			-3.260
29804.000			-19.557			-3.260
29903.000			-19.556			-3.259
30005.000			-19.555			-3.259
30104.000			-19.554			-3.259
30204.000			-19.552			-3.259
30305.000			-19.550			-3.258
30404.000			-19.549			-3.258
30505.000			-19.547			-3.258
30603.000			-19.545			-3.257
30704.000			-19.545			-3.257
30805.000			-19.544			-3.257
30904.000			-19.543			-3.257
31004.000			-19.542			-3.257
31105.000			-19.539			-3.256
31204.000			-19.539			-3.256
31303.000			-19.538			-3.256
31405.000			-19.537			-3.256
31504.000			-19.535			-3.256
31604.000			-19.533			-3.256
31705.000			-19.532			-3.255
31803.000			-19.532			-3.255
31904.000			-19.529			-3.255
32004.000			-19.528			-3.255
32104.000			-19.527			-3.254
32204.000			-19.526			-3.254
32305.000			-19.525			-3.254
32404.000			-19.522			-3.254
32503.000			-19.522			-3.254
32605.000			-19.520			-3.253
32704.000			-19.520			-3.253
32804.000			-19.519			-3.253
32905.000			-19.518			-3.253
33004.000			-19.516			-3.253
33104.000			-19.515			-3.252
33204.000			-19.513			-3.252
33304.000			-19.510			-3.252
33404.000			-19.509			-3.252
33504.000			-19.509			-3.251
33604.000			-19.508			-3.251
33705.000			-19.507			-3.251
33804.000			-19.506			-3.251
33903.000			-19.505			-3.251
34005.000			-19.503			-3.251
34104.000			-19.503			-3.250
34204.000			-19.501			-3.250
34305.000			-19.499			-3.250
34404.000			-19.499			-3.250
34504.000			-19.498			-3.250
34604.000			-19.497			-3.250
34704.000			-19.497			-3.249
34804.000			-19.494			-3.249
34905.000			-19.493			-3.249
35004.000			-19.492			-3.249
35104.000			-19.491			-3.248
35205.000			-19.490			-3.248
35303.000			-19.490			-3.248
35404.000			-19.489			-3.248
35505.000			-19.487			-3.248
35604.000			-19.486			-3.248
35704.000			-19.486			-3.248
35805.000			-19.484			-3.247
35904.000			-19.482			-3.247
36003.000			-19.481			-3.247
36105.000			-19.480			-3.247
36204.000			-19.479			-3.246
36304.000			-19.478			-3.246
36405.000			-19.476			-3.246
36504.000			-19.474			-3.246
36604.000			-19.473			-3.246
36703.000			-19.473			-3.246
36804.000			-19.473			-3.245
36905.000			-19.471			-3.245
37004.000			-19.470			-3.245
37104.000			-19.469			-3.245
37205.000			-19.468			-3.245
37304.000			-19.466			-3.244
37403.000			-19.465			-3.244
37505.000			-19.465			-3.244
37604.000			-19.465			-3.244
37704.000			-19.462			-3.244
37805.000			-19.461			-3.243
37904.000			-19.460			-3.243
38004.000			-19.460			-3.243
38104.000			-19.458			-3.243
38204.000			-19.457			-3.243
38304.000			-19.456			-3.243
38405.000			-19.453			-3.242
38504.000			-19.453			-3.242
38604.000			-19.452			-3.242
38705.000			-19.451			-3.242
38803.000			-19.449			-3.242
38904.000			-19.449			-3.241
39005.000			-19.448			-3.241
39104.000			-19.445			-3.241
39204.000			-19.445			-3.241
39305.000			-19.444			-3.241
39404.000			-19.444			-3.241
39503.000			-19.442			-3.240
39605.000			-19.441			-3.240
39704.000			-19.440			-3.240
39804.000			-19.439			-3.240
39905.000			-19.438			-3.240
40004.000			-19.437			-3.240
40105.000			-19.436			-3.239
40203.000			-19.435			-3.239
40304.000			-19.435			-3.239
40405.000			-19.433			-3.239
40504.000			-19.432			-3.239
40604.000			-19.430			-3.238
40704.000			-19.429			-3.238
40804.000			-19.427			-3.238
40903.000			-19.427			-3.238
41005.000			-19.427			-3.238
41104.000			-19.426			-3.238
41204.000			-19.425			-3.238
41305.000			-19.423			-3.237
41403.000			-19.423			-3.237
41504.000			-19.422			-3.237
41605.000			-19.420			-3.237
41704.000			-19.419			-3.237
41804.000			-19.419			-3.237
41905.000			-19.418			-3.236
42004.000			-19.417			-3.236
42103.000			-19.416			-3.236
42205.000			-19.415			-3.236
42304.000			-19.414			-3.236
42404.000			-19.412			-3.235
42505.000			-19.411			-3.235
42604.000			-19.411			-3.235
42704.000			-19.411			-3.235
42804.000			-19.409			-3.235
42904.000			-19.407			-3.235
43004.000			-19.407			-3.235
43104.000			-19.406			-3.234
43204.000			-19.405			-3.234
43304.000			-19.405			-3.234
43404.000			-19.403			-3.234
43503.000			-19.401			-3.234
43605.000			-19.401			-3.234
43704.000			-19.400			-3.233
43804.000			-19.400			-3.233
43905.000			-19.399			-3.233
44003.000			-19.398			-3.233
44104.000			-19.397			-3.233
44205.000			-19.396			-3.233
44304.000			-19.394			-3.232
44404.000			-19.393			-3.232
44505.000			-19.392			-3.232
44604.000			-19.392			-3.232
44703.000			-19.391			-3.232
44805.000			-19.390			-3.232
44904.000			-19.388			-3.231
45004.000			-19.387			-3.231
45105.000			-19.386			-3.231
45204.000			-19.386			-3.231
45304.000			-19.386			-3.231
45404.000			-19.385			-3.231
45504.000			-19.384			-3.231
45604.000			-19.382			-3.230
45705.000			-19.381			-3.230
45804.000			-19.381			-3.230
45904.000			-19.380			-3.230
46005.000			-19.379			-3.230
46103.000			-19.378			-3.230
46204.000			-19.378			-3.230
46305.000			-19.375			-3.229
46404.000			-19.375			-3.229
46505.000			-19.374			-3.229
46604.000			-19.374			-3.229
46704.000			-19.373			-3.229
46804.000			-19.373			-3.229
46904.000			-19.372			-3.229
47004.000			-19.371			-3.228
47105.000			-19.368			-3.228
47204.000			-19.368			-3.228
47304.000			-19.367			-3.228
47405.000			-19.367			-3.228
47503.000			-19.366			-3.228
47604.000			-19.365			-3.228
47705.000			-19.364			-3.227
47804.000			-19.364			-3.227
47904.000			-19.362			-3.227
48005.000			-19.361			-3.227
48104.000			-19.361			-3.227
48203.000			-19.361			-3.227
48305.000			-19.360			-3.227
48404.000			-19.358			-3.226
48504.000			-19.357			-3.226
48605.000			-19.355			-3.226
48704.000			-19.354			-3.226
48804.000			-19.354			-3.226
48904.000			-19.353			-3.226
49004.000			-19.353			-3.226
49103.000			-19.353			-3.225
49205.000			-19.351			-3.225
49304.000			-19.349			-3.225
49404.000			-19.349			-3.225
49505.000			-19.349			-3.225
49603.000			-19.349			-3.225
49705.000			-19.348			-3.225
49803.000			-19.346			-3.224
49904.000			-19.344			-3.224
50005.000			-19.343			-3.224
50104.000			-19.343			-3.224
50204.000			-19.342			-3.224
50304.000			-19.341			-3.224
50404.000			-19.340			-3.223
50504.000			-19.339			-3.223
50605.000			-19.338			-3.223
50704.000			-19.337			-3.223
50804.000			-19.336			-3.223
50905.000			-19.335			-3.223
51003.000			-19.335			-3.222
51104.000			-19.334			-3.222
51205.000			-19.333			-3.222
51304.000			-19.333			-3.222
51404.000			-19.332			-3.222
51505.000			-19.331			-3.222
51604.000			-19.331			-3.222
51703.000			-19.330			-3.222
51805.000			-19.327			-3.221
51904.000			-19.327			-3.221
52004.000			-19.327			-3.221
52105.000			-19.325			-3.221
52204.000			-19.324			-3.221
52304.000			-19.324			-3.221
52404.000			-19.323			-3.221
52504.000			-19.322			-3.220
52604.000			-19.321			-3.220
52704.000			-19.320			-3.220
52804.000			-19.320			-3.220
52904.000			-19.319			-3.220
53004.000			-19.318			-3.220
53103.000			-19.317			-3.219
53205.000			-19.316			-3.219
53304.000			-19.316			-3.219
53404.000			-19.315			-3.219
53505.000			-19.316			-3.219
53603.000			-19.314			-3.219
53704.000			-19.313			-3.219
53805.000			-19.312			-3.219
53904.000			-19.311			-3.218
54004.000			-19.309			-3.218
54105.000			-19.309			-3.218
54204.000			-19.310			-3.218
54303.000			-19.309			-3.218
54405.000			-19.306			-3.218
54504.000			-19.305			-3.218
54604.000			-19.306			-3.218
54705.000			-19.304			-3.217
54804.000			-19.303			-3.217
54904.000			-19.302			-3.217
55004.000			-19.302			-3.217
55104.000			-19.300			-3.217
55204.000			-19.300			-3.217
55305.000			-19.300			-3.217
55404.000			-19.299			-3.216
55504.000			-19.298			-3.216
55605.000			-19.297			-3.216
55703.000			-19.296			-3.216
55804.000			-19.296			-3.216
55905.000			-19.294			-3.216
56004.000			-19.294			-3.216
56105.000			-19.293			-3.216
56204.000			-19.292			-3.215
56304.000			-19.291			-3.215
56404.000			-19.290			-3.215
56504.000			-19.291			-3.215
56604.000			-19.289			-3.215
56705.000			-19.288			-3.215
56804.000			-19.287			-3.215
56904.000			-19.286			-3.214
57005.000			-19.286			-3.214
57103.000			-19.286			-3.214
57204.000			-19.284			-3.214
57305.000			-19.284			-3.214
57404.000			-19.284			-3.214
57504.000			-19.283			-3.214
57605.000			-19.282			-3.214
57704.000			-19.282			-3.214
57803.000			-19.282			-3.214
57905.000			-19.281			-3.213
58004.000			-19.279			-3.213
58104.000			-19.278			-3.213
58205.000			-19.277			-3.213
58304.000			-19.276			-3.213
58404.000			-19.276			-3.213
58504.000			-19.276			-3.213
58604.000			-19.275			-3.212
58704.000			-19.274			-3.212
58805.000			-19.273			-3.212
58904.000			-19.272			-3.212
59004.000			-19.272			-3.212
59105.000			-19.272			-3.212
59203.000			-19.272			-3.212
59305.000			-19.270			-3.212
59404.000			-19.269			-3.212
59504.000			-19.268			-3.211
59605.000			-19.268			-3.211
59704.000			-19.268			-3.211
59804.000			-19.267			-3.211
59904.000			-19.266			-3.211
60004.000			-19.264			-3.211
60104.000			-19.264			-3.211
60205.000			-19.263			-3.210
60304.000			-19.263			-3.211
60404.000			-19.263			-3.211
60505.000			-19.262			-3.210
60603.000			-19.261			-3.210
60704.000			-19.259			-3.210
60805.000			-19.258			-3.210
60904.000			-19.259			-3.210
61004.000			-19.257			-3.210
61105.000			-19.257			-3.210
61204.000			-19.257			-3.210
61303.000			-19.256			-3.209
61405.000			-19.255			-3.209
61504.000			-19.253			-3.209
61604.000			-19.254			-3.209
61705.000			-19.253			-3.209
61804.000			-19.253			-3.209
61904.000			-19.253			-3.209
62004.000			-19.252			-3.209
62104.000			-19.250			-3.208
62204.000			-19.250			-3.208
62304.000			-19.250			-3.208
62404.000			-19.249			-3.208
62505.000			-19.248			-3.208
62604.000			-19.247			-3.208
62703.000			-19.246			-3.208
62805.000			-19.246			-3.208
62904.000			-19.244			-3.207
63004.000			-19.244			-3.207
63105.000			-19.245			-3.207
63204.000			-19.243			-3.207
63304.000			-19.242			-3.207
63404.000			-19.242			-3.207
63504.000			-19.242			-3.207
63604.000			-19.240			-3.207
63705.000			-19.239			-3.207
63804.000			-19.238			-3.206
63903.000			-19.238			-3.206
64005.000			-19.238			-3.206
64104.000			-19.236			-3.206
64204.000			-19.236			-3.206
64305.000			-19.235			-3.206
64404.000			-19.235			-3.206
64504.000			-19.235			-3.206
64604.000			-19.234			-3.206
64704.000			-19.233			-3.206
64804.000			-19.232			-3.205
64905.000			-19.232			-3.205
65004.000			-19.230			-3.205
65104.000			-19.230			-3.205
65205.000			-19.230			-3.205
65303.000			-19.228			-3.205
65404.000			-19.227			-3.204
65505.000			-19.227			-3.204
65604.000			-19.227			-3.205
65705.000			-19.226			-3.204
65804.000			-19.225			-3.204
65904.000			-19.225			-3.204
66004.000			-19.223			-3.204
66104.000			-19.223			-3.204
66204.000			-19.222			-3.204
66305.000			-19.221			-3.204
66404.000			-19.221			-3.203
66504.000			-19.220			-3.203
66605.000			-19.220			-3.203
66703.000			-19.219			-3.203
66804.000			-19.218			-3.203
66905.000			-19.218			-3.203
67004.000			-19.217			-3.203
67104.000			-19.218			-3.203
67205.000			-19.217			-3.203
67304.000			-19.217			-3.203
67403.000			-19.216			-3.203
67505.000			-19.213			-3.202
67604.000			-19.213			-3.202
67704.000			-19.213			-3.202
67805.000			-19.213			-3.202
67904.000			-19.213			-3.202
68004.000			-19.211			-3.202
68104.000			-19.210			-3.202
68204.000			-19.210			-3.202
68304.000			-19.209			-3.201
68405.000			-19.208			-3.201
68504.000			-19.206			-3.201
68604.000			-19.206			-3.201
68705.000			-19.205			-3.201
68803.000			-19.204			-3.201
68905.000			-19.205			-3.201
69004.000			-19.205			-3.201
69104.000			-19.204			-3.201
69205.000			-19.202			-3.200
69304.000			-19.201			-3.200
69404.000			-19.201			-3.200
69504.000			-19.201			-3.200
69604.000			-19.201			-3.200
69704.000			-19.200			-3.200
69805.000			-19.199			-3.200
69904.000			-19.199			-3.200
70004.000			-19.198			-3.200
70105.000			-19.198			-3.200
70204.000			-19.197			-3.200
70304.000			-19.196			-3.199
70404.000			-19.195			-3.199
70504.000			-19.195			-3.199
70604.000			-19.195			-3.199
70705.000			-19.194			-3.199
70804.000			-19.193			-3.199
70904.000			-19.193			-3.199
71005.000			-19.191			-3.199
71103.000			-19.191			-3.198
71204.000			-19.191			-3.198
71305.000			-19.191			-3.198
71404.000			-19.191			-3.198
71504.000			-19.190			-3.198
71605.000			-19.189			-3.198
71704.000			-19.188			-3.198
71803.000			-19.187			-3.198
71905.000			-19.187			-3.198
72004.000			-19.186			-3.198
72105.000			-19.186			-3.198
72204.000			-19.186			-3.198
72304.000			-19.186			-3.198
72405.000			-19.185			-3.198
72503.000			-19.184			-3.197
72604.000			-19.182			-3.197
72705.000			-19.182			-3.197
72804.000			-19.182			-3.197
72904.000			-19.181			-3.197
73005.000			-19.180			-3.197
73104.000			-19.180			-3.197
73203.000			-19.179			-3.197
73305.000			-19.179			-3.197
73404.000			-19.178			-3.196
73504.000			-19.178			-3.196
73605.000			-19.177			-3.196
73704.000			-19.176			-3.196
73804.000			-19.176			-3.196
73904.000			-19.176			-3.196
74004.000			-19.175			-3.196
74104.000			-19.173			-3.195
74205.000			-19.173			-3.195
74304.000			-19.173			-3.195
74404.000			-19.172			-3.195
74505.000			-19.171			-3.195
74603.000			-19.171			-3.195
74704.000			-19.171			-3.195
74805.000			-19.169			-3.195
74904.000			-19.169			-3.195
75004.000			-19.168			-3.195
75104.000			-19.168			-3.195
75204.000			-19.168			-3.195
75304.000			-19.167			-3.194
75404.000			-19.166			-3.194
75504.000			-19.164			-3.194
75605.000			-19.163			-3.194
75704.000			-19.163			-3.194
75804.000			-19.163			-3.194
75905.000			-19.161			-3.194
76003.000			-19.161			-3.194
76104.000			-19.161			-3.194
76205.000			-19.161			-3.194
76304.000			-19.161			-3.193
76404.000			-19.161			-3.194
76505.000			-19.161			-3.194
76604.000			-19.160			-3.193
76703.000			-19.158			-3.193
76805.000			-19.157			-3.193
76904.000			-19.156			-3.193
77004.000			-19.156			-3.193
77105.000			-19.155			-3.193
77204.000			-19.155			-3.192
77304.000			-19.155			-3.192
77404.000			-19.154			-3.192
77504.000			-19.153			-3.192
77604.000			-19.154			-3.192
77705.000			-19.153			-3.192
77804.000			-19.152			-3.192
77904.000			-19.152			-3.192
78005.000			-19.151			-3.192
78103.000			-19.151			-3.192
78204.000			-19.150			-3.192
78305.000			-19.150			-3.192
78404.000			-19.149			-3.191
78505.000			-19.148			-3.191
78604.000			-19.147			-3.191
78704.000			-19.147			-3.191
78804.000			-19.147			-3.191
78904.000			-19.146			-3.191
79004.000			-19.146			-3.191
79105.000			-19.146			-3.191
79204.000			-19.144			-3.191
79304.000			-19.142			-3.190
79405.000			-19.143			-3.191
79503.000			-19.143			-3.191
79604.000			-19.142			-3.190
79705.000			-19.142			-3.190
79804.000			-19.141			-3.190
79904.000			-19.140			-3.190
80005.000			-19.138			-3.190
80104.000			-19.139			-3.190
80203.000			-19.139			-3.190
80305.000			-19.138			-3.190
80404.000			-19.137			-3.190
80504.000			-19.136			-3.189
80605.000			-19.136			-3.189
80704.000			-19.136			-3.189
80804.000			-19.135			-3.189
80904.000			-19.135			-3.189
81004.000			-19.134			-3.189
81104.000			-19.134			-3.189
81205.000			-19.134			-3.189
81304.000			-19.132			-3.189
81404.000			-19.132			-3.189
81505.000			-19.130			-3.188
81603.000			-19.131			-3.188
81705.000			-19.131			-3.189
81804.000			-19.130			-3.188
81904.000			-19.128			-3.188
82005.000			-19.129			-3.188
82104.000			-19.129			-3.188
82204.000			-19.128			-3.188
82304.000			-19.127			-3.188
82404.000			-19.127			-3.188
82504.000			-19.127			-3.188
82605.000			-19.126			-3.188
82704.000			-19.125			-3.188
82804.000			-19.123			-3.187
82905.000			-19.123			-3.187
83003.000			-19.122			-3.187
83104.000			-19.121			-3.187
83205.000			-19.122			-3.187
83304.000			-19.122			-3.187
83404.000			-19.121			-3.187
83505.000			-19.121			-3.187
83604.000			-19.119			-3.187
83703.000			-19.118			-3.186
83805.000			-19.117			-3.186
83904.000			-19.118			-3.186
84004.000			-19.118			-3.186
84105.000			-19.117			-3.186
84204.000			-19.117			-3.186
84304.000			-19.115			-3.186
84404.000			-19.115			-3.186
84504.000			-19.116			-3.186
84604.000			-19.116			-3.186
84704.000			-19.114			-3.186
84804.000			-19.113			-3.185
84905.000			-19.113			-3.186
85004.000			-19.112			-3.185
85103.000			-19.112			-3.185
85205.000			-19.112			-3.185
85304.000			-19.111			-3.185
85404.000			-19.111			-3.185
85505.000			-19.110			-3.185
85604.000			-19.110			-3.185
85704.000			-19.109			-3.185
85804.000			-19.109			-3.185
85904.000			-19.110			-3.185
86004.000			-19.109			-3.185
86105.000			-19.108			-3.185
86204.000			-19.106			-3.184
86304.000			-19.106			-3.184
86405.000			-19.106			-3.184
86503.000			-19.105			-3.184
86604.000			-19.105			-3.184
86705.000			-19.105			-3.184
86804.000			-19.104			-3.184
86904.000			-19.103			-3.184
87005.000			-19.104			-3.184
87104.000			-19.103			-3.184
87203.000			-19.101			-3.184
87305.000			-19.100			-3.183
87404.000			-19.101			-3.184
87504.000			-19.101			-3.183
87605.000			-19.100			-3.183
87704.000			-19.099			-3.183
87804.000			-19.098			-3.183
87903.000			-19.098			-3.183
88004.000			-19.097			-3.183
88105.000			-19.097			-3.183
88204.000			-19.097			-3.183
88304.000			-19.096			-3.183
88405.000			-19.096			-3.183
88504.000			-19.095			-3.183
88603.000			-19.094			-3.182
88705.000			-19.094			-3.182
88804.000			-19.093			-3.182
88904.000			-19.094			-3.182
89005.000			-19.094			-3.182
89104.000			-19.092			-3.182
89204.000			-19.091			-3.182
89304.000			-19.092			-3.182
89404.000			-19.091			-3.182
89503.000			-19.091			-3.182
89605.000			-19.090			-3.182
89704.000			-19.090			-3.182
89804.000			-19.090			-3.182
89905.000			-19.091			-3.182
90004.000			-19.089			-3.181
90104.000			-19.087			-3.181
90204.000			-19.087			-3.181
90304.000			-19.087			-3.181
90404.000			-19.086			-3.181
90505.000			-19.086			-3.181
90604.000			-19.086			-3.181
90704.000			-19.086			-3.181
90805.000			-19.084			-3.181
90903.000			-19.084			-3.181
91004.000			-19.083			-3.181
91105.000			-19.082			-3.180
91204.000			-19.082			-3.180
91305.000			-19.082			-3.180
91404.000			-19.082			-3.180
91504.000			-19.082			-3.180
91604.000			-19.081			-3.180
91704.000			-19.080			-3.180
91804.000			-19.079			-3.180
91905.000			-19.079			-3.180
92004.000			-19.079			-3.180
92104.000			-19.079			-3.180
92205.000			-19.078			-3.180
92303.000			-19.077			-3.179
92404.000			-19.076			-3.179
92505.000			-19.077			-3.180
92604.000			-19.076			-3.179
92704.000			-19.075			-3.179
92805.000			-19.075			-3.179
92904.000			-19.074			-3.179
93003.000			-19.074			-3.179
93105.000			-19.074			-3.179
93204.000			-19.073			-3.179
93304.000			-19.072			-3.179
93405.000			-19.072			-3.179
93504.000			-19.072			-3.179
93604.000			-19.072			-3.179
93704.000			-19.071			-3.179
93804.000			-19.070			-3.178
93904.000			-19.069			-3.178
94005.000			-19.069			-3.178
94104.000			-19.068			-3.178
94204.000			-19.068			-3.178
94305.000			-19.068			-3.178
94403.000			-19.068			-3.178
94505.000			-19.068			-3.178
94604.000			-19.067			-3.178
94704.000			-19.066			-3.178
94805.000			-19.066			-3.178
94904.000			-19.065			-3.178
95004.000			-19.065			-3.177
95104.000			-19.065			-3.177
95204.000			-19.064			-3.177
95304.000			-19.064			-3.177
95405.000			-19.063			-3.177
95504.000			-19.063			-3.177
95604.000			-19.062			-3.177
95705.000			-19.062			-3.177
95803.000			-19.062			-3.177
95904.000			-19.061			-3.177
96005.000			-19.059			-3.177
96104.000			-19.060			-3.177
96204.000			-19.059			-3.176
96305.000			-19.059			-3.176
96404.000			-19.059			-3.177
96503.000			-19.058			-3.176
96605.000			-19.057			-3.176
96704.000			-19.057			-3.176
96804.000			-19.056			-3.176
96905.000			-19.056			-3.176
97004.000			-19.055			-3.176
97104.000			-19.054			-3.176
97204.000			-19.055			-3.176
97304.000			-19.055			-3.176
97403.000			-19.053			-3.176
97505.000			-19.052			-3.175
97604.000			-19.052			-3.175
97705.000			-19.052			-3.175
97804.000			-19.051			-3.175
97904.000			-19.052			-3.175
98005.000			-19.052			-3.175
98103.000			-19.050			-3.175
98204.000			-19.050			-3.175
98305.000			-19.049			-3.175
98404.000			-19.048			-3.175
98504.000			-19.049			-3.175
98605.000			-19.048			-3.175
98704.000			-19.047			-3.174
98803.000			-19.047			-3.175
98905.000			-19.047			-3.174
99004.000			-19.046			-3.174
99104.000			-19.046			-3.174
99205.000			-19.046			-3.174
99304.000			-19.045			-3.174
99404.000			-19.045			-3.174
99504.000			-19.044			-3.174
99604.000			-19.044			-3.174
99704.000			-19.043			-3.174
99805.000			-19.043			-3.174
99904.000			-19.043			-3.174
100004.000			-19.042			-3.174
100105.000			-19.042			-3.174
100203.000			-19.040			-3.173
100304.000			-19.040			-3.173
100405.000			-19.039			-3.173
100504.000			-19.039			-3.173
100604.000			-19.039			-3.173
100704.000			-19.039			-3.173
100804.000			-19.039			-3.173
100904.000			-19.038			-3.173
101004.000			-19.036			-3.173
101104.000			-19.036			-3.173
101205.000			-19.036			-3.173
101304.000			-19.037			-3.173
101404.000			-19.037			-3.173
101505.000			-19.035			-3.173
101603.000			-19.034			-3.172
101704.000			-19.033			-3.172
101805.000			-19.033			-3.172
101904.000			-19.033			-3.172
102004.000			-19.032			-3.172
102105.000			-19.032			-3.172
102204.000			-19.032			-3.172
102303.000			-19.031			-3.172
102405.000			-19.031			-3.172
102504.000			-19.031			-3.172
102604.000			-19.030			-3.172
102705.000			-19.029			-3.171
102804.000			-19.028			-3.171
102904.000			-19.028			-3.171
103004.000			-19.028			-3.171
103104.000			-19.028			-3.171
103204.000			-19.027			-3.171
103305.000			-19.026			-3.171
103404.000			-19.026			-3.171
103504.000			-19.026			-3.171
103605.000			-19.025			-3.171
103703.000			-19.024			-3.171
103804.000			-19.024			-3.171
103905.000			-19.023			-3.170
104004.000			-19.022			-3.170
104105.000			-19.023			-3.170
104204.000			-19.022			-3.170
104304.000			-19.022			-3.170
104404.000			-19.021			-3.170
104504.000			-19.021			-3.170
104603.000			-19.020			-3.170
104705.000			-19.020			-3.170
104804.000			-19.019			-3.170
104904.000			-19.018			-3.170
105005.000			-19.018			-3.170
105104.000			-19.018			-3.170
105204.000			-19.018			-3.170
105304.000			-19.018			-3.170
105404.000			-19.017			-3.170
105504.000			-19.016			-3.169
105605.000			-19.016			-3.169
105704.000			-19.016			-3.169
105804.000			-19.016			-3.169
105905.000			-19.015			-3.169
106003.000			-19.013			-3.169
106104.000			-19.013			-3.169
106205.000			-19.012			-3.169
106304.000			-19.012			-3.169
106404.000			-19.013			-3.169
106504.000			-19.013			-3.169
106604.000			-19.012			-3.169
106703.000			-19.011			-3.169
106805.000			-19.010			-3.168
106904.000			-19.010			-3.168
107004.000			-19.010			-3.168
107105.000			-19.009			-3.168
107204.000			-19.008			-3.168
107305.000			-19.009			-3.168
107403.000			-19.008			-3.168
107504.000			-19.007			-3.168
107605.000			-19.007			-3.168
107704.000			-19.006			-3.168
107804.000			-19.006			-3.168
107905.000			-19.006			-3.168
108004.000			-19.005			-3.168
108103.000			-19.005			-3.167
108205.000			-19.005			-3.167
108304.000			-19.004			-3.167
108404.000			-19.003			-3.167
108505.000			-19.003			-3.167
108604.000			-19.002			-3.167
108704.000			-19.003			-3.167
108804.000			-19.003			-3.167
108904.000			-19.002			-3.167
109004.000			-19.001			-3.167
109105.000			-19.001			-3.167
109204.000			-19.001			-3.167
109304.000			-19.000			-3.167
109405.000			-19.000			-3.167
109503.000			-19.000			-3.167
109604.000			-18.999			-3.167
109705.000			-18.997			-3.166
109804.000			-18.997			-3.166
109904.000			-18.997			-3.166
110005.000			-18.998			-3.166
110104.000			-18.997			-3.166
110203.000			-18.998			-3.166
110305.000			-18.997			-3.166
110404.000			-18.995			-3.166
110505.000			-18.994			-3.166
110604.000			-18.994			-3.166
110704.000			-18.993			-3.166
110805.000			-18.993			-3.166
110904.000			-18.993			-3.166
111004.000			-18.993			-3.166
111104.000			-18.992			-3.165
111204.000			-18.992			-3.165
111304.000			-18.992			-3.165
111405.000			-18.991			-3.165
111504.000			-18.990			-3.165
111604.000			-18.990			-3.165
111705.000			-18.990			-3.165
111803.000			-18.989			-3.165
111904.000			-18.989			-3.165
112005.000			-18.988			-3.165
112104.000			-18.989			-3.165
112204.000			-18.988			-3.165
112305.000			-18.988			-3.165
112404.000			-18.987			-3.165
112504.000			-18.987			-3.164
112605.000			-18.987			-3.164
112703.000			-18.986			-3.164
112804.000			-18.985			-3.164
112905.000			-18.985			-3.164
113004.000			-18.985			-3.164
113104.000			-18.984			-3.164
113205.000			-18.984			-3.164
113304.000			-18.984			-3.164
113403.000			-18.985			-3.164
113505.000			-18.983			-3.164
113604.000			-18.982			-3.164
113705.000			-18.983			-3.164
113804.000			-18.982			-3.164
113904.000			-18.982			-3.164
114005.000			-18.981			-3.164
114104.000			-18.982			-3.164
114204.000			-18.982			-3.164
114304.000			-18.982			-3.164
114404.000			-18.980			-3.163
114504.000			-18.979			-3.163
114605.000			-18.978			-3.163
114704.000			-18.978			-3.163
114804.000			-18.977			-3.163
114905.000			-18.978			-3.163
115003.000			-18.979			-3.163
115104.000			-18.979			-3.163
115205.000			-18.977			-3.163
115304.000			-18.976			-3.163
115404.000			-18.976			-3.163
115505.000			-18.975			-3.162
115604.000			-18.974			-3.162
115704.000			-18.974			-3.162
115805.000			-18.975			-3.163
115903.000			-18.975			-3.163
116004.000			-18.974			-3.162
116105.000			-18.972			-3.162
116204.000			-18.972			-3.162
116304.000			-18.972			-3.162
116405.000			-18.970			-3.162
116504.000			-18.971			-3.162
116603.000			-18.972			-3.162
116705.000			-18.971			-3.162
116804.000			-18.970			-3.162
116905.000			-18.970			-3.162
117004.000			-18.969			-3.161
117104.000			-18.969			-3.162
117205.000			-18.969			-3.162
117304.000			-18.969			-3.162
117404.000			-18.969			-3.161
117504.000			-18.967			-3.161
117604.000			-18.967			-3.161
117704.000			-18.967			-3.161
117805.000			-18.966			-3.161
117904.000			-18.966			-3.161
118004.000			-18.965			-3.161
118105.000			-18.964			-3.161
118204.000			-18.966			-3.161
118304.000			-18.966			-3.161
118404.000			-18.964			-3.161
118504.000			-18.963			-3.161
118604.000			-18.963			-3.161
118705.000			-18.962			-3.160
118804.000			-18.963			-3.160
118904.000			-18.962			-3.160
119005.000			-18.962			-3.160
119103.000			-18.962			-3.160
119204.000			-18.962			-3.160
119305.000			-18.961			-3.160
119404.000			-18.960			-3.160
119504.000			-18.960			-3.160
119605.000			-18.960			-3.160
119704.000			-18.959			-3.160
119804.000			-18.959			-3.160
119905.000			-18.957			-3.160
120003.000			-18.957			-3.159
120105.000			-18.957			-3.159
120204.000			-18.956			-3.159
120304.000			-18.957			-3.160
120405.000			-18.957			-3.160
120504.000			-18.957			-3.160
120604.000			-18.956			-3.159
120704.000			-18.956			-3.159
120804.000			-18.956			-3.159
120904.000			-18.954			-3.159
121005.000			-18.954			-3.159
121104.000			-18.954			-3.159
121204.000			-18.954			-3.159
121305.000			-18.954			-3.159
121404.000			-18.953			-3.159
121504.000			-18.954			-3.159
121604.000			-18.953			-3.159
121704.000			-18.952			-3.159
121804.000			-18.952			-3.159
121905.000			-18.951			-3.159
122004.000			-18.951			-3.158
122104.000			-18.950			-3.158
122205.000			-18.950			-3.158
122303.000			-18.950			-3.158
122404.000			-18.950			-3.158
122505.000			-18.949			-3.158
122604.000			-18.949			-3.158
122704.000			-18.949			-3.158
122805.000			-18.948			-3.158
122904.000			-18.948			-3.158
123003.000			-18.948			-3.158
123105.000			-18.948			-3.158
123204.000			-18.946			-3.158
123305.000			-18.945			-3.157
123404.000			-18.944			-3.157
123504.000			-18.945			-3.157
123605.000			-18.944			-3.157
123704.000			-18.944			-3.157
123804.000			-18.945			-3.157
123904.000			-18.943			-3.157
124004.000			-18.943			-3.157
124104.000			-18.942			-3.157
124205.000			-18.942			-3.157
124304.000			-18.942			-3.157
124404.000			-18.942			-3.157
124505.000			-18.941			-3.157
124603.000			-18.940			-3.157
124704.000			-18.939			-3.157
124805.000			-18.940			-3.157
124904.000			-18.940			-3.157
125004.000			-18.939			-3.157
125105.000			-18.939			-3.156
125204.000			-18.939			-3.157
125303.000			-18.939			-3.157
125405.000			-18.938			-3.156
125503.000			-18.938			-3.156
125604.000			-18.938			-3.156
125705.000			-18.936			-3.156
125804.000			-18.936			-3.156
125904.000			-18.936			-3.156
126005.000			-18.935			-3.156
126104.000			-18.936			-3.156
126203.000			-18.936			-3.156
126305.000			-18.934			-3.156
126404.000			-18.934			-3.156
126505.000			-18.934			-3.156
126604.000			-18.935			-3.156
126704.000			-18.934			-3.156
126805.000			-18.933			-3.156
126903.000			-18.932			-3.155
127004.000			-18.932			-3.155
127104.000			-18.932			-3.155
127204.000			-18.930			-3.155
127304.000			-18.931			-3.155
127405.000			-18.931			-3.155
127504.000			-18.930			-3.155
127604.000			-18.929			-3.155
127705.000			-18.929			-3.155
127803.000			-18.930			-3.155
127904.000			-18.928			-3.155
128005.000			-18.928			-3.155
128104.000			-18.927			-3.155
128204.000			-18.927			-3.155
128305.000			-18.927			-3.154
128404.000			-18.926			-3.154
128503.000			-18.927			-3.155
128605.000			-18.925			-3.154
128704.000			-18.925			-3.154
128804.000			-18.925			-3.154
128905.000			-18.925			-3.154
129004.000			-18.923			-3.154
129104.000			-18.923			-3.154
129205.000			-18.923			-3.154
129304.000			-18.922			-3.154
129403.000			-18.922			-3.154
129505.000			-18.920			-3.153
129604.000			-18.921			-3.153
129705.000			-18.922			-3.154
129804.000			-18.921			-3.153
129904.000			-18.921			-3.153
130005.000			-18.921			-3.153
130103.000			-18.918			-3.153
130204.000			-18.918			-3.153
130305.000			-18.918			-3.153
130404.000			-18.918			-3.153
130504.000			-18.919			-3.153
130605.000			-18.917			-3.153
130704.000			-18.918			-3.153
130804.000			-18.917			-3.153
130905.000			-18.917			-3.153
131003.000			-18.917			-3.153
131104.000			-18.916			-3.153
131205.000			-18.915			-3.153
131304.000			-18.915			-3.153
131404.000			-18.914			-3.152
131505.000			-18.914			-3.152
131604.000			-18.914			-3.152
131703.000			-18.915			-3.152
131805.000			-18.914			-3.152
131904.000			-18.914			-3.152
132004.000			-18.913			-3.152
132105.000			-18.913			-3.152
132204.000			-18.912			-3.152
132304.000			-18.911			-3.152
132405.000			-18.911			-3.152
132504.000			-18.912			-3.152
132603.000			-18.911			-3.152
132705.000			-18.911			-3.152
132804.000			-18.909			-3.152
132905.000			-18.909			-3.152
133004.000			-18.909			-3.151
133104.000			-18.909			-3.151
133205.000			-18.909			-3.151
133304.000			-18.908			-3.151
133404.000			-18.909			-3.151
133504.000			-18.908			-3.151
133604.000			-18.907			-3.151
133703.000			-18.906			-3.151
133805.000			-18.906			-3.151
133904.000			-18.907			-3.151
134004.000			-18.907			-3.151
134105.000			-18.905			-3.151
134204.000			-18.905			-3.151
134304.000			-18.906			-3.151
134404.000			-18.905			-3.151
134504.000			-18.905			-3.151
134603.000			-18.903			-3.151
134705.000			-18.903			-3.150
134804.000			-18.904			-3.151
134904.000			-18.905			-3.151
135005.000			-18.904			-3.151
135104.000			-18.902			-3.150
135204.000			-18.902			-3.150
135304.000			-18.901			-3.150
135404.000			-18.901			-3.150
135503.000			-18.902			-3.150
135605.000			-18.902			-3.150
135704.000			-18.901			-3.150
135804.000			-18.901			-3.150
135905.000			-18.899			-3.150
136004.000			-18.898			-3.150
136105.000			-18.898			-3.150
136203.000			-18.899			-3.150
136304.000			-18.899			-3.150
136404.000			-18.899			-3.150
136504.000			-18.899			-3.150
136604.000			-18.898			-3.150
136705.000			-18.897			-3.149
136804.000			-18.897			-3.149
136904.000			-18.896			-3.149
137005.000			-18.897			-3.149
137104.000			-18.896			-3.149
137204.000			-18.895			-3.149
137304.000			-18.896			-3.149
137404.000			-18.896			-3.149
137503.000			-18.895			-3.149
137605.000			-18.895			-3.149
137704.000			-18.895			-3.149
137804.000			-18.895			-3.149
137905.000			-18.895			-3.149
138004.000			-18.894			-3.149
138104.000			-18.893			-3.149
138205.000			-18.893			-3.149
138304.000			-18.893			-3.149
138403.000			-18.892			-3.149
138505.000			-18.891			-3.149
138604.000			-18.891			-3.148
138704.000			-18.891			-3.149
138805.000			-18.891			-3.149
138904.000			-18.891			-3.149
139004.000			-18.891			-3.148
139104.000			-18.891			-3.149
139204.000			-18.891			-3.148
139304.000			-18.890			-3.148
139404.000			-18.890			-3.148
139503.000			-18.889			-3.148
139605.000			-18.887			-3.148
139704.000			-18.887			-3.148
139804.000			-18.888			-3.148
139905.000			-18.888			-3.148
140004.000			-18.888			-3.148
140104.000			-18.888			-3.148
140205.000			-18.888			-3.148
140304.000			-18.887			-3.148
140403.000			-18.886			-3.148
140505.000			-18.887			-3.148
140604.000			-18.886			-3.148
140704.000			-18.885			-3.147
140805.000			-18.885			-3.148
140904.000			-18.884			-3.147
141004.000			-18.884			-3.147
141105.000			-18.884			-3.147
141204.000			-18.884			-3.147
141303.000			-18.883			-3.147
141405.000			-18.883			-3.147
141504.000			-18.883			-3.147
141604.000			-18.883			-3.147
141705.000			-18.883			-3.147
141804.000			-18.882			-3.147
141904.000			-18.882			-3.147
142005.000			-18.882			-3.147
142104.000			-18.881			-3.147
142203.000			-18.881			-3.147
142305.000			-18.880			-3.147
142404.000			-18.881			-3.147
142505.000			-18.880			-3.147
142604.000			-18.879			-3.147
142704.000			-18.879			-3.147
142805.000			-18.879			-3.146
142904.000			-18.879			-3.146
143004.000			-18.879			-3.147
143104.000			-18.877			-3.146
143204.000			-18.878			-3.146
143303.000			-18.877			-3.146
143405.000			-18.876			-3.146
143504.000			-18.876			-3.146
143604.000			-18.876			-3.146
143705.000			-18.875			-3.146
143804.000			-18.874			-3.146
143904.000			-18.876			-3.146
144005.000			-18.876			-3.146
144104.000			-18.874			-3.146
144203.000			-18.874			-3.146
144305.000			-18.873			-3.146
144404.000			-18.873			-3.146
144504.000			-18.873			-3.146
144605.000			-18.873			-3.145
144704.000			-18.873			-3.145
144804.000			-18.872			-3.145
144905.000			-18.871			-3.145
145004.000			-18.871			-3.145
145103.000			-18.871			-3.145
145205.000			-18.872			-3.145
145304.000			-18.871			-3.145
145404.000			-18.871			-3.145
145505.000			-18.870			-3.145
145604.000			-18.869			-3.145
145705.000			-18.870			-3.145
145804.000			-18.870			-3.145
145904.000			-18.869			-3.145
146004.000			-18.868			-3.145
146104.000			-18.869			-3.145
146203.000			-18.868			-3.145
146305.000			-18.867			-3.145
146404.000			-18.868			-3.145
146504.000			-18.867			-3.145
146605.000			-18.866			-3.144
146704.000			-18.866			-3.144
146804.000			-18.866			-3.144
146905.000			-18.866			-3.144
147004.000			-18.865			-3.144
147103.000			-18.865			-3.144
147205.000			-18.865			-3.144
147304.000			-18.865			-3.144
147404.000			-18.865			-3.144
147505.000			-18.864			-3.144
147604.000			-18.864			-3.144
147704.000			-18.863			-3.144
147805.000			-18.863			-3.144
147904.000			-18.864			-3.144
148003.000			-18.863			-3.144
148105.000			-18.862			-3.144
148203.000			-18.862			-3.144
148304.000			-18.861			-3.143
148405.000			-18.861			-3.144
148504.000			-18.861			-3.143
148604.000			-18.861			-3.143
148704.000			-18.860			-3.143
148804.000			-18.859			-3.143
148905.000			-18.859			-3.143
149004.000			-18.860			-3.143
149103.000			-18.860			-3.143
149205.000			-18.859			-3.143
149304.000			-18.859			-3.143
149404.000			-18.858			-3.143
149505.000			-18.859			-3.143
149604.000			-18.859			-3.143
149704.000			-18.857			-3.143
149805.000			-18.857			-3.143
149904.000			-18.856			-3.143
150004.000			-18.857			-3.143
150105.000			-18.856			-3.143
150203.000			-18.856			-3.143
150304.000			-18.855			-3.142
150405.000			-18.854			-3.142
150504.000			-18.854			-3.142
150604.000			-18.854			-3.142
150705.000			-18.855			-3.142
150804.000			-18.855			-3.142
150904.000			-18.854			-3.142
151005.000			-18.853			-3.142
151103.000			-18.853			-3.142
151204.000			-18.853			-3.142
151305.000			-18.853			-3.142
151404.000			-18.851			-3.142
151504.000			-18.851			-3.142
151605.000			-18.851			-3.142
151704.000			-18.851			-3.142
151804.000			-18.851			-3.142
151905.000			-18.848			-3.141
152003.000			-18.848			-3.141
152105.000			-18.849			-3.141
152204.000			-18.849			-3.141
152304.000			-18.849			-3.141
152405.000			-18.847			-3.141
152504.000			-18.847			-3.141
152604.000			-18.847			-3.141
152705.000			-18.847			-3.141
152804.000			-18.847			-3.141
152903.000			-18.846			-3.141
153005.000			-18.845			-3.141
153104.000			-18.845			-3.141
153204.000			-18.844			-3.141
153305.000			-18.843			-3.140
153404.000			-18.844			-3.141
153504.000			-18.844			-3.141
153605.000			-18.844			-3.141
153704.000			-18.844			-3.141
153803.000			-18.843			-3.140
153905.000			-18.842			-3.140
154004.000			-18.843			-3.141
154104.000			-18.843			-3.140
154205.000			-18.842			-3.140
154304.000			-18.842			-3.140
154404.000			-18.842			-3.140
154505.000			-18.842			-3.140
154604.000			-18.841			-3.140
154703.000			-18.841			-3.140
154805.000			-18.840			-3.140
154904.000			-18.840			-3.140
155004.000			-18.840			-3.140
155105.000			-18.840			-3.140
155204.000			-18.840			-3.140
155305.000			-18.840			-3.140
155404.000			-18.839			-3.140
155504.000			-18.838			-3.140
155604.000			-18.838			-3.140
155704.000			-18.839			-3.140
155803.000			-18.840			-3.140
155905.000			-18.839			-3.140
156004.000			-18.838			-3.140
156104.000			-18.838			-3.140
156205.000			-18.838			-3.140
156304.000			-18.836			-3.139
156404.000			-18.836			-3.139
156505.000			-18.836			-3.139
156604.000			-18.836			-3.139
156703.000			-18.837			-3.140
156805.000			-18.837			-3.140
156904.000			-18.835			-3.139
157004.000			-18.835			-3.139
157105.000			-18.835			-3.139
157204.000			-18.834			-3.139
157304.000			-18.835			-3.139
157405.000			-18.835			-3.139
157504.000			-18.834			-3.139
157603.000			-18.833			-3.139
157705.000			-18.832			-3.139
157804.000			-18.833			-3.139
157904.000			-18.833			-3.139
158005.000			-18.832			-3.139
158104.000			-18.833			-3.139
158204.000			-18.832			-3.139
158304.000			-18.832			-3.139
158404.000			-18.831			-3.138
158504.000			-18.831			-3.138
158604.000			-18.830			-3.138
158703.000			-18.830			-3.138
158805.000			-18.830			-3.138
158904.000			-18.829			-3.138
159004.000			-18.828			-3.138
159105.000			-18.828			-3.138
159204.000			-18.829			-3.138
159304.000			-18.828			-3.138
159404.000			-18.828			-3.138
159504.000			-18.827			-3.138
159603.000			-18.827			-3.138
159705.000			-18.826			-3.138
159804.000			-18.827			-3.138
159904.000			-18.827			-3.138
160005.000			-18.826			-3.138
160104.000			-18.826			-3.138
160204.000			-18.826			-3.138
160305.000			-18.826			-3.138
160404.000			-18.827			-3.138
160503.000			-18.825			-3.138
160605.000			-18.825			-3.137
160704.000			-18.825			-3.137
160804.000			-18.824			-3.137
160905.000			-18.824			-3.137
161004.000			-18.823			-3.137
161104.000			-18.823			-3.137
161205.000			-18.824			-3.137
161304.000			-18.823			-3.137
161403.000			-18.824			-3.137
161505.000			-18.823			-3.137
161604.000			-18.822			-3.137
161705.000			-18.822			-3.137
161804.000			-18.822			-3.137
161904.000			-18.822			-3.137
162005.000			-18.821			-3.137
162104.000			-18.820			-3.137
162204.000			-18.820			-3.137
162304.000			-18.819			-3.137
162404.000			-18.819			-3.137
162504.000			-18.820			-3.137
162605.000			-18.820			-3.137
162704.000			-18.819			-3.137
162804.000			-18.818			-3.136
162905.000			-18.818			-3.136
163003.000			-18.818			-3.136
163104.000			-18.818			-3.136
163204.000			-18.819			-3.136
163304.000			-18.818			-3.136
163404.000			-18.817			-3.136
163505.000			-18.815			-3.136
163604.000			-18.815			-3.136
163704.000			-18.817			-3.136
163805.000			-18.816			-3.136
163904.000			-18.815			-3.136
164004.000			-18.815			-3.136
164104.000			-18.814			-3.136
164204.000			-18.814			-3.136
164304.000			-18.814			-3.136
164405.000			-18.814			-3.136
164504.000			-18.813			-3.135
164604.000			-18.813			-3.135
164705.000			-18.814			-3.136
164804.000			-18.814			-3.136
164905.000			-18.813			-3.136
165003.000			-18.811			-3.135
165104.000			-18.812			-3.135
165205.000			-18.811			-3.135
165304.000			-18.811			-3.135
165404.000			-18.812			-3.135
165505.000			-18.811			-3.135
165604.000			-18.810			-3.135
165704.000			-18.811			-3.135
165805.000			-18.810			-3.135
165903.000			-18.809			-3.135
166004.000			-18.809			-3.135
166105.000			-18.809			-3.135
166204.000			-18.809			-3.135
166304.000			-18.809			-3.135
166405.000			-18.808			-3.135
166504.000			-18.807			-3.135
166604.000			-18.807			-3.134
166705.000			-18.807			-3.135
166803.000			-18.807			-3.135
166904.000			-18.806			-3.134
167004.000			-18.806			-3.134
167104.000			-18.808			-3.135
167204.000			-18.807			-3.134
167305.000			-18.807			-3.134
167404.000			-18.806			-3.134
167504.000			-18.805			-3.134
167605.000			-18.805			-3.134
167704.000			-18.805			-3.134
167804.000			-18.805			-3.134
167903.000			-18.805			-3.134
168004.000			-18.805			-3.134
168105.000			-18.803			-3.134
168204.000			-18.803			-3.134
168304.000			-18.804			-3.134
168405.000			-18.803			-3.134
168504.000			-18.803			-3.134
168604.000			-18.802			-3.134
168705.000			-18.802			-3.134
168803.000			-18.802			-3.134
168904.000			-18.802			-3.134
169005.000			-18.801			-3.133
169104.000			-18.800			-3.133
169204.000			-18.799			-3.133
169305.000			-18.801			-3.134
169404.000			-18.801			-3.133
169504.000			-18.800			-3.133
169605.000			-18.800			-3.133
169703.000			-18.799			-3.133
169804.000			-18.799			-3.133
169904.000			-18.798			-3.133
170004.000			-18.799			-3.133
170104.000			-18.797			-3.133
170205.000			-18.797			-3.133
170304.000			-18.799			-3.133
170404.000			-18.797			-3.133
170505.000			-18.797			-3.133
170604.000			-18.798			-3.133
170704.000			-18.797			-3.133
170804.000			-18.796			-3.133
170904.000			-18.796			-3.133
171004.000			-18.794			-3.132
171104.000			-18.795			-3.132
171204.000			-18.795			-3.133
171305.000			-18.795			-3.132
171404.000			-18.795			-3.132
171504.000			-18.795			-3.133
171605.000			-18.794			-3.132
171703.000			-18.794			-3.132
171804.000			-18.793			-3.132
171905.000			-18.794			-3.132
172004.000			-18.794			-3.132
172104.000			-18.793			-3.132
172205.000			-18.792			-3.132
172304.000			-18.792			-3.132
172404.000			-18.792			-3.132
172505.000			-18.792			-3.132
172603.000			-18.793			-3.132
172704.000			-18.792			-3.132
172805.000			-18.791			-3.132
172904.000			-18.790			-3.132
173004.000			-18.791			-3.132
173105.000			-18.789			-3.132
173204.000			-18.791			-3.132
173304.000			-18.792			-3.132
173405.000			-18.790			-3.132
173503.000			-18.790			-3.132
173604.000			-18.789			-3.132
173704.000			-18.789			-3.131
173804.000			-18.789			-3.131
173904.000			-18.788			-3.131
174005.000			-18.788			-3.131
174104.000			-18.788			-3.131
174204.000			-18.788			-3.131
174305.000			-18.786			-3.131
174404.000			-18.787			-3.131
174505.000			-18.786			-3.131
174603.000			-18.785			-3.131
174704.000			-18.785			-3.131
174804.000			-18.785			-3.131
174904.000			-18.785			-3.131
175004.000			-18.785			-3.131
175105.000			-18.785			-3.131
175204.000			-18.783			-3.131
175304.000			-18.783			-3.131
175405.000			-18.785			-3.131
175504.000			-18.784			-3.131
175604.000			-18.784			-3.131
175704.000			-18.783			-3.130
175804.000			-18.783			-3.130
175904.000			-18.782			-3.130
176005.000			-18.783			-3.130
176104.000			-18.782			-3.130
176204.000			-18.781			-3.130
176305.000			-18.780			-3.130
176404.000			-18.781			-3.130
176504.000			-18.782			-3.130
176604.000			-18.780			-3.130
176704.000			-18.780			-3.130
176803.000			-18.780			-3.130
176905.000			-18.781			-3.130
177004.000			-18.780			-3.130
177104.000			-18.779			-3.130
177205.000			-18.779			-3.130
177304.000			-18.778			-3.130
177404.000			-18.778			-3.130
177504.000			-18.777			-3.130
177604.000			-18.777			-3.130
177704.000			-18.777			-3.129
177804.000			-18.776			-3.129
177903.000			-18.777			-3.129
178005.000			-18.776			-3.129
178104.000			-18.776			-3.129
178204.000			-18.775			-3.129
178305.000			-18.776			-3.129
178404.000			-18.775			-3.129
178504.000			-18.774			-3.129
178605.000			-18.775			-3.129
178704.000			-18.775			-3.129
178803.000			-18.774			-3.129
178905.000			-18.774			-3.129
179004.000			-18.774			-3.129
179104.000			-18.774			-3.129
179205.000			-18.773			-3.129
179304.000			-18.772			-3.129
179404.000			-18.772			-3.129
179505.000			-18.772			-3.129
179604.000			-18.772			-3.129
179703.000			-18.772			-3.129
179805.000			-18.772			-3.129
179903.000			-18.771			-3.129
180004.000			-18.771			-3.128
180105.000			-18.771			-3.129
180204.000			-18.771			-3.128
180304.000			-18.770			-3.128
180405.000			-18.769			-3.128
180504.000			-18.769			-3.128
180603.000			-18.769			-3.128
180705.000			-18.769			-3.128
180803.000			-18.767			-3.128
180905.000			-18.768			-3.128
181004.000			-18.768			-3.128
181104.000			-18.768			-3.128
181205.000			-18.767			-3.128
181304.000			-18.765			-3.128
181404.000			-18.766			-3.128
181505.000			-18.765			-3.127
181604.000			-18.764			-3.127
181703.000			-18.764			-3.127
181805.000			-18.765			-3.127
181904.000			-18.763			-3.127
182004.000			-18.763			-3.127
182105.000			-18.764			-3.127
182204.000			-18.763			-3.127
182304.000			-18.762			-3.127
182405.000			-18.763			-3.127
182504.000			-18.762			-3.127
182603.000			-18.762			-3.127
182705.000			-18.762			-3.127
182803.000			-18.761			-3.127
182904.000			-18.760			-3.127
183005.000			-18.761			-3.127
183104.000			-18.761			-3.127
183204.000			-18.761			-3.127
183305.000			-18.760			-3.127
183404.000			-18.760			-3.127
183504.000			-18.759			-3.126
183605.000			-18.759			-3.127
183703.000			-18.760			-3.127
183804.000			-18.760			-3.127
183905.000			-18.758			-3.126
184004.000			-18.759			-3.126
184105.000			-18.759			-3.126
184204.000			-18.757			-3.126
184304.000			-18.758			-3.126
184405.000			-18.758			-3.126
184504.000			-18.758			-3.126
184603.000			-18.758			-3.126
184705.000			-18.757			-3.126
184803.000			-18.756			-3.126
184904.000			-18.757			-3.126
185005.000			-18.756			-3.126
185104.000			-18.756			-3.126
185204.000			-18.755			-3.126
185305.000			-18.755			-3.126
185404.000			-18.755			-3.126
185504.000			-18.755			-3.126
185605.000			-18.754			-3.126
185703.000			-18.755			-3.126
185804.000			-18.753			-3.126
185905.000			-18.752			-3.125
186004.000			-18.752			-3.125
186104.000			-18.751			-3.125
186205.000			-18.750			-3.125
186304.000			-18.751			-3.125
186404.000			-18.751			-3.125
186505.000			-18.750			-3.125
186603.000			-18.750			-3.125
186704.000			-18.750			-3.125
186805.000			-18.748			-3.125
186904.000			-18.748			-3.125
187004.000			-18.748			-3.125
187104.000			-18.749			-3.125
187204.000			-18.748			-3.125
187305.000			-18.749			-3.125
187404.000			-18.748			-3.125
187503.000			-18.748			-3.125
187605.000			-18.748			-3.125
187703.000			-18.747			-3.125
187804.000			-18.748			-3.125
187905.000			-18.747			-3.125
188004.000			-18.746			-3.124
188104.000			-18.747			-3.124
188205.000			-18.747			-3.124
188304.000			-18.747			-3.124
188404.000			-18.746			-3.124
188505.000			-18.746			-3.124
188603.000			-18.746			-3.124
188704.000			-18.747			-3.124
188804.000			-18.746			-3.124
188904.000			-18.746			-3.124
189004.000			-18.745			-3.124
189105.000			-18.746			-3.124
189204.000			-18.745			-3.124
189304.000			-18.746			-3.124
189405.000			-18.745			-3.124
189504.000			-18.745			-3.124
189604.000			-18.746			-3.124
189704.000			-18.745			-3.124
189804.000			-18.745			-3.124
189903.000			-18.745			-3.124
190005.000			-18.744			-3.124
190104.000			-18.744			-3.124
190204.000			-18.744			-3.124
190305.000			-18.743			-3.124
190404.000			-18.743			-3.124
190505.000			-18.742			-3.124
190603.000			-18.743			-3.124
190704.000			-18.742			-3.124
190804.000			-18.742			-3.124
190904.000			-18.742			-3.124
191004.000			-18.742			-3.124
191105.000			-18.742			-3.124
191204.000			-18.741			-3.124
191304.000			-18.741			-3.124
191405.000			-18.741			-3.124
191503.000			-18.740			-3.123
191604.000			-18.740			-3.123
191704.000			-18.741			-3.123
191804.000			-18.741			-3.123
191904.000			-18.740			-3.123
192005.000			-18.741			-3.123
192104.000			-18.740			-3.123
192204.000			-18.740			-3.123
192305.000			-18.740			-3.123
192404.000			-18.739			-3.123
192504.000			-18.738			-3.123
192604.000			-18.739			-3.123
192704.000			-18.739			-3.123
192804.000			-18.739			-3.123
192905.000			-18.738			-3.123
193004.000			-18.738			-3.123
193104.000			-18.739			-3.123
193205.000			-18.737			-3.123
193304.000			-18.737			-3.123
193404.000			-18.738			-3.123
193503.000			-18.737			-3.123
193604.000			-18.736			-3.123
193705.000			-18.737			-3.123
193804.000			-18.737			-3.123
193904.000			-18.735			-3.123
194005.000			-18.736			-3.123
194104.000			-18.735			-3.122
194204.000			-18.736			-3.123
194305.000			-18.735			-3.123
194403.000			-18.735			-3.123
194504.000			-18.735			-3.123
194604.000			-18.735			-3.123
194704.000			-18.735			-3.122
194804.000			-18.734			-3.122
194905.000			-18.734			-3.122
195004.000			-18.734			-3.122
195104.000			-18.734			-3.122
195205.000			-18.734			-3.122
195304.000			-18.734			-3.122
195404.000			-18.734			-3.122
195504.000			-18.732			-3.122
195604.000			-18.732			-3.122
195704.000			-18.731			-3.122
195805.000			-18.731			-3.122
195904.000			-18.731			-3.122
196004.000			-18.730			-3.122
196105.000			-18.731			-3.122
196204.000			-18.731			-3.122
196304.000			-18.730			-3.122
196404.000			-18.730			-3.122
196504.000			-18.730			-3.122
196604.000			-18.729			-3.122
196704.000			-18.729			-3.122
196804.000			-18.729			-3.121
196905.000			-18.729			-3.122
197004.000			-18.728			-3.121
197104.000			-18.727			-3.121
197205.000			-18.728			-3.121
197303.000			-18.727			-3.121
197404.000			-18.727			-3.121
197504.000			-18.728			-3.121
197604.000			-18.728			-3.121
197704.000			-18.728			-3.121
197805.000			-18.727			-3.121
197904.000			-18.727			-3.121
198004.000			-18.727			-3.121
198105.000			-18.726			-3.121
198204.000			-18.726			-3.121
198304.000			-18.726			-3.121
198404.000			-18.726			-3.121
198504.000			-18.725			-3.121
198604.000			-18.725			-3.121
198705.000			-18.725			-3.121
198804.000			-18.725			-3.121
198904.000			-18.724			-3.121
199005.000			-18.725			-3.121
199104.000			-18.724			-3.121
199204.000			-18.723			-3.121
199304.000			-18.724			-3.121
199404.000			-18.724			-3.121
199503.000			-18.724			-3.121
199605.000			-18.724			-3.121
199704.000			-18.724			-3.121
199804.000			-18.724			-3.121
199905.000			-18.724			-3.121
200004.000			-18.723			-3.120
200105.000			-18.723			-3.121
200204.000			-18.723			-3.121
200304.000			-18.722			-3.120
200404.000			-18.721			-3.120
200504.000			-18.721			-3.120
200604.000			-18.722			-3.120
200705.000			-18.722			-3.120
200804.000			-18.721			-3.120
200904.000			-18.722			-3.120
201005.000			-18.722			-3.120
201103.000			-18.722			-3.120
201204.000			-18.720			-3.120
201305.000			-18.720			-3.120
201404.000			-18.720			-3.120
201504.000			-18.720			-3.120
201605.000			-18.720			-3.120
201704.000			-18.719			-3.120
201804.000			-18.719			-3.120
201905.000			-18.719			-3.120
202003.000			-18.719			-3.120
202104.000			-18.719			-3.120
202205.000			-18.718			-3.120
202304.000			-18.717			-3.119
202404.000			-18.716			-3.119
202505.000			-18.717			-3.119
202604.000			-18.718			-3.120
202704.000			-18.719			-3.120
202805.000			-18.717			-3.119
202903.000			-18.716			-3.119
203004.000			-18.716			-3.119
203105.000			-18.716			-3.119
203204.000			-18.716			-3.119
203305.000			-18.716			-3.119
203404.000			-18.715			-3.119
203504.000			-18.715			-3.119
203605.000			-18.714			-3.119
203704.000			-18.714			-3.119
203803.000			-18.713			-3.119
203905.000			-18.713			-3.119
204004.000			-18.714			-3.119
204104.000			-18.715			-3.119
204205.000			-18.714			-3.119
204304.000			-18.715			-3.119
204404.000			-18.713			-3.119
204504.000			-18.713			-3.119
204604.000			-18.713			-3.119
204703.000			-18.713			-3.119
204805.000			-18.713			-3.119
204904.000			-18.713			-3.119
205004.000			-18.711			-3.119
205105.000			-18.711			-3.118
205204.000			-18.711			-3.118
205304.000			-18.711			-3.118
205404.000			-18.711			-3.119
205504.000			-18.711			-3.119
205603.000			-18.710			-3.118
205705.000			-18.710			-3.118
205804.000			-18.710			-3.118
205904.000			-18.711			-3.118
206005.000			-18.710			-3.118
206104.000			-18.710			-3.118
206204.000			-18.709			-3.118
206303.000			-18.710			-3.118
206404.000			-18.709			-3.118
206505.000			-18.710			-3.118
206604.000			-18.709			-3.118
206704.000			-18.708			-3.118
206805.000			-18.708			-3.118
206904.000			-18.708			-3.118
207004.000			-18.708			-3.118
207105.000			-18.708			-3.118
207203.000			-18.708			-3.118
207304.000			-18.707			-3.118
207405.000			-18.706			-3.118
207504.000			-18.705			-3.118
207604.000			-18.706			-3.118
207705.000			-18.706			-3.118
207804.000			-18.707			-3.118
207904.000			-18.705			-3.117
208005.000			-18.705			-3.117
208103.000			-18.706			-3.118
208204.000			-18.706			-3.118
208305.000			-18.705			-3.117
208404.000			-18.705			-3.117
208504.000			-18.704			-3.117
208605.000			-18.704			-3.117
208704.000			-18.703			-3.117
208804.000			-18.703			-3.117
208905.000			-18.704			-3.117
209003.000			-18.703			-3.117
209104.000			-18.703			-3.117
209204.000			-18.702			-3.117
209304.000			-18.702			-3.117
209404.000			-18.702			-3.117
209504.000			-18.703			-3.117
209604.000			-18.703			-3.117
209705.000			-18.702			-3.117
209804.000			-18.702			-3.117
209903.000			-18.702			-3.117
210005.000			-18.702			-3.117
210104.000			-18.700			-3.117
210204.000			-18.701			-3.117
210305.000			-18.699			-3.117
210404.000			-18.698			-3.116
210504.000			-18.698			-3.116
210605.000			-18.699			-3.116
210704.000			-18.699			-3.116
210803.000			-18.700			-3.117
210905.000			-18.698			-3.116
211004.000			-18.697			-3.116
211104.000			-18.698			-3.116
211205.000			-18.699			-3.116
211304.000			-18.697			-3.116
211404.000			-18.697			-3.116
211505.000			-18.697			-3.116
211604.000			-18.697			-3.116
211703.000			-18.697			-3.116
211805.000			-18.697			-3.116
211904.000			-18.696			-3.116
212004.000			-18.697			-3.116
212105.000			-18.696			-3.116
212204.000			-18.695			-3.116
212304.000			-18.695			-3.116
212405.000			-18.695			-3.116
212504.000			-18.695			-3.116
212603.000			-18.695			-3.116
212705.000			-18.694			-3.116
212803.000			-18.694			-3.116
212905.000			-18.694			-3.116
213004.000			-18.693			-3.115
213104.000			-18.692			-3.115
213205.000			-18.694			-3.116
213304.000			-18.694			-3.116
213404.000			-18.692			-3.115
213504.000			-18.691			-3.115
213604.000			-18.691			-3.115
213703.000			-18.693			-3.115
213805.000			-18.694			-3.116
213904.000			-18.692			-3.115
214004.000			-18.692			-3.115
214105.000			-18.692			-3.115
214204.000			-18.692			-3.115
214304.000			-18.691			-3.115
214404.000			-18.690			-3.115
214504.000			-18.691			-3.115
214603.000			-18.690			-3.115
214705.000			-18.690			-3.115
214804.000			-18.690			-3.115
214904.000			-18.690			-3.115
215005.000			-18.690			-3.115
215104.000			-18.690			-3.115
215204.000			-18.688			-3.115
215304.000			-18.688			-3.115
215404.000			-18.688			-3.115
215503.000			-18.689			-3.115
215605.000			-18.689			-3.115
215704.000			-18.688			-3.115
215804.000			-18.688			-3.115
215905.000			-18.688			-3.115
216004.000			-18.687			-3.114
216105.000			-18.687			-3.115
216204.000			-18.687			-3.114
216304.000			-18.687			-3.115
216404.000			-18.687			-3.114
216504.000			-18.686			-3.114
216604.000			-18.686			-3.114
216705.000			-18.686			-3.114
216804.000			-18.685			-3.114
216904.000			-18.685			-3.114
217005.000			-18.685			-3.114
217104.000			-18.685			-3.114
217204.000			-18.685			-3.114
217304.000			-18.684			-3.114
217404.000			-18.685			-3.114
217503.000			-18.685			-3.114
217605.000			-18.683			-3.114
217704.000			-18.684			-3.114
217804.000			-18.684			-3.114
217905.000			-18.683			-3.114
218004.000			-18.683			-3.114
218104.000			-18.684			-3.114
218204.000			-18.683			-3.114
218304.000			-18.682			-3.114
218403.000			-18.683			-3.114
218505.000			-18.682			-3.114
218604.000			-18.682			-3.114
218704.000			-18.681			-3.114
218805.000			-18.681			-3.114
218904.000			-18.682			-3.114
219004.000			-18.682			-3.114
219104.000			-18.681			-3.114
219204.000			-18.681			-3.113
219304.000			-18.680			-3.113
219404.000			-18.679			-3.113
219504.000			-18.679			-3.113
219605.000			-18.679			-3.113
219704.000			-18.679			-3.113
219804.000			-18.679			-3.113
219905.000			-18.678			-3.113
220004.000			-18.678			-3.113
220104.000			-18.678			-3.113
220204.000			-18.679			-3.113
220304.000			-18.678			-3.113
220403.000			-18.677			-3.113
220505.000			-18.678			-3.113
220604.000			-18.678			-3.113
220704.000			-18.677			-3.113
220805.000			-18.676			-3.113
220904.000			-18.676			-3.113
221004.000			-18.676			-3.113
221104.000			-18.676			-3.113
221204.000			-18.676			-3.113
221304.000			-18.676			-3.113
221405.000			-18.676			-3.113
221504.000			-18.676			-3.113
221604.000			-18.675			-3.113
221705.000			-18.675			-3.112
221804.000			-18.674			-3.112
221904.000			-18.675			-3.112
222004.000			-18.675			-3.112
222104.000			-18.674			-3.112
222203.000			-18.674			-3.112
222305.000			-18.673			-3.112
222404.000			-18.673			-3.112
222505.000			-18.673			-3.112
222604.000			-18.673			-3.112
222704.000			-18.673			-3.112
222805.000			-18.672			-3.112
222903.000			-18.672			-3.112
223004.000			-18.671			-3.112
223105.000			-18.672			-3.112
223204.000			-18.671			-3.112
223304.000			-18.672			-3.112
223405.000			-18.672			-3.112
223504.000			-18.671			-3.112
223604.000			-18.671			-3.112
223705.000			-18.671			-3.112
223803.000			-18.670			-3.112
223904.000			-18.670			-3.112
224005.000			-18.671			-3.112
224104.000			-18.669			-3.112
224204.000			-18.669			-3.111
224305.000			-18.669			-3.111
224404.000			-18.668			-3.111
224504.000			-18.669			-3.112
224605.000			-18.668			-3.111
224703.000			-18.668			-3.111
224804.000			-18.668			-3.111
224904.000			-18.668			-3.111
225004.000			-18.668			-3.111
225104.000			-18.668			-3.111
225205.000			-18.668			-3.111
225304.000			-18.667			-3.111
225404.000			-18.666			-3.111
225505.000			-18.667			-3.111
225603.000			-18.667			-3.111
225705.000			-18.667			-3.111
225803.000			-18.666			-3.111
225904.000			-18.666			-3.111
226005.000			-18.666			-3.111
226104.000			-18.666			-3.111
226204.000			-18.665			-3.111
226305.000			-18.666			-3.111
226404.000			-18.666			-3.111
226503.000			-18.665			-3.111
226605.000			-18.664			-3.111
226703.000			-18.664			-3.111
226804.000			-18.663			-3.111
226905.000			-18.663			-3.111
227004.000			-18.663			-3.111
227104.000			-18.664			-3.111
227205.000			-18.664			-3.111
227304.000			-18.664			-3.111
227403.000			-18.664			-3.111
227505.000			-18.663			-3.111
227603.000			-18.661			-3.110
227704.000			-18.661			-3.110
227805.000			-18.662			-3.110
227904.000			-18.662			-3.110
228004.000			-18.662			-3.110
228105.000			-18.661			-3.110
228204.000			-18.661			-3.110
228304.000			-18.661			-3.110
228405.000			-18.661			-3.110
228503.000			-18.661			-3.110
228604.000			-18.660			-3.110
228705.000			-18.661			-3.110
228804.000			-18.660			-3.110
228905.000			-18.659			-3.110
229004.000			-18.659			-3.110
229104.000			-18.659			-3.110
229205.000			-18.659			-3.110
229304.000			-18.658			-3.110
229403.000			-18.658			-3.110
229505.000			-18.659			-3.110
229604.000			-18.659			-3.110
229704.000			-18.657			-3.109
229805.000			-18.658			-3.110
229904.000			-18.658			-3.110
230004.000			-18.657			-3.109
230105.000			-18.658			-3.110
230204.000			-18.658			-3.110
230303.000			-18.658			-3.110
230405.000			-18.657			-3.110
230504.000			-18.656			-3.109
230604.000			-18.657			-3.110
230705.000			-18.657			-3.109
230804.000			-18.657			-3.109
230904.000			-18.656			-3.109
231005.000			-18.655			-3.109
231104.000			-18.655			-3.109
231203.000			-18.655			-3.109
231305.000			-18.656			-3.109
231404.000			-18.655			-3.109
231504.000			-18.655			-3.109
231605.000			-18.654			-3.109
231704.000			-18.654			-3.109
231804.000			-18.654			-3.109
231904.000			-18.655			-3.109
232004.000			-18.653			-3.109
232104.000			-18.653			-3.109
232204.000			-18.653			-3.109
232304.000			-18.653			-3.109
232405.000			-18.653			-3.109
232504.000			-18.653			-3.109
232604.000			-18.652			-3.109
232705.000			-18.652			-3.109
232804.000			-18.652			-3.109
232904.000			-18.653			-3.109
233004.000			-18.652			-3.109
233104.000			-18.651			-3.109
233203.000			-18.651			-3.109
233305.000			-18.651			-3.108
233404.000			-18.649			-3.108
233504.000			-18.650			-3.108
233605.000			-18.650			-3.108
233704.000			-18.650			-3.108
233804.000			-18.648			-3.108
233904.000			-18.648			-3.108
234004.000			-18.649			-3.108
234103.000			-18.650			-3.108
234205.000			-18.649			-3.108
234304.000			-18.649			-3.108
234404.000			-18.649			-3.108
234505.000			-18.648			-3.108
234604.000			-18.648			-3.108
234704.000			-18.647			-3.108
234804.000			-18.648			-3.108
234904.000			-18.648			-3.108
235003.000			-18.648			-3.108
235105.000			-18.647			-3.108
235204.000			-18.647			-3.108
235305.000			-18.647			-3.108
235404.000			-18.647			-3.108
235504.000			-18.646			-3.108
235605.000			-18.647			-3.108
235704.000			-18.646			-3.108
235804.000			-18.646			-3.108
235904.000			-18.646			-3.108
236004.000			-18.646			-3.108
236104.000			-18.646			-3.108
236205.000			-18.645			-3.108
236304.000			-18.645			-3.107
236404.000			-18.645			-3.108
236505.000			-18.645			-3.108
236604.000			-18.644			-3.107
236704.000			-18.644			-3.107
236804.000			-18.644			-3.107
236904.000			-18.644			-3.107
237004.000			-18.644			-3.107
237105.000			-18.644			-3.107
237204.000			-18.643			-3.107
237304.000			-18.643			-3.107
237405.000			-18.642			-3.107
237504.000			-18.642			-3.107
237604.000			-18.642			-3.107
237704.000			-18.643			-3.107
237804.000			-18.642			-3.107
237904.000			-18.641			-3.107
238005.000			-18.641			-3.107
238104.000			-18.642			-3.107
238204.000			-18.642			-3.107
238305.000			-18.641			-3.107
238404.000			-18.640			-3.107
238505.000			-18.640			-3.107
238603.000			-18.640			-3.107
238704.000			-18.640			-3.107
238804.000			-18.641			-3.107
238904.000			-18.641			-3.107
239004.000			-18.639			-3.107
239105.000			-18.640			-3.107
239204.000			-18.640			-3.107
239304.000			-18.638			-3.106
239405.000			-18.638			-3.106
239503.000			-18.638			-3.106
239604.000			-18.638			-3.106
239704.000			-18.637			-3.106
239804.000			-18.637			-3.106
239904.000			-18.638			-3.106
240005.000			-18.638			-3.106
240104.000			-18.638			-3.106
240204.000			-18.637			-3.106
240305.000			-18.636			-3.106
240404.000			-18.637			-3.106
240504.000			-18.636			-3.106
240604.000			-18.636			-3.106
240704.000			-18.636			-3.106
240804.000			-18.635			-3.106
240905.000			-18.636			-3.106
241004.000			-18.636			-3.106
241104.000			-18.636			-3.106
241205.000			-18.636			-3.106
241303.000			-18.635			-3.106
241404.000			-18.635			-3.106
241503.000			-18.634			-3.106
241604.000			-18.634			-3.106
241705.000			-18.634			-3.106
241804.000			-18.635			-3.106
241904.000			-18.634			-3.106
242005.000			-18.634			-3.106
242104.000			-18.633			-3.106
242203.000			-18.633			-3.106
242305.000			-18.633			-3.106
242403.000			-18.632			-3.105
242504.000			-18.632			-3.105
242605.000			-18.633			-3.105
242704.000			-18.633			-3.105
242804.000			-18.631			-3.105
242905.000			-18.632			-3.105
243004.000			-18.632			-3.105
243103.000			-18.632			-3.105
243205.000			-18.631			-3.105
243304.000			-18.631			-3.105
243404.000			-18.631			-3.105
243505.000			-18.630			-3.105
243604.000			-18.630			-3.105
243704.000			-18.630			-3.105
243805.000			-18.630			-3.105
243904.000			-18.629			-3.105
244003.000			-18.630			-3.105
244105.000			-18.630			-3.105
244203.000			-18.629			-3.105
244304.000			-18.629			-3.105
244405.000			-18.629			-3.105
244504.000			-18.629			-3.105
244604.000			-18.628			-3.105
244704.000			-18.629			-3.105
244804.000			-18.629			-3.105
244904.000			-18.628			-3.105
245004.000			-18.627			-3.105
245103.000			-18.628			-3.105
245205.000			-18.628			-3.105
245304.000			-18.627			-3.105
245404.000			-18.627			-3.104
245505.000			-18.626			-3.104
245604.000			-18.627			-3.105
245704.000			-18.626			-3.104
245804.000			-18.626			-3.104
245904.000			-18.627			-3.104
246003.000			-18.626			-3.104
246105.000			-18.625			-3.104
246204.000			-18.626			-3.104
246304.000			-18.626			-3.104
246405.000			-18.625			-3.104
246504.000			-18.625			-3.104
246604.000			-18.625			-3.104
246704.000			-18.625			-3.104
246804.000			-18.624			-3.104
246903.000			-18.623			-3.104
247005.000			-18.623			-3.104
247104.000			-18.624			-3.104
247204.000			-18.624			-3.104
247305.000			-18.624			-3.104
247404.000			-18.623			-3.104
247504.000			-18.623			-3.104
247604.000			-18.623			-3.104
247704.000			-18.623			-3.104
247803.000			-18.623			-3.104
247905.000			-18.623			-3.104
248004.000			-18.622			-3.104
248105.000			-18.622			-3.104
248204.000			-18.622			-3.104
248304.000			-18.622			-3.104
248405.000			-18.622			-3.104
248504.000			-18.622			-3.104
248604.000			-18.620			-3.103
248704.000			-18.620			-3.103
248804.000			-18.621			-3.104
248904.000			-18.621			-3.104
249005.000			-18.621			-3.104
249104.000			-18.620			-3.103
249204.000			-18.619			-3.103
249305.000			-18.620			-3.103
249404.000			-18.619			-3.103
249504.000			-18.620			-3.103
249604.000			-18.620			-3.103
249704.000			-18.620			-3.103
249804.000			-18.620			-3.103
249905.000			-18.619			-3.103
250004.000			-18.617			-3.103
250104.000			-18.617			-3.103
250205.000			-18.617			-3.103
250304.000			-18.618			-3.103
250404.000			-18.618			-3.103
250504.000			-18.618			-3.103
250604.000			-18.617			-3.103
250703.000			-18.616			-3.103
250805.000			-18.615			-3.102
250904.000			-18.615			-3.103
251004.000			-18.615			-3.103
251105.000			-18.615			-3.102
251204.000			-18.615			-3.103
251305.000			-18.614			-3.102
251403.000			-18.614			-3.102
251504.000			-18.615			-3.102
251604.000			-18.614			-3.102
251704.000			-18.613			-3.102
251804.000			-18.614			-3.102
251905.000			-18.615			-3.102
252004.000			-18.615			-3.102
252104.000			-18.614			-3.102
252205.000			-18.612			-3.102
252303.000			-18.614			-3.102
252404.000			-18.615			-3.102
252505.000			-18.614			-3.102
252604.000			-18.613			-3.102
252704.000			-18.612			-3.102
252805.000			-18.611			-3.102
252904.000			-18.612			-3.102
253004.000			-18.611			-3.102
253105.000			-18.611			-3.102
253203.000			-18.611			-3.102
253304.000			-18.611			-3.102
253405.000			-18.611			-3.102
253504.000			-18.611			-3.102
253604.000			-18.610			-3.102
253705.000			-18.609			-3.102
253804.000			-18.610			-3.102
253903.000			-18.610			-3.102
254005.000			-18.609			-3.102
254103.000			-18.610			-3.102
254204.000			-18.610			-3.102
254305.000			-18.610			-3.102
254404.000			-18.609			-3.102
254505.000			-18.609			-3.102
254604.000			-18.609			-3.101
254704.000			-18.609			-3.101
254805.000			-18.608			-3.101
254904.000			-18.608			-3.101
255003.000			-18.607			-3.101
255105.000			-18.606			-3.101
255204.000			-18.607			-3.101
255304.000			-18.607			-3.101
255405.000			-18.607			-3.101
255504.000			-18.607			-3.101
255604.000			-18.607			-3.101
255705.000			-18.607			-3.101
255804.000			-18.606			-3.101
255903.000			-18.607			-3.101
256005.000			-18.606			-3.101
256104.000			-18.605			-3.101
256204.000			-18.605			-3.101
256305.000			-18.606			-3.101
256404.000			-18.605			-3.101
256504.000			-18.604			-3.101
256605.000			-18.605			-3.101
256704.000			-18.605			-3.101
256803.000			-18.605			-3.101
256905.000			-18.604			-3.101
257004.000			-18.604			-3.101
257104.000			-18.603			-3.101
257205.000			-18.603			-3.100
257304.000			-18.602			-3.100
257404.000			-18.602			-3.100
257504.000			-18.601			-3.100
257604.000			-18.601			-3.100
257704.000			-18.601			-3.100
257804.000			-18.601			-3.100
257903.000			-18.601			-3.100
258005.000			-18.601			-3.100
258104.000			-18.602			-3.100
258204.000			-18.602			-3.100
258305.000			-18.602			-3.100
258404.000			-18.601			-3.100
258504.000			-18.600			-3.100
258604.000			-18.600			-3.100
258704.000			-18.601			-3.100
258803.000			-18.601			-3.100
258905.000			-18.601			-3.100
259004.000			-18.601			-3.100
259104.000			-18.600			-3.100
259205.000			-18.599			-3.100
259304.000			-18.599			-3.100
259404.000			-18.599			-3.100
259504.000			-18.599			-3.100
259604.000			-18.599			-3.100
259703.000			-18.599			-3.100
259805.000			-18.599			-3.100
259904.000			-18.599			-3.100
260004.000			-18.598			-3.100
260105.000			-18.598			-3.100
260204.000			-18.599			-3.100
260304.000			-18.598			-3.100
260405.000			-18.598			-3.100
260504.000			-18.597			-3.100
260603.000			-18.597			-3.100
260705.000			-18.597			-3.100
260803.000			-18.596			-3.099
260905.000			-18.596			-3.099
261004.000			-18.597			-3.100
261104.000			-18.596			-3.099
261205.000			-18.595			-3.099
261304.000			-18.596			-3.099
261404.000			-18.595			-3.099
261504.000			-18.595			-3.099
261604.000			-18.595			-3.099
261703.000			-18.594			-3.099
261805.000			-18.594			-3.099
261904.000			-18.594			-3.099
262004.000			-18.595			-3.099
262105.000			-18.594			-3.099
262204.000			-18.593			-3.099
262304.000			-18.594			-3.099
262405.000			-18.593			-3.099
262504.000			-18.594			-3.099
262603.000			-18.594			-3.099
262705.000			-18.594			-3.099
262804.000			-18.593			-3.099
262904.000			-18.592			-3.099
263005.000			-18.592			-3.099
263104.000			-18.592			-3.099
263204.000			-18.592			-3.099
263305.000			-18.592			-3.099
263404.000			-18.591			-3.099
263503.000			-18.591			-3.099
263605.000			-18.591			-3.099
263704.000			-18.591			-3.098
263804.000			-18.590			-3.098
263905.000			-18.590			-3.098
264004.000			-18.590			-3.098
264105.000			-18.590			-3.098
264204.000			-18.589			-3.098
264304.000			-18.590			-3.098
264404.000			-18.589			-3.098
264504.000			-18.590			-3.098
264603.000			-18.589			-3.098
264705.000			-18.589			-3.098
264804.000			-18.588			-3.098
264904.000			-18.588			-3.098
265005.000			-18.589			-3.098
265104.000			-18.589			-3.098
265204.000			-18.588			-3.098
265305.000			-18.587			-3.098
265404.000			-18.587			-3.098
265503.000			-18.587			-3.098
265605.000			-18.587			-3.098
265704.000			-18.587			-3.098
265804.000			-18.587			-3.098
265905.000			-18.586			-3.098
266004.000			-18.586			-3.098
266104.000			-18.587			-3.098
266205.000			-18.586			-3.098
266304.000			-18.587			-3.098
266403.000			-18.587			-3.098
266505.000			-18.586			-3.098
266603.000			-18.585			-3.097
266704.000			-18.585			-3.097
266805.000			-18.585			-3.097
266904.000			-18.585			-3.098
267004.000			-18.584			-3.097
267104.000			-18.583			-3.097
267204.000			-18.583			-3.097
267305.000			-18.583			-3.097
267404.000			-18.583			-3.097
267503.000			-18.584			-3.097
267605.000			-18.584			-3.097
267704.000			-18.583			-3.097
267804.000			-18.582			-3.097
267905.000			-18.583			-3.097
268004.000			-18.582			-3.097
268104.000			-18.582			-3.097
268205.000			-18.582			-3.097
268304.000			-18.582			-3.097
268403.000			-18.582			-3.097
268505.000			-18.582			-3.097
268604.000			-18.581			-3.097
268704.000			-18.581			-3.097
268805.000			-18.581			-3.097
268904.000			-18.579			-3.097
269004.000			-18.580			-3.097
269105.000			-18.580			-3.097
269204.000			-18.579			-3.097
269303.000			-18.578			-3.096
269405.000			-18.579			-3.096
269503.000			-18.579			-3.097
269604.000			-18.580			-3.097
269705.000			-18.579			-3.096
269804.000			-18.578			-3.096
269904.000			-18.580			-3.097
270005.000			-18.579			-3.096
270104.000			-18.578			-3.096
270204.000			-18.579			-3.096
270305.000			-18.578			-3.096
270403.000			-18.578			-3.096
270505.000			-18.578			-3.096
270604.000			-18.579			-3.097
270704.000			-18.579			-3.096
270805.000			-18.577			-3.096
270904.000			-18.577			-3.096
271004.000			-18.578			-3.096
271105.000			-18.577			-3.096
271204.000			-18.577			-3.096
271303.000			-18.576			-3.096
271405.000			-18.576			-3.096
271504.000			-18.577			-3.096
271604.000			-18.577			-3.096
271705.000			-18.576			-3.096
271804.000			-18.575			-3.096
271904.000			-18.576			-3.096
272005.000			-18.576			-3.096
272104.000			-18.576			-3.096
272203.000			-18.575			-3.096
272305.000			-18.575			-3.096
272404.000			-18.575			-3.096
272504.000			-18.574			-3.096
272605.000			-18.575			-3.096
272704.000			-18.575			-3.096
272804.000			-18.574			-3.096
272905.000			-18.574			-3.096
273004.000			-18.574			-3.096
273103.000			-18.574			-3.096
273205.000			-18.573			-3.095
273303.000			-18.573			-3.095
273404.000			-18.572			-3.095
273505.000			-18.573			-3.095
273604.000			-18.573			-3.096
273705.000			-18.573			-3.096
273804.000			-18.573			-3.095
273904.000			-18.572			-3.095
274005.000			-18.573			-3.095
274104.000			-18.572			-3.095
274203.000			-18.572			-3.095
274305.000			-18.572			-3.095
274404.000			-18.572			-3.095
274504.000			-18.572			-3.095
274605.000			-18.572			-3.095
274704.000			-18.571			-3.095
274804.000			-18.570			-3.095
274905.000			-18.571			-3.095
275004.000			-18.571			-3.095
275103.000			-18.570			-3.095
275205.000			-18.570			-3.095
275304.000			-18.571			-3.095
275404.000			-18.570			-3.095
275505.000			-18.570			-3.095
275604.000			-18.570			-3.095
275704.000			-18.570			-3.095
275805.000			-18.570			-3.095
275904.000			-18.570			-3.095
276003.000			-18.570			-3.095
276105.000			-18.568			-3.095
276203.000			-18.568			-3.095
276304.000			-18.568			-3.095
276405.000			-18.569			-3.095
276504.000			-18.568			-3.095
276604.000			-18.568			-3.095
276704.000			-18.568			-3.095
276804.000			-18.568			-3.095
276905.000			-18.568			-3.095
277004.000			-18.567			-3.095
277103.000			-18.567			-3.094
277205.000			-18.567			-3.094
277304.000			-18.567			-3.094
277404.000			-18.566			-3.094
277505.000			-18.567			-3.094
277604.000			-18.567			-3.094
277704.000			-18.567			-3.095
277805.000			-18.567			-3.095
277904.000			-18.566			-3.094
278004.000			-18.565			-3.094
278105.000			-18.566			-3.094
278203.000			-18.566			-3.094
278304.000			-18.567			-3.094
278405.000			-18.566			-3.094
278504.000			-18.566			-3.094
278604.000			-18.565			-3.094
278705.000			-18.565			-3.094
278804.000			-18.564			-3.094
278904.000			-18.564			-3.094
279005.000			-18.564			-3.094
279103.000			-18.564			-3.094
279204.000			-18.565			-3.094
279305.000			-18.563			-3.094
279404.000			-18.563			-3.094
279504.000			-18.562			-3.094
279605.000			-18.563			-3.094
279704.000			-18.562			-3.094
279804.000			-18.562			-3.094
279905.000			-18.563			-3.094
280003.000			-18.563			-3.094
280105.000			-18.563			-3.094
280203.000			-18.562			-3.094
280304.000			-18.561			-3.094
280405.000			-18.562			-3.094
280504.000			-18.560			-3.093
280604.000			-18.562			-3.094
280705.000			-18.561			-3.094
280804.000			-18.561			-3.094
280903.000			-18.562			-3.094
281005.000			-18.560			-3.093
281103.000			-18.561			-3.093
281204.000			-18.560			-3.093
281305.000			-18.560			-3.093
281404.000			-18.561			-3.093
281504.000			-18.560			-3.093
281605.000			-18.559			-3.093
281704.000			-18.559			-3.093
281804.000			-18.559			-3.093
281905.000			-18.559			-3.093
282003.000			-18.559			-3.093
282104.000			-18.559			-3.093
282205.000			-18.559			-3.093
282304.000			-18.558			-3.093
282404.000			-18.557			-3.093
282505.000			-18.557			-3.093
282604.000			-18.557			-3.093
282704.000			-18.558			-3.093
282805.000			-18.559			-3.093
282903.000			-18.558			-3.093
283004.000			-18.558			-3.093
283105.000			-18.558			-3.093
283204.000			-18.557			-3.093
283305.000			-18.557			-3.093
283404.000			-18.557			-3.093
283504.000			-18.558			-3.093
283605.000			-18.557			-3.093
283704.000			-18.555			-3.093
283803.000			-18.555			-3.093
283905.000			-18.557			-3.093
284003.000			-18.557			-3.093
284104.000			-18.556			-3.093
284205.000			-18.556			-3.093
284304.000			-18.556			-3.093
284404.000			-18.556			-3.093
284505.000			-18.555			-3.092
284604.000			-18.555			-3.093
284703.000			-18.555			-3.093
284805.000			-18.554			-3.092
284903.000			-18.553			-3.092
285004.000			-18.553			-3.092
285105.000			-18.553			-3.092
285204.000			-18.553			-3.092
285304.000			-18.553			-3.092
285405.000			-18.553			-3.092
285504.000			-18.553			-3.092
285604.000			-18.553			-3.092
285705.000			-18.553			-3.092
285803.000			-18.553			-3.092
285904.000			-18.553			-3.092
286005.000			-18.552			-3.092
286104.000			-18.551			-3.092
286204.000			-18.551			-3.092
286304.000			-18.550			-3.092
286404.000			-18.551			-3.092
286505.000			-18.552			-3.092
286604.000			-18.552			-3.092
286703.000			-18.551			-3.092
286805.000			-18.551			-3.092
286904.000			-18.551			-3.092
287004.000			-18.549			-3.092
287105.000			-18.550			-3.092
287204.000			-18.550			-3.092
287304.000			-18.549			-3.092
287405.000			-18.549			-3.092
287504.000			-18.550			-3.092
287603.000			-18.549			-3.091
287705.000			-18.548			-3.091
287803.000			-18.549			-3.092
287904.000			-18.548			-3.091
288005.000			-18.547			-3.091
288104.000			-18.548			-3.091
288204.000			-18.547			-3.091
288305.000			-18.547			-3.091
288404.000			-18.547			-3.091
288504.000			-18.547			-3.091
288605.000			-18.547			-3.091
288703.000			-18.548			-3.091
288804.000			-18.546			-3.091
288905.000			-18.546			-3.091
289004.000			-18.547			-3.091
289104.000			-18.547			-3.091
289205.000			-18.546			-3.091
289304.000			-18.545			-3.091
289404.000			-18.544			-3.091
289505.000			-18.545			-3.091
289603.000			-18.545			-3.091
289705.000			-18.544			-3.091
289803.000			-18.544			-3.091
289904.000			-18.545			-3.091
290005.000			-18.545			-3.091
290104.000			-18.543			-3.091
290204.000			-18.543			-3.091
290305.000			-18.544			-3.091
290404.000			-18.543			-3.090
290504.000			-18.543			-3.091
290605.000			-18.544			-3.091
290703.000			-18.542			-3.090
290804.000			-18.542			-3.090
290905.000			-18.541			-3.090
291004.000			-18.542			-3.090
291104.000			-18.543			-3.091
291205.000			-18.543			-3.091
291304.000			-18.543			-3.091
291404.000			-18.544			-3.091
291505.000			-18.543			-3.091
291603.000			-18.543			-3.090
291704.000			-18.542			-3.090
291805.000			-18.542			-3.090
291904.000			-18.542			-3.090
292004.000			-18.542			-3.090
292105.000			-18.542			-3.090
292204.000			-18.542			-3.090
292304.000			-18.541			-3.090
292405.000			-18.541			-3.090
292503.000			-18.541			-3.090
292604.000			-18.541			-3.090
292705.000			-18.542			-3.090
292804.000			-18.540			-3.090
292905.000			-18.540			-3.090
293004.000			-18.541			-3.090
293104.000			-18.540			-3.090
293205.000			-18.539			-3.090
293304.000			-18.540			-3.090
293403.000			-18.539			-3.090
293505.000			-18.538			-3.090
293604.000			-18.540			-3.090
293704.000			-18.540			-3.090
293805.000			-18.540			-3.090
293904.000			-18.538			-3.090
294004.000			-18.538			-3.090
294105.000			-18.538			-3.090
294204.000			-18.538			-3.090
294303.000			-18.537			-3.090
294405.000			-18.538			-3.090
294503.000			-18.538			-3.090
294604.000			-18.538			-3.090
294705.000			-18.538			-3.090
294804.000			-18.537			-3.090
294904.000			-18.537			-3.089
295005.000			-18.537			-3.090
295104.000			-18.536			-3.089
295204.000			-18.536			-3.089
295305.000			-18.536			-3.089
295403.000			-18.537			-3.090
295504.000			-18.537			-3.089
295605.000			-18.536			-3.089
295704.000			-18.535			-3.089
295804.000			-18.535			-3.089
295904.000			-18.535			-3.089
296004.000			-18.535			-3.089
296105.000			-18.535			-3.089
296204.000			-18.536			-3.089
296303.000			-18.535			-3.089
296405.000			-18.535			-3.089
296504.000			-18.535			-3.089
296604.000			-18.534			-3.089
296705.000			-18.534			-3.089
296804.000			-18.534			-3.089
296904.000			-18.533			-3.089
297005.000			-18.533			-3.089
297104.000			-18.534			-3.089
297203.000			-18.533			-3.089
297305.000			-18.534			-3.089
297403.000			-18.534			-3.089
297504.000			-18.533			-3.089
297605.000			-18.533			-3.089
297704.000			-18.533			-3.089
297804.000			-18.532			-3.089
297905.000			-18.533			-3.089
298004.000			-18.533			-3.089
298104.000			-18.532			-3.089
298205.000			-18.532			-3.089
298303.000			-18.532			-3.089
298404.000			-18.531			-3.088
298505.000			-18.531			-3.089
298604.000			-18.531			-3.089
298704.000			-18.532			-3.089
298805.000			-18.531			-3.089
298904.000			-18.532			-3.089
299004.000			-18.532			-3.089
299105.000			-18.531			-3.088
299203.000			-18.531			-3.089
299305.000			-18.532			-3.089
299404.000			-18.530			-3.088
299504.000			-18.530			-3.088
299605.000			-18.529			-3.088
299704.000			-18.530			-3.088
299804.000			-18.530			-3.088
299905.000			-18.529			-3.088
