# Acquired on 20/12/2023 10:25:34 
# SPIDER: Creep_3mm_07714532B-1
# CREEP MEASUREMENT

# time [ms]		force [N]		stiffness [N/mm]
1.000			-8.119			-2.706
102.000			-9.424			-3.141
200.000			-10.061			-3.354
300.000			-10.148			-3.383
401.000			-10.103			-3.368
500.000			-10.069			-3.356
600.000			-10.041			-3.347
702.000			-10.018			-3.339
801.000			-9.997			-3.332
900.000			-9.979			-3.326
1000.000			-9.962			-3.321
1100.000			-9.933			-3.311
1201.000			-9.920			-3.307
1300.000			-9.909			-3.303
1400.000			-9.899			-3.300
1502.000			-9.888			-3.296
1601.000			-9.878			-3.293
1700.000			-9.869			-3.290
1801.000			-9.853			-3.284
1900.000			-9.845			-3.282
2000.000			-9.838			-3.279
2101.000			-9.830			-3.277
2201.000			-9.824			-3.275
2301.000			-9.817			-3.272
2401.000			-9.813			-3.271
2500.000			-9.799			-3.266
2600.000			-9.794			-3.265
2701.000			-9.788			-3.263
2800.000			-9.783			-3.261
2900.000			-9.779			-3.260
3002.000			-9.773			-3.258
3101.000			-9.768			-3.256
3200.000			-9.763			-3.254
3301.000			-9.755			-3.252
3400.000			-9.751			-3.250
3500.000			-9.747			-3.249
3601.000			-9.743			-3.248
3700.000			-9.738			-3.246
3801.000			-9.735			-3.245
3902.000			-9.732			-3.244
4000.000			-9.724			-3.241
4100.000			-9.719			-3.240
4200.000			-9.716			-3.239
4300.000			-9.713			-3.238
4401.000			-9.710			-3.237
4501.000			-9.708			-3.236
4601.000			-9.704			-3.235
4702.000			-9.698			-3.233
4800.000			-9.694			-3.231
4900.000			-9.692			-3.231
5001.000			-9.690			-3.230
5100.000			-9.686			-3.229
5200.000			-9.684			-3.228
5302.000			-9.682			-3.227
5401.000			-9.679			-3.226
5501.000			-9.674			-3.225
5601.000			-9.672			-3.224
5700.000			-9.669			-3.223
5800.000			-9.667			-3.222
5901.000			-9.663			-3.221
6000.000			-9.661			-3.220
6101.000			-9.659			-3.220
6202.000			-9.654			-3.218
6300.000			-9.652			-3.217
6400.000			-9.650			-3.217
6501.000			-9.648			-3.216
6600.000			-9.646			-3.215
6700.000			-9.644			-3.215
6801.000			-9.642			-3.214
6901.000			-9.640			-3.213
7001.000			-9.636			-3.212
7101.000			-9.634			-3.211
7200.000			-9.632			-3.211
7300.000			-9.629			-3.210
7400.000			-9.629			-3.210
7500.000			-9.627			-3.209
7601.000			-9.625			-3.208
7701.000			-9.619			-3.206
7801.000			-9.618			-3.206
7901.000			-9.616			-3.205
8000.000			-9.614			-3.205
8100.000			-9.613			-3.204
8201.000			-9.612			-3.204
8300.000			-9.611			-3.204
8401.000			-9.607			-3.202
8502.000			-9.605			-3.202
8600.000			-9.603			-3.201
8700.000			-9.602			-3.201
8801.000			-9.600			-3.200
8900.000			-9.598			-3.199
9000.000			-9.596			-3.199
9101.000			-9.596			-3.199
9201.000			-9.592			-3.197
9301.000			-9.590			-3.197
9401.000			-9.589			-3.196
9500.000			-9.588			-3.196
9600.000			-9.586			-3.195
9701.000			-9.586			-3.195
9800.000			-9.585			-3.195
9900.000			-9.581			-3.194
10002.000			-9.580			-3.193
10101.000			-9.578			-3.193
10200.000			-9.577			-3.192
10301.000			-9.577			-3.192
10400.000			-9.574			-3.191
10500.000			-9.572			-3.191
10600.000			-9.572			-3.191
10700.000			-9.568			-3.189
10802.000			-9.567			-3.189
10901.000			-9.566			-3.189
11000.000			-9.564			-3.188
11101.000			-9.564			-3.188
11200.000			-9.563			-3.188
11300.000			-9.562			-3.187
11401.000			-9.558			-3.186
11500.000			-9.557			-3.186
11601.000			-9.555			-3.185
11702.000			-9.555			-3.185
11800.000			-9.554			-3.185
11900.000			-9.553			-3.184
12001.000			-9.551			-3.184
12100.000			-9.550			-3.183
12200.000			-9.550			-3.183
12301.000			-9.548			-3.183
12401.000			-9.546			-3.182
12501.000			-9.545			-3.182
12601.000			-9.544			-3.181
12700.000			-9.544			-3.181
12800.000			-9.543			-3.181
12901.000			-9.540			-3.180
13000.000			-9.540			-3.180
13100.000			-9.539			-3.180
13202.000			-9.537			-3.179
13301.000			-9.535			-3.178
13400.000			-9.534			-3.178
13501.000			-9.534			-3.178
13600.000			-9.532			-3.177
13700.000			-9.531			-3.177
13800.000			-9.530			-3.177
13900.000			-9.529			-3.176
14002.000			-9.528			-3.176
14101.000			-9.526			-3.175
14200.000			-9.525			-3.175
14301.000			-9.524			-3.175
14400.000			-9.523			-3.174
14500.000			-9.522			-3.174
14601.000			-9.522			-3.174
14701.000			-9.520			-3.173
14801.000			-9.519			-3.173
14901.000			-9.519			-3.173
15000.000			-9.518			-3.173
15100.000			-9.516			-3.172
15201.000			-9.515			-3.172
15300.000			-9.513			-3.171
15400.000			-9.512			-3.171
15502.000			-9.512			-3.171
15601.000			-9.511			-3.170
15700.000			-9.509			-3.170
15801.000			-9.508			-3.169
15900.000			-9.507			-3.169
16000.000			-9.507			-3.169
16101.000			-9.506			-3.169
16200.000			-9.504			-3.168
16301.000			-9.504			-3.168
16402.000			-9.503			-3.168
16500.000			-9.502			-3.167
16600.000			-9.501			-3.167
16701.000			-9.500			-3.167
16800.000			-9.499			-3.166
16900.000			-9.499			-3.166
17000.000			-9.498			-3.166
17101.000			-9.497			-3.166
17202.000			-9.497			-3.166
17301.000			-9.495			-3.165
17400.000			-9.494			-3.165
17501.000			-9.493			-3.164
17600.000			-9.492			-3.164
17700.000			-9.491			-3.164
17801.000			-9.490			-3.163
17901.000			-9.489			-3.163
18001.000			-9.488			-3.163
18102.000			-9.487			-3.162
18200.000			-9.486			-3.162
18300.000			-9.486			-3.162
18401.000			-9.485			-3.162
18500.000			-9.484			-3.161
18600.000			-9.483			-3.161
18701.000			-9.483			-3.161
18801.000			-9.481			-3.160
18901.000			-9.481			-3.160
19001.000			-9.480			-3.160
19100.000			-9.480			-3.160
19200.000			-9.479			-3.160
19301.000			-9.478			-3.159
19400.000			-9.477			-3.159
19500.000			-9.475			-3.158
19602.000			-9.475			-3.158
19701.000			-9.474			-3.158
19800.000			-9.473			-3.158
19901.000			-9.472			-3.157
20000.000			-9.471			-3.157
20100.000			-9.471			-3.157
20200.000			-9.471			-3.157
20300.000			-9.470			-3.157
20402.000			-9.470			-3.157
20501.000			-9.468			-3.156
20600.000			-9.468			-3.156
20701.000			-9.467			-3.156
20800.000			-9.466			-3.155
20900.000			-9.465			-3.155
21001.000			-9.465			-3.155
21100.000			-9.464			-3.155
21201.000			-9.463			-3.154
21302.000			-9.463			-3.154
21400.000			-9.461			-3.154
21500.000			-9.460			-3.153
21601.000			-9.460			-3.153
21700.000			-9.459			-3.153
21800.000			-9.460			-3.153
21901.000			-9.459			-3.153
22001.000			-9.458			-3.153
22101.000			-9.457			-3.152
22201.000			-9.457			-3.152
22300.000			-9.456			-3.152
22400.000			-9.455			-3.152
22501.000			-9.453			-3.151
22600.000			-9.453			-3.151
22700.000			-9.453			-3.151
22802.000			-9.451			-3.150
22901.000			-9.451			-3.150
23000.000			-9.450			-3.150
23101.000			-9.450			-3.150
23200.000			-9.449			-3.150
23300.000			-9.447			-3.149
23400.000			-9.447			-3.149
23500.000			-9.447			-3.149
23602.000			-9.446			-3.149
23701.000			-9.446			-3.149
23800.000			-9.446			-3.149
23901.000			-9.445			-3.148
24000.000			-9.445			-3.148
24100.000			-9.442			-3.147
24201.000			-9.442			-3.147
24300.000			-9.442			-3.147
24401.000			-9.441			-3.147
24502.000			-9.441			-3.147
24600.000			-9.441			-3.147
24700.000			-9.440			-3.147
24801.000			-9.439			-3.146
24900.000			-9.439			-3.146
25000.000			-9.439			-3.146
25101.000			-9.437			-3.146
25201.000			-9.436			-3.145
25301.000			-9.435			-3.145
25401.000			-9.435			-3.145
25500.000			-9.434			-3.145
25600.000			-9.433			-3.144
25701.000			-9.433			-3.144
25800.000			-9.433			-3.144
25900.000			-9.432			-3.144
26002.000			-9.432			-3.144
26101.000			-9.432			-3.144
26200.000			-9.429			-3.143
26301.000			-9.429			-3.143
26400.000			-9.429			-3.143
26500.000			-9.428			-3.143
26600.000			-9.428			-3.143
26700.000			-9.428			-3.143
26802.000			-9.426			-3.142
26901.000			-9.426			-3.142
27000.000			-9.424			-3.141
27101.000			-9.425			-3.142
27200.000			-9.425			-3.142
27300.000			-9.425			-3.142
27401.000			-9.423			-3.141
27501.000			-9.423			-3.141
27601.000			-9.422			-3.141
27702.000			-9.422			-3.141
27800.000			-9.420			-3.140
27900.000			-9.420			-3.140
28001.000			-9.420			-3.140
28100.000			-9.420			-3.140
28200.000			-9.419			-3.140
28302.000			-9.418			-3.139
28401.000			-9.418			-3.139
28501.000			-9.417			-3.139
28601.000			-9.416			-3.139
28700.000			-9.416			-3.139
28800.000			-9.415			-3.138
28901.000			-9.415			-3.138
29000.000			-9.414			-3.138
29101.000			-9.413			-3.138
29202.000			-9.413			-3.138
29301.000			-9.413			-3.138
29400.000			-9.413			-3.138
29501.000			-9.412			-3.137
29600.000			-9.412			-3.137
29700.000			-9.412			-3.137
29800.000			-9.411			-3.137
29901.000			-9.409			-3.136
30002.000			-9.409			-3.136
30100.000			-9.409			-3.136
30200.000			-9.408			-3.136
30301.000			-9.408			-3.136
30400.000			-9.408			-3.136
30500.000			-9.407			-3.136
30601.000			-9.405			-3.135
30701.000			-9.406			-3.135
30801.000			-9.406			-3.135
30901.000			-9.405			-3.135
31000.000			-9.405			-3.135
31100.000			-9.404			-3.135
31201.000			-9.403			-3.134
31300.000			-9.402			-3.134
31400.000			-9.401			-3.134
31502.000			-9.401			-3.134
31601.000			-9.400			-3.133
31700.000			-9.401			-3.134
31801.000			-9.400			-3.133
31900.000			-9.400			-3.133
32000.000			-9.400			-3.133
32101.000			-9.398			-3.133
32201.000			-9.399			-3.133
32301.000			-9.399			-3.133
32402.000			-9.397			-3.132
32500.000			-9.397			-3.132
32600.000			-9.396			-3.132
32701.000			-9.395			-3.132
32800.000			-9.395			-3.132
32900.000			-9.394			-3.131
33000.000			-9.394			-3.131
33101.000			-9.394			-3.131
33202.000			-9.393			-3.131
33300.000			-9.393			-3.131
33400.000			-9.392			-3.131
33501.000			-9.391			-3.130
33600.000			-9.391			-3.130
33700.000			-9.392			-3.131
33801.000			-9.392			-3.131
33901.000			-9.392			-3.131
34001.000			-9.390			-3.130
34101.000			-9.389			-3.130
34200.000			-9.388			-3.129
34300.000			-9.389			-3.130
34401.000			-9.387			-3.129
34500.000			-9.387			-3.129
34600.000			-9.387			-3.129
34702.000			-9.387			-3.129
34801.000			-9.386			-3.129
34900.000			-9.387			-3.129
35001.000			-9.386			-3.129
35100.000			-9.385			-3.128
35200.000			-9.385			-3.128
35301.000			-9.384			-3.128
35400.000			-9.383			-3.128
35501.000			-9.383			-3.128
35602.000			-9.383			-3.128
35700.000			-9.383			-3.128
35800.000			-9.382			-3.127
35901.000			-9.382			-3.127
36000.000			-9.380			-3.127
36100.000			-9.380			-3.127
36200.000			-9.380			-3.127
36301.000			-9.379			-3.126
36402.000			-9.378			-3.126
36500.000			-9.377			-3.126
36600.000			-9.378			-3.126
36701.000			-9.378			-3.126
36800.000			-9.376			-3.125
36900.000			-9.377			-3.126
37001.000			-9.378			-3.126
37101.000			-9.377			-3.126
37201.000			-9.376			-3.125
37301.000			-9.375			-3.125
37400.000			-9.374			-3.125
37500.000			-9.374			-3.125
37601.000			-9.374			-3.125
37700.000			-9.373			-3.124
37800.000			-9.373			-3.124
37902.000			-9.373			-3.124
38001.000			-9.373			-3.124
38100.000			-9.372			-3.124
38201.000			-9.371			-3.124
38300.000			-9.372			-3.124
38400.000			-9.371			-3.124
38501.000			-9.371			-3.124
38600.000			-9.370			-3.123
38701.000			-9.369			-3.123
38802.000			-9.369			-3.123
38900.000			-9.370			-3.123
39000.000			-9.368			-3.123
39101.000			-9.367			-3.122
39200.000			-9.367			-3.122
39300.000			-9.367			-3.122
39400.000			-9.368			-3.123
39501.000			-9.366			-3.122
39602.000			-9.366			-3.122
39701.000			-9.365			-3.122
39800.000			-9.365			-3.122
39901.000			-9.364			-3.121
40000.000			-9.364			-3.121
40100.000			-9.364			-3.121
40201.000			-9.363			-3.121
40301.000			-9.363			-3.121
40401.000			-9.362			-3.121
40501.000			-9.362			-3.121
40600.000			-9.362			-3.121
40700.000			-9.361			-3.120
40801.000			-9.361			-3.120
40900.000			-9.361			-3.120
41000.000			-9.360			-3.120
41102.000			-9.359			-3.120
41201.000			-9.360			-3.120
41300.000			-9.360			-3.120
41401.000			-9.360			-3.120
41500.000			-9.359			-3.120
41600.000			-9.360			-3.120
41701.000			-9.357			-3.119
41800.000			-9.356			-3.119
41901.000			-9.356			-3.119
42002.000			-9.357			-3.119
42100.000			-9.356			-3.119
42200.000			-9.355			-3.118
42301.000			-9.355			-3.118
42400.000			-9.355			-3.118
42500.000			-9.355			-3.118
42600.000			-9.355			-3.118
42701.000			-9.354			-3.118
42802.000			-9.354			-3.118
42900.000			-9.354			-3.118
43000.000			-9.353			-3.118
43101.000			-9.352			-3.117
43200.000			-9.353			-3.118
43300.000			-9.352			-3.117
43401.000			-9.352			-3.117
43501.000			-9.352			-3.117
43601.000			-9.352			-3.117
43701.000			-9.351			-3.117
43800.000			-9.350			-3.117
43900.000			-9.350			-3.117
44001.000			-9.349			-3.116
44100.000			-9.348			-3.116
44200.000			-9.348			-3.116
44302.000			-9.347			-3.116
44401.000			-9.348			-3.116
44500.000			-9.347			-3.116
44601.000			-9.347			-3.116
44700.000			-9.347			-3.116
44800.000			-9.347			-3.116
44901.000			-9.347			-3.116
45001.000			-9.346			-3.115
45101.000			-9.346			-3.115
45202.000			-9.344			-3.115
45300.000			-9.343			-3.114
45400.000			-9.344			-3.115
45501.000			-9.344			-3.115
45600.000			-9.344			-3.115
45700.000			-9.343			-3.114
45802.000			-9.343			-3.114
45901.000			-9.342			-3.114
46001.000			-9.342			-3.114
46100.000			-9.342			-3.114
46200.000			-9.342			-3.114
46301.000			-9.342			-3.114
46400.000			-9.342			-3.114
46500.000			-9.341			-3.114
46602.000			-9.340			-3.113
46701.000			-9.340			-3.113
46800.000			-9.340			-3.113
46901.000			-9.338			-3.113
47000.000			-9.338			-3.113
47100.000			-9.338			-3.113
47201.000			-9.338			-3.113
47300.000			-9.338			-3.113
47401.000			-9.338			-3.113
47502.000			-9.337			-3.112
47600.000			-9.337			-3.112
47700.000			-9.336			-3.112
47801.000			-9.335			-3.112
47900.000			-9.336			-3.112
48000.000			-9.336			-3.112
48101.000			-9.336			-3.112
48201.000			-9.336			-3.112
48301.000			-9.335			-3.112
48401.000			-9.334			-3.111
48500.000			-9.335			-3.112
48600.000			-9.334			-3.111
48701.000			-9.334			-3.111
48800.000			-9.333			-3.111
48900.000			-9.333			-3.111
49002.000			-9.332			-3.111
49101.000			-9.332			-3.111
49201.000			-9.333			-3.111
49300.000			-9.332			-3.111
49400.000			-9.331			-3.110
49501.000			-9.331			-3.110
49600.000			-9.331			-3.110
49700.000			-9.330			-3.110
49802.000			-9.329			-3.110
49901.000			-9.329			-3.110
50001.000			-9.330			-3.110
50101.000			-9.329			-3.110
50200.000			-9.329			-3.110
50300.000			-9.329			-3.110
50401.000			-9.329			-3.110
50500.000			-9.328			-3.109
50601.000			-9.329			-3.110
50702.000			-9.327			-3.109
50800.000			-9.326			-3.109
50900.000			-9.327			-3.109
51001.000			-9.327			-3.109
51100.000			-9.326			-3.109
51200.000			-9.327			-3.109
51301.000			-9.325			-3.108
51401.000			-9.324			-3.108
51501.000			-9.324			-3.108
51601.000			-9.324			-3.108
51700.000			-9.324			-3.108
51800.000			-9.324			-3.108
51901.000			-9.324			-3.108
52000.000			-9.323			-3.108
52100.000			-9.323			-3.108
52202.000			-9.322			-3.107
52301.000			-9.322			-3.107
52401.000			-9.322			-3.107
52500.000			-9.322			-3.107
52600.000			-9.322			-3.107
52701.000			-9.322			-3.107
52800.000			-9.321			-3.107
52901.000			-9.321			-3.107
53002.000			-9.320			-3.107
53100.000			-9.320			-3.107
53200.000			-9.320			-3.107
53301.000			-9.319			-3.106
53400.000			-9.319			-3.106
53500.000			-9.320			-3.107
53601.000			-9.319			-3.106
53701.000			-9.319			-3.106
53801.000			-9.319			-3.106
53901.000			-9.318			-3.106
54000.000			-9.317			-3.106
54100.000			-9.317			-3.106
54201.000			-9.317			-3.106
54300.000			-9.316			-3.105
54400.000			-9.316			-3.105
54502.000			-9.315			-3.105
54601.000			-9.315			-3.105
54700.000			-9.315			-3.105
54801.000			-9.315			-3.105
54900.000			-9.314			-3.105
55000.000			-9.314			-3.105
55101.000			-9.315			-3.105
55200.000			-9.313			-3.104
55302.000			-9.313			-3.104
55401.000			-9.314			-3.105
55500.000			-9.313			-3.104
55601.000			-9.313			-3.104
55700.000			-9.312			-3.104
55800.000			-9.313			-3.104
55901.000			-9.313			-3.104
56000.000			-9.311			-3.104
56101.000			-9.311			-3.104
56202.000			-9.312			-3.104
56300.000			-9.311			-3.104
56400.000			-9.311			-3.104
56501.000			-9.309			-3.103
56600.000			-9.310			-3.103
56700.000			-9.310			-3.103
56801.000			-9.310			-3.103
56901.000			-9.309			-3.103
57001.000			-9.309			-3.103
57101.000			-9.308			-3.103
57200.000			-9.308			-3.103
57300.000			-9.308			-3.103
57401.000			-9.308			-3.103
57500.000			-9.308			-3.103
57600.000			-9.308			-3.103
57702.000			-9.307			-3.102
57801.000			-9.306			-3.102
57900.000			-9.307			-3.102
58001.000			-9.306			-3.102
58100.000			-9.305			-3.102
58200.000			-9.305			-3.102
58301.000			-9.306			-3.102
58400.000			-9.307			-3.102
58502.000			-9.305			-3.102
58601.000			-9.304			-3.101
58700.000			-9.304			-3.101
58801.000			-9.303			-3.101
58900.000			-9.304			-3.101
59000.000			-9.304			-3.101
59101.000			-9.303			-3.101
59201.000			-9.303			-3.101
59301.000			-9.303			-3.101
59402.000			-9.302			-3.101
59500.000			-9.302			-3.101
59600.000			-9.303			-3.101
59701.000			-9.303			-3.101
59800.000			-9.302			-3.101
59900.000			-9.302			-3.101
60002.000			-9.302			-3.101
60101.000			-9.302			-3.101
60200.000			-9.300			-3.100
60301.000			-9.300			-3.100
60400.000			-9.300			-3.100
60500.000			-9.300			-3.100
60601.000			-9.299			-3.100
60700.000			-9.300			-3.100
60801.000			-9.300			-3.100
60902.000			-9.299			-3.100
61000.000			-9.298			-3.099
61100.000			-9.298			-3.099
61201.000			-9.299			-3.100
61300.000			-9.298			-3.099
61400.000			-9.297			-3.099
61501.000			-9.296			-3.099
61601.000			-9.296			-3.099
61702.000			-9.296			-3.099
61800.000			-9.296			-3.099
61900.000			-9.296			-3.099
62001.000			-9.296			-3.099
62100.000			-9.296			-3.099
62200.000			-9.295			-3.098
62301.000			-9.295			-3.098
62401.000			-9.293			-3.098
62501.000			-9.294			-3.098
62601.000			-9.294			-3.098
62700.000			-9.294			-3.098
62800.000			-9.294			-3.098
62901.000			-9.294			-3.098
63000.000			-9.294			-3.098
63100.000			-9.294			-3.098
63202.000			-9.293			-3.098
63301.000			-9.292			-3.097
63401.000			-9.292			-3.097
63501.000			-9.293			-3.098
63600.000			-9.293			-3.098
63700.000			-9.292			-3.097
63801.000			-9.292			-3.097
63900.000			-9.292			-3.097
64000.000			-9.291			-3.097
64102.000			-9.291			-3.097
64201.000			-9.290			-3.097
64300.000			-9.291			-3.097
64401.000			-9.291			-3.097
64500.000			-9.290			-3.097
64600.000			-9.289			-3.096
64701.000			-9.288			-3.096
64800.000			-9.288			-3.096
64902.000			-9.288			-3.096
65001.000			-9.289			-3.096
65100.000			-9.289			-3.096
65201.000			-9.288			-3.096
65300.000			-9.288			-3.096
65400.000			-9.288			-3.096
65501.000			-9.288			-3.096
65600.000			-9.288			-3.096
65701.000			-9.288			-3.096
65802.000			-9.288			-3.096
65900.000			-9.287			-3.096
66000.000			-9.287			-3.096
66101.000			-9.286			-3.095
66200.000			-9.286			-3.095
66300.000			-9.285			-3.095
66401.000			-9.285			-3.095
66501.000			-9.286			-3.095
66601.000			-9.286			-3.095
66701.000			-9.285			-3.095
66800.000			-9.285			-3.095
66900.000			-9.284			-3.095
67001.000			-9.284			-3.095
67100.000			-9.284			-3.095
67200.000			-9.283			-3.094
67302.000			-9.283			-3.094
67401.000			-9.283			-3.094
67501.000			-9.282			-3.094
67601.000			-9.282			-3.094
67700.000			-9.282			-3.094
67800.000			-9.282			-3.094
67901.000			-9.282			-3.094
68000.000			-9.282			-3.094
68100.000			-9.281			-3.094
68202.000			-9.280			-3.093
68301.000			-9.281			-3.094
68401.000			-9.280			-3.093
68500.000			-9.280			-3.093
68600.000			-9.279			-3.093
68701.000			-9.279			-3.093
68800.000			-9.279			-3.093
68900.000			-9.279			-3.093
69002.000			-9.280			-3.093
69101.000			-9.279			-3.093
69200.000			-9.279			-3.093
69301.000			-9.278			-3.093
69400.000			-9.278			-3.093
69500.000			-9.279			-3.093
69601.000			-9.279			-3.093
69700.000			-9.279			-3.093
69800.000			-9.277			-3.092
69902.000			-9.277			-3.092
70001.000			-9.278			-3.093
70100.000			-9.277			-3.092
70201.000			-9.276			-3.092
70300.000			-9.276			-3.092
70400.000			-9.277			-3.092
70501.000			-9.276			-3.092
70600.000			-9.275			-3.092
70701.000			-9.275			-3.092
70802.000			-9.275			-3.092
70900.000			-9.275			-3.092
71000.000			-9.275			-3.092
71101.000			-9.275			-3.092
71200.000			-9.274			-3.091
71300.000			-9.274			-3.091
71400.000			-9.275			-3.092
71501.000			-9.275			-3.092
71602.000			-9.274			-3.091
71700.000			-9.274			-3.091
71800.000			-9.274			-3.091
71901.000			-9.274			-3.091
72000.000			-9.272			-3.091
72100.000			-9.272			-3.091
72201.000			-9.273			-3.091
72301.000			-9.273			-3.091
72401.000			-9.272			-3.091
72501.000			-9.271			-3.090
72600.000			-9.271			-3.090
72700.000			-9.270			-3.090
72801.000			-9.270			-3.090
72900.000			-9.271			-3.090
73000.000			-9.271			-3.090
73102.000			-9.271			-3.090
73201.000			-9.271			-3.090
73300.000			-9.272			-3.091
73401.000			-9.270			-3.090
73500.000			-9.269			-3.090
73600.000			-9.269			-3.090
73701.000			-9.270			-3.090
73800.000			-9.269			-3.090
73901.000			-9.269			-3.090
74002.000			-9.268			-3.089
74100.000			-9.268			-3.089
74200.000			-9.267			-3.089
74301.000			-9.267			-3.089
74400.000			-9.267			-3.089
74500.000			-9.268			-3.089
74600.000			-9.267			-3.089
74701.000			-9.267			-3.089
74802.000			-9.266			-3.089
74900.000			-9.267			-3.089
75000.000			-9.266			-3.089
75101.000			-9.265			-3.088
75200.000			-9.266			-3.089
75300.000			-9.266			-3.089
75401.000			-9.266			-3.089
75501.000			-9.265			-3.088
75601.000			-9.265			-3.088
75702.000			-9.265			-3.088
75800.000			-9.265			-3.088
75900.000			-9.265			-3.088
76001.000			-9.264			-3.088
76100.000			-9.263			-3.088
76200.000			-9.263			-3.088
76301.000			-9.264			-3.088
76401.000			-9.264			-3.088
76501.000			-9.263			-3.088
76601.000			-9.263			-3.088
76700.000			-9.262			-3.087
76800.000			-9.262			-3.087
76901.000			-9.263			-3.088
77000.000			-9.263			-3.088
77100.000			-9.261			-3.087
77202.000			-9.261			-3.087
77301.000			-9.261			-3.087
77400.000			-9.261			-3.087
77501.000			-9.261			-3.087
77600.000			-9.261			-3.087
77700.000			-9.261			-3.087
77800.000			-9.261			-3.087
77900.000			-9.260			-3.087
78002.000			-9.261			-3.087
78101.000			-9.260			-3.087
78200.000			-9.260			-3.087
78301.000			-9.260			-3.087
78400.000			-9.259			-3.086
78500.000			-9.259			-3.086
78601.000			-9.259			-3.086
78700.000			-9.259			-3.086
78801.000			-9.260			-3.087
78902.000			-9.259			-3.086
79001.000			-9.258			-3.086
79100.000			-9.258			-3.086
79201.000			-9.258			-3.086
79300.000			-9.258			-3.086
79400.000			-9.257			-3.086
79501.000			-9.257			-3.086
79600.000			-9.257			-3.086
79701.000			-9.257			-3.086
79802.000			-9.257			-3.086
79900.000			-9.258			-3.086
80000.000			-9.256			-3.085
80101.000			-9.256			-3.085
80200.000			-9.256			-3.085
80300.000			-9.256			-3.085
80401.000			-9.255			-3.085
80501.000			-9.256			-3.085
80601.000			-9.256			-3.085
80701.000			-9.256			-3.085
80800.000			-9.255			-3.085
80900.000			-9.255			-3.085
81000.000			-9.256			-3.085
81100.000			-9.254			-3.085
81201.000			-9.254			-3.085
81301.000			-9.255			-3.085
81401.000			-9.254			-3.085
81501.000			-9.253			-3.084
81600.000			-9.252			-3.084
81700.000			-9.253			-3.084
81801.000			-9.253			-3.084
81900.000			-9.253			-3.084
82000.000			-9.253			-3.084
82102.000			-9.252			-3.084
82201.000			-9.252			-3.084
82300.000			-9.251			-3.084
82401.000			-9.251			-3.084
82500.000			-9.251			-3.084
82600.000			-9.251			-3.084
82701.000			-9.251			-3.084
82800.000			-9.251			-3.084
82901.000			-9.250			-3.083
83002.000			-9.251			-3.084
83100.000			-9.250			-3.083
83200.000			-9.252			-3.084
83301.000			-9.251			-3.084
83400.000			-9.251			-3.084
83500.000			-9.251			-3.084
83601.000			-9.250			-3.083
83701.000			-9.249			-3.083
83801.000			-9.250			-3.083
83901.000			-9.249			-3.083
84000.000			-9.249			-3.083
84100.000			-9.248			-3.083
84200.000			-9.247			-3.082
84300.000			-9.249			-3.083
84401.000			-9.249			-3.083
84501.000			-9.248			-3.083
84601.000			-9.248			-3.083
84701.000			-9.248			-3.083
84800.000			-9.247			-3.082
84900.000			-9.247			-3.082
85001.000			-9.247			-3.082
85100.000			-9.247			-3.082
85200.000			-9.247			-3.082
85301.000			-9.247			-3.082
85401.000			-9.248			-3.083
85501.000			-9.246			-3.082
85601.000			-9.246			-3.082
85700.000			-9.246			-3.082
85800.000			-9.246			-3.082
85901.000			-9.246			-3.082
86000.000			-9.247			-3.082
86100.000			-9.246			-3.082
86202.000			-9.245			-3.082
86301.000			-9.245			-3.082
86400.000			-9.244			-3.081
86501.000			-9.244			-3.081
86600.000			-9.244			-3.081
86700.000			-9.244			-3.081
86801.000			-9.243			-3.081
86900.000			-9.244			-3.081
87001.000			-9.244			-3.081
87102.000			-9.244			-3.081
87200.000			-9.243			-3.081
87300.000			-9.242			-3.081
87400.000			-9.243			-3.081
87500.000			-9.243			-3.081
87601.000			-9.243			-3.081
87700.000			-9.242			-3.081
87801.000			-9.242			-3.081
87902.000			-9.242			-3.081
88000.000			-9.242			-3.081
88100.000			-9.241			-3.080
88201.000			-9.240			-3.080
88300.000			-9.241			-3.080
88400.000			-9.241			-3.080
88501.000			-9.242			-3.081
88601.000			-9.242			-3.081
88701.000			-9.240			-3.080
88802.000			-9.240			-3.080
88900.000			-9.241			-3.080
89000.000			-9.239			-3.080
89101.000			-9.239			-3.080
89200.000			-9.239			-3.080
89300.000			-9.239			-3.080
89401.000			-9.239			-3.080
89501.000			-9.238			-3.079
89601.000			-9.238			-3.079
89701.000			-9.238			-3.079
89800.000			-9.238			-3.079
89900.000			-9.238			-3.079
90001.000			-9.238			-3.079
90100.000			-9.238			-3.079
90200.000			-9.237			-3.079
90302.000			-9.237			-3.079
90401.000			-9.236			-3.079
90500.000			-9.236			-3.079
90600.000			-9.236			-3.079
90700.000			-9.237			-3.079
90801.000			-9.238			-3.079
90900.000			-9.237			-3.079
91000.000			-9.236			-3.079
91102.000			-9.236			-3.079
91201.000			-9.236			-3.079
91301.000			-9.236			-3.079
91401.000			-9.236			-3.079
91500.000			-9.236			-3.079
91600.000			-9.235			-3.078
91701.000			-9.234			-3.078
91800.000			-9.235			-3.078
91900.000			-9.235			-3.078
92002.000			-9.235			-3.078
92101.000			-9.233			-3.078
92200.000			-9.234			-3.078
92301.000			-9.235			-3.078
92400.000			-9.234			-3.078
92500.000			-9.234			-3.078
92601.000			-9.234			-3.078
92700.000			-9.233			-3.078
92801.000			-9.233			-3.078
92902.000			-9.233			-3.078
93000.000			-9.232			-3.077
93100.000			-9.233			-3.078
93201.000			-9.233			-3.078
93300.000			-9.232			-3.077
93400.000			-9.232			-3.077
93501.000			-9.233			-3.078
93601.000			-9.232			-3.077
93702.000			-9.231			-3.077
93800.000			-9.231			-3.077
93900.000			-9.232			-3.077
94001.000			-9.232			-3.077
94100.000			-9.231			-3.077
94200.000			-9.231			-3.077
94301.000			-9.231			-3.077
94401.000			-9.231			-3.077
94501.000			-9.230			-3.077
94601.000			-9.230			-3.077
94700.000			-9.230			-3.077
94800.000			-9.230			-3.077
94901.000			-9.230			-3.077
95000.000			-9.229			-3.076
95100.000			-9.229			-3.076
95202.000			-9.230			-3.077
95301.000			-9.229			-3.076
95400.000			-9.228			-3.076
95501.000			-9.229			-3.076
95600.000			-9.229			-3.076
95700.000			-9.229			-3.076
95801.000			-9.228			-3.076
95900.000			-9.228			-3.076
96001.000			-9.227			-3.076
96102.000			-9.228			-3.076
96200.000			-9.227			-3.076
96300.000			-9.227			-3.076
96401.000			-9.227			-3.076
96500.000			-9.226			-3.075
96600.000			-9.227			-3.076
96701.000			-9.227			-3.076
96800.000			-9.227			-3.076
96902.000			-9.227			-3.076
97001.000			-9.226			-3.075
97100.000			-9.226			-3.075
97201.000			-9.227			-3.076
97300.000			-9.226			-3.075
97400.000			-9.225			-3.075
97501.000			-9.225			-3.075
97600.000			-9.224			-3.075
97701.000			-9.225			-3.075
97802.000			-9.226			-3.075
97901.000			-9.225			-3.075
98000.000			-9.224			-3.075
98101.000			-9.224			-3.075
98200.000			-9.224			-3.075
98300.000			-9.225			-3.075
98401.000			-9.223			-3.074
98500.000			-9.224			-3.075
98601.000			-9.224			-3.075
98702.000			-9.223			-3.074
98800.000			-9.224			-3.075
98900.000			-9.223			-3.074
99001.000			-9.223			-3.074
99100.000			-9.224			-3.075
99200.000			-9.224			-3.075
99301.000			-9.222			-3.074
99401.000			-9.222			-3.074
99501.000			-9.222			-3.074
99601.000			-9.222			-3.074
99700.000			-9.222			-3.074
99800.000			-9.222			-3.074
99901.000			-9.223			-3.074
100000.000			-9.221			-3.074
100100.000			-9.221			-3.074
100202.000			-9.221			-3.074
100301.000			-9.220			-3.073
100401.000			-9.221			-3.074
100500.000			-9.221			-3.074
100600.000			-9.220			-3.073
100701.000			-9.220			-3.073
100800.000			-9.219			-3.073
100900.000			-9.219			-3.073
101002.000			-9.219			-3.073
101101.000			-9.219			-3.073
101200.000			-9.219			-3.073
101301.000			-9.219			-3.073
101400.000			-9.219			-3.073
101500.000			-9.218			-3.073
101601.000			-9.218			-3.073
101700.000			-9.219			-3.073
101801.000			-9.219			-3.073
101902.000			-9.218			-3.073
102001.000			-9.218			-3.073
102100.000			-9.219			-3.073
102201.000			-9.217			-3.072
102300.000			-9.217			-3.072
102400.000			-9.217			-3.072
102501.000			-9.216			-3.072
102600.000			-9.217			-3.072
102701.000			-9.217			-3.072
102802.000			-9.217			-3.072
102900.000			-9.217			-3.072
103000.000			-9.216			-3.072
103101.000			-9.216			-3.072
103200.000			-9.216			-3.072
103300.000			-9.216			-3.072
103400.000			-9.216			-3.072
103501.000			-9.216			-3.072
103602.000			-9.216			-3.072
103700.000			-9.215			-3.072
103800.000			-9.216			-3.072
103901.000			-9.216			-3.072
104000.000			-9.215			-3.072
104100.000			-9.215			-3.072
104201.000			-9.216			-3.072
104301.000			-9.215			-3.072
104401.000			-9.215			-3.072
104501.000			-9.213			-3.071
104600.000			-9.213			-3.071
104700.000			-9.213			-3.071
104801.000			-9.214			-3.071
104900.000			-9.213			-3.071
105000.000			-9.213			-3.071
105102.000			-9.213			-3.071
105201.000			-9.214			-3.071
105300.000			-9.213			-3.071
105401.000			-9.213			-3.071
105500.000			-9.214			-3.071
105600.000			-9.213			-3.071
105701.000			-9.213			-3.071
105800.000			-9.213			-3.071
105901.000			-9.211			-3.070
106002.000			-9.212			-3.071
106100.000			-9.211			-3.070
106200.000			-9.212			-3.071
106301.000			-9.212			-3.071
106400.000			-9.211			-3.070
106500.000			-9.211			-3.070
106600.000			-9.211			-3.070
106701.000			-9.210			-3.070
106802.000			-9.211			-3.070
106900.000			-9.211			-3.070
107000.000			-9.211			-3.070
107101.000			-9.211			-3.070
107200.000			-9.211			-3.070
107300.000			-9.210			-3.070
107401.000			-9.210			-3.070
107501.000			-9.209			-3.070
107601.000			-9.208			-3.069
107701.000			-9.209			-3.070
107800.000			-9.209			-3.070
107900.000			-9.209			-3.070
108001.000			-9.209			-3.070
108100.000			17.236			5.745
108200.000			188.978			62.993
108301.000			-9.208			-3.069
108401.000			-9.208			-3.069
108501.000			-9.208			-3.069
108601.000			-9.208			-3.069
108700.000			-9.208			-3.069
108800.000			-9.208			-3.069
108901.000			-9.208			-3.069
109000.000			-9.208			-3.069
109100.000			-9.208			-3.069
109202.000			-9.207			-3.069
109301.000			-9.207			-3.069
109400.000			-9.207			-3.069
109501.000			-9.207			-3.069
109600.000			-9.207			-3.069
109700.000			-9.206			-3.069
109800.000			-9.206			-3.069
109900.000			-9.206			-3.069
110002.000			-9.206			-3.069
110101.000			-9.205			-3.068
110200.000			-9.206			-3.069
110301.000			-9.206			-3.069
110400.000			-9.206			-3.069
110500.000			-9.205			-3.068
110601.000			-9.205			-3.068
110700.000			-9.205			-3.068
110801.000			-9.205			-3.068
110902.000			-9.205			-3.068
111001.000			-9.204			-3.068
111100.000			-9.205			-3.068
111201.000			-9.206			-3.069
111300.000			-9.205			-3.068
111400.000			-9.205			-3.068
111501.000			-9.204			-3.068
111601.000			-9.205			-3.068
111701.000			-9.204			-3.068
111801.000			-9.204			-3.068
111900.000			-9.204			-3.068
112000.000			-9.203			-3.068
112101.000			-9.204			-3.068
112200.000			-9.204			-3.068
112300.000			-9.203			-3.068
112402.000			-9.204			-3.068
112501.000			-9.204			-3.068
112600.000			-9.203			-3.068
112701.000			-9.202			-3.067
112800.000			-9.202			-3.067
112900.000			-9.202			-3.067
113000.000			-9.201			-3.067
113100.000			-9.201			-3.067
113202.000			-9.201			-3.067
113301.000			-9.202			-3.067
113400.000			-9.202			-3.067
113501.000			-9.202			-3.067
113600.000			-9.202			-3.067
113700.000			-9.201			-3.067
113801.000			-9.202			-3.067
113900.000			-9.202			-3.067
114000.000			-9.200			-3.067
114102.000			-9.200			-3.067
114201.000			-9.201			-3.067
114300.000			-9.200			-3.067
114401.000			-9.199			-3.066
114500.000			-9.199			-3.066
114600.000			-9.201			-3.067
114701.000			-9.200			-3.067
114800.000			-9.199			-3.066
114901.000			-9.199			-3.066
115002.000			-9.199			-3.066
115100.000			-9.199			-3.066
115200.000			-9.199			-3.066
115301.000			-9.200			-3.067
115400.000			-9.200			-3.067
115500.000			-9.199			-3.066
115601.000			-9.199			-3.066
115701.000			-9.199			-3.066
115801.000			-9.198			-3.066
115902.000			-9.199			-3.066
116000.000			-9.199			-3.066
116100.000			-9.197			-3.066
116200.000			-9.198			-3.066
116300.000			-9.197			-3.066
116401.000			-9.197			-3.066
116500.000			-9.197			-3.066
116601.000			-9.198			-3.066
116702.000			-9.197			-3.066
116800.000			-9.197			-3.066
116900.000			-9.197			-3.066
117001.000			-9.197			-3.066
117100.000			-9.196			-3.065
117200.000			-9.196			-3.065
117301.000			-9.197			-3.066
117401.000			-9.197			-3.066
117501.000			-9.197			-3.066
117602.000			-9.197			-3.066
117700.000			-9.196			-3.065
117800.000			-9.195			-3.065
117901.000			-9.195			-3.065
118000.000			-9.196			-3.065
118100.000			-9.197			-3.066
118201.000			-9.196			-3.065
118301.000			-9.195			-3.065
118401.000			-9.194			-3.065
118501.000			-9.194			-3.065
118600.000			-9.194			-3.065
118700.000			-9.194			-3.065
118801.000			-9.194			-3.065
118900.000			-9.195			-3.065
119000.000			-9.195			-3.065
119101.000			-9.195			-3.065
119201.000			-9.194			-3.065
119302.000			-9.194			-3.065
119400.000			-9.194			-3.065
119500.000			-9.193			-3.064
119601.000			-9.194			-3.065
119700.000			-9.194			-3.065
119800.000			-9.194			-3.065
119901.000			-9.193			-3.064
120001.000			-9.193			-3.064
120101.000			-9.193			-3.064
120202.000			-9.192			-3.064
120300.000			-9.193			-3.064
120400.000			-9.193			-3.064
120501.000			-9.191			-3.064
120600.000			-9.193			-3.064
120700.000			-9.193			-3.064
120801.000			-9.192			-3.064
120901.000			-9.191			-3.064
121001.000			-9.192			-3.064
121101.000			-9.192			-3.064
121200.000			-9.192			-3.064
121300.000			-9.192			-3.064
121401.000			-9.190			-3.063
121500.000			-9.191			-3.064
121600.000			-9.190			-3.063
121702.000			-9.190			-3.063
121801.000			-9.190			-3.063
121900.000			-9.190			-3.063
122001.000			-9.191			-3.064
122100.000			-9.191			-3.064
122200.000			-9.190			-3.063
122301.000			-9.190			-3.063
122400.000			-9.190			-3.063
122502.000			-9.190			-3.063
122601.000			-9.190			-3.063
122700.000			-9.190			-3.063
122801.000			-9.189			-3.063
122900.000			-9.190			-3.063
123000.000			-9.190			-3.063
123101.000			-9.190			-3.063
123200.000			-9.189			-3.063
123300.000			-9.188			-3.063
123402.000			-9.190			-3.063
123501.000			-9.189			-3.063
123600.000			-9.189			-3.063
123701.000			-9.188			-3.063
123800.000			-9.187			-3.062
123900.000			-9.188			-3.063
124001.000			-9.188			-3.063
124100.000			-9.188			-3.063
124201.000			-9.188			-3.063
124302.000			-9.186			-3.062
124401.000			-9.187			-3.062
124500.000			-9.187			-3.062
124601.000			-9.187			-3.062
124700.000			-9.188			-3.063
124800.000			-9.188			-3.063
124901.000			-9.187			-3.062
125000.000			-9.187			-3.062
125101.000			-9.186			-3.062
125202.000			-9.186			-3.062
125300.000			-9.187			-3.062
125400.000			-9.187			-3.062
125501.000			-9.186			-3.062
125600.000			-9.186			-3.062
125700.000			-9.186			-3.062
125800.000			-9.186			-3.062
125900.000			-9.186			-3.062
126002.000			-9.185			-3.062
126101.000			-9.186			-3.062
126200.000			-9.185			-3.062
126301.000			-9.185			-3.062
126400.000			-9.185			-3.062
126500.000			17.237			5.746
126601.000			-180.006			-60.002
126700.000			-9.185			-3.062
126801.000			-9.185			-3.062
126902.000			-9.186			-3.062
127000.000			-9.185			-3.062
127100.000			-9.184			-3.061
127201.000			-9.185			-3.062
127300.000			-9.184			-3.061
127400.000			-9.182			-3.061
127501.000			-9.183			-3.061
127600.000			-9.184			-3.061
127701.000			-9.183			-3.061
127802.000			-9.183			-3.061
127900.000			-9.183			-3.061
128000.000			-9.183			-3.061
128101.000			-9.182			-3.061
128200.000			-9.182			-3.061
128300.000			-9.181			-3.060
128401.000			-9.182			-3.061
128501.000			-9.183			-3.061
128601.000			-9.182			-3.061
128701.000			-9.181			-3.060
128800.000			-9.182			-3.061
128900.000			-9.182			-3.061
129000.000			-9.181			-3.060
129100.000			-9.182			-3.061
129201.000			-9.182			-3.061
129300.000			-9.181			-3.060
129401.000			-9.182			-3.061
129502.000			-9.180			-3.060
129600.000			-9.180			-3.060
129700.000			-9.180			-3.060
129801.000			-9.180			-3.060
129900.000			-9.180			-3.060
130000.000			-9.181			-3.060
130101.000			-9.181			-3.060
130201.000			-9.180			-3.060
130301.000			-9.180			-3.060
130401.000			-9.180			-3.060
130500.000			-9.180			-3.060
130600.000			-9.179			-3.060
130701.000			-9.179			-3.060
130800.000			-9.179			-3.060
130900.000			-9.179			-3.060
131002.000			-9.179			-3.060
131101.000			-9.179			-3.060
131201.000			-9.179			-3.060
131301.000			-9.178			-3.059
131400.000			-9.178			-3.059
131500.000			-9.179			-3.060
131601.000			-9.179			-3.060
131700.000			-9.178			-3.059
131800.000			-9.178			-3.059
131902.000			-9.178			-3.059
132001.000			-9.177			-3.059
132102.000			-9.179			-3.060
132200.000			-9.180			-3.060
132300.000			-9.179			-3.060
132401.000			-9.177			-3.059
132500.000			-9.177			-3.059
132600.000			-9.178			-3.059
132701.000			-9.177			-3.059
132801.000			-9.178			-3.059
132901.000			-9.177			-3.059
133002.000			-9.177			-3.059
133100.000			-9.177			-3.059
133200.000			-9.177			-3.059
133301.000			-9.177			-3.059
133400.000			-9.176			-3.059
133500.000			-9.176			-3.059
133601.000			-9.177			-3.059
133700.000			-9.176			-3.059
133801.000			-9.176			-3.059
133902.000			-9.176			-3.059
134000.000			-9.177			-3.059
134100.000			-9.176			-3.059
134201.000			-9.175			-3.058
134300.000			-9.175			-3.058
134400.000			-9.175			-3.058
134501.000			-9.173			-3.058
134600.000			-9.175			-3.058
134701.000			-9.175			-3.058
134802.000			-9.176			-3.059
134901.000			-9.175			-3.058
135000.000			-9.175			-3.058
135101.000			-9.174			-3.058
135200.000			-9.174			-3.058
135300.000			-9.174			-3.058
135400.000			-9.174			-3.058
135500.000			-9.174			-3.058
135602.000			-9.174			-3.058
135701.000			-9.173			-3.058
135801.000			-9.173			-3.058
135901.000			-9.172			-3.057
136000.000			-9.173			-3.058
136100.000			-9.173			-3.058
136201.000			-9.173			-3.058
136300.000			-9.174			-3.058
136400.000			-9.173			-3.058
136501.000			-9.172			-3.057
136601.000			-9.172			-3.057
136701.000			-9.172			-3.057
136801.000			-9.172			-3.057
136900.000			-9.172			-3.057
137000.000			-9.173			-3.058
137101.000			-9.172			-3.057
137200.000			-9.172			-3.057
137300.000			-9.172			-3.057
137401.000			-9.172			-3.057
137501.000			-9.172			-3.057
137601.000			-9.171			-3.057
137701.000			-9.171			-3.057
137800.000			-9.171			-3.057
137900.000			-9.171			-3.057
138001.000			-9.170			-3.057
138100.000			-9.170			-3.057
138200.000			-9.170			-3.057
138301.000			-9.170			-3.057
138401.000			-9.171			-3.057
138502.000			-9.171			-3.057
138600.000			-9.170			-3.057
138700.000			-9.170			-3.057
138801.000			-9.171			-3.057
138900.000			-9.171			-3.057
139000.000			-9.171			-3.057
139101.000			-9.171			-3.057
139200.000			-9.170			-3.057
139300.000			-9.170			-3.057
139402.000			-9.170			-3.057
139501.000			-9.169			-3.056
139600.000			-9.169			-3.056
139701.000			-9.169			-3.056
139800.000			-9.169			-3.056
139900.000			-9.169			-3.056
140001.000			-9.170			-3.057
140100.000			-9.170			-3.057
140200.000			-9.169			-3.056
140302.000			-9.168			-3.056
140401.000			-9.168			-3.056
140500.000			-9.168			-3.056
140601.000			-9.168			-3.056
140700.000			-9.168			-3.056
140800.000			-9.169			-3.056
140901.000			-9.168			-3.056
141000.000			-9.168			-3.056
141100.000			-9.168			-3.056
141202.000			-9.167			-3.056
141301.000			-9.168			-3.056
141401.000			-9.168			-3.056
141501.000			-9.167			-3.056
141600.000			-9.168			-3.056
141700.000			-9.168			-3.056
141800.000			-9.168			-3.056
141900.000			-9.167			-3.056
142001.000			-9.167			-3.056
142100.000			-9.167			-3.056
142201.000			-9.167			-3.056
142302.000			-9.166			-3.055
142400.000			-9.167			-3.056
142500.000			-9.166			-3.055
142601.000			-9.166			-3.055
142700.000			-9.165			-3.055
142800.000			-9.166			-3.055
142901.000			-9.167			-3.056
143000.000			-9.166			-3.055
143101.000			-9.165			-3.055
143202.000			-9.165			-3.055
143300.000			-9.165			-3.055
143400.000			-9.166			-3.055
143501.000			-9.165			-3.055
143600.000			-9.164			-3.055
143700.000			-9.164			-3.055
143801.000			-9.165			-3.055
143900.000			-9.164			-3.055
144001.000			-9.164			-3.055
144102.000			-9.165			-3.055
144201.000			-9.164			-3.055
144300.000			-9.164			-3.055
144401.000			-9.164			-3.055
144500.000			-9.163			-3.054
144600.000			-9.164			-3.055
144701.000			-9.164			-3.055
144800.000			-9.164			-3.055
144900.000			-9.163			-3.054
145002.000			-9.162			-3.054
145101.000			-9.162			-3.054
145201.000			-9.162			-3.054
145300.000			-9.163			-3.054
145400.000			-9.163			-3.054
145501.000			-9.163			-3.054
145600.000			-9.163			-3.054
145700.000			-9.162			-3.054
145801.000			-9.161			-3.054
145901.000			-9.162			-3.054
146001.000			-9.163			-3.054
146101.000			-9.163			-3.054
146200.000			-9.163			-3.054
146300.000			-9.162			-3.054
146401.000			-9.162			-3.054
146500.000			-9.162			-3.054
146600.000			-9.161			-3.054
146701.000			-9.161			-3.054
146801.000			-9.161			-3.054
146901.000			-9.161			-3.054
147001.000			-9.161			-3.054
147100.000			-9.160			-3.053
147200.000			-9.160			-3.053
147301.000			-9.161			-3.054
147400.000			-9.161			-3.054
147500.000			-9.160			-3.053
147601.000			-9.161			-3.054
147701.000			-9.160			-3.053
147801.000			-9.160			-3.053
147902.000			-9.160			-3.053
148000.000			-9.160			-3.053
148100.000			-9.160			-3.053
148200.000			-9.160			-3.053
148300.000			-9.161			-3.054
148401.000			-9.160			-3.053
148500.000			-9.160			-3.053
148600.000			-9.159			-3.053
148702.000			-9.160			-3.053
148801.000			-9.161			-3.054
148900.000			-9.160			-3.053
149001.000			-9.161			-3.054
149100.000			-9.159			-3.053
149200.000			-9.159			-3.053
149301.000			-9.159			-3.053
149400.000			-9.159			-3.053
149500.000			-9.159			-3.053
149602.000			-9.159			-3.053
149701.000			-9.160			-3.053
149801.000			-9.159			-3.053
149901.000			-9.159			-3.053
150000.000			-9.159			-3.053
150100.000			-9.158			-3.053
150201.000			-9.158			-3.053
150300.000			-9.158			-3.053
150400.000			-9.158			-3.053
150502.000			-9.159			-3.053
150601.000			-9.158			-3.053
150701.000			-9.158			-3.053
150801.000			-9.158			-3.053
150900.000			-9.157			-3.052
151000.000			-9.158			-3.053
151101.000			-9.158			-3.053
151200.000			-9.157			-3.052
151300.000			-9.157			-3.052
151400.000			-9.157			-3.052
151501.000			-9.157			-3.052
151602.000			-9.157			-3.052
151700.000			-9.156			-3.052
151800.000			-9.156			-3.052
151901.000			-9.156			-3.052
152000.000			-9.156			-3.052
152100.000			-9.156			-3.052
152201.000			-9.156			-3.052
152300.000			-9.156			-3.052
152401.000			-9.156			-3.052
152502.000			-9.156			-3.052
152601.000			-9.155			-3.052
152700.000			-9.156			-3.052
152801.000			-9.157			-3.052
152900.000			-9.156			-3.052
153000.000			-9.156			-3.052
153101.000			-9.156			-3.052
153200.000			-9.156			-3.052
153301.000			-9.156			-3.052
153402.000			-9.156			-3.052
153501.000			-9.156			-3.052
153600.000			-9.155			-3.052
153701.000			-9.155			-3.052
153800.000			-9.155			-3.052
153900.000			-9.155			-3.052
154001.000			-9.155			-3.052
154100.000			-9.155			-3.052
154200.000			-9.155			-3.052
154302.000			-9.155			-3.052
154401.000			-9.154			-3.051
154500.000			-9.153			-3.051
154600.000			-9.153			-3.051
154700.000			-9.153			-3.051
154801.000			-9.152			-3.051
154900.000			-9.152			-3.051
155000.000			-9.153			-3.051
155101.000			-9.154			-3.051
155201.000			-9.155			-3.052
155301.000			-9.153			-3.051
155401.000			-9.152			-3.051
155500.000			-9.153			-3.051
155600.000			-9.152			-3.051
155701.000			-9.152			-3.051
155800.000			-9.152			-3.051
155900.000			-9.152			-3.051
156001.000			-9.152			-3.051
156101.000			-9.152			-3.051
156201.000			-9.152			-3.051
156301.000			-9.151			-3.050
156400.000			-9.152			-3.051
156500.000			-9.153			-3.051
156601.000			-9.152			-3.051
156700.000			-9.151			-3.050
156800.000			-9.151			-3.050
156901.000			-9.152			-3.051
157001.000			-9.152			-3.051
157101.000			-9.151			-3.050
157201.000			-9.151			-3.050
157300.000			-9.152			-3.051
157400.000			-9.151			-3.050
157501.000			-9.152			-3.051
157600.000			-9.150			-3.050
157700.000			-9.150			-3.050
157800.000			-9.151			-3.050
157901.000			-9.149			-3.050
158002.000			-9.149			-3.050
158101.000			-9.151			-3.050
158200.000			-9.150			-3.050
158301.000			-9.149			-3.050
158400.000			-9.151			-3.050
158500.000			-9.151			-3.050
158601.000			-9.150			-3.050
158700.000			-9.151			-3.050
158801.000			-9.151			-3.050
158902.000			-9.149			-3.050
159001.000			-9.151			-3.050
159100.000			-9.151			-3.050
159201.000			-9.149			-3.050
159300.000			-9.148			-3.049
159400.000			-9.149			-3.050
159501.000			-9.149			-3.050
159600.000			-9.150			-3.050
159700.000			-9.149			-3.050
159802.000			-9.150			-3.050
159901.000			-9.149			-3.050
160001.000			-9.149			-3.050
160101.000			-9.149			-3.050
160200.000			-9.149			-3.050
160300.000			-9.148			-3.049
160401.000			-9.148			-3.049
160500.000			-9.148			-3.049
160600.000			-9.148			-3.049
160701.000			-9.149			-3.050
160801.000			-9.148			-3.049
160902.000			-9.148			-3.049
161000.000			-9.148			-3.049
161100.000			-9.147			-3.049
161201.000			-9.148			-3.049
161300.000			-9.148			-3.049
161400.000			-9.148			-3.049
161501.000			-9.147			-3.049
161600.000			-9.146			-3.049
161701.000			-9.146			-3.049
161802.000			-9.146			-3.049
161900.000			-9.147			-3.049
162000.000			-9.147			-3.049
162101.000			-9.147			-3.049
162200.000			-9.147			-3.049
162300.000			-9.148			-3.049
162401.000			-9.147			-3.049
162500.000			-9.146			-3.049
162601.000			-9.146			-3.049
162702.000			-9.147			-3.049
162801.000			-9.146			-3.049
162900.000			-9.147			-3.049
163001.000			-9.146			-3.049
163100.000			-9.146			-3.049
163200.000			-9.147			-3.049
163301.000			-9.147			-3.049
163400.000			-9.146			-3.049
163500.000			-9.145			-3.048
163602.000			-9.145			-3.048
163701.000			-9.145			-3.048
163800.000			-9.145			-3.048
163901.000			-9.145			-3.048
164000.000			-9.145			-3.048
164100.000			-9.146			-3.049
164200.000			-9.145			-3.048
164300.000			-9.144			-3.048
164401.000			-9.145			-3.048
164501.000			-9.145			-3.048
164601.000			-9.145			-3.048
164701.000			-9.145			-3.048
164800.000			-9.144			-3.048
164900.000			-9.144			-3.048
165001.000			-9.143			-3.048
165100.000			-9.144			-3.048
165200.000			-9.145			-3.048
165301.000			-9.144			-3.048
165401.000			-9.143			-3.048
165501.000			-9.144			-3.048
165601.000			-9.144			-3.048
165700.000			-9.144			-3.048
165800.000			-9.143			-3.048
165901.000			-9.143			-3.048
166000.000			-9.142			-3.047
166100.000			-9.143			-3.048
166201.000			-9.144			-3.048
166301.000			-9.143			-3.048
166401.000			-9.144			-3.048
166502.000			-9.144			-3.048
166600.000			-9.143			-3.048
166700.000			-9.143			-3.048
166801.000			-9.143			-3.048
166900.000			-9.142			-3.047
167000.000			-9.143			-3.048
167101.000			-9.142			-3.047
167201.000			-9.142			-3.047
167302.000			-9.143			-3.048
167401.000			-9.142			-3.047
167500.000			-9.141			-3.047
167601.000			-9.141			-3.047
167700.000			-9.141			-3.047
167800.000			-9.141			-3.047
167901.000			-9.141			-3.047
168000.000			-9.142			-3.047
168100.000			-9.141			-3.047
168202.000			-9.140			-3.047
168301.000			-9.141			-3.047
168400.000			-9.142			-3.047
168501.000			-9.141			-3.047
168600.000			-9.142			-3.047
168700.000			-9.142			-3.047
168801.000			-9.141			-3.047
168900.000			-9.141			-3.047
169000.000			-9.142			-3.047
169102.000			-9.141			-3.047
169201.000			-9.141			-3.047
169300.000			-9.141			-3.047
169401.000			-9.141			-3.047
169500.000			-9.141			-3.047
169600.000			-9.141			-3.047
169701.000			-9.140			-3.047
169800.000			-9.140			-3.047
169900.000			-9.139			-3.046
170002.000			-9.139			-3.046
170101.000			-9.140			-3.047
170200.000			-9.140			-3.047
170301.000			-9.139			-3.046
170400.000			-9.139			-3.046
170500.000			-9.139			-3.046
170600.000			-9.140			-3.047
170700.000			-9.138			-3.046
170801.000			-9.140			-3.047
170901.000			-9.139			-3.046
171001.000			-9.139			-3.046
171102.000			-9.139			-3.046
171200.000			-9.139			-3.046
171300.000			-9.139			-3.046
171401.000			-9.138			-3.046
171500.000			-9.139			-3.046
171600.000			-9.139			-3.046
171701.000			-9.139			-3.046
171800.000			-9.139			-3.046
171901.000			-9.138			-3.046
172002.000			-9.139			-3.046
172100.000			-9.138			-3.046
172200.000			-9.138			-3.046
172301.000			-9.139			-3.046
172400.000			-9.138			-3.046
172500.000			-9.137			-3.046
172601.000			-9.137			-3.046
172700.000			-9.137			-3.046
172801.000			-9.137			-3.046
172902.000			-9.136			-3.045
173001.000			-9.137			-3.046
173100.000			-9.137			-3.046
173201.000			-9.137			-3.046
173300.000			-9.137			-3.046
173400.000			-9.137			-3.046
173501.000			-9.137			-3.046
173600.000			-9.136			-3.045
173702.000			-9.137			-3.046
173801.000			-9.137			-3.046
173901.000			-9.137			-3.046
174001.000			-9.136			-3.045
174100.000			-9.136			-3.045
174200.000			-9.136			-3.045
174301.000			-9.136			-3.045
174400.000			-9.136			-3.045
174500.000			-9.135			-3.045
174601.000			-9.135			-3.045
174701.000			-9.135			-3.045
174801.000			-9.135			-3.045
174901.000			-9.136			-3.045
175000.000			-9.136			-3.045
175100.000			-9.135			-3.045
175201.000			-9.136			-3.045
175300.000			-9.136			-3.045
175400.000			-9.136			-3.045
175501.000			-9.135			-3.045
175601.000			-9.135			-3.045
175701.000			-9.135			-3.045
175801.000			-9.135			-3.045
175900.000			-9.134			-3.045
176000.000			-9.133			-3.044
176101.000			-9.134			-3.045
176200.000			-9.134			-3.045
176300.000			-9.134			-3.045
176401.000			-9.134			-3.045
176501.000			-9.135			-3.045
176601.000			-9.134			-3.045
176701.000			-9.133			-3.044
176800.000			-9.133			-3.044
176900.000			-9.134			-3.045
177000.000			-9.134			-3.045
177100.000			-9.134			-3.045
177201.000			-9.133			-3.044
177300.000			-9.133			-3.044
177401.000			-9.133			-3.044
177502.000			-9.134			-3.045
177601.000			-9.133			-3.044
177700.000			-9.132			-3.044
177801.000			-9.133			-3.044
177900.000			-9.133			-3.044
178000.000			-9.133			-3.044
178101.000			-9.133			-3.044
178200.000			-9.133			-3.044
178300.000			-9.133			-3.044
178402.000			-9.133			-3.044
178501.000			-9.132			-3.044
178600.000			-9.133			-3.044
178701.000			-9.132			-3.044
178800.000			-9.132			-3.044
178900.000			-9.132			-3.044
179001.000			-9.133			-3.044
179100.000			-9.133			-3.044
179200.000			-9.132			-3.044
179302.000			-9.132			-3.044
179401.000			-9.132			-3.044
179500.000			-9.133			-3.044
179601.000			-9.132			-3.044
179700.000			-9.132			-3.044
179800.000			-9.133			-3.044
179901.000			-9.132			-3.044
180000.000			-9.131			-3.044
180100.000			-9.131			-3.044
180202.000			-9.131			-3.044
180301.000			-9.132			-3.044
180402.000			-9.131			-3.044
180500.000			-9.130			-3.043
180600.000			-9.130			-3.043
180701.000			-9.130			-3.043
180800.000			-9.130			-3.043
180900.000			-9.131			-3.044
181001.000			-9.131			-3.044
181101.000			-9.131			-3.044
181201.000			-9.131			-3.044
181301.000			-9.130			-3.043
181400.000			-9.130			-3.043
181500.000			-9.130			-3.043
181601.000			-9.131			-3.044
181700.000			-9.130			-3.043
181800.000			-9.130			-3.043
181901.000			-9.130			-3.043
182001.000			-9.129			-3.043
182101.000			-9.129			-3.043
182201.000			-9.129			-3.043
182300.000			-9.129			-3.043
182400.000			-9.130			-3.043
182501.000			-9.129			-3.043
182600.000			-9.129			-3.043
182700.000			-9.129			-3.043
182801.000			-9.130			-3.043
182901.000			-9.129			-3.043
183001.000			-9.127			-3.042
183102.000			-9.128			-3.043
183200.000			-9.128			-3.043
183300.000			-9.128			-3.043
183400.000			-9.128			-3.043
183500.000			-9.128			-3.043
183601.000			-9.128			-3.043
183700.000			-9.128			-3.043
183800.000			-9.129			-3.043
183902.000			-9.128			-3.043
184001.000			-9.127			-3.042
184100.000			-9.127			-3.042
184201.000			-9.127			-3.042
184300.000			-9.127			-3.042
184400.000			-9.127			-3.042
184501.000			-9.127			-3.042
184600.000			-9.126			-3.042
184700.000			-9.128			-3.043
184802.000			-9.128			-3.043
184901.000			-9.127			-3.042
185001.000			-9.127			-3.042
185101.000			-9.127			-3.042
185200.000			-9.126			-3.042
185300.000			-9.126			-3.042
185401.000			-9.126			-3.042
185500.000			-9.127			-3.042
185600.000			-9.127			-3.042
185702.000			-9.125			-3.042
185801.000			-9.125			-3.042
185901.000			-9.127			-3.042
186001.000			-9.127			-3.042
186100.000			-9.126			-3.042
186200.000			-9.125			-3.042
186301.000			-9.126			-3.042
186400.000			-9.127			-3.042
186500.000			-9.125			-3.042
186600.000			-9.125			-3.042
186701.000			-9.126			-3.042
186802.000			-9.125			-3.042
186900.000			-9.125			-3.042
187000.000			-9.126			-3.042
187101.000			-9.125			-3.042
187200.000			-9.125			-3.042
187300.000			-9.126			-3.042
187401.000			-9.125			-3.042
187500.000			-9.124			-3.041
187601.000			-9.124			-3.041
187702.000			-9.124			-3.041
187801.000			-9.124			-3.041
187900.000			-9.123			-3.041
188001.000			-9.124			-3.041
188100.000			-9.124			-3.041
188200.000			-9.124			-3.041
188301.000			-9.124			-3.041
188400.000			-9.123			-3.041
188501.000			-9.123			-3.041
188602.000			-9.124			-3.041
188701.000			-9.125			-3.042
188800.000			-9.125			-3.042
188901.000			-9.124			-3.041
189000.000			-9.123			-3.041
189100.000			-9.123			-3.041
189201.000			-9.123			-3.041
189300.000			-9.123			-3.041
189400.000			-9.123			-3.041
189502.000			-9.123			-3.041
189601.000			-9.122			-3.041
189700.000			-9.123			-3.041
189800.000			-9.123			-3.041
189900.000			-9.123			-3.041
190001.000			-9.123			-3.041
190100.000			-9.124			-3.041
190200.000			-9.124			-3.041
190301.000			-9.123			-3.041
190401.000			-9.123			-3.041
190501.000			-9.122			-3.041
190601.000			-9.121			-3.040
190700.000			-9.122			-3.041
190800.000			-9.121			-3.040
190901.000			-9.121			-3.040
191000.000			-9.123			-3.041
191100.000			-9.123			-3.041
191201.000			-9.122			-3.041
191301.000			-9.121			-3.040
191401.000			-9.121			-3.040
191501.000			-9.122			-3.041
191600.000			-9.121			-3.040
191700.000			-9.122			-3.041
191801.000			-9.121			-3.040
191900.000			-9.121			-3.040
192000.000			-9.121			-3.040
192101.000			-9.121			-3.040
192201.000			-9.121			-3.040
192301.000			-9.120			-3.040
192401.000			-9.120			-3.040
192500.000			-9.120			-3.040
192600.000			-9.119			-3.040
192701.000			-9.120			-3.040
192800.000			-9.120			-3.040
192900.000			-9.120			-3.040
193000.000			-9.119			-3.040
193101.000			-9.120			-3.040
193202.000			-9.120			-3.040
193301.000			-9.120			-3.040
193400.000			-9.120			-3.040
193501.000			-9.119			-3.040
193600.000			-9.119			-3.040
193700.000			-9.118			-3.039
193801.000			-9.119			-3.040
193900.000			-9.119			-3.040
194000.000			-9.120			-3.040
194102.000			-9.120			-3.040
194201.000			-9.119			-3.040
194300.000			-9.119			-3.040
194401.000			-9.120			-3.040
194500.000			-9.119			-3.040
194600.000			-9.119			-3.040
194701.000			-9.119			-3.040
194800.000			-9.118			-3.039
194900.000			-9.117			-3.039
195002.000			-9.119			-3.040
195101.000			-9.118			-3.039
195201.000			-9.119			-3.040
195301.000			-9.119			-3.040
195400.000			-9.118			-3.039
195500.000			-9.118			-3.039
195601.000			-9.118			-3.039
195700.000			-9.118			-3.039
195800.000			-9.118			-3.039
195901.000			-9.118			-3.039
196001.000			-9.119			-3.040
196102.000			-9.118			-3.039
196200.000			-9.117			-3.039
196300.000			-9.118			-3.039
196401.000			-9.119			-3.040
196500.000			-9.117			-3.039
196600.000			-9.118			-3.039
196701.000			-9.117			-3.039
196800.000			-9.117			-3.039
196901.000			-9.117			-3.039
197002.000			-9.117			-3.039
197101.000			-9.116			-3.039
197200.000			-9.117			-3.039
197301.000			-9.117			-3.039
197400.000			-9.117			-3.039
197500.000			-9.116			-3.039
197601.000			-9.116			-3.039
197700.000			-9.116			-3.039
197800.000			-9.116			-3.039
197902.000			-9.116			-3.039
198001.000			-9.116			-3.039
198100.000			-9.117			-3.039
198201.000			-9.117			-3.039
198300.000			-9.117			-3.039
198400.000			-9.117			-3.039
198501.000			-9.117			-3.039
198600.000			-9.117			-3.039
198700.000			-9.116			-3.039
198802.000			-9.117			-3.039
198901.000			-9.116			-3.039
199001.000			-9.116			-3.039
199101.000			-9.116			-3.039
199200.000			-9.116			-3.039
199300.000			-9.116			-3.039
199400.000			-9.115			-3.038
199500.000			-9.115			-3.038
199601.000			-9.115			-3.038
199700.000			-9.115			-3.038
199801.000			-9.115			-3.038
199902.000			-9.114			-3.038
200001.000			-9.114			-3.038
200100.000			-9.115			-3.038
200201.000			-9.114			-3.038
200300.000			-9.113			-3.038
200400.000			-9.114			-3.038
200501.000			-9.114			-3.038
200600.000			-9.114			-3.038
200701.000			-9.114			-3.038
200802.000			-9.114			-3.038
200900.000			-9.114			-3.038
201000.000			-9.114			-3.038
201101.000			-9.114			-3.038
201200.000			-9.114			-3.038
201300.000			-9.114			-3.038
201401.000			-9.114			-3.038
201500.000			-9.113			-3.038
201601.000			-9.113			-3.038
201702.000			-9.112			-3.037
201800.000			-9.113			-3.038
201900.000			-9.114			-3.038
202001.000			-9.114			-3.038
202100.000			-9.114			-3.038
202200.000			-9.113			-3.038
202301.000			-9.113			-3.038
202401.000			-9.112			-3.037
202502.000			-9.113			-3.038
202601.000			-9.113			-3.038
202700.000			-9.114			-3.038
202801.000			-9.114			-3.038
202900.000			-9.114			-3.038
203000.000			-9.113			-3.038
203101.000			-9.113			-3.038
203200.000			-9.113			-3.038
203301.000			-9.113			-3.038
203402.000			-9.113			-3.038
203501.000			-9.112			-3.037
203600.000			-9.113			-3.038
203701.000			-9.112			-3.037
203800.000			-9.112			-3.037
203900.000			-9.112			-3.037
204001.000			-9.112			-3.037
204100.000			-9.112			-3.037
204201.000			-9.112			-3.037
204302.000			-9.111			-3.037
204401.000			-9.111			-3.037
204500.000			-9.111			-3.037
204601.000			-9.111			-3.037
204700.000			-9.111			-3.037
204800.000			-9.111			-3.037
204901.000			-9.112			-3.037
205000.000			-9.112			-3.037
205101.000			-9.111			-3.037
205202.000			-9.111			-3.037
205300.000			-9.111			-3.037
205400.000			-9.110			-3.037
205501.000			-9.110			-3.037
205600.000			-9.110			-3.037
205700.000			-9.110			-3.037
205800.000			-9.110			-3.037
205900.000			-9.111			-3.037
206002.000			-9.110			-3.037
206101.000			-9.110			-3.037
206200.000			-9.110			-3.037
206301.000			-9.110			-3.037
206400.000			-9.110			-3.037
206500.000			-9.110			-3.037
206601.000			-9.110			-3.037
206700.000			-9.110			-3.037
206801.000			-9.109			-3.036
206902.000			-9.110			-3.037
207001.000			-9.110			-3.037
207100.000			-9.111			-3.037
207201.000			-9.110			-3.037
207300.000			-9.110			-3.037
207400.000			-9.109			-3.036
207501.000			-9.109			-3.036
207600.000			-9.109			-3.036
207700.000			-9.109			-3.036
207802.000			-9.109			-3.036
207901.000			-9.109			-3.036
208000.000			-9.109			-3.036
208101.000			-9.109			-3.036
208200.000			-9.108			-3.036
208300.000			-9.108			-3.036
208401.000			-9.107			-3.036
208500.000			-9.108			-3.036
208600.000			-9.108			-3.036
208702.000			-9.108			-3.036
208801.000			-9.109			-3.036
208900.000			-9.109			-3.036
209000.000			-9.109			-3.036
209100.000			-9.108			-3.036
209201.000			-9.107			-3.036
209300.000			-9.108			-3.036
209400.000			-9.107			-3.036
209501.000			-9.108			-3.036
209601.000			-9.108			-3.036
209701.000			-9.107			-3.036
209801.000			-9.108			-3.036
209900.000			-9.108			-3.036
210000.000			-9.107			-3.036
210101.000			-9.106			-3.035
210200.000			-9.107			-3.036
210300.000			-9.107			-3.036
210402.000			-9.107			-3.036
210501.000			-9.106			-3.035
210601.000			-9.106			-3.035
210701.000			-9.107			-3.036
210800.000			-9.107			-3.036
210900.000			-9.107			-3.036
211001.000			-9.106			-3.035
211100.000			-9.107			-3.036
211200.000			-9.107			-3.036
211302.000			-9.107			-3.036
211401.000			-9.106			-3.035
211501.000			-9.105			-3.035
211601.000			-9.104			-3.035
211700.000			-9.105			-3.035
211800.000			-9.107			-3.036
211901.000			-9.107			-3.036
212000.000			-9.106			-3.035
212100.000			-9.105			-3.035
212202.000			-9.105			-3.035
212301.000			-9.105			-3.035
212402.000			-9.105			-3.035
212500.000			-9.105			-3.035
212600.000			-9.105			-3.035
212701.000			-9.106			-3.035
212800.000			-9.105			-3.035
212900.000			-9.104			-3.035
213001.000			-9.104			-3.035
213101.000			-9.105			-3.035
213201.000			-9.105			-3.035
213301.000			-9.103			-3.034
213400.000			-9.104			-3.035
213500.000			-9.103			-3.034
213601.000			-9.104			-3.035
213700.000			-9.105			-3.035
213800.000			-9.105			-3.035
213901.000			-9.104			-3.035
214001.000			-9.104			-3.035
214101.000			-9.104			-3.035
214201.000			-9.103			-3.034
214300.000			-9.103			-3.034
214400.000			-9.104			-3.035
214501.000			-9.104			-3.035
214600.000			-9.103			-3.034
214700.000			-9.104			-3.035
214802.000			-9.103			-3.034
214901.000			-9.104			-3.035
215001.000			-9.102			-3.034
215101.000			-9.103			-3.034
215200.000			-9.103			-3.034
215300.000			-9.103			-3.034
215400.000			-9.103			-3.034
215500.000			-9.103			-3.034
215601.000			-9.103			-3.034
215701.000			-9.103			-3.034
215801.000			-9.102			-3.034
215902.000			-9.102			-3.034
216000.000			-9.102			-3.034
216100.000			-9.102			-3.034
216201.000			-9.102			-3.034
216300.000			-9.102			-3.034
216400.000			-9.102			-3.034
216501.000			-9.102			-3.034
216601.000			-9.102			-3.034
216701.000			-9.102			-3.034
216801.000			-9.102			-3.034
216900.000			-9.102			-3.034
217000.000			-9.102			-3.034
217101.000			-9.101			-3.034
217200.000			-9.101			-3.034
217300.000			-9.101			-3.034
217401.000			-9.102			-3.034
217501.000			-9.101			-3.034
217601.000			-9.101			-3.034
217701.000			-9.099			-3.033
217800.000			-9.101			-3.034
217900.000			-9.102			-3.034
218001.000			-9.101			-3.034
218100.000			-9.101			-3.034
218200.000			-9.101			-3.034
218301.000			-9.101			-3.034
218401.000			-9.100			-3.033
218502.000			-9.099			-3.033
218601.000			-9.099			-3.033
218700.000			-9.099			-3.033
218801.000			-9.100			-3.033
218900.000			-9.100			-3.033
219000.000			-9.100			-3.033
219101.000			-9.100			-3.033
219200.000			-9.100			-3.033
219301.000			-9.100			-3.033
219402.000			-9.099			-3.033
219501.000			-9.099			-3.033
219600.000			-9.099			-3.033
219701.000			-9.099			-3.033
219800.000			-9.100			-3.033
219900.000			-9.099			-3.033
220001.000			-9.098			-3.033
220100.000			-9.099			-3.033
220200.000			-9.098			-3.033
220302.000			-9.098			-3.033
220401.000			-9.098			-3.033
220500.000			-9.098			-3.033
220601.000			-9.098			-3.033
220700.000			-9.099			-3.033
220800.000			-9.099			-3.033
220901.000			-9.099			-3.033
221000.000			-9.098			-3.033
221100.000			-9.098			-3.033
221202.000			-9.099			-3.033
221301.000			-9.100			-3.033
221401.000			-9.099			-3.033
221501.000			-9.099			-3.033
221600.000			-9.098			-3.033
221700.000			-9.099			-3.033
221800.000			-9.098			-3.033
221900.000			-9.097			-3.032
222001.000			-9.097			-3.032
222100.000			-9.098			-3.033
222201.000			-9.098			-3.033
222302.000			-9.098			-3.033
222400.000			-9.098			-3.033
222500.000			-9.098			-3.033
222601.000			-9.096			-3.032
222700.000			-9.097			-3.032
222800.000			-9.097			-3.032
222901.000			-9.098			-3.033
223000.000			-9.098			-3.033
223101.000			-9.097			-3.032
223202.000			-9.097			-3.032
223301.000			-9.096			-3.032
223400.000			-9.096			-3.032
223501.000			-9.096			-3.032
223600.000			-9.096			-3.032
223700.000			-9.097			-3.032
223801.000			-9.097			-3.032
223900.000			-9.097			-3.032
224000.000			-9.096			-3.032
224102.000			-9.096			-3.032
224201.000			-9.096			-3.032
224300.000			-9.095			-3.032
224401.000			-9.095			-3.032
224500.000			-9.096			-3.032
224600.000			-9.096			-3.032
224701.000			-9.096			-3.032
224800.000			-9.095			-3.032
224900.000			-9.095			-3.032
225002.000			-9.094			-3.031
225101.000			-9.095			-3.032
225201.000			-9.095			-3.032
225300.000			-9.095			-3.032
225400.000			-9.095			-3.032
225501.000			-9.095			-3.032
225600.000			-9.096			-3.032
225700.000			-9.096			-3.032
225801.000			-9.096			-3.032
225901.000			-9.096			-3.032
226001.000			-9.096			-3.032
226102.000			-9.095			-3.032
226200.000			-9.095			-3.032
226300.000			-9.095			-3.032
226401.000			-9.093			-3.031
226500.000			-9.094			-3.031
226600.000			-9.095			-3.032
226701.000			-9.094			-3.031
226800.000			-9.095			-3.032
226901.000			-9.094			-3.031
227002.000			-9.094			-3.031
227100.000			-9.093			-3.031
227200.000			-9.094			-3.031
227301.000			-9.094			-3.031
227400.000			-9.092			-3.031
227500.000			-9.093			-3.031
227601.000			-9.092			-3.031
227700.000			-9.092			-3.031
227801.000			-9.093			-3.031
227902.000			-9.093			-3.031
228001.000			-9.093			-3.031
228100.000			-9.093			-3.031
228200.000			-9.093			-3.031
228300.000			-9.092			-3.031
228401.000			-9.093			-3.031
228500.000			-9.092			-3.031
228600.000			-9.091			-3.030
228701.000			-9.092			-3.031
228801.000			-9.092			-3.031
228901.000			-9.091			-3.030
229001.000			-9.092			-3.031
229100.000			-9.092			-3.031
229200.000			-9.091			-3.030
229301.000			-9.091			-3.030
229400.000			-9.091			-3.030
229500.000			-9.092			-3.031
229601.000			-9.092			-3.031
229701.000			-9.092			-3.031
229801.000			-9.091			-3.030
229901.000			-9.091			-3.030
230000.000			-9.092			-3.031
230100.000			-9.092			-3.031
230201.000			-9.091			-3.030
230300.000			-9.091			-3.030
230400.000			-9.092			-3.031
230501.000			-9.091			-3.030
230601.000			-9.091			-3.030
230701.000			-9.091			-3.030
230801.000			-9.091			-3.030
230900.000			-9.090			-3.030
231000.000			-9.091			-3.030
231101.000			-9.091			-3.030
231200.000			-9.091			-3.030
231300.000			-9.090			-3.030
231400.000			-9.090			-3.030
231501.000			-9.089			-3.030
231602.000			-9.090			-3.030
231700.000			-9.091			-3.030
231800.000			-9.091			-3.030
231901.000			-9.090			-3.030
232000.000			-9.091			-3.030
232100.000			-9.091			-3.030
232201.000			-9.090			-3.030
232300.000			-9.089			-3.030
232401.000			-9.090			-3.030
232502.000			-9.091			-3.030
232600.000			-9.090			-3.030
232700.000			-9.091			-3.030
232801.000			-9.090			-3.030
232900.000			-9.090			-3.030
233000.000			-9.089			-3.030
233101.000			-9.089			-3.030
233200.000			-9.090			-3.030
233301.000			-9.090			-3.030
233402.000			-9.090			-3.030
233501.000			-9.089			-3.030
233600.000			-9.088			-3.029
233701.000			-9.088			-3.029
233800.000			-9.089			-3.030
233900.000			-9.089			-3.030
234001.000			-9.088			-3.029
234100.000			-9.088			-3.029
234201.000			-9.088			-3.029
234302.000			-9.088			-3.029
234401.000			-9.089			-3.030
234500.000			-9.089			-3.030
234600.000			-9.088			-3.029
234700.000			-9.087			-3.029
234801.000			-9.088			-3.029
234900.000			-9.088			-3.029
235000.000			-9.088			-3.029
235101.000			-9.088			-3.029
235201.000			-9.089			-3.030
235301.000			-9.088			-3.029
235401.000			-9.088			-3.029
235500.000			-9.088			-3.029
235600.000			-9.087			-3.029
235701.000			-9.086			-3.029
235800.000			-9.086			-3.029
235900.000			-9.086			-3.029
236001.000			-9.087			-3.029
236101.000			-9.087			-3.029
236201.000			-9.087			-3.029
236301.000			-9.086			-3.029
236400.000			-9.087			-3.029
236500.000			-9.087			-3.029
236601.000			-9.088			-3.029
236700.000			-9.088			-3.029
236800.000			-9.087			-3.029
236901.000			-9.087			-3.029
237001.000			-9.087			-3.029
237101.000			-9.086			-3.029
237202.000			-9.086			-3.029
237300.000			-9.086			-3.029
237400.000			-9.086			-3.029
237501.000			-9.086			-3.029
237600.000			-9.086			-3.029
237700.000			-9.085			-3.028
237800.000			-9.085			-3.028
237900.000			-9.086			-3.029
238002.000			-9.085			-3.028
238101.000			-9.085			-3.028
238200.000			-9.084			-3.028
238301.000			-9.085			-3.028
238400.000			-9.084			-3.028
238500.000			-9.085			-3.028
238601.000			-9.085			-3.028
238700.000			-9.084			-3.028
238800.000			-9.085			-3.028
238902.000			-9.084			-3.028
239001.000			-9.083			-3.028
239101.000			-9.083			-3.028
239201.000			-9.084			-3.028
239300.000			-9.084			-3.028
239400.000			-9.083			-3.028
239501.000			-9.083			-3.028
239600.000			-9.084			-3.028
239700.000			-9.083			-3.028
239801.000			-9.082			-3.027
239901.000			-9.083			-3.028
240001.000			-9.082			-3.027
240101.000			-9.082			-3.027
240200.000			-9.083			-3.028
240300.000			-9.083			-3.028
240401.000			-9.082			-3.027
240500.000			-9.083			-3.028
240600.000			-9.083			-3.028
240701.000			-9.082			-3.027
240801.000			-9.082			-3.027
240902.000			-9.083			-3.028
241000.000			-9.082			-3.027
241100.000			-9.081			-3.027
241201.000			-9.082			-3.027
241300.000			-9.083			-3.028
241400.000			-9.082			-3.027
241501.000			-9.081			-3.027
241601.000			-9.082			-3.027
241701.000			-9.082			-3.027
241802.000			-9.081			-3.027
241900.000			-9.082			-3.027
242000.000			-9.082			-3.027
242101.000			-9.080			-3.027
242200.000			-9.081			-3.027
242300.000			-9.082			-3.027
242401.000			-9.082			-3.027
242501.000			-9.081			-3.027
242601.000			-9.080			-3.027
242702.000			-9.081			-3.027
242800.000			-9.080			-3.027
242900.000			-9.081			-3.027
243001.000			-9.080			-3.027
243100.000			-9.080			-3.027
243200.000			-9.080			-3.027
243301.000			-9.080			-3.027
243401.000			-9.080			-3.027
243501.000			-9.080			-3.027
243602.000			-9.080			-3.027
243700.000			-9.080			-3.027
243800.000			-9.080			-3.027
243901.000			-9.081			-3.027
244000.000			-9.081			-3.027
244100.000			-9.080			-3.027
244200.000			-9.080			-3.027
244300.000			-9.079			-3.026
244402.000			-9.080			-3.027
244501.000			-9.080			-3.027
244600.000			-9.080			-3.027
244701.000			-9.079			-3.026
244800.000			-9.078			-3.026
244900.000			-9.079			-3.026
245001.000			-9.079			-3.026
245100.000			-9.078			-3.026
245200.000			-9.080			-3.027
245302.000			-9.079			-3.026
245401.000			-9.079			-3.026
245501.000			-9.078			-3.026
245601.000			-9.079			-3.026
245700.000			-9.079			-3.026
245800.000			-9.079			-3.026
245901.000			-9.079			-3.026
246000.000			-9.079			-3.026
246100.000			-9.078			-3.026
246201.000			-9.077			-3.026
246301.000			-9.077			-3.026
246401.000			-9.077			-3.026
246501.000			-9.078			-3.026
246600.000			-9.078			-3.026
246700.000			-9.078			-3.026
246801.000			-9.078			-3.026
246900.000			-9.078			-3.026
247000.000			-9.078			-3.026
247101.000			-9.078			-3.026
247201.000			-9.078			-3.026
247302.000			-9.078			-3.026
247401.000			-9.078			-3.026
247500.000			-9.077			-3.026
247601.000			-9.078			-3.026
247700.000			-9.077			-3.026
247800.000			-9.078			-3.026
247901.000			-9.078			-3.026
248000.000			-9.078			-3.026
248100.000			-9.077			-3.026
248202.000			-9.077			-3.026
248301.000			-9.076			-3.025
248400.000			-9.077			-3.026
248501.000			-9.078			-3.026
248600.000			-9.077			-3.026
248700.000			-9.077			-3.026
248801.000			-9.077			-3.026
248900.000			-9.077			-3.026
249000.000			-9.077			-3.026
249102.000			-9.077			-3.026
249201.000			-9.076			-3.025
249301.000			-9.075			-3.025
249401.000			-9.076			-3.025
249500.000			-9.076			-3.025
249600.000			-9.076			-3.025
249701.000			-9.075			-3.025
249800.000			-9.077			-3.026
249900.000			-9.077			-3.026
250001.000			-9.076			-3.025
250101.000			-9.076			-3.025
250201.000			-9.077			-3.026
250301.000			-9.077			-3.026
250400.000			-9.077			-3.026
250500.000			-9.076			-3.025
250600.000			-9.076			-3.025
250700.000			-9.076			-3.025
250801.000			-9.076			-3.025
250900.000			-9.076			-3.025
251001.000			-9.075			-3.025
251102.000			-9.075			-3.025
251201.000			-9.076			-3.025
251300.000			-9.075			-3.025
251401.000			-9.076			-3.025
251500.000			-9.076			-3.025
251600.000			-9.075			-3.025
251701.000			-9.075			-3.025
251800.000			-9.076			-3.025
251900.000			-9.076			-3.025
252002.000			-9.077			-3.026
252101.000			-9.076			-3.025
252200.000			-9.075			-3.025
252301.000			-9.074			-3.025
252400.000			-9.075			-3.025
252500.000			-9.075			-3.025
252601.000			-9.075			-3.025
252700.000			-9.075			-3.025
252800.000			-9.074			-3.025
252902.000			-9.074			-3.025
253001.000			-9.074			-3.025
253100.000			-9.075			-3.025
253201.000			-9.076			-3.025
253300.000			-9.074			-3.025
253400.000			-9.074			-3.025
253501.000			-9.074			-3.025
253600.000			-9.074			-3.025
253700.000			-9.073			-3.024
253802.000			-9.073			-3.024
253901.000			-9.073			-3.024
254001.000			-9.073			-3.024
254100.000			-9.075			-3.025
254200.000			-9.075			-3.025
254301.000			-9.074			-3.025
254400.000			-9.074			-3.025
254500.000			-9.074			-3.025
254601.000			-9.074			-3.025
254701.000			-9.074			-3.025
254801.000			-9.074			-3.025
254902.000			-9.073			-3.024
255000.000			-9.073			-3.024
255100.000			-9.073			-3.024
255201.000			-9.074			-3.025
255300.000			-9.074			-3.025
255400.000			-9.074			-3.025
255501.000			-9.072			-3.024
255600.000			-9.072			-3.024
255701.000			-9.073			-3.024
255802.000			-9.073			-3.024
255901.000			-9.072			-3.024
256000.000			-9.072			-3.024
256101.000			-9.072			-3.024
256200.000			-9.072			-3.024
256300.000			-9.073			-3.024
256401.000			-9.073			-3.024
256500.000			-9.073			-3.024
256601.000			-9.074			-3.025
256702.000			-9.073			-3.024
256801.000			-9.073			-3.024
256900.000			-9.072			-3.024
257000.000			-9.072			-3.024
257100.000			-9.071			-3.024
257201.000			-9.072			-3.024
257300.000			-9.073			-3.024
257400.000			-9.073			-3.024
257501.000			-9.073			-3.024
257601.000			-9.072			-3.024
257701.000			-9.072			-3.024
257801.000			-9.072			-3.024
257900.000			-9.071			-3.024
258000.000			-9.072			-3.024
258101.000			-9.072			-3.024
258200.000			-9.072			-3.024
258300.000			-9.073			-3.024
258401.000			-9.072			-3.024
258501.000			-9.071			-3.024
258601.000			-9.071			-3.024
258701.000			-9.072			-3.024
258800.000			-9.072			-3.024
258900.000			-9.072			-3.024
259001.000			-9.072			-3.024
259100.000			-9.071			-3.024
259200.000			-9.071			-3.024
259301.000			-9.072			-3.024
259401.000			-9.072			-3.024
259501.000			-9.071			-3.024
259601.000			-9.072			-3.024
259700.000			-9.071			-3.024
259800.000			-9.072			-3.024
259901.000			-9.069			-3.023
260000.000			-9.071			-3.024
260100.000			-9.071			-3.024
260200.000			-9.070			-3.023
260301.000			-9.070			-3.023
260402.000			-9.070			-3.023
260501.000			-9.071			-3.024
260600.000			-9.070			-3.023
260701.000			-9.070			-3.023
260800.000			-9.069			-3.023
260900.000			-9.070			-3.023
261001.000			-9.070			-3.023
261100.000			-9.070			-3.023
261200.000			-9.070			-3.023
261302.000			-9.070			-3.023
261401.000			-9.071			-3.024
261500.000			-9.071			-3.024
261601.000			-9.069			-3.023
261700.000			-9.070			-3.023
261800.000			-9.070			-3.023
261901.000			-9.070			-3.023
262000.000			-9.070			-3.023
262100.000			-9.070			-3.023
262202.000			-9.069			-3.023
262301.000			-9.069			-3.023
262400.000			-9.070			-3.023
262501.000			-9.069			-3.023
262600.000			-9.070			-3.023
262700.000			-9.070			-3.023
262801.000			-9.069			-3.023
262900.000			-9.069			-3.023
263000.000			-9.069			-3.023
263102.000			-9.070			-3.023
263201.000			-9.070			-3.023
263302.000			-9.070			-3.023
263400.000			-9.069			-3.023
263500.000			-9.069			-3.023
263601.000			-9.068			-3.023
263700.000			-9.069			-3.023
263800.000			-9.069			-3.023
263901.000			-9.069			-3.023
264000.000			-9.069			-3.023
264101.000			-9.069			-3.023
264202.000			-9.069			-3.023
264300.000			-9.069			-3.023
264400.000			-9.068			-3.023
264501.000			-9.068			-3.023
264600.000			-9.068			-3.023
264700.000			-9.067			-3.022
264801.000			-9.068			-3.023
264900.000			-9.068			-3.023
265001.000			-9.069			-3.023
265102.000			-9.068			-3.023
265201.000			-9.069			-3.023
265300.000			-9.069			-3.023
265401.000			-9.069			-3.023
265500.000			-9.068			-3.023
265600.000			-9.068			-3.023
265701.000			-9.068			-3.023
265800.000			-9.068			-3.023
265900.000			-9.068			-3.023
266002.000			-9.068			-3.023
266101.000			-9.068			-3.023
266200.000			-9.068			-3.023
266301.000			-9.068			-3.023
266400.000			-9.067			-3.022
266500.000			-9.068			-3.023
266600.000			-9.067			-3.022
266700.000			-9.067			-3.022
266801.000			-9.067			-3.022
266901.000			-9.067			-3.022
267001.000			-9.066			-3.022
267102.000			-9.066			-3.022
267200.000			-9.066			-3.022
267300.000			-9.067			-3.022
267401.000			-9.066			-3.022
267500.000			-9.067			-3.022
267600.000			-9.067			-3.022
267701.000			-9.066			-3.022
267800.000			-9.066			-3.022
267901.000			-9.066			-3.022
268002.000			-9.066			-3.022
268100.000			-9.066			-3.022
268200.000			-9.066			-3.022
268301.000			-9.066			-3.022
268400.000			-9.067			-3.022
268500.000			-9.066			-3.022
268601.000			-9.066			-3.022
268700.000			-9.066			-3.022
268800.000			-9.065			-3.022
268902.000			-9.066			-3.022
269001.000			-9.065			-3.022
269100.000			-9.065			-3.022
269201.000			-9.064			-3.021
269300.000			-9.064			-3.021
269400.000			-9.064			-3.021
269501.000			-9.064			-3.021
269600.000			-9.065			-3.022
269700.000			-9.065			-3.022
269802.000			-9.065			-3.022
269901.000			-9.065			-3.022
270001.000			-9.064			-3.021
270100.000			-9.064			-3.021
270200.000			-9.064			-3.021
270301.000			-9.065			-3.022
270400.000			-9.064			-3.021
270500.000			-9.064			-3.021
270601.000			-9.064			-3.021
270701.000			-9.063			-3.021
270801.000			-9.064			-3.021
270902.000			-9.065			-3.022
271000.000			-9.065			-3.022
271100.000			-9.065			-3.022
271201.000			-9.064			-3.021
271300.000			-9.064			-3.021
271400.000			-9.063			-3.021
271501.000			-9.064			-3.021
271601.000			-9.065			-3.022
271701.000			-9.064			-3.021
271801.000			-9.064			-3.021
271900.000			-9.064			-3.021
272000.000			-9.064			-3.021
272101.000			-9.064			-3.021
272200.000			-9.063			-3.021
272300.000			-9.063			-3.021
272401.000			-9.063			-3.021
272501.000			-9.063			-3.021
272601.000			-9.062			-3.021
272701.000			-9.063			-3.021
272800.000			-9.062			-3.021
272900.000			-9.062			-3.021
273000.000			-9.062			-3.021
273100.000			-9.062			-3.021
273201.000			-9.063			-3.021
273300.000			-9.062			-3.021
273401.000			-9.062			-3.021
273502.000			-9.063			-3.021
273601.000			-9.062			-3.021
273700.000			-9.061			-3.020
273801.000			-9.062			-3.021
273900.000			-9.061			-3.020
274000.000			-9.061			-3.020
274101.000			-9.062			-3.021
274200.000			-9.062			-3.021
274301.000			-9.062			-3.021
274402.000			-9.062			-3.021
274501.000			-9.062			-3.021
274600.000			-9.062			-3.021
274701.000			-9.061			-3.020
274800.000			-9.061			-3.020
274900.000			-9.061			-3.020
275001.000			-9.061			-3.020
275100.000			-9.061			-3.020
275201.000			-9.062			-3.021
275302.000			-9.061			-3.020
275401.000			-9.061			-3.020
275500.000			-9.061			-3.020
275601.000			-9.062			-3.021
275700.000			-9.062			-3.021
275800.000			-9.061			-3.020
275901.000			-9.061			-3.020
276000.000			-9.061			-3.020
276102.000			-9.062			-3.021
276201.000			-9.062			-3.021
276301.000			-9.061			-3.020
276401.000			-9.061			-3.020
276500.000			-9.061			-3.020
276600.000			-9.061			-3.020
276701.000			-9.060			-3.020
276800.000			-9.061			-3.020
276900.000			-9.061			-3.020
277001.000			-9.060			-3.020
277101.000			-9.060			-3.020
277201.000			-9.059			-3.020
277301.000			-9.060			-3.020
277400.000			-9.060			-3.020
277500.000			-9.061			-3.020
277601.000			-9.061			-3.020
277700.000			-9.060			-3.020
277800.000			-9.059			-3.020
277901.000			-9.060			-3.020
278001.000			-9.061			-3.020
278101.000			-9.061			-3.020
278202.000			-9.060			-3.020
278300.000			-9.061			-3.020
278400.000			-9.060			-3.020
278501.000			-9.060			-3.020
278600.000			-9.059			-3.020
278700.000			-9.059			-3.020
278801.000			-9.060			-3.020
278900.000			-9.059			-3.020
279001.000			-9.058			-3.019
279102.000			-9.058			-3.019
279201.000			-9.060			-3.020
279300.000			-9.061			-3.020
279400.000			-9.061			-3.020
279500.000			-9.060			-3.020
279601.000			-9.059			-3.020
279700.000			-9.060			-3.020
279800.000			-9.060			-3.020
279901.000			-9.059			-3.020
280001.000			-9.060			-3.020
280101.000			-9.059			-3.020
280201.000			-9.058			-3.019
280300.000			-9.059			-3.020
280400.000			-9.059			-3.020
280501.000			-9.060			-3.020
280600.000			-9.059			-3.020
280700.000			-9.058			-3.019
280801.000			-9.058			-3.019
280901.000			-9.059			-3.020
281001.000			-9.059			-3.020
281101.000			-9.060			-3.020
281200.000			-9.058			-3.019
281300.000			-9.058			-3.019
281401.000			-9.058			-3.019
281500.000			-9.058			-3.019
281600.000			-9.058			-3.019
281701.000			-9.058			-3.019
281801.000			-9.058			-3.019
281901.000			-9.058			-3.019
282002.000			-9.058			-3.019
282100.000			-9.058			-3.019
282200.000			-9.059			-3.020
282301.000			-9.058			-3.019
282400.000			-9.058			-3.019
282500.000			-9.058			-3.019
282600.000			-9.057			-3.019
282700.000			-9.058			-3.019
282802.000			-9.057			-3.019
282901.000			-9.058			-3.019
283000.000			-9.058			-3.019
283101.000			-9.058			-3.019
283200.000			-9.058			-3.019
283300.000			-9.056			-3.019
283401.000			-9.057			-3.019
283500.000			-9.057			-3.019
283600.000			-9.057			-3.019
283702.000			-9.057			-3.019
283801.000			-9.057			-3.019
283900.000			-9.056			-3.019
284001.000			-9.057			-3.019
284100.000			-9.056			-3.019
284200.000			-9.057			-3.019
284301.000			-9.057			-3.019
284400.000			-9.057			-3.019
284500.000			-9.057			-3.019
284602.000			-9.056			-3.019
284701.000			-9.057			-3.019
284801.000			-9.057			-3.019
284901.000			-9.056			-3.019
285000.000			-9.056			-3.019
285100.000			-9.057			-3.019
285201.000			-9.057			-3.019
285300.000			-9.056			-3.019
285400.000			-9.056			-3.019
285501.000			-9.056			-3.019
285601.000			-9.057			-3.019
285702.000			-9.055			-3.018
285800.000			-9.055			-3.018
285900.000			-9.056			-3.019
286001.000			-9.056			-3.019
286100.000			-9.056			-3.019
286200.000			-9.055			-3.018
286301.000			-9.055			-3.018
286400.000			-9.056			-3.019
286501.000			-9.057			-3.019
286602.000			-9.056			-3.019
286701.000			-9.056			-3.019
286800.000			-9.055			-3.018
286901.000			-9.055			-3.018
287000.000			-9.056			-3.019
287100.000			-9.056			-3.019
287201.000			-9.055			-3.018
287300.000			-9.055			-3.018
287400.000			-9.056			-3.019
287502.000			-9.055			-3.018
287601.000			-9.055			-3.018
287700.000			-9.055			-3.018
287801.000			-9.054			-3.018
287900.000			-9.055			-3.018
288000.000			-9.056			-3.019
288101.000			-9.055			-3.018
288200.000			-9.055			-3.018
288300.000			-9.055			-3.018
288402.000			-9.055			-3.018
288501.000			-9.056			-3.019
288601.000			-9.055			-3.018
288701.000			-9.055			-3.018
288800.000			-9.054			-3.018
288900.000			-9.053			-3.018
289000.000			-9.054			-3.018
289100.000			-9.054			-3.018
289201.000			-9.054			-3.018
289300.000			-9.054			-3.018
289401.000			-9.054			-3.018
289502.000			-9.054			-3.018
289601.000			-9.054			-3.018
289700.000			-9.054			-3.018
289801.000			-9.054			-3.018
289900.000			-9.054			-3.018
290000.000			-9.054			-3.018
290101.000			-9.053			-3.018
290200.000			-9.054			-3.018
290301.000			-9.054			-3.018
290402.000			-9.054			-3.018
290500.000			-9.054			-3.018
290600.000			-9.053			-3.018
290701.000			-9.054			-3.018
290800.000			-9.053			-3.018
290900.000			-9.053			-3.018
291001.000			-9.054			-3.018
291100.000			-9.052			-3.017
291201.000			-9.052			-3.017
291302.000			-9.053			-3.018
291401.000			-9.053			-3.018
291500.000			-9.053			-3.018
291601.000			-9.053			-3.018
291700.000			-9.054			-3.018
291800.000			-9.053			-3.018
291901.000			-9.052			-3.017
292000.000			-9.052			-3.017
292102.000			-9.052			-3.017
292201.000			-9.053			-3.018
292300.000			-9.053			-3.018
292401.000			-9.053			-3.018
292500.000			-9.053			-3.018
292600.000			-9.053			-3.018
292701.000			-9.052			-3.017
292800.000			-9.052			-3.017
292900.000			-9.052			-3.017
293002.000			-9.053			-3.018
293101.000			-9.053			-3.018
293201.000			-9.053			-3.018
293301.000			-9.052			-3.017
293400.000			-9.052			-3.017
293500.000			-9.053			-3.018
293601.000			-9.052			-3.017
293700.000			-9.052			-3.017
293800.000			-9.052			-3.017
293902.000			-9.052			-3.017
294001.000			-9.053			-3.018
294101.000			-9.052			-3.017
294201.000			-9.051			-3.017
294300.000			-9.051			-3.017
294400.000			-9.051			-3.017
294501.000			-9.052			-3.017
294600.000			-9.052			-3.017
294700.000			-9.052			-3.017
294802.000			-9.051			-3.017
294901.000			-9.051			-3.017
295001.000			-9.051			-3.017
295101.000			-9.052			-3.017
295200.000			-9.050			-3.017
295300.000			-9.051			-3.017
295400.000			-9.051			-3.017
295500.000			-9.051			-3.017
295601.000			-9.051			-3.017
295701.000			-9.051			-3.017
295801.000			-9.051			-3.017
295902.000			-9.050			-3.017
296000.000			-9.051			-3.017
296100.000			-9.051			-3.017
296201.000			-9.051			-3.017
296300.000			-9.051			-3.017
296400.000			-9.052			-3.017
296501.000			-9.051			-3.017
296600.000			-9.050			-3.017
296701.000			-9.050			-3.017
296802.000			-9.049			-3.016
296901.000			-9.049			-3.016
297000.000			-9.049			-3.016
297101.000			-9.049			-3.016
297200.000			-9.050			-3.017
297300.000			-9.050			-3.017
297401.000			-9.049			-3.016
297500.000			-9.049			-3.016
297601.000			-9.049			-3.016
297702.000			-9.049			-3.016
297801.000			-9.050			-3.017
297900.000			-9.049			-3.016
298001.000			-9.048			-3.016
298100.000			-9.048			-3.016
298200.000			-9.048			-3.016
298301.000			-9.048			-3.016
298400.000			-9.049			-3.016
298500.000			-9.049			-3.016
298602.000			-9.049			-3.016
298701.000			-9.048			-3.016
298802.000			17.241			5.747
298900.000			30.842			10.281
299000.000			-9.047			-3.016
299101.000			-9.048			-3.016
299200.000			-9.049			-3.016
299300.000			-9.049			-3.016
299401.000			-9.048			-3.016
299500.000			-9.047			-3.016
299601.000			-9.047			-3.016
299702.000			-9.047			-3.016
299801.000			-9.047			-3.016
299900.000			-9.047			-3.016
