# Acquired on 20/12/2023 17:28:22 
# SPIDER: Creep_7mm_07714532C-1
# CREEP MEASUREMENT

# time [ms]		force [N]		stiffness [N/mm]
1.000			-9.348			-1.335
102.000			-10.513			-1.502
200.000			-10.617			-1.517
300.000			-10.577			-1.511
401.000			-10.528			-1.504
500.000			-10.491			-1.499
600.000			-10.460			-1.494
702.000			-10.433			-1.490
801.000			-10.410			-1.487
900.000			-10.369			-1.481
1001.000			-10.352			-1.479
1100.000			-10.337			-1.477
1200.000			-10.323			-1.475
1301.000			-10.309			-1.473
1401.000			-10.296			-1.471
1501.000			-10.285			-1.469
1601.000			-10.260			-1.466
1700.000			-10.250			-1.464
1800.000			-10.240			-1.463
1901.000			-10.231			-1.462
2000.000			-10.221			-1.460
2100.000			-10.213			-1.459
2202.000			-10.205			-1.458
2301.000			-10.188			-1.455
2400.000			-10.181			-1.454
2501.000			-10.174			-1.453
2600.000			-10.167			-1.452
2700.000			-10.160			-1.451
2801.000			-10.153			-1.450
2901.000			-10.146			-1.449
3002.000			-10.136			-1.448
3100.000			-10.128			-1.447
3200.000			-10.122			-1.446
3301.000			-10.116			-1.445
3400.000			-10.112			-1.445
3500.000			-10.107			-1.444
3601.000			-10.101			-1.443
3701.000			-10.096			-1.442
3801.000			-10.087			-1.441
3901.000			-10.082			-1.440
4000.000			-10.077			-1.440
4100.000			-10.072			-1.439
4201.000			-10.068			-1.438
4300.000			-10.063			-1.438
4401.000			-10.059			-1.437
4502.000			-10.050			-1.436
4600.000			-10.047			-1.435
4700.000			-10.042			-1.435
4801.000			-10.038			-1.434
4900.000			-10.035			-1.434
5000.000			-10.031			-1.433
5102.000			-10.027			-1.432
5201.000			-10.023			-1.432
5300.000			-10.016			-1.431
5401.000			-10.013			-1.430
5500.000			-10.009			-1.430
5600.000			-10.006			-1.429
5701.000			-10.004			-1.429
5800.000			-10.001			-1.429
5901.000			-9.997			-1.428
6002.000			-9.990			-1.427
6100.000			-9.988			-1.427
6200.000			-9.986			-1.427
6300.000			-9.982			-1.426
6400.000			-9.979			-1.426
6501.000			-9.975			-1.425
6600.000			-9.972			-1.425
6701.000			-9.966			-1.424
6802.000			-9.964			-1.423
6900.000			-9.961			-1.423
7000.000			-9.958			-1.423
7101.000			-9.955			-1.422
7200.000			-9.952			-1.422
7300.000			-9.951			-1.422
7402.000			-9.945			-1.421
7501.000			-9.942			-1.420
7601.000			-9.940			-1.420
7701.000			-9.938			-1.420
7800.000			-9.936			-1.419
7900.000			-9.932			-1.419
8001.000			-9.929			-1.418
8100.000			-9.927			-1.418
8201.000			-9.922			-1.417
8302.000			-9.921			-1.417
8400.000			-9.918			-1.417
8500.000			-9.917			-1.417
8601.000			-9.915			-1.416
8700.000			-9.911			-1.416
8800.000			-9.910			-1.416
8901.000			-9.905			-1.415
9001.000			-9.903			-1.415
9101.000			-9.900			-1.414
9201.000			-9.898			-1.414
9300.000			-9.897			-1.414
9400.000			-9.895			-1.414
9500.000			-9.893			-1.413
9600.000			-9.890			-1.413
9701.000			-9.886			-1.412
9801.000			-9.884			-1.412
9901.000			-9.882			-1.412
10001.000			-9.881			-1.412
10100.000			-9.880			-1.411
10200.000			-9.878			-1.411
10301.000			-9.874			-1.411
10400.000			-9.872			-1.410
10500.000			-9.870			-1.410
10602.000			-9.867			-1.410
10701.000			-9.865			-1.409
10800.000			-9.864			-1.409
10901.000			-9.863			-1.409
11000.000			-9.861			-1.409
11100.000			-9.858			-1.408
11201.000			-9.855			-1.408
11300.000			-9.854			-1.408
11401.000			-9.852			-1.407
11502.000			-9.850			-1.407
11600.000			-9.848			-1.407
11700.000			-9.846			-1.407
11801.000			-9.845			-1.406
11900.000			-9.842			-1.406
12000.000			-9.841			-1.406
12101.000			-9.839			-1.406
12201.000			-9.836			-1.405
12301.000			-9.835			-1.405
12401.000			-9.834			-1.405
12500.000			-9.832			-1.405
12600.000			-9.829			-1.404
12700.000			-9.828			-1.404
12800.000			-9.826			-1.404
12901.000			-9.824			-1.403
13001.000			-9.823			-1.403
13101.000			-9.822			-1.403
13201.000			-9.820			-1.403
13300.000			-9.816			-1.402
13400.000			-9.815			-1.402
13501.000			-9.814			-1.402
13600.000			-9.813			-1.402
13700.000			-9.812			-1.402
13802.000			-9.810			-1.401
13901.000			-9.808			-1.401
14000.000			-9.806			-1.401
14101.000			-9.804			-1.401
14200.000			-9.802			-1.400
14300.000			-9.801			-1.400
14401.000			-9.800			-1.400
14500.000			-9.799			-1.400
14601.000			-9.799			-1.400
14702.000			-9.796			-1.399
14800.000			-9.794			-1.399
14900.000			-9.792			-1.399
15001.000			-9.790			-1.399
15100.000			-9.788			-1.398
15200.000			-9.787			-1.398
15301.000			-9.785			-1.398
15401.000			-9.785			-1.398
15501.000			-9.783			-1.398
15601.000			-9.780			-1.397
15700.000			-9.779			-1.397
15800.000			-9.779			-1.397
15900.000			-9.777			-1.397
16000.000			-9.775			-1.396
16101.000			-9.775			-1.396
16201.000			-9.774			-1.396
16301.000			-9.770			-1.396
16401.000			-9.769			-1.396
16500.000			-9.768			-1.395
16600.000			-9.767			-1.395
16701.000			-9.766			-1.395
16800.000			-9.766			-1.395
16900.000			-9.764			-1.395
17002.000			-9.762			-1.395
17101.000			-9.760			-1.394
17200.000			-9.758			-1.394
17301.000			-9.758			-1.394
17400.000			-9.758			-1.394
17500.000			-9.757			-1.394
17601.000			-9.755			-1.394
17700.000			-9.753			-1.393
17800.000			-9.751			-1.393
17902.000			-9.750			-1.393
18001.000			-9.750			-1.393
18100.000			-9.748			-1.393
18201.000			-9.746			-1.392
18300.000			-9.745			-1.392
18400.000			-9.745			-1.392
18501.000			-9.743			-1.392
18600.000			-9.743			-1.392
18701.000			-9.742			-1.392
18802.000			-9.741			-1.392
18900.000			-9.739			-1.391
19000.000			-9.737			-1.391
19100.000			-9.737			-1.391
19200.000			-9.735			-1.391
19301.000			-9.733			-1.390
19400.000			-9.732			-1.390
19501.000			-9.731			-1.390
19602.000			-9.731			-1.390
19700.000			-9.730			-1.390
19800.000			-9.729			-1.390
19901.000			-9.726			-1.389
20000.000			-9.725			-1.389
20100.000			-9.724			-1.389
20201.000			-9.723			-1.389
20301.000			-9.722			-1.389
20401.000			-9.722			-1.389
20501.000			-9.720			-1.389
20600.000			-9.719			-1.388
20700.000			-9.717			-1.388
20801.000			-9.716			-1.388
20900.000			-9.716			-1.388
21000.000			-9.714			-1.388
21102.000			-9.713			-1.388
21201.000			-9.712			-1.387
21300.000			-9.712			-1.387
21401.000			-9.710			-1.387
21500.000			-9.709			-1.387
21600.000			-9.708			-1.387
21701.000			-9.707			-1.387
21801.000			-9.705			-1.386
21901.000			-9.705			-1.386
22002.000			-9.704			-1.386
22100.000			-9.703			-1.386
22200.000			-9.702			-1.386
22300.000			-9.701			-1.386
22400.000			-9.699			-1.386
22501.000			-9.699			-1.386
22601.000			-9.699			-1.386
22701.000			-9.698			-1.385
22802.000			-9.697			-1.385
22900.000			-9.695			-1.385
23000.000			-9.693			-1.385
23101.000			-9.693			-1.385
23200.000			-9.692			-1.385
23300.000			-9.691			-1.384
23401.000			-9.690			-1.384
23501.000			-9.689			-1.384
23601.000			-9.687			-1.384
23701.000			-9.687			-1.384
23800.000			-9.686			-1.384
23900.000			-9.685			-1.384
24001.000			-9.684			-1.383
24100.000			-9.683			-1.383
24200.000			-9.683			-1.383
24302.000			-9.680			-1.383
24401.000			-9.679			-1.383
24500.000			-9.680			-1.383
24601.000			-9.678			-1.383
24700.000			-9.675			-1.382
24800.000			-9.676			-1.382
24901.000			-9.677			-1.382
25000.000			-9.676			-1.382
25101.000			-9.673			-1.382
25202.000			-9.672			-1.382
25300.000			-9.672			-1.382
25400.000			-9.672			-1.382
25500.000			-9.670			-1.381
25600.000			-9.670			-1.381
25701.000			-9.669			-1.381
25800.000			-9.667			-1.381
25901.000			-9.667			-1.381
26002.000			-9.666			-1.381
26100.000			-9.665			-1.381
26200.000			-9.665			-1.381
26301.000			-9.663			-1.380
26400.000			-9.661			-1.380
26500.000			-9.662			-1.380
26601.000			-9.662			-1.380
26701.000			-9.660			-1.380
26801.000			-9.660			-1.380
26902.000			-9.660			-1.380
27000.000			-9.658			-1.380
27100.000			-9.657			-1.380
27201.000			-9.656			-1.379
27300.000			-9.655			-1.379
27400.000			-9.654			-1.379
27501.000			-9.653			-1.379
27601.000			-9.652			-1.379
27701.000			-9.652			-1.379
27801.000			-9.651			-1.379
27900.000			-9.651			-1.379
28000.000			-9.649			-1.378
28101.000			-9.648			-1.378
28200.000			-9.647			-1.378
28300.000			-9.647			-1.378
28402.000			-9.646			-1.378
28501.000			-9.645			-1.378
28600.000			-9.645			-1.378
28700.000			-9.644			-1.378
28800.000			-9.642			-1.377
28901.000			-9.641			-1.377
29000.000			-9.641			-1.377
29100.000			-9.641			-1.377
29202.000			-9.640			-1.377
29301.000			-9.639			-1.377
29400.000			-9.639			-1.377
29501.000			-9.636			-1.377
29600.000			-9.635			-1.376
29700.000			-9.635			-1.376
29801.000			-9.635			-1.376
29900.000			-9.633			-1.376
30001.000			-9.633			-1.376
30102.000			-9.632			-1.376
30200.000			-9.632			-1.376
30300.000			-9.630			-1.376
30401.000			-9.629			-1.376
30500.000			-9.630			-1.376
30600.000			-9.629			-1.376
30701.000			-9.627			-1.375
30801.000			-9.627			-1.375
30901.000			-9.626			-1.375
31001.000			-9.625			-1.375
31100.000			-9.624			-1.375
31200.000			-9.624			-1.375
31301.000			-9.624			-1.375
31400.000			-9.624			-1.375
31500.000			-9.623			-1.375
31602.000			-9.623			-1.375
31701.000			-9.620			-1.374
31800.000			-9.620			-1.374
31900.000			-9.619			-1.374
32000.000			-9.619			-1.374
32101.000			-9.618			-1.374
32200.000			-9.617			-1.374
32301.000			-9.617			-1.374
32402.000			-9.615			-1.374
32501.000			-9.614			-1.373
32600.000			-9.614			-1.373
32701.000			-9.614			-1.373
32800.000			-9.613			-1.373
32900.000			-9.612			-1.373
33001.000			-9.611			-1.373
33101.000			-9.610			-1.373
33201.000			-9.610			-1.373
33301.000			-9.609			-1.373
33400.000			-9.608			-1.373
33500.000			-9.608			-1.373
33601.000			-9.607			-1.372
33700.000			-9.606			-1.372
33800.000			-9.606			-1.372
33902.000			-9.605			-1.372
34001.000			-9.604			-1.372
34100.000			-9.604			-1.372
34201.000			-9.603			-1.372
34300.000			-9.603			-1.372
34400.000			-9.601			-1.372
34501.000			-9.602			-1.372
34600.000			-9.600			-1.371
34701.000			-9.599			-1.371
34802.000			-9.599			-1.371
34900.000			-9.599			-1.371
35000.000			-9.599			-1.371
35100.000			-9.597			-1.371
35200.000			-9.596			-1.371
35301.000			-9.596			-1.371
35400.000			-9.595			-1.371
35500.000			-9.594			-1.371
35602.000			-9.593			-1.370
35701.000			-9.592			-1.370
35800.000			-9.592			-1.370
35901.000			-9.592			-1.370
36000.000			-9.591			-1.370
36100.000			-9.590			-1.370
36201.000			-9.590			-1.370
36300.000			-9.589			-1.370
36401.000			-9.588			-1.370
36502.000			-9.587			-1.370
36600.000			-9.587			-1.370
36700.000			-9.586			-1.369
36801.000			-9.586			-1.369
36900.000			-9.585			-1.369
37000.000			-9.585			-1.369
37101.000			-9.583			-1.369
37201.000			-9.582			-1.369
37301.000			-9.582			-1.369
37401.000			-9.581			-1.369
37500.000			-9.581			-1.369
37600.000			-9.581			-1.369
37701.000			-9.580			-1.369
37800.000			-9.579			-1.368
37900.000			-9.579			-1.368
38002.000			-9.578			-1.368
38101.000			-9.578			-1.368
38200.000			-9.578			-1.368
38300.000			-9.575			-1.368
38400.000			-9.575			-1.368
38501.000			-9.575			-1.368
38600.000			-9.574			-1.368
38700.000			-9.574			-1.368
38802.000			-9.574			-1.368
38901.000			-9.573			-1.368
39001.000			-9.571			-1.367
39101.000			-9.569			-1.367
39200.000			-9.570			-1.367
39300.000			-9.570			-1.367
39401.000			-9.569			-1.367
39500.000			-9.569			-1.367
39600.000			-9.569			-1.367
39702.000			-9.567			-1.367
39801.000			-9.567			-1.367
39900.000			-9.566			-1.367
40001.000			-9.565			-1.366
40100.000			-9.565			-1.366
40200.000			-9.565			-1.366
40301.000			-9.564			-1.366
40400.000			-9.564			-1.366
40501.000			-9.563			-1.366
40602.000			-9.562			-1.366
40700.000			-9.562			-1.366
40800.000			-9.561			-1.366
40901.000			-9.561			-1.366
41000.000			-9.561			-1.366
41100.000			-9.560			-1.366
41201.000			-9.560			-1.366
41301.000			-9.557			-1.365
41402.000			-9.557			-1.365
41500.000			-9.556			-1.365
41600.000			-9.556			-1.365
41701.000			-9.556			-1.365
41800.000			-9.556			-1.365
41900.000			-9.555			-1.365
42001.000			-9.555			-1.365
42101.000			-9.555			-1.365
42201.000			-9.554			-1.365
42301.000			-9.554			-1.365
42400.000			-9.553			-1.365
42500.000			-9.552			-1.365
42601.000			-9.551			-1.364
42700.000			-9.550			-1.364
42800.000			-9.550			-1.364
42902.000			-9.550			-1.364
43001.000			-9.549			-1.364
43100.000			-9.548			-1.364
43201.000			-9.548			-1.364
43300.000			-9.548			-1.364
43400.000			-9.548			-1.364
43501.000			-9.546			-1.364
43600.000			-9.545			-1.364
43701.000			-9.545			-1.364
43802.000			-9.545			-1.364
43900.000			-9.544			-1.363
44000.000			-9.544			-1.363
44101.000			-9.543			-1.363
44200.000			-9.543			-1.363
44300.000			-9.542			-1.363
44401.000			-9.541			-1.363
44501.000			-9.541			-1.363
44602.000			-9.540			-1.363
44700.000			-9.540			-1.363
44800.000			-9.539			-1.363
44901.000			-9.539			-1.363
45000.000			-9.538			-1.363
45100.000			-9.537			-1.362
45201.000			-9.537			-1.362
45301.000			-9.537			-1.362
45401.000			-9.537			-1.362
45501.000			-9.537			-1.362
45600.000			-9.536			-1.362
45700.000			-9.535			-1.362
45801.000			-9.535			-1.362
45900.000			-9.535			-1.362
46000.000			-9.534			-1.362
46102.000			-9.533			-1.362
46201.000			-9.532			-1.362
46300.000			-9.531			-1.362
46401.000			-9.531			-1.362
46500.000			-9.530			-1.361
46600.000			-9.530			-1.361
46701.000			-9.530			-1.361
46800.000			-9.529			-1.361
46901.000			-9.529			-1.361
47002.000			-9.529			-1.361
47100.000			-9.527			-1.361
47200.000			-9.527			-1.361
47301.000			-9.527			-1.361
47400.000			-9.527			-1.361
47500.000			-9.526			-1.361
47602.000			-9.524			-1.361
47701.000			-9.525			-1.361
47802.000			-9.525			-1.361
47900.000			-9.523			-1.360
48000.000			-9.523			-1.360
48101.000			-9.523			-1.360
48200.000			-9.522			-1.360
48300.000			-9.522			-1.360
48401.000			-9.521			-1.360
48501.000			-9.520			-1.360
48601.000			-9.520			-1.360
48701.000			-9.519			-1.360
48800.000			-9.519			-1.360
48900.000			-9.519			-1.360
49001.000			-9.519			-1.360
49100.000			-9.519			-1.360
49200.000			-9.518			-1.360
49302.000			-9.517			-1.360
49401.000			-9.516			-1.359
49500.000			-9.516			-1.359
49601.000			-9.516			-1.359
49700.000			-9.515			-1.359
49800.000			-9.515			-1.359
49901.000			-9.514			-1.359
50000.000			-9.514			-1.359
50101.000			-9.512			-1.359
50202.000			-9.512			-1.359
50300.000			-9.512			-1.359
50400.000			-9.513			-1.359
50501.000			-9.512			-1.359
50600.000			-9.511			-1.359
50700.000			-9.512			-1.359
50802.000			-9.510			-1.359
50901.000			-9.510			-1.359
51002.000			-9.509			-1.358
51100.000			-9.509			-1.358
51200.000			-9.508			-1.358
51301.000			-9.508			-1.358
51400.000			-9.508			-1.358
51500.000			-9.507			-1.358
51602.000			-9.507			-1.358
51701.000			-9.505			-1.358
51800.000			-9.505			-1.358
51901.000			-9.506			-1.358
52000.000			-9.505			-1.358
52100.000			-9.504			-1.358
52201.000			-9.504			-1.358
52300.000			-9.503			-1.358
52401.000			-9.502			-1.357
52502.000			-9.502			-1.357
52600.000			-9.502			-1.357
52700.000			-9.502			-1.357
52801.000			-9.501			-1.357
52900.000			-9.500			-1.357
53000.000			-9.500			-1.357
53101.000			-9.500			-1.357
53201.000			-9.499			-1.357
53301.000			-9.498			-1.357
53401.000			-9.498			-1.357
53500.000			-9.498			-1.357
53600.000			-9.498			-1.357
53701.000			-9.497			-1.357
53800.000			-9.496			-1.357
53900.000			-9.496			-1.357
54002.000			-9.496			-1.357
54101.000			-9.495			-1.356
54200.000			-9.495			-1.356
54300.000			-9.494			-1.356
54400.000			-9.494			-1.356
54501.000			-9.494			-1.356
54600.000			-9.494			-1.356
54700.000			-9.493			-1.356
54802.000			-9.492			-1.356
54901.000			-9.492			-1.356
55000.000			-9.492			-1.356
55101.000			-9.491			-1.356
55200.000			-9.491			-1.356
55300.000			-9.490			-1.356
55401.000			-9.490			-1.356
55500.000			-9.489			-1.356
55601.000			-9.489			-1.356
55702.000			-9.488			-1.355
55801.000			-9.487			-1.355
55900.000			-9.486			-1.355
56001.000			-9.487			-1.355
56100.000			-9.487			-1.355
56200.000			-9.486			-1.355
56301.000			-9.486			-1.355
56401.000			-9.486			-1.355
56501.000			-9.486			-1.355
56602.000			-9.485			-1.355
56700.000			-9.484			-1.355
56800.000			-9.485			-1.355
56901.000			-9.484			-1.355
57000.000			-9.483			-1.355
57100.000			-9.482			-1.355
57201.000			-9.482			-1.355
57301.000			-9.482			-1.355
57402.000			-9.482			-1.355
57500.000			-9.481			-1.354
57600.000			-9.481			-1.354
57701.000			-9.481			-1.354
57800.000			-9.481			-1.354
57900.000			-9.480			-1.354
58001.000			-9.480			-1.354
58101.000			-9.478			-1.354
58201.000			-9.478			-1.354
58301.000			-9.478			-1.354
58400.000			-9.477			-1.354
58500.000			-9.477			-1.354
58601.000			-9.477			-1.354
58700.000			-9.476			-1.354
58800.000			-9.477			-1.354
58902.000			-9.476			-1.354
59001.000			-9.475			-1.354
59100.000			-9.474			-1.353
59201.000			-9.474			-1.353
59300.000			-9.474			-1.353
59400.000			-9.474			-1.353
59501.000			-9.472			-1.353
59600.000			-9.471			-1.353
59701.000			-9.472			-1.353
59802.000			-9.472			-1.353
59901.000			-9.472			-1.353
60000.000			-9.471			-1.353
60101.000			-9.470			-1.353
60200.000			-9.469			-1.353
60300.000			-9.469			-1.353
60401.000			-9.469			-1.353
60501.000			-9.468			-1.353
60602.000			-9.469			-1.353
60701.000			-9.468			-1.353
60800.000			-9.467			-1.352
60901.000			-9.466			-1.352
61000.000			-9.467			-1.352
61100.000			-9.467			-1.352
61201.000			-9.466			-1.352
61301.000			-9.465			-1.352
61401.000			-9.465			-1.352
61501.000			-9.465			-1.352
61600.000			-9.464			-1.352
61700.000			-9.464			-1.352
61801.000			-9.464			-1.352
61900.000			-9.463			-1.352
62000.000			-9.462			-1.352
62102.000			-9.462			-1.352
62201.000			-9.462			-1.352
62301.000			-9.461			-1.352
62401.000			-9.462			-1.352
62500.000			-9.461			-1.352
62600.000			-9.461			-1.352
62701.000			-9.461			-1.352
62800.000			-9.460			-1.351
62900.000			-9.460			-1.351
63002.000			-9.460			-1.351
63101.000			-9.459			-1.351
63200.000			-9.459			-1.351
63301.000			-9.458			-1.351
63400.000			-9.458			-1.351
63500.000			-9.458			-1.351
63601.000			-9.456			-1.351
63701.000			-9.456			-1.351
63802.000			-9.456			-1.351
63901.000			-9.455			-1.351
64000.000			-9.455			-1.351
64101.000			-9.455			-1.351
64200.000			-9.455			-1.351
64300.000			-9.454			-1.351
64401.000			-9.454			-1.351
64501.000			-9.453			-1.350
64601.000			-9.453			-1.350
64702.000			-9.452			-1.350
64800.000			-9.452			-1.350
64900.000			-9.451			-1.350
65001.000			-9.452			-1.350
65100.000			-9.452			-1.350
65200.000			-9.451			-1.350
65301.000			-9.451			-1.350
65401.000			-9.450			-1.350
65501.000			-9.450			-1.350
65601.000			-9.450			-1.350
65700.000			-9.449			-1.350
65800.000			-9.449			-1.350
65901.000			-9.449			-1.350
66000.000			-9.449			-1.350
66100.000			-9.447			-1.350
66202.000			-9.447			-1.350
66301.000			-9.447			-1.350
66400.000			-9.446			-1.349
66501.000			-9.446			-1.349
66600.000			-9.446			-1.349
66700.000			-9.446			-1.349
66801.000			-9.445			-1.349
66900.000			-9.444			-1.349
67002.000			-9.444			-1.349
67101.000			-9.443			-1.349
67200.000			-9.444			-1.349
67301.000			-9.444			-1.349
67400.000			-9.443			-1.349
67500.000			-9.442			-1.349
67601.000			-9.442			-1.349
67700.000			-9.442			-1.349
67800.000			-9.442			-1.349
67902.000			-9.442			-1.349
68001.000			-9.441			-1.349
68100.000			-9.440			-1.349
68201.000			-9.440			-1.349
68300.000			-9.440			-1.349
68400.000			-9.440			-1.349
68501.000			-9.439			-1.348
68600.000			-9.439			-1.348
68701.000			-9.438			-1.348
68802.000			-9.438			-1.348
68900.000			-9.438			-1.348
69000.000			-9.437			-1.348
69101.000			-9.437			-1.348
69200.000			-9.437			-1.348
69300.000			-9.436			-1.348
69401.000			-9.436			-1.348
69501.000			-9.436			-1.348
69601.000			-9.436			-1.348
69701.000			-9.436			-1.348
69800.000			-9.435			-1.348
69900.000			-9.435			-1.348
70001.000			-9.434			-1.348
70100.000			-9.433			-1.348
70200.000			-9.433			-1.348
70302.000			-9.434			-1.348
70401.000			-9.432			-1.347
70501.000			-9.433			-1.348
70600.000			-9.432			-1.347
70700.000			-9.432			-1.347
70801.000			-9.431			-1.347
70900.000			-9.430			-1.347
71000.000			-9.430			-1.347
71102.000			-9.430			-1.347
71201.000			-9.430			-1.347
71300.000			-9.431			-1.347
71401.000			-9.430			-1.347
71500.000			-9.428			-1.347
71600.000			-9.428			-1.347
71701.000			-9.428			-1.347
71800.000			-9.428			-1.347
71901.000			-9.428			-1.347
72002.000			-9.428			-1.347
72100.000			-9.426			-1.347
72200.000			-9.426			-1.347
72301.000			-9.426			-1.347
72400.000			-9.426			-1.347
72500.000			-9.426			-1.347
72601.000			-9.425			-1.346
72701.000			-9.424			-1.346
72801.000			-9.425			-1.346
72901.000			-9.424			-1.346
73000.000			-9.423			-1.346
73100.000			-9.423			-1.346
73201.000			-9.422			-1.346
73300.000			-9.422			-1.346
73400.000			-9.421			-1.346
73502.000			-9.422			-1.346
73601.000			-9.422			-1.346
73701.000			-9.421			-1.346
73800.000			-9.420			-1.346
73900.000			-9.420			-1.346
74001.000			-9.420			-1.346
74100.000			-9.421			-1.346
74200.000			-9.420			-1.346
74302.000			-9.420			-1.346
74401.000			-9.418			-1.345
74500.000			-9.419			-1.346
74601.000			-9.419			-1.346
74700.000			-9.418			-1.345
74800.000			-9.418			-1.345
74901.000			-9.418			-1.345
75000.000			-9.418			-1.345
75101.000			-9.416			-1.345
75202.000			-9.416			-1.345
75301.000			-9.416			-1.345
75400.000			-9.415			-1.345
75501.000			-9.416			-1.345
75600.000			-9.416			-1.345
75700.000			-9.415			-1.345
75801.000			-9.414			-1.345
75900.000			-9.414			-1.345
76001.000			-9.414			-1.345
76102.000			-9.413			-1.345
76200.000			-9.413			-1.345
76300.000			-9.413			-1.345
76401.000			-9.413			-1.345
76500.000			-9.413			-1.345
76600.000			-9.412			-1.345
76700.000			-9.413			-1.345
76801.000			-9.412			-1.345
76902.000			-9.412			-1.345
77000.000			-9.411			-1.344
77100.000			-9.411			-1.344
77201.000			-9.410			-1.344
77300.000			-9.410			-1.344
77400.000			-9.410			-1.344
77501.000			-9.409			-1.344
77601.000			-9.408			-1.344
77701.000			-9.409			-1.344
77801.000			-9.408			-1.344
77900.000			-9.409			-1.344
78000.000			-9.408			-1.344
78101.000			-9.408			-1.344
78200.000			-9.407			-1.344
78300.000			-9.406			-1.344
78402.000			-9.407			-1.344
78501.000			-9.408			-1.344
78600.000			-9.407			-1.344
78701.000			-9.406			-1.344
78800.000			-9.405			-1.344
78900.000			-9.405			-1.344
79001.000			-9.405			-1.344
79100.000			-9.403			-1.343
79201.000			-9.404			-1.343
79302.000			-9.405			-1.344
79401.000			-9.404			-1.343
79500.000			-9.403			-1.343
79601.000			-9.403			-1.343
79700.000			-9.402			-1.343
79800.000			-9.402			-1.343
79900.000			-9.402			-1.343
80000.000			-9.402			-1.343
80102.000			-9.402			-1.343
80201.000			-9.402			-1.343
80300.000			-9.401			-1.343
80401.000			-9.400			-1.343
80500.000			-9.400			-1.343
80600.000			-9.400			-1.343
80701.000			-9.400			-1.343
80800.000			-9.399			-1.343
80901.000			-9.399			-1.343
81002.000			-9.399			-1.343
81100.000			-9.398			-1.343
81200.000			-9.398			-1.343
81301.000			-9.398			-1.343
81400.000			-9.397			-1.342
81500.000			-9.397			-1.342
81601.000			-9.397			-1.342
81701.000			-9.396			-1.342
81801.000			-9.396			-1.342
81901.000			-9.396			-1.342
82000.000			-9.396			-1.342
82100.000			-9.395			-1.342
82201.000			-9.395			-1.342
82300.000			-9.395			-1.342
82400.000			-9.395			-1.342
82501.000			-9.394			-1.342
82601.000			-9.395			-1.342
82701.000			-9.394			-1.342
82801.000			-9.394			-1.342
82900.000			-9.393			-1.342
83000.000			-9.394			-1.342
83100.000			-9.394			-1.342
83200.000			-9.393			-1.342
83301.000			-9.393			-1.342
83401.000			-9.391			-1.342
83501.000			-9.391			-1.342
83601.000			-9.392			-1.342
83700.000			-9.392			-1.342
83800.000			-9.392			-1.342
83901.000			-9.392			-1.342
84000.000			-9.391			-1.342
84100.000			-9.391			-1.342
84202.000			-9.390			-1.341
84301.000			-9.390			-1.341
84400.000			-9.390			-1.341
84501.000			-9.390			-1.341
84600.000			-9.389			-1.341
84700.000			-9.388			-1.341
84801.000			-9.389			-1.341
84900.000			-9.389			-1.341
85000.000			-9.388			-1.341
85102.000			-9.387			-1.341
85201.000			-9.387			-1.341
85300.000			-9.387			-1.341
85401.000			-9.386			-1.341
85500.000			-9.386			-1.341
85600.000			-9.386			-1.341
85701.000			-9.385			-1.341
85800.000			-9.384			-1.341
85901.000			-9.385			-1.341
86002.000			-9.386			-1.341
86100.000			-9.385			-1.341
86200.000			-9.384			-1.341
86300.000			-9.384			-1.341
86400.000			-9.384			-1.341
86501.000			-9.384			-1.341
86600.000			-9.383			-1.340
86701.000			-9.382			-1.340
86802.000			-9.382			-1.340
86901.000			-9.382			-1.340
87000.000			-9.382			-1.340
87101.000			-9.383			-1.340
87200.000			-9.383			-1.340
87300.000			-9.382			-1.340
87401.000			-9.381			-1.340
87500.000			-9.381			-1.340
87601.000			-9.381			-1.340
87702.000			-9.380			-1.340
87800.000			-9.381			-1.340
87900.000			-9.380			-1.340
88001.000			-9.380			-1.340
88100.000			-9.379			-1.340
88200.000			-9.379			-1.340
88301.000			-9.378			-1.340
88401.000			-9.378			-1.340
88501.000			-9.379			-1.340
88601.000			-9.378			-1.340
88700.000			-9.377			-1.340
88800.000			-9.377			-1.340
88901.000			-9.377			-1.340
89000.000			-9.376			-1.339
89100.000			-9.376			-1.339
89201.000			-9.375			-1.339
89301.000			-9.374			-1.339
89402.000			-9.374			-1.339
89500.000			-9.375			-1.339
89600.000			-9.375			-1.339
89701.000			-9.376			-1.339
89800.000			-9.375			-1.339
89900.000			-9.374			-1.339
90001.000			-9.374			-1.339
90101.000			-9.375			-1.339
90201.000			-9.375			-1.339
90301.000			-9.373			-1.339
90400.000			-9.372			-1.339
90500.000			-9.371			-1.339
90601.000			-9.373			-1.339
90700.000			-9.372			-1.339
90800.000			-9.372			-1.339
90902.000			-9.372			-1.339
91001.000			-9.371			-1.339
91101.000			-9.371			-1.339
91201.000			-9.372			-1.339
91300.000			-9.370			-1.339
91400.000			-9.370			-1.339
91501.000			-9.370			-1.339
91600.000			-9.370			-1.339
91700.000			-9.370			-1.339
91802.000			-9.369			-1.338
91901.000			-9.369			-1.338
92000.000			-9.368			-1.338
92101.000			-9.368			-1.338
92200.000			-9.369			-1.338
92300.000			-9.368			-1.338
92401.000			-9.367			-1.338
92500.000			-9.367			-1.338
92602.000			-9.366			-1.338
92701.000			-9.366			-1.338
92800.000			-9.367			-1.338
92901.000			-9.367			-1.338
93000.000			-9.366			-1.338
93100.000			-9.366			-1.338
93201.000			-9.366			-1.338
93300.000			-9.365			-1.338
93401.000			-9.365			-1.338
93502.000			-9.365			-1.338
93601.000			-9.366			-1.338
93700.000			-9.364			-1.338
93801.000			-9.363			-1.338
93900.000			-9.363			-1.338
94000.000			-9.364			-1.338
94101.000			-9.363			-1.338
94200.000			-9.363			-1.338
94301.000			-9.362			-1.337
94402.000			-9.362			-1.337
94500.000			-9.362			-1.337
94600.000			-9.362			-1.337
94701.000			-9.361			-1.337
94800.000			-9.361			-1.337
94900.000			-9.362			-1.337
95001.000			-9.361			-1.337
95101.000			-9.361			-1.337
95201.000			-9.361			-1.337
95301.000			-9.362			-1.337
95400.000			-9.362			-1.337
95500.000			-9.360			-1.337
95601.000			-9.360			-1.337
95700.000			-9.360			-1.337
95800.000			-9.360			-1.337
95902.000			-9.360			-1.337
96001.000			-9.358			-1.337
96101.000			-9.359			-1.337
96200.000			-9.359			-1.337
96300.000			-9.357			-1.337
96401.000			-9.357			-1.337
96500.000			-9.358			-1.337
96600.000			-9.358			-1.337
96702.000			-9.357			-1.337
96801.000			-9.356			-1.337
96901.000			-9.357			-1.337
97001.000			-9.357			-1.337
97100.000			-9.356			-1.337
97200.000			-9.356			-1.337
97301.000			-9.356			-1.337
97400.000			-9.355			-1.336
97500.000			-9.355			-1.336
97602.000			-9.355			-1.336
97701.000			-9.355			-1.336
97800.000			-9.355			-1.336
97901.000			-9.355			-1.336
98000.000			-9.354			-1.336
98100.000			-9.353			-1.336
98201.000			-9.353			-1.336
98300.000			-9.353			-1.336
98401.000			-9.353			-1.336
98502.000			-9.353			-1.336
98600.000			-9.353			-1.336
98700.000			-9.351			-1.336
98801.000			-9.351			-1.336
98900.000			-9.351			-1.336
99000.000			-9.350			-1.336
99100.000			-9.350			-1.336
99200.000			-9.350			-1.336
99302.000			-9.350			-1.336
99401.000			-9.350			-1.336
99500.000			-9.350			-1.336
99601.000			-9.349			-1.336
99700.000			-9.349			-1.336
99800.000			-9.349			-1.336
99901.000			-9.349			-1.336
100000.000			-9.348			-1.335
100101.000			-9.348			-1.335
100202.000			-9.348			-1.335
100300.000			-9.348			-1.335
100400.000			-9.346			-1.335
100501.000			-9.347			-1.335
100600.000			-9.347			-1.335
100700.000			-9.346			-1.335
100801.000			-9.346			-1.335
100901.000			-9.347			-1.335
101001.000			-9.346			-1.335
101101.000			-9.345			-1.335
101200.000			-9.345			-1.335
101300.000			-9.346			-1.335
101401.000			-9.345			-1.335
101500.000			-9.346			-1.335
101600.000			-9.344			-1.335
101701.000			-9.344			-1.335
101801.000			-9.345			-1.335
101901.000			-9.344			-1.335
102001.000			-9.344			-1.335
102100.000			-9.343			-1.335
102200.000			-9.343			-1.335
102300.000			-9.343			-1.335
102400.000			-9.342			-1.335
102501.000			-9.341			-1.334
102601.000			-9.341			-1.334
102701.000			-9.341			-1.334
102801.000			-9.341			-1.334
102900.000			-9.341			-1.334
103000.000			-9.340			-1.334
103101.000			-9.341			-1.334
103200.000			-9.341			-1.334
103300.000			-9.340			-1.334
103402.000			-9.340			-1.334
103501.000			-9.340			-1.334
103600.000			-9.340			-1.334
103701.000			-9.339			-1.334
103800.000			-9.339			-1.334
103900.000			-9.339			-1.334
104001.000			-9.339			-1.334
104100.000			-9.339			-1.334
104201.000			-9.339			-1.334
104302.000			-9.339			-1.334
104400.000			-9.338			-1.334
104500.000			-9.336			-1.334
104601.000			-9.336			-1.334
104700.000			-9.337			-1.334
104800.000			-9.336			-1.334
104901.000			-9.336			-1.334
105000.000			-9.337			-1.334
105101.000			-9.336			-1.334
105202.000			-9.336			-1.334
105300.000			-9.336			-1.334
105400.000			-9.335			-1.334
105500.000			-9.334			-1.333
105600.000			-9.336			-1.334
105701.000			-9.337			-1.334
105800.000			-9.335			-1.334
105901.000			-9.334			-1.333
106002.000			-9.333			-1.333
106100.000			-9.333			-1.333
106200.000			-9.334			-1.333
106301.000			-9.335			-1.334
106400.000			-9.334			-1.333
106500.000			-9.334			-1.333
106601.000			-9.334			-1.333
106701.000			-9.333			-1.333
106801.000			-9.332			-1.333
106902.000			-9.332			-1.333
107000.000			-9.332			-1.333
107100.000			-9.333			-1.333
107201.000			-9.333			-1.333
107300.000			-9.331			-1.333
107400.000			-9.332			-1.333
107501.000			-9.331			-1.333
107601.000			-9.330			-1.333
107701.000			-9.330			-1.333
107801.000			-9.330			-1.333
107900.000			-9.331			-1.333
108000.000			-9.330			-1.333
108101.000			-9.330			-1.333
108200.000			-9.330			-1.333
108300.000			-9.329			-1.333
108402.000			-9.329			-1.333
108501.000			-9.328			-1.333
108600.000			-9.329			-1.333
108700.000			-9.328			-1.333
108800.000			-9.328			-1.333
108901.000			-9.328			-1.333
109000.000			-9.327			-1.332
109100.000			-9.328			-1.333
109201.000			-9.327			-1.332
109301.000			-9.326			-1.332
109401.000			-9.326			-1.332
109501.000			-9.327			-1.332
109600.000			-9.327			-1.332
109700.000			-9.326			-1.332
109801.000			-9.326			-1.332
109900.000			-9.326			-1.332
110000.000			-9.326			-1.332
110102.000			-9.326			-1.332
110201.000			-9.325			-1.332
110301.000			-9.325			-1.332
110401.000			-9.325			-1.332
110500.000			-9.324			-1.332
110600.000			-9.324			-1.332
110701.000			-9.325			-1.332
110800.000			-9.325			-1.332
110900.000			-9.324			-1.332
111002.000			-9.324			-1.332
111101.000			-9.323			-1.332
111200.000			-9.322			-1.332
111301.000			-9.322			-1.332
111400.000			-9.322			-1.332
111500.000			-9.321			-1.332
111601.000			-9.322			-1.332
111701.000			-9.322			-1.332
111802.000			-9.322			-1.332
111901.000			-9.321			-1.332
112000.000			-9.321			-1.332
112101.000			-9.321			-1.332
112200.000			-9.321			-1.332
112300.000			-9.321			-1.332
112401.000			-9.321			-1.332
112500.000			-9.321			-1.332
112601.000			-9.318			-1.331
112702.000			-9.319			-1.331
112800.000			-9.319			-1.331
112900.000			-9.320			-1.331
113001.000			-9.319			-1.331
113100.000			-9.318			-1.331
113200.000			-9.318			-1.331
113301.000			-9.318			-1.331
113401.000			-9.317			-1.331
113501.000			-9.319			-1.331
113601.000			-9.318			-1.331
113700.000			-9.318			-1.331
113800.000			-9.317			-1.331
113901.000			-9.317			-1.331
114000.000			-9.316			-1.331
114100.000			-9.316			-1.331
114202.000			-9.316			-1.331
114301.000			-9.316			-1.331
114400.000			-9.315			-1.331
114501.000			-9.315			-1.331
114600.000			-9.315			-1.331
114700.000			-9.316			-1.331
114801.000			-9.315			-1.331
114900.000			-9.315			-1.331
115000.000			-9.315			-1.331
115102.000			-9.314			-1.331
115201.000			-9.314			-1.331
115301.000			-9.315			-1.331
115400.000			-9.315			-1.331
115500.000			-9.315			-1.331
115601.000			-9.314			-1.331
115700.000			-9.315			-1.331
115800.000			-9.313			-1.330
115902.000			-9.313			-1.330
116001.000			-9.313			-1.330
116100.000			-9.312			-1.330
116201.000			-9.312			-1.330
116300.000			-9.312			-1.330
116400.000			-9.313			-1.330
116501.000			-9.313			-1.330
116600.000			-9.312			-1.330
116701.000			-9.311			-1.330
116802.000			-9.311			-1.330
116900.000			-9.311			-1.330
117000.000			-9.309			-1.330
117101.000			-9.310			-1.330
117200.000			-9.309			-1.330
117300.000			-9.309			-1.330
117401.000			-9.309			-1.330
117501.000			-9.310			-1.330
117601.000			-9.309			-1.330
117701.000			-9.308			-1.330
117800.000			-9.309			-1.330
117900.000			-9.309			-1.330
118001.000			-9.308			-1.330
118100.000			-9.308			-1.330
118200.000			-9.308			-1.330
118300.000			-9.308			-1.330
118401.000			-9.307			-1.330
118502.000			-9.307			-1.330
118600.000			-9.307			-1.330
118700.000			-9.308			-1.330
118801.000			-9.306			-1.329
118900.000			-9.306			-1.329
119000.000			-9.307			-1.330
119101.000			-9.306			-1.329
119201.000			-9.305			-1.329
119301.000			-9.305			-1.329
119401.000			-9.305			-1.329
119500.000			-9.305			-1.329
119600.000			-9.305			-1.329
119701.000			-9.305			-1.329
119800.000			-9.305			-1.329
119900.000			-9.304			-1.329
120001.000			-9.304			-1.329
120101.000			-9.304			-1.329
120201.000			-9.304			-1.329
120301.000			-9.304			-1.329
120400.000			-9.304			-1.329
120500.000			-9.302			-1.329
120601.000			-9.301			-1.329
120700.000			-9.303			-1.329
120800.000			-9.303			-1.329
120902.000			-9.303			-1.329
121001.000			-9.303			-1.329
121100.000			-9.302			-1.329
121201.000			-9.303			-1.329
121300.000			-9.302			-1.329
121400.000			-9.302			-1.329
121500.000			-9.301			-1.329
121600.000			-9.301			-1.329
121702.000			-9.301			-1.329
121801.000			-9.300			-1.329
121900.000			-9.300			-1.329
122001.000			-9.300			-1.329
122100.000			-9.300			-1.329
122200.000			-9.299			-1.328
122301.000			-9.301			-1.329
122400.000			-9.300			-1.329
122501.000			-9.299			-1.328
122602.000			-9.300			-1.329
122700.000			-9.299			-1.328
122800.000			-9.299			-1.328
122901.000			-9.298			-1.328
123000.000			-9.298			-1.328
123100.000			-9.298			-1.328
123201.000			-9.298			-1.328
123300.000			-9.298			-1.328
123401.000			-9.297			-1.328
123502.000			-9.297			-1.328
123600.000			-9.298			-1.328
123700.000			-9.297			-1.328
123801.000			-9.295			-1.328
123900.000			-9.296			-1.328
124000.000			-9.296			-1.328
124101.000			-9.296			-1.328
124201.000			-9.296			-1.328
124301.000			-9.296			-1.328
124402.000			-9.296			-1.328
124500.000			-9.294			-1.328
124600.000			-9.295			-1.328
124700.000			-9.294			-1.328
124800.000			-9.294			-1.328
124901.000			-9.294			-1.328
125000.000			-9.295			-1.328
125101.000			-9.294			-1.328
125202.000			-9.293			-1.328
125300.000			-9.293			-1.328
125400.000			-9.293			-1.328
125501.000			-9.293			-1.328
125600.000			-9.294			-1.328
125700.000			-9.293			-1.328
125801.000			-9.292			-1.327
125900.000			-9.292			-1.327
126001.000			-9.292			-1.327
126102.000			-9.292			-1.327
126200.000			-9.293			-1.328
126300.000			-9.292			-1.327
126401.000			-9.292			-1.327
126500.000			-9.292			-1.327
126600.000			-9.291			-1.327
126701.000			-9.291			-1.327
126801.000			-9.290			-1.327
126901.000			-9.291			-1.327
127001.000			-9.291			-1.327
127100.000			-9.290			-1.327
127200.000			-9.290			-1.327
127301.000			-9.289			-1.327
127400.000			-9.289			-1.327
127500.000			-9.290			-1.327
127601.000			-9.290			-1.327
127701.000			-9.289			-1.327
127802.000			-9.289			-1.327
127900.000			-9.289			-1.327
128000.000			-9.287			-1.327
128101.000			-9.287			-1.327
128200.000			-9.286			-1.327
128300.000			-9.287			-1.327
128401.000			-9.287			-1.327
128500.000			-9.287			-1.327
128601.000			-9.287			-1.327
128702.000			-9.287			-1.327
128800.000			-9.286			-1.327
128900.000			-9.287			-1.327
129001.000			-9.286			-1.327
129100.000			-9.286			-1.327
129200.000			-9.286			-1.327
129301.000			-9.286			-1.327
129401.000			-9.286			-1.327
129501.000			-9.284			-1.326
129602.000			-9.284			-1.326
129700.000			-9.285			-1.326
129800.000			-9.285			-1.326
129901.000			-9.285			-1.326
130000.000			-9.285			-1.326
130100.000			-9.284			-1.326
130201.000			-9.283			-1.326
130301.000			-9.284			-1.326
130401.000			-9.283			-1.326
130501.000			-9.283			-1.326
130600.000			-9.283			-1.326
130700.000			-9.283			-1.326
130801.000			-9.283			-1.326
130900.000			-9.283			-1.326
131000.000			-9.281			-1.326
131102.000			-9.281			-1.326
131201.000			-9.282			-1.326
131302.000			-9.281			-1.326
131400.000			-9.282			-1.326
131500.000			-9.282			-1.326
131601.000			-9.283			-1.326
131700.000			-9.281			-1.326
131800.000			-9.280			-1.326
131901.000			-9.279			-1.326
132001.000			-9.279			-1.326
132101.000			-9.280			-1.326
132202.000			-9.280			-1.326
132300.000			-9.280			-1.326
132400.000			-9.280			-1.326
132501.000			-9.280			-1.326
132600.000			-9.279			-1.326
132700.000			-9.279			-1.326
132801.000			-9.279			-1.326
132900.000			-9.278			-1.325
133001.000			-9.279			-1.326
133102.000			-9.279			-1.326
133200.000			-9.279			-1.326
133300.000			-9.279			-1.326
133401.000			-9.279			-1.326
133500.000			-9.278			-1.325
133600.000			-9.278			-1.325
133701.000			-9.278			-1.325
133800.000			-9.278			-1.325
133901.000			-9.278			-1.325
134002.000			-9.276			-1.325
134101.000			-9.277			-1.325
134200.000			-9.276			-1.325
134300.000			-9.276			-1.325
134400.000			-9.276			-1.325
134501.000			-9.276			-1.325
134600.000			-9.276			-1.325
134700.000			-9.276			-1.325
134802.000			-9.275			-1.325
134901.000			-9.276			-1.325
135001.000			-9.276			-1.325
135101.000			-9.275			-1.325
135200.000			-9.275			-1.325
135300.000			-9.275			-1.325
135401.000			-9.274			-1.325
135500.000			-9.273			-1.325
135600.000			-9.273			-1.325
135701.000			-9.274			-1.325
135801.000			-9.274			-1.325
135901.000			-9.274			-1.325
136001.000			-9.274			-1.325
136100.000			-9.272			-1.325
136200.000			-9.273			-1.325
136301.000			-9.274			-1.325
136400.000			-9.273			-1.325
136500.000			-9.273			-1.325
136601.000			-9.272			-1.325
136701.000			-9.272			-1.325
136801.000			-9.272			-1.325
136901.000			-9.270			-1.324
137000.000			-9.271			-1.324
137100.000			-9.270			-1.324
137201.000			-9.271			-1.324
137300.000			-9.272			-1.325
137400.000			-9.272			-1.325
137500.000			-9.271			-1.324
137601.000			-9.270			-1.324
137702.000			-9.271			-1.324
137801.000			-9.271			-1.324
137900.000			-9.271			-1.324
138001.000			-9.270			-1.324
138100.000			-9.270			-1.324
138200.000			-9.269			-1.324
138301.000			-9.270			-1.324
138400.000			-9.270			-1.324
138500.000			-9.270			-1.324
138602.000			-9.270			-1.324
138701.000			-9.269			-1.324
138800.000			-9.269			-1.324
138901.000			-9.268			-1.324
139000.000			-9.268			-1.324
139100.000			-9.268			-1.324
139201.000			-9.269			-1.324
139300.000			-9.268			-1.324
139400.000			-9.267			-1.324
139502.000			-9.268			-1.324
139601.000			-9.267			-1.324
139701.000			-9.267			-1.324
139801.000			-9.267			-1.324
139900.000			-9.267			-1.324
140000.000			-9.267			-1.324
140101.000			-9.266			-1.324
140200.000			-9.267			-1.324
140300.000			-9.267			-1.324
140401.000			-9.266			-1.324
140501.000			-9.267			-1.324
140602.000			-9.266			-1.324
140700.000			-9.265			-1.324
140800.000			-9.264			-1.323
140901.000			-9.266			-1.324
141000.000			-9.267			-1.324
141100.000			-9.265			-1.324
141201.000			-9.264			-1.323
141300.000			-9.263			-1.323
141401.000			-9.263			-1.323
141502.000			-9.264			-1.323
141600.000			-9.264			-1.323
141700.000			-9.264			-1.323
141801.000			-9.264			-1.323
141900.000			-9.263			-1.323
142000.000			-9.262			-1.323
142101.000			-9.262			-1.323
142200.000			-9.263			-1.323
142301.000			-9.264			-1.323
142402.000			-9.263			-1.323
142500.000			-9.262			-1.323
142600.000			-9.262			-1.323
142701.000			-9.261			-1.323
142800.000			-9.261			-1.323
142900.000			-9.261			-1.323
143001.000			-9.261			-1.323
143100.000			-9.261			-1.323
143201.000			-9.261			-1.323
143302.000			-9.260			-1.323
143400.000			-9.261			-1.323
143500.000			-9.260			-1.323
143601.000			-9.260			-1.323
143700.000			-9.259			-1.323
143800.000			-9.258			-1.323
143900.000			-9.259			-1.323
144000.000			-9.259			-1.323
144102.000			-9.259			-1.323
144201.000			-9.259			-1.323
144301.000			-9.259			-1.323
144401.000			-9.258			-1.323
144500.000			-9.259			-1.323
144600.000			-9.259			-1.323
144701.000			-9.258			-1.323
144800.000			-9.257			-1.322
144900.000			-9.258			-1.323
145001.000			-9.257			-1.322
145101.000			-9.257			-1.322
145201.000			-9.257			-1.322
145301.000			-9.257			-1.322
145400.000			-9.256			-1.322
145500.000			-9.256			-1.322
145601.000			-9.257			-1.322
145700.000			-9.256			-1.322
145800.000			-9.255			-1.322
145901.000			-9.255			-1.322
146001.000			-9.256			-1.322
146101.000			-9.256			-1.322
146201.000			-9.255			-1.322
146300.000			-9.255			-1.322
146400.000			-9.255			-1.322
146501.000			-9.254			-1.322
146600.000			-9.255			-1.322
146700.000			-9.256			-1.322
146801.000			-9.255			-1.322
146901.000			-9.255			-1.322
147002.000			-9.254			-1.322
147101.000			-9.253			-1.322
147200.000			-9.253			-1.322
147301.000			-9.254			-1.322
147400.000			-9.255			-1.322
147500.000			-9.254			-1.322
147601.000			-9.253			-1.322
147700.000			-9.253			-1.322
147800.000			-9.253			-1.322
147902.000			-9.253			-1.322
148001.000			-9.252			-1.322
148100.000			-9.252			-1.322
148201.000			-9.252			-1.322
148300.000			-9.252			-1.322
148400.000			-9.252			-1.322
148501.000			-9.253			-1.322
148600.000			-9.251			-1.322
148700.000			-9.251			-1.322
148802.000			-9.252			-1.322
148901.000			-9.251			-1.322
149001.000			-9.251			-1.322
149101.000			-9.251			-1.322
149200.000			-9.252			-1.322
149300.000			-9.251			-1.322
149401.000			-9.250			-1.321
149500.000			-9.251			-1.322
149600.000			-9.250			-1.321
149702.000			-9.250			-1.321
149801.000			-9.250			-1.321
149901.000			-9.250			-1.321
150001.000			-9.251			-1.322
150100.000			-9.250			-1.321
150200.000			-9.250			-1.321
150300.000			-9.249			-1.321
150400.000			-9.250			-1.321
150501.000			-9.249			-1.321
150600.000			-9.249			-1.321
150701.000			-9.248			-1.321
150802.000			-9.247			-1.321
150901.000			-9.248			-1.321
151000.000			-9.248			-1.321
151101.000			-9.248			-1.321
151200.000			-9.247			-1.321
151300.000			-9.246			-1.321
151401.000			-9.247			-1.321
151500.000			-9.248			-1.321
151601.000			-9.248			-1.321
151702.000			-9.247			-1.321
151801.000			-9.247			-1.321
151900.000			-9.247			-1.321
152001.000			-9.246			-1.321
152100.000			-9.246			-1.321
152200.000			-9.247			-1.321
152301.000			-9.247			-1.321
152400.000			-9.246			-1.321
152501.000			-9.246			-1.321
152602.000			-9.246			-1.321
152701.000			-9.245			-1.321
152800.000			-9.245			-1.321
152901.000			-9.245			-1.321
153000.000			-9.245			-1.321
153100.000			-9.244			-1.321
153201.000			-9.243			-1.320
153300.000			-9.244			-1.321
153400.000			-9.245			-1.321
153502.000			-9.244			-1.321
153601.000			-9.243			-1.320
153701.000			-9.243			-1.320
153800.000			-9.244			-1.321
153900.000			-9.244			-1.321
154001.000			-9.243			-1.320
154100.000			-9.244			-1.321
154200.000			-9.243			-1.320
154301.000			-9.242			-1.320
154401.000			-9.242			-1.320
154501.000			-9.242			-1.320
154601.000			-9.242			-1.320
154700.000			-9.242			-1.320
154800.000			-9.241			-1.320
154901.000			-9.240			-1.320
155000.000			-9.241			-1.320
155100.000			-9.241			-1.320
155201.000			-9.241			-1.320
155301.000			-9.241			-1.320
155401.000			-9.240			-1.320
155501.000			-9.240			-1.320
155600.000			-9.240			-1.320
155700.000			-9.240			-1.320
155801.000			-9.240			-1.320
155900.000			-9.240			-1.320
156000.000			-9.239			-1.320
156101.000			-9.239			-1.320
156201.000			-9.239			-1.320
156301.000			-9.239			-1.320
156402.000			-9.239			-1.320
156500.000			-9.239			-1.320
156600.000			-9.239			-1.320
156700.000			-9.238			-1.320
156800.000			-9.238			-1.320
156901.000			-9.238			-1.320
157000.000			-9.238			-1.320
157100.000			-9.237			-1.320
157202.000			-9.237			-1.320
157301.000			-9.237			-1.320
157400.000			-9.236			-1.319
157501.000			-9.237			-1.320
157600.000			-9.237			-1.320
157700.000			-9.237			-1.320
157801.000			-9.236			-1.319
157900.000			-9.235			-1.319
158000.000			-9.236			-1.319
158102.000			-9.237			-1.320
158201.000			-9.236			-1.319
158301.000			-9.236			-1.319
158401.000			-9.236			-1.319
158500.000			-9.235			-1.319
158600.000			-9.236			-1.319
158701.000			-9.235			-1.319
158800.000			-9.235			-1.319
158900.000			-9.234			-1.319
159001.000			-9.234			-1.319
159101.000			-9.234			-1.319
159201.000			-9.233			-1.319
159301.000			-9.234			-1.319
159400.000			-9.235			-1.319
159500.000			-9.235			-1.319
159601.000			-9.234			-1.319
159700.000			-9.234			-1.319
159800.000			-9.233			-1.319
159900.000			-9.233			-1.319
160001.000			-9.233			-1.319
160102.000			-9.232			-1.319
160201.000			-9.232			-1.319
160300.000			-9.232			-1.319
160401.000			-9.232			-1.319
160500.000			-9.233			-1.319
160600.000			-9.233			-1.319
160701.000			-9.231			-1.319
160800.000			-9.231			-1.319
160901.000			-9.232			-1.319
161002.000			-9.232			-1.319
161101.000			-9.232			-1.319
161200.000			-9.231			-1.319
161301.000			-9.231			-1.319
161400.000			-9.231			-1.319
161500.000			-9.230			-1.319
161601.000			-9.230			-1.319
161700.000			-9.230			-1.319
161801.000			-9.229			-1.318
161902.000			-9.229			-1.318
162001.000			-9.229			-1.318
162100.000			-9.229			-1.318
162201.000			-9.229			-1.318
162300.000			-9.230			-1.319
162400.000			-9.229			-1.318
162501.000			-9.229			-1.318
162600.000			-9.230			-1.319
162700.000			-9.229			-1.318
162802.000			-9.229			-1.318
162901.000			-9.228			-1.318
163000.000			-9.229			-1.318
163100.000			-9.227			-1.318
163200.000			-9.227			-1.318
163301.000			-9.227			-1.318
163400.000			-9.228			-1.318
163500.000			-9.227			-1.318
163601.000			-9.226			-1.318
163701.000			-9.227			-1.318
163801.000			-9.228			-1.318
163901.000			-9.228			-1.318
164000.000			-9.226			-1.318
164100.000			-9.227			-1.318
164201.000			-9.227			-1.318
164300.000			-9.226			-1.318
164400.000			-9.226			-1.318
164501.000			-9.225			-1.318
164601.000			-9.225			-1.318
164701.000			-9.227			-1.318
164801.000			-9.226			-1.318
164900.000			-9.225			-1.318
165000.000			-9.226			-1.318
165101.000			-9.225			-1.318
165200.000			-9.224			-1.318
165300.000			-9.225			-1.318
165401.000			-9.225			-1.318
165501.000			-9.224			-1.318
165601.000			-9.225			-1.318
165702.000			-9.224			-1.318
165800.000			-9.224			-1.318
165900.000			-9.224			-1.318
166001.000			-9.224			-1.318
166100.000			-9.224			-1.318
166200.000			-9.224			-1.318
166300.000			-9.224			-1.318
166400.000			-9.223			-1.318
166502.000			-9.223			-1.318
166601.000			-9.223			-1.318
166700.000			-9.223			-1.318
166801.000			-9.224			-1.318
166900.000			-9.224			-1.318
167000.000			-9.224			-1.318
167101.000			-9.223			-1.318
167200.000			-9.222			-1.317
167300.000			-9.221			-1.317
167402.000			-9.222			-1.317
167501.000			-9.222			-1.317
167600.000			-9.222			-1.317
167701.000			-9.221			-1.317
167800.000			-9.220			-1.317
167900.000			-9.221			-1.317
168001.000			-9.222			-1.317
168100.000			-9.221			-1.317
168200.000			-9.220			-1.317
168302.000			-9.219			-1.317
168401.000			-9.220			-1.317
168501.000			-9.221			-1.317
168601.000			-9.220			-1.317
168700.000			-9.221			-1.317
168800.000			-9.220			-1.317
168901.000			-9.220			-1.317
169000.000			-9.218			-1.317
169100.000			-9.219			-1.317
169202.000			-9.220			-1.317
169301.000			-9.219			-1.317
169402.000			-9.218			-1.317
169500.000			-9.218			-1.317
169600.000			-9.218			-1.317
169701.000			-9.219			-1.317
169800.000			-9.219			-1.317
169900.000			-9.218			-1.317
170001.000			-9.218			-1.317
170100.000			-9.219			-1.317
170201.000			-9.219			-1.317
170302.000			-9.218			-1.317
170401.000			-9.217			-1.317
170500.000			-9.218			-1.317
170601.000			-9.217			-1.317
170700.000			-9.217			-1.317
170800.000			-9.217			-1.317
170901.000			-9.218			-1.317
171000.000			-9.218			-1.317
171101.000			-9.217			-1.317
171202.000			-9.217			-1.317
171301.000			-9.216			-1.317
171400.000			-9.216			-1.317
171501.000			-9.215			-1.316
171600.000			-9.215			-1.316
171700.000			-9.216			-1.317
171801.000			-9.216			-1.317
171900.000			-9.216			-1.317
172001.000			-9.216			-1.317
172102.000			-9.215			-1.316
172201.000			-9.215			-1.316
172300.000			-9.216			-1.317
172401.000			-9.215			-1.316
172500.000			-9.214			-1.316
172600.000			-9.214			-1.316
172700.000			-9.213			-1.316
172800.000			-9.213			-1.316
172902.000			-9.213			-1.316
173001.000			-9.214			-1.316
173101.000			-9.213			-1.316
173201.000			-9.214			-1.316
173300.000			-9.214			-1.316
173400.000			-9.214			-1.316
173501.000			-9.213			-1.316
173600.000			-9.213			-1.316
173700.000			-9.212			-1.316
173802.000			-9.212			-1.316
173901.000			-9.212			-1.316
174001.000			-9.212			-1.316
174101.000			-9.213			-1.316
174200.000			-9.213			-1.316
174300.000			-9.212			-1.316
174401.000			-9.212			-1.316
174500.000			-9.212			-1.316
174600.000			-9.211			-1.316
174702.000			-9.212			-1.316
174801.000			-9.212			-1.316
174901.000			-9.212			-1.316
175001.000			-9.212			-1.316
175100.000			-9.211			-1.316
175200.000			-9.211			-1.316
175301.000			-9.210			-1.316
175400.000			-9.210			-1.316
175500.000			-9.209			-1.316
175601.000			-9.210			-1.316
175701.000			-9.211			-1.316
175802.000			-9.209			-1.316
175901.000			-9.210			-1.316
176000.000			-9.211			-1.316
176101.000			-9.210			-1.316
176200.000			-9.209			-1.316
176300.000			-9.209			-1.316
176401.000			-9.210			-1.316
176500.000			-9.209			-1.316
176601.000			-9.209			-1.316
176702.000			-9.209			-1.316
176801.000			-9.208			-1.315
176900.000			-9.209			-1.316
177001.000			-9.209			-1.316
177100.000			-9.208			-1.315
177200.000			-9.207			-1.315
177301.000			-9.206			-1.315
177400.000			-9.208			-1.315
177500.000			-9.208			-1.315
177602.000			-9.207			-1.315
177701.000			-9.207			-1.315
177800.000			-9.207			-1.315
177901.000			-9.206			-1.315
178000.000			-9.206			-1.315
178100.000			-9.206			-1.315
178201.000			-9.207			-1.315
178300.000			-9.209			-1.316
178400.000			-9.208			-1.315
178502.000			-9.206			-1.315
178601.000			-9.205			-1.315
178701.000			-9.207			-1.315
178801.000			-9.206			-1.315
178900.000			-9.206			-1.315
179000.000			-9.206			-1.315
179100.000			-9.205			-1.315
179200.000			-9.205			-1.315
179301.000			-9.204			-1.315
179400.000			-9.205			-1.315
179501.000			-9.206			-1.315
179602.000			-9.205			-1.315
179700.000			-9.205			-1.315
179800.000			-9.204			-1.315
179901.000			-9.203			-1.315
180000.000			-9.204			-1.315
180100.000			-9.203			-1.315
180201.000			-9.204			-1.315
180300.000			-9.204			-1.315
180401.000			-9.202			-1.315
180502.000			-9.202			-1.315
180600.000			-9.203			-1.315
180700.000			-9.204			-1.315
180801.000			-9.203			-1.315
180900.000			-9.202			-1.315
181000.000			-9.203			-1.315
181101.000			-9.203			-1.315
181201.000			-9.202			-1.315
181301.000			-9.203			-1.315
181402.000			-9.202			-1.315
181500.000			-9.202			-1.315
181600.000			-9.201			-1.314
181701.000			-9.203			-1.315
181800.000			-9.202			-1.315
181900.000			-9.201			-1.314
182001.000			-9.201			-1.314
182101.000			-9.201			-1.314
182202.000			-9.201			-1.314
182301.000			-9.201			-1.314
182400.000			-9.201			-1.314
182501.000			-9.201			-1.314
182600.000			-9.200			-1.314
182700.000			-9.200			-1.314
182801.000			-9.200			-1.314
182900.000			-9.199			-1.314
183000.000			-9.199			-1.314
183102.000			-9.200			-1.314
183201.000			-9.199			-1.314
183300.000			-9.200			-1.314
183401.000			-9.200			-1.314
183500.000			-9.199			-1.314
183600.000			-9.199			-1.314
183701.000			-9.199			-1.314
183800.000			-9.197			-1.314
183900.000			-9.199			-1.314
184002.000			-9.200			-1.314
184101.000			-9.198			-1.314
184201.000			-9.199			-1.314
184301.000			-9.199			-1.314
184400.000			-9.199			-1.314
184500.000			-9.198			-1.314
184601.000			-9.198			-1.314
184700.000			-9.197			-1.314
184800.000			-9.198			-1.314
184901.000			-9.197			-1.314
185001.000			-9.197			-1.314
185101.000			-9.198			-1.314
185201.000			-9.196			-1.314
185300.000			-9.197			-1.314
185400.000			-9.196			-1.314
185500.000			-9.196			-1.314
185600.000			-9.196			-1.314
185701.000			-9.196			-1.314
185800.000			-9.196			-1.314
185900.000			-9.196			-1.314
186002.000			-9.196			-1.314
186101.000			-9.196			-1.314
186200.000			-9.196			-1.314
186301.000			-9.194			-1.313
186400.000			-9.195			-1.314
186500.000			-9.195			-1.314
186601.000			-9.194			-1.313
186700.000			-9.193			-1.313
186800.000			-9.195			-1.314
186902.000			-9.194			-1.313
187001.000			-9.194			-1.313
187101.000			-9.194			-1.313
187201.000			-9.194			-1.313
187300.000			-9.194			-1.313
187400.000			-9.193			-1.313
187501.000			-9.194			-1.313
187600.000			-9.193			-1.313
187700.000			-9.192			-1.313
187801.000			-9.193			-1.313
187901.000			-9.193			-1.313
188001.000			-9.193			-1.313
188101.000			-9.193			-1.313
188200.000			-9.192			-1.313
188300.000			-9.192			-1.313
188401.000			-9.193			-1.313
188500.000			-9.193			-1.313
188600.000			-9.192			-1.313
188700.000			-9.192			-1.313
188800.000			-9.192			-1.313
188902.000			-9.192			-1.313
189001.000			-9.192			-1.313
189100.000			-9.191			-1.313
189201.000			-9.190			-1.313
189300.000			-9.190			-1.313
189400.000			-9.190			-1.313
189501.000			-9.190			-1.313
189600.000			-9.190			-1.313
189700.000			-9.190			-1.313
189802.000			-9.190			-1.313
189901.000			-9.191			-1.313
190001.000			-9.191			-1.313
190101.000			-9.190			-1.313
190200.000			-9.189			-1.313
190300.000			-9.189			-1.313
190401.000			-9.190			-1.313
190500.000			-9.190			-1.313
190600.000			-9.189			-1.313
190701.000			-9.188			-1.313
190801.000			-9.188			-1.313
190901.000			-9.189			-1.313
191001.000			-9.189			-1.313
191100.000			-9.188			-1.313
191200.000			-9.188			-1.313
191301.000			-9.188			-1.313
191400.000			-9.187			-1.312
191500.000			-9.187			-1.312
191601.000			-9.188			-1.313
191701.000			-9.187			-1.312
191802.000			-9.187			-1.312
191901.000			-9.187			-1.312
192000.000			-9.186			-1.312
192101.000			-9.187			-1.312
192200.000			-9.187			-1.312
192300.000			-9.186			-1.312
192401.000			-9.186			-1.312
192500.000			-9.186			-1.312
192600.000			-9.186			-1.312
192702.000			-9.185			-1.312
192801.000			-9.185			-1.312
192900.000			-9.185			-1.312
193001.000			-9.185			-1.312
193100.000			-9.186			-1.312
193200.000			-9.185			-1.312
193301.000			-9.185			-1.312
193400.000			-9.184			-1.312
193500.000			-9.184			-1.312
193602.000			-9.184			-1.312
193701.000			-9.183			-1.312
193801.000			-9.184			-1.312
193901.000			-9.184			-1.312
194000.000			-9.184			-1.312
194100.000			-9.184			-1.312
194201.000			-9.183			-1.312
194300.000			-9.184			-1.312
194400.000			-9.184			-1.312
194501.000			-9.183			-1.312
194601.000			-9.184			-1.312
194701.000			-9.184			-1.312
194801.000			-9.184			-1.312
194900.000			-9.184			-1.312
195000.000			-9.184			-1.312
195100.000			-9.183			-1.312
195200.000			-9.183			-1.312
195301.000			-9.182			-1.312
195400.000			-9.183			-1.312
195501.000			-9.183			-1.312
195602.000			-9.183			-1.312
195701.000			-9.182			-1.312
195800.000			-9.182			-1.312
195901.000			-9.182			-1.312
196000.000			-9.182			-1.312
196100.000			-9.182			-1.312
196201.000			-9.182			-1.312
196300.000			-9.182			-1.312
196400.000			-9.182			-1.312
196502.000			-9.182			-1.312
196601.000			-9.181			-1.312
196700.000			-9.180			-1.311
196801.000			-9.182			-1.312
196900.000			-9.182			-1.312
197000.000			-9.181			-1.312
197101.000			-9.180			-1.311
197200.000			-9.180			-1.311
197300.000			-9.181			-1.312
197402.000			-9.180			-1.311
197501.000			-9.179			-1.311
197601.000			-9.179			-1.311
197701.000			-9.179			-1.311
197800.000			-9.179			-1.311
197900.000			-9.179			-1.311
198001.000			-9.180			-1.311
198100.000			-9.180			-1.311
198200.000			-9.179			-1.311
198300.000			-9.179			-1.311
198401.000			-9.179			-1.311
198502.000			-9.179			-1.311
198601.000			-9.178			-1.311
198700.000			-9.177			-1.311
198801.000			-9.178			-1.311
198900.000			-9.178			-1.311
199000.000			-9.178			-1.311
199101.000			-9.178			-1.311
199200.000			-9.178			-1.311
199300.000			-9.178			-1.311
199402.000			-9.176			-1.311
199501.000			-9.176			-1.311
199601.000			-9.177			-1.311
199701.000			-9.178			-1.311
199800.000			-9.178			-1.311
199900.000			-9.176			-1.311
200001.000			-9.176			-1.311
200100.000			-9.176			-1.311
200200.000			-9.176			-1.311
200301.000			-9.175			-1.311
200401.000			-9.175			-1.311
200501.000			-9.176			-1.311
200601.000			-9.176			-1.311
200700.000			-9.176			-1.311
200800.000			-9.177			-1.311
200901.000			-9.176			-1.311
201000.000			-9.175			-1.311
201100.000			-9.176			-1.311
201201.000			-9.176			-1.311
201301.000			-9.175			-1.311
201402.000			-9.174			-1.311
201501.000			-9.175			-1.311
201600.000			-9.175			-1.311
201701.000			-9.174			-1.311
201800.000			-9.175			-1.311
201900.000			-9.175			-1.311
202001.000			-9.175			-1.311
202100.000			-9.176			-1.311
202201.000			-9.174			-1.311
202302.000			-9.174			-1.311
202401.000			-9.174			-1.311
202500.000			-9.174			-1.311
202601.000			-9.175			-1.311
202700.000			-9.174			-1.311
202800.000			-9.174			-1.311
202901.000			-9.174			-1.311
203000.000			-9.173			-1.310
203101.000			-9.172			-1.310
203202.000			-9.173			-1.310
203301.000			-9.173			-1.310
203400.000			-9.172			-1.310
203501.000			-9.172			-1.310
203600.000			-9.173			-1.310
203700.000			-9.173			-1.310
203801.000			-9.172			-1.310
203900.000			-9.172			-1.310
204001.000			-9.173			-1.310
204102.000			-9.172			-1.310
204201.000			-9.172			-1.310
204300.000			-9.172			-1.310
204401.000			-9.172			-1.310
204500.000			-9.172			-1.310
204600.000			-9.171			-1.310
204700.000			-9.172			-1.310
204800.000			-9.172			-1.310
204902.000			-9.172			-1.310
205001.000			-9.171			-1.310
205101.000			-9.170			-1.310
205201.000			-9.170			-1.310
205300.000			-9.171			-1.310
205400.000			-9.171			-1.310
205501.000			-9.170			-1.310
205600.000			-9.170			-1.310
205700.000			-9.170			-1.310
205801.000			-9.170			-1.310
205901.000			-9.170			-1.310
206001.000			-9.170			-1.310
206101.000			-9.170			-1.310
206200.000			-9.170			-1.310
206300.000			-9.170			-1.310
206401.000			-9.170			-1.310
206500.000			-9.170			-1.310
206600.000			-9.168			-1.310
206701.000			-9.170			-1.310
206801.000			-9.170			-1.310
206901.000			-9.170			-1.310
207001.000			-9.169			-1.310
207100.000			-9.169			-1.310
207200.000			-9.168			-1.310
207301.000			-9.168			-1.310
207400.000			-9.168			-1.310
207500.000			-9.167			-1.310
207601.000			-9.167			-1.310
207701.000			-9.167			-1.310
207802.000			-9.168			-1.310
207901.000			-9.166			-1.309
208000.000			-9.167			-1.310
208101.000			-9.167			-1.310
208200.000			-9.167			-1.310
208300.000			-9.168			-1.310
208401.000			-9.167			-1.310
208500.000			-9.166			-1.309
208600.000			-9.166			-1.309
208702.000			-9.166			-1.309
208801.000			-9.166			-1.309
208900.000			-9.166			-1.309
209001.000			-9.167			-1.310
209100.000			-9.166			-1.309
209200.000			-9.166			-1.309
209301.000			-9.166			-1.309
209400.000			-9.166			-1.309
209500.000			-9.166			-1.309
209602.000			-9.165			-1.309
209701.000			-9.165			-1.309
209801.000			-9.165			-1.309
209901.000			-9.165			-1.309
210000.000			-9.164			-1.309
210100.000			-9.165			-1.309
210201.000			-9.165			-1.309
210300.000			-9.165			-1.309
210400.000			-9.166			-1.309
210502.000			-9.165			-1.309
210601.000			-9.164			-1.309
210701.000			-9.164			-1.309
210801.000			-9.165			-1.309
210900.000			-9.165			-1.309
211000.000			-9.165			-1.309
211100.000			-9.162			-1.309
211200.000			-9.164			-1.309
211301.000			-9.164			-1.309
211401.000			-9.165			-1.309
211501.000			-9.164			-1.309
211601.000			-9.163			-1.309
211700.000			-9.163			-1.309
211800.000			-9.163			-1.309
211901.000			-9.162			-1.309
212000.000			-9.162			-1.309
212100.000			-9.162			-1.309
212201.000			-9.161			-1.309
212301.000			-9.162			-1.309
212401.000			-9.162			-1.309
212501.000			-9.161			-1.309
212600.000			-9.160			-1.309
212700.000			-9.161			-1.309
212801.000			-9.161			-1.309
212900.000			-9.161			-1.309
213000.000			-9.160			-1.309
213101.000			-9.160			-1.309
213201.000			-9.161			-1.309
213301.000			-9.160			-1.309
213401.000			-9.160			-1.309
213500.000			-9.161			-1.309
213600.000			-9.161			-1.309
213701.000			-9.161			-1.309
213800.000			-9.161			-1.309
213900.000			-9.159			-1.308
214001.000			-9.159			-1.308
214101.000			-9.160			-1.309
214202.000			-9.160			-1.309
214300.000			-9.160			-1.309
214400.000			-9.160			-1.309
214501.000			-9.159			-1.308
214600.000			-9.159			-1.308
214700.000			-9.161			-1.309
214801.000			-9.160			-1.309
214900.000			-9.158			-1.308
215001.000			-9.158			-1.308
215102.000			-9.159			-1.308
215201.000			-9.159			-1.308
215300.000			-9.158			-1.308
215401.000			-9.158			-1.308
215500.000			-9.157			-1.308
215600.000			-9.157			-1.308
215701.000			-9.157			-1.308
215800.000			-9.157			-1.308
215900.000			-9.158			-1.308
216002.000			-9.158			-1.308
216101.000			-9.158			-1.308
216200.000			-9.158			-1.308
216301.000			-9.158			-1.308
216400.000			-9.158			-1.308
216500.000			-9.157			-1.308
216601.000			-9.157			-1.308
216700.000			-9.156			-1.308
216800.000			-9.156			-1.308
216902.000			-9.157			-1.308
217001.000			-9.157			-1.308
217100.000			-9.157			-1.308
217201.000			-9.157			-1.308
217300.000			-9.156			-1.308
217400.000			-9.155			-1.308
217500.000			-9.154			-1.308
217600.000			-9.155			-1.308
217701.000			-9.155			-1.308
217801.000			-9.154			-1.308
217901.000			-9.156			-1.308
218001.000			-9.155			-1.308
218100.000			-9.154			-1.308
218200.000			-9.154			-1.308
218301.000			-9.154			-1.308
218400.000			-9.155			-1.308
218500.000			-9.154			-1.308
218601.000			-9.154			-1.308
218701.000			-9.153			-1.308
218801.000			-9.153			-1.308
218902.000			-9.154			-1.308
219000.000			-9.154			-1.308
219100.000			-9.154			-1.308
219201.000			-9.154			-1.308
219300.000			-9.154			-1.308
219400.000			-9.153			-1.308
219501.000			-9.153			-1.308
219601.000			-9.151			-1.307
219701.000			-9.152			-1.307
219802.000			-9.153			-1.308
219900.000			-9.153			-1.308
220000.000			-9.153			-1.308
220101.000			-9.153			-1.308
220200.000			-9.153			-1.308
220300.000			-9.153			-1.308
220401.000			-9.152			-1.307
220501.000			-9.152			-1.307
220602.000			-9.152			-1.307
220701.000			-9.152			-1.307
220800.000			-9.152			-1.307
220901.000			-9.151			-1.307
221000.000			-9.152			-1.307
221100.000			-9.152			-1.307
221201.000			-9.150			-1.307
221300.000			-9.150			-1.307
221401.000			-9.152			-1.307
221502.000			-9.152			-1.307
221600.000			-9.151			-1.307
221700.000			-9.151			-1.307
221801.000			-9.151			-1.307
221900.000			-9.151			-1.307
222000.000			-9.151			-1.307
222101.000			-9.150			-1.307
222200.000			-9.150			-1.307
222301.000			-9.149			-1.307
222402.000			-9.149			-1.307
222501.000			-9.150			-1.307
222600.000			-9.150			-1.307
222701.000			-9.149			-1.307
222800.000			-9.149			-1.307
222900.000			-9.149			-1.307
223001.000			-9.149			-1.307
223100.000			-9.149			-1.307
223201.000			-9.149			-1.307
223302.000			-9.149			-1.307
223401.000			-9.149			-1.307
223500.000			-9.149			-1.307
223601.000			-9.148			-1.307
223700.000			-9.148			-1.307
223800.000			-9.149			-1.307
223900.000			-9.149			-1.307
224000.000			-9.149			-1.307
224101.000			-9.148			-1.307
224201.000			-9.149			-1.307
224301.000			-9.147			-1.307
224401.000			-9.148			-1.307
224500.000			-9.149			-1.307
224600.000			-9.149			-1.307
224701.000			-9.147			-1.307
224800.000			-9.147			-1.307
224900.000			-9.147			-1.307
225001.000			-9.147			-1.307
225101.000			-9.147			-1.307
225201.000			-9.146			-1.307
225301.000			-9.146			-1.307
225400.000			-9.145			-1.306
225500.000			-9.146			-1.307
225601.000			-9.145			-1.306
225700.000			-9.145			-1.306
225800.000			-9.146			-1.307
225901.000			-9.147			-1.307
226001.000			-9.147			-1.307
226101.000			-9.147			-1.307
226201.000			-9.145			-1.306
226300.000			-9.145			-1.306
226400.000			-9.146			-1.307
226501.000			-9.146			-1.307
226600.000			-9.146			-1.307
226700.000			-9.145			-1.306
226801.000			-9.144			-1.306
226901.000			-9.144			-1.306
227002.000			-9.145			-1.306
227101.000			-9.146			-1.307
227200.000			-9.145			-1.306
227301.000			-9.145			-1.306
227400.000			-9.145			-1.306
227500.000			-9.145			-1.306
227601.000			-9.144			-1.306
227700.000			-9.144			-1.306
227801.000			-9.144			-1.306
227902.000			-9.144			-1.306
228001.000			-9.144			-1.306
228100.000			-9.144			-1.306
228201.000			-9.143			-1.306
228300.000			-9.143			-1.306
228400.000			-9.142			-1.306
228501.000			-9.143			-1.306
228600.000			-9.144			-1.306
228700.000			-9.142			-1.306
228802.000			-9.142			-1.306
228901.000			-9.143			-1.306
229000.000			-9.144			-1.306
229101.000			-9.142			-1.306
229200.000			-9.142			-1.306
229300.000			-9.142			-1.306
229401.000			-9.141			-1.306
229500.000			-9.142			-1.306
229600.000			-9.143			-1.306
229702.000			-9.143			-1.306
229801.000			-9.142			-1.306
229900.000			-9.141			-1.306
230001.000			-9.141			-1.306
230100.000			-9.142			-1.306
230200.000			-9.141			-1.306
230300.000			-9.141			-1.306
230400.000			-9.141			-1.306
230501.000			-9.141			-1.306
230601.000			-9.140			-1.306
230701.000			-9.140			-1.306
230801.000			-9.141			-1.306
230900.000			-9.140			-1.306
231000.000			-9.139			-1.306
231101.000			-9.141			-1.306
231200.000			-9.140			-1.306
231300.000			-9.138			-1.305
231401.000			-9.139			-1.306
231501.000			-9.139			-1.306
231601.000			-9.140			-1.306
231701.000			-9.139			-1.306
231800.000			-9.139			-1.306
231900.000			-9.139			-1.306
232001.000			-9.138			-1.305
232100.000			-9.139			-1.306
232200.000			-9.139			-1.306
232301.000			-9.139			-1.306
232401.000			-9.137			-1.305
232501.000			-9.137			-1.305
232601.000			-9.138			-1.305
232700.000			-9.139			-1.306
232800.000			-9.138			-1.305
232901.000			-9.137			-1.305
233000.000			-9.136			-1.305
233100.000			-9.138			-1.305
233201.000			-9.137			-1.305
233301.000			-9.137			-1.305
233402.000			-9.137			-1.305
233500.000			-9.137			-1.305
233600.000			-9.137			-1.305
233701.000			-9.137			-1.305
233800.000			-9.136			-1.305
233900.000			-9.135			-1.305
234001.000			-9.136			-1.305
234100.000			-9.136			-1.305
234201.000			-9.136			-1.305
234302.000			-9.136			-1.305
234400.000			-9.136			-1.305
234500.000			-9.135			-1.305
234601.000			-9.135			-1.305
234700.000			-9.136			-1.305
234800.000			-9.135			-1.305
234901.000			-9.134			-1.305
235000.000			-9.135			-1.305
235101.000			-9.134			-1.305
235202.000			-9.133			-1.305
235300.000			-9.135			-1.305
235400.000			-9.135			-1.305
235501.000			-9.134			-1.305
235600.000			-9.135			-1.305
235700.000			-9.135			-1.305
235801.000			-9.135			-1.305
235900.000			-9.135			-1.305
236001.000			-9.134			-1.305
236102.000			-9.133			-1.305
236201.000			-9.134			-1.305
236300.000			-9.134			-1.305
236401.000			-9.134			-1.305
236500.000			-9.134			-1.305
236600.000			-9.134			-1.305
236700.000			-9.134			-1.305
236800.000			-9.134			-1.305
236902.000			-9.133			-1.305
237001.000			-9.134			-1.305
237101.000			-9.134			-1.305
237201.000			-9.133			-1.305
237300.000			-9.133			-1.305
237400.000			-9.133			-1.305
237501.000			-9.133			-1.305
237600.000			-9.133			-1.305
237700.000			-9.132			-1.305
237802.000			-9.132			-1.305
237901.000			-9.132			-1.305
238001.000			-9.132			-1.305
238101.000			-9.132			-1.305
238200.000			-9.131			-1.304
238300.000			-9.133			-1.305
238401.000			-9.132			-1.305
238500.000			-9.132			-1.305
238600.000			-9.132			-1.305
238702.000			-9.132			-1.305
238801.000			-9.131			-1.304
238901.000			-9.131			-1.304
239001.000			-9.130			-1.304
239100.000			-9.131			-1.304
239200.000			-9.131			-1.304
239301.000			-9.131			-1.304
239400.000			-9.131			-1.304
239500.000			-9.131			-1.304
239601.000			-9.131			-1.304
239701.000			-9.130			-1.304
239802.000			-9.131			-1.304
239900.000			-9.131			-1.304
240000.000			-9.131			-1.304
240101.000			-9.132			-1.305
240200.000			-9.132			-1.305
240300.000			-9.130			-1.304
240401.000			-9.129			-1.304
240500.000			-9.130			-1.304
240601.000			-9.130			-1.304
240702.000			-9.130			-1.304
240800.000			-9.130			-1.304
240900.000			-9.129			-1.304
241001.000			-9.130			-1.304
241100.000			-9.128			-1.304
241200.000			-9.129			-1.304
241301.000			-9.130			-1.304
241401.000			-9.130			-1.304
241501.000			-9.128			-1.304
241602.000			-9.128			-1.304
241700.000			-9.128			-1.304
241800.000			-9.129			-1.304
241901.000			-9.128			-1.304
242000.000			-9.129			-1.304
242100.000			-9.129			-1.304
242201.000			-9.128			-1.304
242300.000			-9.128			-1.304
242401.000			-9.128			-1.304
242502.000			-9.128			-1.304
242600.000			-9.128			-1.304
242700.000			-9.128			-1.304
242801.000			-9.128			-1.304
242900.000			-9.128			-1.304
243000.000			-9.127			-1.304
243100.000			-9.127			-1.304
243200.000			-9.127			-1.304
243302.000			-9.127			-1.304
243401.000			-9.126			-1.304
243500.000			-9.126			-1.304
243601.000			-9.127			-1.304
243700.000			-9.127			-1.304
243800.000			-9.127			-1.304
243901.000			-9.126			-1.304
244000.000			-9.125			-1.304
244100.000			-9.125			-1.304
244202.000			-9.125			-1.304
244301.000			-9.125			-1.304
244400.000			-9.126			-1.304
244501.000			-9.125			-1.304
244600.000			-9.126			-1.304
244700.000			-9.125			-1.304
244801.000			-9.125			-1.304
244900.000			-9.126			-1.304
245000.000			-9.125			-1.304
245102.000			-9.126			-1.304
245201.000			-9.125			-1.304
245300.000			-9.124			-1.303
245401.000			-9.124			-1.303
245500.000			-9.125			-1.304
245600.000			-9.124			-1.303
245701.000			-9.123			-1.303
245800.000			-9.123			-1.303
245900.000			-9.125			-1.304
246002.000			-9.124			-1.303
246101.000			-9.124			-1.303
246202.000			-9.123			-1.303
246300.000			-9.124			-1.303
246400.000			-9.123			-1.303
246501.000			-9.123			-1.303
246600.000			-9.122			-1.303
246700.000			-9.124			-1.303
246801.000			-9.124			-1.303
246901.000			-9.123			-1.303
247001.000			-9.123			-1.303
247102.000			-9.123			-1.303
247200.000			-9.123			-1.303
247300.000			-9.123			-1.303
247401.000			-9.122			-1.303
247500.000			-9.123			-1.303
247600.000			-9.122			-1.303
247701.000			-9.122			-1.303
247800.000			-9.122			-1.303
247901.000			-9.122			-1.303
248002.000			-9.121			-1.303
248100.000			-9.121			-1.303
248200.000			-9.121			-1.303
248301.000			-9.121			-1.303
248400.000			-9.121			-1.303
248500.000			-9.121			-1.303
248601.000			-9.121			-1.303
248700.000			-9.121			-1.303
248801.000			-9.121			-1.303
248902.000			-9.120			-1.303
249000.000			-9.120			-1.303
249100.000			-9.121			-1.303
249201.000			-9.120			-1.303
249300.000			-9.121			-1.303
249400.000			-9.121			-1.303
249500.000			-9.120			-1.303
249600.000			-9.120			-1.303
249702.000			-9.119			-1.303
249801.000			-9.120			-1.303
249901.000			-9.120			-1.303
250001.000			-9.120			-1.303
250100.000			-9.120			-1.303
250200.000			-9.119			-1.303
250301.000			-9.119			-1.303
250400.000			-9.120			-1.303
250500.000			-9.119			-1.303
250602.000			-9.119			-1.303
250701.000			-9.118			-1.303
250801.000			-9.118			-1.303
250901.000			-9.119			-1.303
251000.000			-9.119			-1.303
251100.000			-9.118			-1.303
251201.000			-9.119			-1.303
251300.000			-9.118			-1.303
251400.000			-9.118			-1.303
251502.000			-9.117			-1.302
251601.000			-9.118			-1.303
251701.000			-9.118			-1.303
251801.000			-9.119			-1.303
251900.000			-9.117			-1.302
252000.000			-9.117			-1.302
252101.000			-9.117			-1.302
252200.000			-9.117			-1.302
252300.000			-9.118			-1.303
252402.000			-9.118			-1.303
252501.000			-9.117			-1.302
252602.000			-9.117			-1.302
252700.000			-9.117			-1.302
252800.000			-9.116			-1.302
252901.000			-9.116			-1.302
253000.000			-9.116			-1.302
253100.000			-9.116			-1.302
253201.000			-9.116			-1.302
253301.000			-9.116			-1.302
253401.000			-9.116			-1.302
253502.000			-9.115			-1.302
253600.000			-9.116			-1.302
253700.000			-9.116			-1.302
253801.000			-9.116			-1.302
253900.000			-9.116			-1.302
254000.000			-9.116			-1.302
254101.000			-9.115			-1.302
254200.000			-9.115			-1.302
254301.000			-9.115			-1.302
254402.000			-9.115			-1.302
254500.000			-9.115			-1.302
254600.000			-9.115			-1.302
254701.000			-9.115			-1.302
254800.000			-9.114			-1.302
254900.000			-9.114			-1.302
255001.000			-9.114			-1.302
255100.000			-9.114			-1.302
255201.000			-9.114			-1.302
255302.000			-9.114			-1.302
255400.000			-9.114			-1.302
255500.000			-9.113			-1.302
255601.000			-9.113			-1.302
255700.000			-9.113			-1.302
255800.000			-9.113			-1.302
255900.000			-9.114			-1.302
256000.000			-9.113			-1.302
256102.000			-9.113			-1.302
256201.000			-9.113			-1.302
256300.000			-9.114			-1.302
256401.000			-9.113			-1.302
256500.000			-9.112			-1.302
256600.000			-9.113			-1.302
256701.000			-9.113			-1.302
256800.000			-9.112			-1.302
256900.000			-9.113			-1.302
257002.000			-9.112			-1.302
257101.000			-9.112			-1.302
257200.000			-9.112			-1.302
257301.000			-9.112			-1.302
257400.000			-9.112			-1.302
257500.000			-9.112			-1.302
257601.000			-9.112			-1.302
257700.000			-9.112			-1.302
257800.000			-9.113			-1.302
257902.000			-9.111			-1.302
258001.000			-9.111			-1.302
258101.000			-9.112			-1.302
258201.000			-9.112			-1.302
258300.000			-9.111			-1.302
258400.000			-9.110			-1.301
258501.000			-9.110			-1.301
258600.000			-9.111			-1.302
258700.000			-9.111			-1.302
258802.000			-9.111			-1.302
258901.000			-9.110			-1.301
259002.000			-9.110			-1.301
259100.000			-9.110			-1.301
259200.000			-9.111			-1.302
259301.000			-9.111			-1.302
259400.000			-9.110			-1.301
259500.000			-9.110			-1.301
259601.000			-9.110			-1.301
259700.000			-9.109			-1.301
259801.000			-9.109			-1.301
259902.000			-9.109			-1.301
260000.000			-9.109			-1.301
260100.000			-9.109			-1.301
260201.000			-9.108			-1.301
260300.000			-9.108			-1.301
260400.000			-9.109			-1.301
260501.000			-9.109			-1.301
260600.000			-9.109			-1.301
260701.000			-9.109			-1.301
260802.000			-9.108			-1.301
260900.000			-9.107			-1.301
261000.000			-9.108			-1.301
261101.000			-9.108			-1.301
261200.000			-9.108			-1.301
261300.000			-9.109			-1.301
261401.000			-9.108			-1.301
261500.000			-9.108			-1.301
261601.000			-9.108			-1.301
261702.000			-9.107			-1.301
261800.000			-9.108			-1.301
261900.000			-9.108			-1.301
262001.000			-9.108			-1.301
262100.000			-9.107			-1.301
262200.000			-9.107			-1.301
262300.000			-9.107			-1.301
262400.000			-9.107			-1.301
262502.000			-9.106			-1.301
262601.000			-9.107			-1.301
262700.000			-9.107			-1.301
262801.000			-9.106			-1.301
262900.000			-9.106			-1.301
263000.000			-9.106			-1.301
263101.000			-9.108			-1.301
263200.000			-9.107			-1.301
263300.000			-9.107			-1.301
263402.000			-9.106			-1.301
263501.000			-9.106			-1.301
263601.000			-9.105			-1.301
263701.000			-9.106			-1.301
263800.000			-9.106			-1.301
263900.000			-9.106			-1.301
264001.000			-9.105			-1.301
264100.000			-9.104			-1.301
264200.000			-9.105			-1.301
264302.000			-9.104			-1.301
264401.000			-9.105			-1.301
264500.000			-9.105			-1.301
264601.000			-9.104			-1.301
264700.000			-9.103			-1.300
264800.000			-9.104			-1.301
264901.000			-9.104			-1.301
265000.000			-9.104			-1.301
265100.000			-9.105			-1.301
265202.000			-9.104			-1.301
265301.000			-9.104			-1.301
265400.000			-9.103			-1.300
265500.000			-9.103			-1.300
265600.000			-9.104			-1.301
265701.000			-9.104			-1.301
265800.000			-9.103			-1.300
265900.000			-9.103			-1.300
266001.000			-9.102			-1.300
266101.000			-9.102			-1.300
266201.000			-9.102			-1.300
266301.000			-9.102			-1.300
266400.000			-9.102			-1.300
266500.000			-9.100			-1.300
266601.000			-9.100			-1.300
266700.000			-9.101			-1.300
266800.000			-9.101			-1.300
266901.000			-9.101			-1.300
267001.000			-9.100			-1.300
267101.000			-9.100			-1.300
267201.000			-9.100			-1.300
267300.000			-9.101			-1.300
267400.000			-9.101			-1.300
267501.000			-9.099			-1.300
267600.000			-9.100			-1.300
267700.000			-9.100			-1.300
267801.000			-9.100			-1.300
267901.000			-9.100			-1.300
268001.000			-9.099			-1.300
268101.000			-9.099			-1.300
268200.000			-9.100			-1.300
268300.000			-9.100			-1.300
268401.000			-9.100			-1.300
268500.000			-9.099			-1.300
268600.000			-9.099			-1.300
268700.000			-9.100			-1.300
268800.000			-9.100			-1.300
268902.000			-9.099			-1.300
269001.000			-9.100			-1.300
269100.000			-9.099			-1.300
269201.000			-9.099			-1.300
269300.000			-9.099			-1.300
269400.000			-9.099			-1.300
269501.000			-9.098			-1.300
269600.000			-9.100			-1.300
269700.000			-9.099			-1.300
269802.000			-9.100			-1.300
269901.000			-9.100			-1.300
270001.000			-9.098			-1.300
270101.000			-9.097			-1.300
270200.000			-9.098			-1.300
270300.000			-9.098			-1.300
270401.000			-9.099			-1.300
270500.000			-9.099			-1.300
270600.000			-9.099			-1.300
270701.000			-9.099			-1.300
270801.000			-9.099			-1.300
270901.000			-9.098			-1.300
271002.000			-9.099			-1.300
271100.000			-9.098			-1.300
271200.000			-9.097			-1.300
271301.000			-9.097			-1.300
271400.000			-9.098			-1.300
271500.000			-9.097			-1.300
271601.000			-9.097			-1.300
271701.000			-9.097			-1.300
271802.000			-9.097			-1.300
271901.000			-9.097			-1.300
272000.000			-9.097			-1.300
272101.000			-9.097			-1.300
272200.000			-9.098			-1.300
272300.000			-9.097			-1.300
272401.000			-9.096			-1.299
272500.000			-9.097			-1.300
272600.000			-9.096			-1.299
272702.000			-9.097			-1.300
272801.000			-9.096			-1.299
272900.000			-9.097			-1.300
273001.000			-9.096			-1.299
273100.000			-9.095			-1.299
273200.000			-9.095			-1.299
273301.000			-9.095			-1.299
273400.000			-9.096			-1.299
273500.000			-9.095			-1.299
273602.000			-9.095			-1.299
273701.000			-9.095			-1.299
273801.000			-9.095			-1.299
273901.000			-9.095			-1.299
274000.000			-9.095			-1.299
274100.000			-9.095			-1.299
274201.000			-9.095			-1.299
274300.000			-9.095			-1.299
274400.000			-9.094			-1.299
274501.000			-9.094			-1.299
274601.000			-9.095			-1.299
274701.000			-9.095			-1.299
274801.000			-9.095			-1.299
274900.000			-9.094			-1.299
275000.000			-9.093			-1.299
275100.000			-9.094			-1.299
275200.000			-9.094			-1.299
275301.000			-9.093			-1.299
275400.000			-9.091			-1.299
275501.000			-9.092			-1.299
275602.000			-9.093			-1.299
275701.000			-9.093			-1.299
275800.000			-9.092			-1.299
275901.000			-9.092			-1.299
276000.000			-9.092			-1.299
276100.000			-9.093			-1.299
276201.000			-9.093			-1.299
276300.000			-9.092			-1.299
276400.000			-9.093			-1.299
276502.000			-9.092			-1.299
276601.000			-9.093			-1.299
276700.000			-9.093			-1.299
276801.000			-9.092			-1.299
276900.000			-9.093			-1.299
277000.000			-9.091			-1.299
277101.000			-9.092			-1.299
277200.000			-9.092			-1.299
277300.000			-9.092			-1.299
277402.000			-9.093			-1.299
277501.000			-9.093			-1.299
277601.000			-9.092			-1.299
277701.000			-9.091			-1.299
277800.000			-9.092			-1.299
277900.000			-9.092			-1.299
278001.000			-9.092			-1.299
278100.000			-9.091			-1.299
278200.000			-9.091			-1.299
278300.000			-9.090			-1.299
278401.000			-9.089			-1.298
278502.000			-9.091			-1.299
278600.000			-9.091			-1.299
278700.000			-9.091			-1.299
278801.000			-9.091			-1.299
278900.000			-9.091			-1.299
279000.000			-9.091			-1.299
279101.000			-9.090			-1.299
279200.000			-9.091			-1.299
279301.000			-9.089			-1.298
279402.000			-9.089			-1.298
279501.000			-9.090			-1.299
279600.000			-9.090			-1.299
279701.000			-9.090			-1.299
279800.000			-9.090			-1.299
279900.000			-9.089			-1.298
280001.000			-9.089			-1.298
280100.000			-9.089			-1.298
280200.000			-9.088			-1.298
280302.000			-9.088			-1.298
280401.000			-9.088			-1.298
280500.000			-9.088			-1.298
280601.000			-9.088			-1.298
280700.000			-9.089			-1.298
280800.000			-9.088			-1.298
280901.000			-9.089			-1.298
281000.000			-9.088			-1.298
281100.000			-9.087			-1.298
281202.000			-9.088			-1.298
281301.000			-9.089			-1.298
281402.000			-9.089			-1.298
281500.000			-9.088			-1.298
281600.000			-9.089			-1.298
281701.000			-9.089			-1.298
281800.000			-9.088			-1.298
281900.000			-9.087			-1.298
282001.000			-9.087			-1.298
282100.000			-9.088			-1.298
282201.000			-9.088			-1.298
282302.000			-9.088			-1.298
282400.000			-9.088			-1.298
282500.000			-9.088			-1.298
282601.000			-9.087			-1.298
282700.000			-9.087			-1.298
282800.000			-9.087			-1.298
282901.000			-9.087			-1.298
283000.000			-9.086			-1.298
283101.000			-9.087			-1.298
283202.000			-9.086			-1.298
283301.000			-9.086			-1.298
283400.000			-9.086			-1.298
283501.000			-9.086			-1.298
283600.000			-9.086			-1.298
283700.000			-9.087			-1.298
283801.000			-9.087			-1.298
283900.000			-9.087			-1.298
284000.000			-9.087			-1.298
284102.000			-9.087			-1.298
284201.000			-9.087			-1.298
284300.000			-9.087			-1.298
284401.000			-9.087			-1.298
284500.000			-9.088			-1.298
284600.000			-9.088			-1.298
284700.000			-9.086			-1.298
284800.000			-9.085			-1.298
284901.000			-9.086			-1.298
285001.000			-9.086			-1.298
285101.000			-9.086			-1.298
285202.000			-9.087			-1.298
285300.000			-9.085			-1.298
285400.000			-9.085			-1.298
285501.000			-9.085			-1.298
285600.000			-9.085			-1.298
285700.000			-9.086			-1.298
285801.000			-9.085			-1.298
285900.000			-9.085			-1.298
286001.000			-9.086			-1.298
286102.000			-9.086			-1.298
286200.000			-9.085			-1.298
286300.000			-9.085			-1.298
286401.000			-9.085			-1.298
286500.000			-9.085			-1.298
286600.000			-9.085			-1.298
286701.000			-9.085			-1.298
286800.000			-9.085			-1.298
286901.000			-9.084			-1.298
287002.000			-9.084			-1.298
287101.000			-9.085			-1.298
287200.000			-9.084			-1.298
287301.000			-9.084			-1.298
287400.000			-9.084			-1.298
287500.000			-9.084			-1.298
287601.000			-9.083			-1.298
287700.000			-9.083			-1.298
287800.000			-9.084			-1.298
287902.000			-9.084			-1.298
288001.000			-9.084			-1.298
288101.000			-9.083			-1.298
288200.000			-9.083			-1.298
288300.000			-9.084			-1.298
288401.000			-9.083			-1.298
288500.000			-9.083			-1.298
288600.000			-9.082			-1.297
288701.000			-9.082			-1.297
288801.000			-9.083			-1.298
288901.000			-9.082			-1.297
289002.000			-9.082			-1.297
289100.000			-9.082			-1.297
289200.000			-9.082			-1.297
289301.000			-9.082			-1.297
289400.000			-9.082			-1.297
289500.000			-9.082			-1.297
289601.000			-9.082			-1.297
289700.000			-9.081			-1.297
289801.000			-9.080			-1.297
289902.000			-9.081			-1.297
290001.000			-9.081			-1.297
290100.000			-9.081			-1.297
290201.000			-9.082			-1.297
290300.000			-9.082			-1.297
290400.000			-9.083			-1.298
290501.000			-9.082			-1.297
290600.000			-9.082			-1.297
290701.000			-9.081			-1.297
290802.000			-9.081			-1.297
290901.000			-9.081			-1.297
291000.000			-9.081			-1.297
291100.000			-9.081			-1.297
291200.000			-9.081			-1.297
291301.000			-9.081			-1.297
291400.000			-9.081			-1.297
291500.000			-9.080			-1.297
291602.000			-9.080			-1.297
291701.000			-9.080			-1.297
291801.000			-9.081			-1.297
291901.000			-9.081			-1.297
292000.000			-9.081			-1.297
292100.000			-9.080			-1.297
292201.000			-9.080			-1.297
292300.000			-9.080			-1.297
292400.000			-9.080			-1.297
292502.000			-9.080			-1.297
292601.000			-9.079			-1.297
292701.000			-9.079			-1.297
292801.000			-9.079			-1.297
292900.000			-9.079			-1.297
293000.000			-9.078			-1.297
293101.000			-9.078			-1.297
293200.000			-9.078			-1.297
293300.000			-9.080			-1.297
293401.000			-9.079			-1.297
293501.000			-9.079			-1.297
293601.000			-9.080			-1.297
293701.000			-9.080			-1.297
293800.000			-9.079			-1.297
293900.000			-9.078			-1.297
294001.000			-9.078			-1.297
294100.000			-9.078			-1.297
294200.000			-9.077			-1.297
294300.000			-9.077			-1.297
294400.000			-9.077			-1.297
294502.000			-9.078			-1.297
294601.000			-9.078			-1.297
294700.000			-9.077			-1.297
294801.000			-9.077			-1.297
294900.000			-9.078			-1.297
295000.000			-9.077			-1.297
295101.000			-9.077			-1.297
295200.000			-9.078			-1.297
295300.000			-9.077			-1.297
295402.000			-9.076			-1.297
295501.000			-9.076			-1.297
295601.000			-9.076			-1.297
295701.000			-9.077			-1.297
295800.000			-9.076			-1.297
295900.000			-9.076			-1.297
296001.000			-9.077			-1.297
296100.000			-9.077			-1.297
296200.000			-9.077			-1.297
296301.000			-9.077			-1.297
296401.000			-9.076			-1.297
296501.000			-9.077			-1.297
296602.000			-9.077			-1.297
296700.000			-9.077			-1.297
296800.000			-9.076			-1.297
296901.000			-9.075			-1.296
297000.000			-9.076			-1.297
297100.000			-9.074			-1.296
297201.000			-9.074			-1.296
297300.000			-9.075			-1.296
297402.000			-9.075			-1.296
297501.000			-9.076			-1.297
297600.000			-9.074			-1.296
297701.000			-9.074			-1.296
297800.000			-9.074			-1.296
297900.000			-9.074			-1.296
298001.000			-9.075			-1.296
298100.000			-9.074			-1.296
298200.000			-9.075			-1.296
298301.000			-9.074			-1.296
298401.000			-9.073			-1.296
298501.000			-9.073			-1.296
298601.000			-9.075			-1.296
298700.000			-9.075			-1.296
298800.000			-9.073			-1.296
298901.000			-9.073			-1.296
299000.000			-9.074			-1.296
299100.000			-9.074			-1.296
299201.000			-9.074			-1.296
299301.000			-9.073			-1.296
299401.000			-9.073			-1.296
299502.000			-9.073			-1.296
299600.000			-9.073			-1.296
299700.000			-9.073			-1.296
299801.000			-9.073			-1.296
299900.000			-9.072			-1.296
