# Acquired on 09/01/2024 14:54:26 
# SPIDER: Creep_-8mm_07714532B-1
# CREEP MEASUREMENT

# time [ms]		force [N]		stiffness [N/mm]
0.000			31.585			-3.948
101.000			32.727			-4.091
200.000			33.073			-4.134
301.000			32.982			-4.123
401.000			32.841			-4.105
500.000			32.728			-4.091
600.000			32.634			-4.079
701.000			32.552			-4.069
800.000			32.415			-4.052
900.000			32.357			-4.045
1002.000			32.305			-4.038
1101.000			32.256			-4.032
1200.000			32.211			-4.026
1301.000			32.169			-4.021
1400.000			32.130			-4.016
1500.000			32.059			-4.007
1601.000			32.026			-4.003
1701.000			31.995			-3.999
1801.000			31.965			-3.996
1901.000			31.938			-3.992
2000.000			31.911			-3.989
2100.000			31.886			-3.986
2200.000			31.838			-3.980
2300.000			31.815			-3.977
2401.000			31.793			-3.974
2501.000			31.772			-3.972
2601.000			31.751			-3.969
2701.000			31.731			-3.966
2800.000			31.712			-3.964
2900.000			31.676			-3.960
3001.000			31.659			-3.957
3100.000			31.643			-3.955
3201.000			31.626			-3.953
3302.000			31.609			-3.951
3400.000			31.593			-3.949
3500.000			31.579			-3.947
3601.000			31.565			-3.946
3700.000			31.537			-3.942
3800.000			31.522			-3.940
3901.000			31.509			-3.939
4001.000			31.496			-3.937
4101.000			31.484			-3.936
4201.000			31.471			-3.934
4300.000			31.460			-3.932
4400.000			31.435			-3.929
4501.000			31.423			-3.928
4600.000			31.412			-3.927
4701.000			31.401			-3.925
4802.000			31.390			-3.924
4900.000			31.380			-3.922
5000.000			31.369			-3.921
5101.000			31.349			-3.919
5200.000			31.339			-3.917
5300.000			31.331			-3.916
5400.000			31.320			-3.915
5501.000			31.310			-3.914
5602.000			31.301			-3.913
5700.000			31.293			-3.912
5800.000			31.274			-3.909
5901.000			31.265			-3.908
6000.000			31.258			-3.907
6100.000			31.249			-3.906
6202.000			31.241			-3.905
6301.000			31.232			-3.904
6400.000			31.224			-3.903
6501.000			31.216			-3.902
6600.000			31.200			-3.900
6700.000			31.192			-3.899
6801.000			31.185			-3.898
6900.000			31.179			-3.897
7001.000			31.171			-3.896
7102.000			31.164			-3.895
7200.000			31.157			-3.895
7300.000			31.142			-3.893
7401.000			31.136			-3.892
7500.000			31.129			-3.891
7600.000			31.123			-3.890
7702.000			31.116			-3.890
7801.000			31.109			-3.889
7900.000			31.102			-3.888
8001.000			31.090			-3.886
8100.000			31.085			-3.886
8200.000			31.078			-3.885
8301.000			31.071			-3.884
8400.000			31.064			-3.883
8502.000			31.059			-3.882
8601.000			31.054			-3.882
8700.000			31.042			-3.880
8801.000			31.036			-3.880
8900.000			31.031			-3.879
9000.000			31.025			-3.878
9101.000			31.019			-3.877
9201.000			31.014			-3.877
9301.000			31.008			-3.876
9401.000			31.002			-3.875
9500.000			30.992			-3.874
9600.000			30.986			-3.873
9701.000			30.981			-3.873
9800.000			30.976			-3.872
9900.000			30.971			-3.871
10002.000			30.966			-3.871
10101.000			30.961			-3.870
10200.000			30.951			-3.869
10301.000			30.945			-3.868
10400.000			30.941			-3.868
10500.000			30.936			-3.867
10601.000			30.931			-3.866
10700.000			30.925			-3.866
10801.000			30.920			-3.865
10902.000			30.913			-3.864
11000.000			30.909			-3.864
11100.000			30.904			-3.863
11201.000			30.900			-3.862
11300.000			30.895			-3.862
11400.000			30.890			-3.861
11501.000			30.886			-3.861
11601.000			30.877			-3.860
11702.000			30.874			-3.859
11800.000			30.870			-3.859
11900.000			30.864			-3.858
12001.000			30.860			-3.857
12100.000			30.856			-3.857
12200.000			30.852			-3.856
12301.000			30.848			-3.856
12401.000			30.839			-3.855
12501.000			30.835			-3.854
12601.000			30.833			-3.854
12700.000			30.829			-3.854
12800.000			30.825			-3.853
12901.000			30.820			-3.853
13000.000			30.816			-3.852
13100.000			30.808			-3.851
13202.000			30.805			-3.851
13301.000			30.801			-3.850
13400.000			30.797			-3.850
13501.000			30.793			-3.849
13600.000			30.790			-3.849
13700.000			30.786			-3.848
13801.000			30.779			-3.847
13901.000			30.775			-3.847
14001.000			30.772			-3.846
14102.000			30.768			-3.846
14200.000			30.764			-3.846
14300.000			30.761			-3.845
14401.000			30.759			-3.845
14500.000			30.751			-3.844
14600.000			30.747			-3.843
14702.000			30.745			-3.843
14801.000			30.742			-3.843
14902.000			30.738			-3.842
15000.000			30.734			-3.842
15100.000			30.731			-3.841
15201.000			30.728			-3.841
15300.000			30.722			-3.840
15400.000			30.719			-3.840
15501.000			30.715			-3.839
15601.000			30.711			-3.839
15701.000			30.708			-3.838
15801.000			30.705			-3.838
15900.000			30.701			-3.838
16000.000			30.695			-3.837
16101.000			30.692			-3.836
16200.000			30.689			-3.836
16300.000			30.687			-3.836
16402.000			30.683			-3.835
16501.000			30.680			-3.835
16600.000			30.678			-3.835
16701.000			30.671			-3.834
16800.000			30.669			-3.834
16900.000			30.667			-3.833
17001.000			30.664			-3.833
17101.000			30.660			-3.832
17201.000			30.656			-3.832
17302.000			30.654			-3.832
17400.000			30.648			-3.831
17500.000			30.646			-3.831
17601.000			30.642			-3.830
17700.000			30.640			-3.830
17800.000			30.637			-3.830
17902.000			30.633			-3.829
18001.000			30.630			-3.829
18100.000			30.625			-3.828
18200.000			30.622			-3.828
18300.000			30.620			-3.827
18401.000			30.618			-3.827
18500.000			30.615			-3.827
18600.000			30.611			-3.826
18702.000			30.609			-3.826
18801.000			30.606			-3.826
18900.000			30.601			-3.825
19001.000			30.599			-3.825
19100.000			30.597			-3.825
19200.000			30.593			-3.824
19301.000			30.591			-3.824
19400.000			30.588			-3.824
19501.000			30.586			-3.823
19602.000			30.580			-3.823
19700.000			30.579			-3.822
19800.000			30.577			-3.822
19901.000			30.574			-3.822
20000.000			30.571			-3.821
20100.000			30.569			-3.821
20201.000			30.566			-3.821
20301.000			30.562			-3.820
20401.000			30.559			-3.820
20501.000			30.556			-3.819
20600.000			30.553			-3.819
20700.000			30.552			-3.819
20801.000			30.550			-3.819
20900.000			30.546			-3.818
21000.000			30.543			-3.818
21102.000			30.540			-3.817
21201.000			30.538			-3.817
21300.000			30.536			-3.817
21400.000			30.534			-3.817
21500.000			30.530			-3.816
21601.000			30.528			-3.816
21700.000			30.525			-3.816
21800.000			30.522			-3.815
21902.000			30.519			-3.815
22001.000			30.516			-3.814
22100.000			30.514			-3.814
22201.000			30.512			-3.814
22300.000			30.510			-3.814
22400.000			30.508			-3.813
22501.000			30.503			-3.813
22601.000			30.501			-3.813
22701.000			30.499			-3.812
22801.000			30.497			-3.812
22900.000			30.495			-3.812
23000.000			30.492			-3.812
23101.000			30.490			-3.811
23200.000			30.487			-3.811
23300.000			30.484			-3.810
23402.000			30.483			-3.810
23501.000			30.481			-3.810
23600.000			30.478			-3.810
23701.000			30.476			-3.810
23800.000			30.474			-3.809
23900.000			30.472			-3.809
24001.000			30.468			-3.808
24100.000			30.466			-3.808
24201.000			30.463			-3.808
24302.000			30.461			-3.808
24400.000			30.459			-3.807
24500.000			30.457			-3.807
24600.000			30.455			-3.807
24700.000			30.451			-3.806
24801.000			30.449			-3.806
24900.000			30.447			-3.806
25001.000			30.445			-3.806
25102.000			30.443			-3.805
25200.000			30.441			-3.805
25300.000			30.440			-3.805
25401.000			30.436			-3.804
25500.000			30.434			-3.804
25600.000			30.432			-3.804
25701.000			30.430			-3.804
25801.000			30.428			-3.804
25901.000			30.426			-3.803
26001.000			30.424			-3.803
26100.000			30.420			-3.803
26200.000			30.419			-3.802
26301.000			30.417			-3.802
26400.000			30.414			-3.802
26501.000			30.413			-3.802
26602.000			30.411			-3.801
26700.000			30.409			-3.801
26800.000			30.408			-3.801
26901.000			30.403			-3.800
27000.000			30.402			-3.800
27100.000			30.400			-3.800
27201.000			30.399			-3.800
27301.000			30.396			-3.800
27401.000			30.395			-3.799
27501.000			30.393			-3.799
27600.000			30.388			-3.799
27700.000			30.387			-3.798
27800.000			30.385			-3.798
27900.000			30.383			-3.798
28001.000			30.382			-3.798
28101.000			30.381			-3.798
28201.000			30.378			-3.797
28301.000			30.375			-3.797
28400.000			30.373			-3.797
28500.000			30.372			-3.796
28601.000			30.369			-3.796
28700.000			30.368			-3.796
28800.000			30.367			-3.796
28902.000			30.365			-3.796
29001.000			30.361			-3.795
29100.000			30.359			-3.795
29201.000			30.357			-3.795
29300.000			30.356			-3.795
29400.000			30.355			-3.794
29501.000			30.352			-3.794
29600.000			30.350			-3.794
29701.000			30.349			-3.794
29802.000			30.347			-3.793
29900.000			30.345			-3.793
30000.000			30.343			-3.793
30101.000			30.341			-3.793
30200.000			30.340			-3.792
30300.000			30.338			-3.792
30401.000			30.337			-3.792
30501.000			30.333			-3.792
30601.000			30.331			-3.791
30701.000			30.330			-3.791
30800.000			30.328			-3.791
30900.000			30.327			-3.791
31000.000			30.325			-3.791
31100.000			30.323			-3.790
31201.000			30.320			-3.790
31301.000			30.318			-3.790
31401.000			30.316			-3.789
31501.000			30.315			-3.789
31600.000			30.315			-3.789
31700.000			30.313			-3.789
31801.000			30.311			-3.789
31900.000			30.308			-3.788
32001.000			30.307			-3.788
32102.000			30.304			-3.788
32200.000			30.303			-3.788
32300.000			30.302			-3.788
32401.000			30.301			-3.788
32500.000			30.299			-3.787
32600.000			30.295			-3.787
32701.000			30.293			-3.787
32801.000			30.292			-3.787
32901.000			30.291			-3.786
33001.000			30.290			-3.786
33100.000			30.288			-3.786
33200.000			30.286			-3.786
33301.000			30.285			-3.786
33400.000			30.283			-3.785
33500.000			30.281			-3.785
33602.000			30.278			-3.785
33701.000			30.277			-3.785
33800.000			30.277			-3.785
33901.000			30.276			-3.784
34000.000			30.274			-3.784
34100.000			30.271			-3.784
34200.000			30.270			-3.784
34300.000			30.269			-3.784
34402.000			30.267			-3.783
34501.000			30.265			-3.783
34600.000			30.264			-3.783
34701.000			30.263			-3.783
34800.000			30.259			-3.782
34900.000			30.259			-3.782
35001.000			30.258			-3.782
35100.000			30.256			-3.782
35201.000			30.254			-3.782
35302.000			30.252			-3.781
35400.000			30.250			-3.781
35500.000			30.249			-3.781
35601.000			30.246			-3.781
35700.000			30.245			-3.781
35800.000			30.245			-3.781
35902.000			30.243			-3.780
36001.000			30.242			-3.780
36101.000			30.240			-3.780
36201.000			30.239			-3.780
36300.000			30.237			-3.780
36400.000			30.235			-3.779
36501.000			30.233			-3.779
36600.000			30.232			-3.779
36701.000			30.231			-3.779
36802.000			30.229			-3.779
36900.000			30.228			-3.778
37000.000			30.226			-3.778
37101.000			30.224			-3.778
37200.000			30.223			-3.778
37300.000			30.222			-3.778
37400.000			30.219			-3.777
37501.000			30.218			-3.777
37602.000			30.217			-3.777
37700.000			30.216			-3.777
37800.000			30.215			-3.777
37901.000			30.212			-3.777
38000.000			30.211			-3.776
38100.000			30.210			-3.776
38201.000			30.209			-3.776
38301.000			30.207			-3.776
38401.000			30.205			-3.776
38501.000			30.203			-3.775
38600.000			30.202			-3.775
38700.000			30.201			-3.775
38801.000			30.200			-3.775
38900.000			30.198			-3.775
39000.000			30.197			-3.775
39102.000			30.196			-3.775
39201.000			30.194			-3.774
39300.000			30.193			-3.774
39401.000			30.192			-3.774
39500.000			30.191			-3.774
39600.000			30.188			-3.774
39701.000			30.187			-3.773
39801.000			30.186			-3.773
39901.000			30.183			-3.773
40002.000			30.181			-3.773
40100.000			30.181			-3.773
40200.000			30.179			-3.772
40301.000			30.178			-3.772
40400.000			30.178			-3.772
40500.000			30.177			-3.772
40602.000			30.174			-3.772
40701.000			30.173			-3.772
40801.000			30.171			-3.771
40900.000			30.171			-3.771
41000.000			30.170			-3.771
41101.000			30.168			-3.771
41200.000			30.166			-3.771
41300.000			30.165			-3.771
41402.000			30.164			-3.770
41501.000			30.162			-3.770
41600.000			30.161			-3.770
41701.000			30.159			-3.770
41800.000			30.159			-3.770
41900.000			30.158			-3.770
42001.000			30.156			-3.769
42100.000			30.154			-3.769
42201.000			30.153			-3.769
42302.000			30.151			-3.769
42400.000			30.150			-3.769
42500.000			30.148			-3.769
42601.000			30.147			-3.768
42700.000			30.146			-3.768
42800.000			30.145			-3.768
42902.000			30.143			-3.768
43001.000			30.142			-3.768
43100.000			30.142			-3.768
43201.000			30.140			-3.768
43300.000			30.139			-3.767
43400.000			30.138			-3.767
43501.000			30.136			-3.767
43600.000			30.135			-3.767
43702.000			30.133			-3.767
43801.000			30.132			-3.766
43900.000			30.132			-3.766
44001.000			30.130			-3.766
44100.000			30.129			-3.766
44200.000			30.126			-3.766
44301.000			30.126			-3.766
44400.000			30.124			-3.766
44501.000			30.122			-3.765
44602.000			30.121			-3.765
44700.000			30.120			-3.765
44800.000			30.120			-3.765
44901.000			30.118			-3.765
45000.000			30.116			-3.764
45100.000			30.116			-3.764
45202.000			30.115			-3.764
45301.000			30.113			-3.764
45401.000			30.111			-3.764
45501.000			30.111			-3.764
45600.000			30.110			-3.764
45700.000			30.109			-3.764
45801.000			30.107			-3.763
45900.000			30.105			-3.763
46001.000			30.106			-3.763
46102.000			30.104			-3.763
46200.000			30.103			-3.763
46300.000			30.102			-3.763
46401.000			30.100			-3.762
46500.000			30.098			-3.762
46600.000			30.097			-3.762
46701.000			30.096			-3.762
46801.000			30.095			-3.762
46902.000			30.094			-3.762
47000.000			30.093			-3.762
47100.000			30.091			-3.761
47201.000			30.090			-3.761
47300.000			30.090			-3.761
47400.000			30.089			-3.761
47501.000			30.087			-3.761
47601.000			30.086			-3.761
47701.000			30.085			-3.761
47801.000			30.083			-3.760
47900.000			30.082			-3.760
48000.000			30.082			-3.760
48101.000			30.081			-3.760
48200.000			30.079			-3.760
48300.000			30.078			-3.760
48402.000			30.077			-3.760
48501.000			30.075			-3.759
48600.000			30.074			-3.759
48701.000			30.072			-3.759
48800.000			30.073			-3.759
48900.000			30.072			-3.759
49001.000			30.071			-3.759
49101.000			30.069			-3.759
49201.000			30.068			-3.758
49302.000			30.065			-3.758
49400.000			30.065			-3.758
49500.000			30.063			-3.758
49601.000			30.063			-3.758
49700.000			30.063			-3.758
49800.000			30.061			-3.758
49902.000			30.060			-3.758
50001.000			30.059			-3.757
50100.000			30.057			-3.757
50200.000			30.055			-3.757
50300.000			30.055			-3.757
50401.000			30.054			-3.757
50500.000			30.053			-3.757
50600.000			30.052			-3.757
50702.000			30.051			-3.756
50801.000			30.050			-3.756
50900.000			30.048			-3.756
51001.000			30.047			-3.756
51100.000			30.046			-3.756
51200.000			30.045			-3.756
51301.000			30.044			-3.756
51400.000			30.044			-3.755
51501.000			30.041			-3.755
51602.000			30.041			-3.755
51700.000			30.041			-3.755
51800.000			30.040			-3.755
51901.000			30.039			-3.755
52000.000			30.037			-3.755
52100.000			30.036			-3.755
52202.000			30.034			-3.754
52301.000			30.034			-3.754
52400.000			30.033			-3.754
52501.000			30.032			-3.754
52600.000			30.031			-3.754
52700.000			30.030			-3.754
52801.000			30.029			-3.754
52900.000			30.026			-3.753
53001.000			30.026			-3.753
53102.000			30.025			-3.753
53200.000			30.024			-3.753
53300.000			30.022			-3.753
53400.000			30.021			-3.753
53500.000			30.021			-3.753
53601.000			30.019			-3.752
53701.000			30.018			-3.752
53801.000			30.018			-3.752
53901.000			30.017			-3.752
54000.000			30.015			-3.752
54100.000			30.015			-3.752
54201.000			30.014			-3.752
54300.000			30.013			-3.752
54400.000			30.012			-3.752
54502.000			30.010			-3.751
54601.000			30.009			-3.751
54700.000			30.009			-3.751
54801.000			30.008			-3.751
54900.000			30.008			-3.751
55000.000			30.006			-3.751
55101.000			30.004			-3.751
55200.000			30.002			-3.750
55301.000			30.002			-3.750
55401.000			30.002			-3.750
55500.000			30.000			-3.750
55600.000			29.999			-3.750
55701.000			29.998			-3.750
55800.000			29.998			-3.750
55900.000			29.997			-3.750
56001.000			29.997			-3.750
56101.000			29.996			-3.749
56201.000			29.994			-3.749
56301.000			29.993			-3.749
56400.000			29.992			-3.749
56500.000			29.991			-3.749
56600.000			29.989			-3.749
56700.000			29.988			-3.749
56801.000			29.988			-3.748
56901.000			29.987			-3.748
57001.000			29.986			-3.748
57102.000			29.986			-3.748
57200.000			29.985			-3.748
57300.000			29.984			-3.748
57401.000			29.983			-3.748
57500.000			29.982			-3.748
57600.000			29.981			-3.748
57701.000			29.979			-3.747
57801.000			29.979			-3.747
57901.000			29.978			-3.747
58001.000			29.976			-3.747
58100.000			29.975			-3.747
58200.000			29.974			-3.747
58301.000			29.973			-3.747
58400.000			29.974			-3.747
58500.000			29.972			-3.747
58601.000			29.971			-3.746
58701.000			29.970			-3.746
58801.000			29.969			-3.746
58901.000			29.968			-3.746
59000.000			29.967			-3.746
59100.000			29.967			-3.746
59201.000			29.966			-3.746
59300.000			29.965			-3.746
59400.000			29.963			-3.745
59502.000			29.962			-3.745
59601.000			29.962			-3.745
59700.000			29.960			-3.745
59800.000			29.959			-3.745
59900.000			29.959			-3.745
60001.000			29.958			-3.745
60100.000			29.957			-3.745
60200.000			29.956			-3.745
60302.000			29.955			-3.744
60401.000			29.954			-3.744
60501.000			29.953			-3.744
60601.000			29.952			-3.744
60700.000			29.952			-3.744
60800.000			29.952			-3.744
60901.000			29.949			-3.744
61000.000			29.948			-3.743
61100.000			29.947			-3.743
61202.000			29.946			-3.743
61301.000			29.946			-3.743
61400.000			29.945			-3.743
61501.000			29.944			-3.743
61600.000			29.942			-3.743
61700.000			29.941			-3.743
61801.000			29.940			-3.743
61900.000			29.940			-3.742
62001.000			29.940			-3.743
62102.000			29.940			-3.743
62200.000			29.938			-3.742
62300.000			29.938			-3.742
62401.000			29.937			-3.742
62500.000			29.936			-3.742
62600.000			29.934			-3.742
62701.000			29.933			-3.742
62801.000			29.932			-3.742
62902.000			29.931			-3.741
63001.000			29.930			-3.741
63100.000			29.929			-3.741
63201.000			29.928			-3.741
63300.000			29.928			-3.741
63400.000			29.927			-3.741
63501.000			29.925			-3.741
63601.000			29.925			-3.741
63701.000			29.925			-3.741
63802.000			29.923			-3.740
63900.000			29.923			-3.740
64000.000			29.922			-3.740
64101.000			29.921			-3.740
64200.000			29.921			-3.740
64300.000			29.921			-3.740
64401.000			29.920			-3.740
64501.000			29.918			-3.740
64601.000			29.917			-3.740
64701.000			29.916			-3.740
64800.000			29.916			-3.739
64900.000			29.916			-3.740
65001.000			29.915			-3.739
65100.000			29.913			-3.739
65200.000			29.911			-3.739
65302.000			29.911			-3.739
65401.000			29.910			-3.739
65500.000			29.909			-3.739
65601.000			29.909			-3.739
65700.000			29.907			-3.738
65800.000			29.907			-3.738
65901.000			29.906			-3.738
66000.000			29.905			-3.738
66102.000			29.904			-3.738
66201.000			29.904			-3.738
66300.000			29.903			-3.738
66401.000			29.902			-3.738
66500.000			29.901			-3.738
66600.000			29.900			-3.738
66701.000			29.900			-3.737
66800.000			29.899			-3.737
66900.000			29.898			-3.737
67002.000			29.896			-3.737
67101.000			29.895			-3.737
67200.000			29.894			-3.737
67301.000			29.894			-3.737
67400.000			29.892			-3.737
67500.000			29.892			-3.736
67601.000			29.890			-3.736
67700.000			29.891			-3.736
67801.000			29.890			-3.736
67902.000			29.890			-3.736
68001.000			29.890			-3.736
68100.000			29.888			-3.736
68201.000			29.887			-3.736
68300.000			29.887			-3.736
68400.000			29.887			-3.736
68501.000			29.886			-3.736
68600.000			29.883			-3.735
68701.000			29.882			-3.735
68802.000			29.881			-3.735
68901.000			29.881			-3.735
69000.000			29.880			-3.735
69101.000			29.880			-3.735
69200.000			29.878			-3.735
69300.000			29.878			-3.735
69400.000			29.877			-3.735
69500.000			29.877			-3.735
69602.000			29.877			-3.735
69701.000			29.874			-3.734
69800.000			29.874			-3.734
69901.000			29.873			-3.734
70000.000			29.873			-3.734
70100.000			29.872			-3.734
70201.000			29.871			-3.734
70300.000			29.869			-3.734
70400.000			29.870			-3.734
70502.000			29.870			-3.734
70601.000			29.868			-3.734
70700.000			29.868			-3.733
70801.000			29.867			-3.733
70900.000			29.866			-3.733
71000.000			29.863			-3.733
71101.000			29.863			-3.733
71200.000			29.862			-3.733
71301.000			29.862			-3.733
71402.000			29.861			-3.733
71500.000			29.860			-3.733
71600.000			29.859			-3.732
71701.000			29.858			-3.732
71800.000			29.857			-3.732
71900.000			29.856			-3.732
72001.000			29.856			-3.732
72100.000			29.855			-3.732
72201.000			29.855			-3.732
72302.000			29.854			-3.732
72400.000			29.854			-3.732
72500.000			29.854			-3.732
72600.000			29.853			-3.732
72700.000			29.851			-3.731
72801.000			29.850			-3.731
72900.000			29.850			-3.731
73001.000			29.849			-3.731
73102.000			29.848			-3.731
73200.000			29.848			-3.731
73300.000			29.847			-3.731
73401.000			29.847			-3.731
73500.000			29.845			-3.731
73600.000			29.844			-3.731
73701.000			29.844			-3.731
73800.000			29.844			-3.730
73901.000			29.843			-3.730
74002.000			29.841			-3.730
74100.000			29.840			-3.730
74200.000			29.841			-3.730
74301.000			29.841			-3.730
74400.000			29.839			-3.730
74500.000			29.838			-3.730
74601.000			29.837			-3.730
74701.000			29.837			-3.730
74801.000			29.835			-3.729
74901.000			29.835			-3.729
75000.000			29.835			-3.729
75100.000			29.834			-3.729
75201.000			29.833			-3.729
75300.000			29.833			-3.729
75400.000			29.831			-3.729
75502.000			29.831			-3.729
75601.000			29.830			-3.729
75702.000			29.829			-3.729
75800.000			29.828			-3.729
75900.000			29.828			-3.728
76001.000			29.827			-3.728
76100.000			29.826			-3.728
76200.000			29.825			-3.728
76301.000			29.824			-3.728
76401.000			29.824			-3.728
76501.000			29.824			-3.728
76601.000			29.823			-3.728
76700.000			29.821			-3.728
76800.000			29.821			-3.728
76901.000			29.821			-3.728
77000.000			29.820			-3.727
77100.000			29.819			-3.727
77202.000			29.818			-3.727
77301.000			29.817			-3.727
77401.000			29.817			-3.727
77501.000			29.815			-3.727
77600.000			29.815			-3.727
77700.000			29.815			-3.727
77801.000			29.814			-3.727
77900.000			29.813			-3.727
78000.000			29.813			-3.727
78102.000			29.812			-3.727
78201.000			29.811			-3.726
78300.000			29.810			-3.726
78401.000			29.809			-3.726
78500.000			29.808			-3.726
78600.000			29.807			-3.726
78701.000			29.807			-3.726
78800.000			29.808			-3.726
78900.000			29.806			-3.726
79002.000			29.805			-3.726
79101.000			29.805			-3.726
79201.000			29.804			-3.726
79300.000			29.803			-3.725
79400.000			29.803			-3.725
79501.000			29.802			-3.725
79600.000			29.801			-3.725
79700.000			29.801			-3.725
79802.000			29.800			-3.725
79901.000			29.800			-3.725
80000.000			29.799			-3.725
80101.000			29.798			-3.725
80200.000			29.796			-3.725
80300.000			29.796			-3.725
80401.000			29.796			-3.724
80500.000			29.795			-3.724
80600.000			29.795			-3.724
80702.000			29.793			-3.724
80801.000			29.793			-3.724
80900.000			29.793			-3.724
81001.000			29.792			-3.724
81100.000			29.790			-3.724
81200.000			29.790			-3.724
81301.000			29.789			-3.724
81400.000			29.788			-3.724
81501.000			29.788			-3.724
81602.000			29.788			-3.723
81701.000			29.788			-3.724
81800.000			29.786			-3.723
81901.000			29.785			-3.723
82000.000			29.784			-3.723
82100.000			29.783			-3.723
82200.000			29.783			-3.723
82300.000			29.782			-3.723
82402.000			29.782			-3.723
82501.000			29.782			-3.723
82600.000			29.782			-3.723
82701.000			29.779			-3.722
82800.000			29.779			-3.722
82900.000			29.779			-3.722
83001.000			29.778			-3.722
83100.000			29.778			-3.722
83200.000			29.777			-3.722
83302.000			29.776			-3.722
83401.000			29.775			-3.722
83500.000			29.775			-3.722
83601.000			29.774			-3.722
83700.000			29.774			-3.722
83800.000			29.773			-3.722
83901.000			29.773			-3.722
84000.000			29.773			-3.722
84101.000			29.772			-3.722
84202.000			29.771			-3.721
84300.000			29.770			-3.721
84400.000			29.769			-3.721
84501.000			29.768			-3.721
84600.000			29.768			-3.721
84700.000			29.766			-3.721
84801.000			29.765			-3.721
84900.000			29.765			-3.721
85001.000			29.765			-3.721
85102.000			29.765			-3.721
85200.000			29.764			-3.720
85300.000			29.763			-3.720
85400.000			29.763			-3.720
85500.000			29.762			-3.720
85601.000			29.761			-3.720
85700.000			29.760			-3.720
85800.000			29.761			-3.720
85902.000			29.760			-3.720
86001.000			29.760			-3.720
86100.000			29.758			-3.720
86201.000			29.757			-3.720
86300.000			29.756			-3.720
86400.000			29.757			-3.720
86501.000			29.757			-3.720
86600.000			29.755			-3.719
86701.000			29.755			-3.719
86802.000			29.754			-3.719
86901.000			29.753			-3.719
87000.000			29.753			-3.719
87101.000			29.752			-3.719
87200.000			29.751			-3.719
87300.000			29.751			-3.719
87401.000			29.750			-3.719
87500.000			29.749			-3.719
87601.000			29.749			-3.719
87702.000			29.747			-3.718
87800.000			29.747			-3.718
87900.000			29.747			-3.718
88001.000			29.748			-3.718
88100.000			29.746			-3.718
88200.000			29.744			-3.718
88301.000			29.744			-3.718
88401.000			29.744			-3.718
88502.000			29.744			-3.718
88601.000			29.742			-3.718
88700.000			29.742			-3.718
88801.000			29.740			-3.718
88900.000			29.739			-3.717
89000.000			29.739			-3.717
89101.000			29.738			-3.717
89200.000			29.738			-3.717
89301.000			29.738			-3.717
89402.000			29.737			-3.717
89501.000			29.735			-3.717
89600.000			29.735			-3.717
89701.000			29.736			-3.717
89800.000			29.734			-3.717
89900.000			29.734			-3.717
90001.000			29.733			-3.717
90100.000			29.732			-3.717
90201.000			29.732			-3.716
90302.000			29.731			-3.716
90400.000			29.731			-3.716
90500.000			29.730			-3.716
90601.000			29.730			-3.716
90700.000			29.730			-3.716
90800.000			29.729			-3.716
90901.000			29.727			-3.716
91001.000			29.727			-3.716
91101.000			29.727			-3.716
91201.000			29.726			-3.716
91300.000			29.725			-3.716
91400.000			29.725			-3.716
91501.000			29.724			-3.716
91600.000			29.724			-3.716
91700.000			29.724			-3.716
91800.000			29.722			-3.715
91901.000			29.721			-3.715
92002.000			29.720			-3.715
92100.000			29.719			-3.715
92200.000			29.719			-3.715
92301.000			29.719			-3.715
92400.000			29.718			-3.715
92500.000			29.718			-3.715
92601.000			29.717			-3.715
92701.000			29.717			-3.715
92801.000			29.717			-3.715
92901.000			29.716			-3.715
93000.000			29.715			-3.714
93100.000			29.714			-3.714
93201.000			29.713			-3.714
93300.000			29.713			-3.714
93400.000			29.712			-3.714
93501.000			29.711			-3.714
93601.000			29.711			-3.714
93701.000			29.712			-3.714
93801.000			29.711			-3.714
93900.000			29.710			-3.714
94000.000			29.710			-3.714
94101.000			29.709			-3.714
94200.000			29.708			-3.713
94300.000			29.707			-3.713
94402.000			29.707			-3.713
94501.000			29.707			-3.713
94600.000			29.706			-3.713
94701.000			29.706			-3.713
94800.000			29.705			-3.713
94900.000			29.704			-3.713
95000.000			29.702			-3.713
95100.000			29.703			-3.713
95201.000			29.702			-3.713
95301.000			29.701			-3.713
95401.000			29.700			-3.712
95501.000			29.700			-3.713
95600.000			29.700			-3.712
95700.000			29.699			-3.712
95801.000			29.698			-3.712
95900.000			29.697			-3.712
96000.000			29.696			-3.712
96102.000			29.697			-3.712
96201.000			29.696			-3.712
96301.000			29.694			-3.712
96401.000			29.694			-3.712
96500.000			29.694			-3.712
96600.000			29.694			-3.712
96701.000			29.694			-3.712
96800.000			29.694			-3.712
96900.000			29.693			-3.712
97002.000			29.691			-3.711
97101.000			29.690			-3.711
97200.000			29.690			-3.711
97301.000			29.690			-3.711
97400.000			29.689			-3.711
97500.000			29.689			-3.711
97601.000			29.688			-3.711
97700.000			29.688			-3.711
97800.000			29.688			-3.711
97902.000			29.687			-3.711
98001.000			29.685			-3.711
98100.000			29.684			-3.711
98200.000			29.685			-3.711
98300.000			29.684			-3.711
98401.000			29.684			-3.711
98500.000			29.683			-3.710
98600.000			29.682			-3.710
98701.000			29.681			-3.710
98801.000			29.681			-3.710
98901.000			29.681			-3.710
99001.000			29.679			-3.710
99100.000			29.680			-3.710
99200.000			29.681			-3.710
99301.000			29.679			-3.710
99400.000			29.678			-3.710
99500.000			29.678			-3.710
99602.000			29.676			-3.710
99701.000			29.676			-3.709
99801.000			29.675			-3.709
99901.000			29.674			-3.709
100000.000			29.674			-3.709
100100.000			29.674			-3.709
100201.000			29.674			-3.709
100300.000			29.673			-3.709
100400.000			29.673			-3.709
100502.000			29.672			-3.709
100601.000			29.672			-3.709
100700.000			29.671			-3.709
100801.000			29.670			-3.709
100900.000			29.670			-3.709
101000.000			29.669			-3.709
101101.000			29.669			-3.709
101200.000			29.669			-3.709
101300.000			29.668			-3.708
101402.000			29.666			-3.708
101501.000			29.666			-3.708
101601.000			29.666			-3.708
101700.000			29.666			-3.708
101800.000			29.665			-3.708
101901.000			29.664			-3.708
102000.000			29.664			-3.708
102100.000			29.663			-3.708
102202.000			29.663			-3.708
102301.000			29.662			-3.708
102400.000			29.662			-3.708
102501.000			29.661			-3.708
102600.000			29.661			-3.708
102700.000			29.660			-3.708
102801.000			29.659			-3.707
102900.000			29.659			-3.707
103000.000			29.658			-3.707
103102.000			29.658			-3.707
103201.000			29.658			-3.707
103300.000			29.658			-3.707
103401.000			29.657			-3.707
103500.000			29.656			-3.707
103600.000			29.656			-3.707
103701.000			29.655			-3.707
103800.000			29.654			-3.707
103900.000			29.654			-3.707
104002.000			29.654			-3.707
104101.000			29.653			-3.707
104200.000			29.653			-3.707
104301.000			29.651			-3.706
104400.000			29.652			-3.706
104500.000			29.651			-3.706
104600.000			29.651			-3.706
104700.000			29.650			-3.706
104802.000			29.649			-3.706
104901.000			29.649			-3.706
105000.000			29.648			-3.706
105101.000			29.648			-3.706
105200.000			29.647			-3.706
105300.000			29.647			-3.706
105401.000			29.647			-3.706
105500.000			29.646			-3.706
105600.000			29.646			-3.706
105702.000			29.645			-3.706
105801.000			29.644			-3.706
105900.000			29.642			-3.705
106001.000			29.643			-3.705
106100.000			29.643			-3.705
106200.000			29.643			-3.705
106301.000			29.642			-3.705
106400.000			29.641			-3.705
106501.000			29.641			-3.705
106602.000			29.641			-3.705
106701.000			29.639			-3.705
106800.000			29.638			-3.705
106901.000			29.638			-3.705
107000.000			29.638			-3.705
107100.000			29.637			-3.705
107201.000			29.637			-3.705
107300.000			29.636			-3.705
107401.000			29.636			-3.705
107502.000			29.636			-3.704
107601.000			29.636			-3.704
107700.000			29.634			-3.704
107800.000			29.634			-3.704
107900.000			29.632			-3.704
108001.000			29.632			-3.704
108100.000			29.632			-3.704
108200.000			29.631			-3.704
108302.000			29.631			-3.704
108401.000			29.631			-3.704
108500.000			29.629			-3.704
108601.000			29.629			-3.704
108700.000			29.628			-3.703
108800.000			29.628			-3.704
108901.000			29.628			-3.703
109000.000			29.627			-3.703
109100.000			29.627			-3.703
109202.000			29.626			-3.703
109301.000			29.626			-3.703
109400.000			29.626			-3.703
109501.000			29.625			-3.703
109600.000			29.624			-3.703
109700.000			29.625			-3.703
109801.000			29.625			-3.703
109900.000			29.624			-3.703
110000.000			29.623			-3.703
110102.000			29.622			-3.703
110201.000			29.622			-3.703
110300.000			29.621			-3.703
110401.000			29.620			-3.703
110500.000			29.621			-3.703
110600.000			29.619			-3.702
110701.000			29.619			-3.702
110800.000			29.619			-3.702
110902.000			29.618			-3.702
111001.000			29.617			-3.702
111100.000			29.617			-3.702
111201.000			29.617			-3.702
111300.000			29.616			-3.702
111400.000			29.615			-3.702
111501.000			29.615			-3.702
111600.000			29.614			-3.702
111700.000			29.613			-3.702
111802.000			29.613			-3.702
111901.000			29.613			-3.702
112000.000			29.613			-3.702
112101.000			29.612			-3.702
112200.000			29.612			-3.701
112300.000			29.610			-3.701
112401.000			29.610			-3.701
112500.000			29.611			-3.701
112601.000			29.610			-3.701
112702.000			29.610			-3.701
112800.000			29.609			-3.701
112900.000			29.608			-3.701
113001.000			29.607			-3.701
113100.000			29.607			-3.701
113200.000			29.607			-3.701
113301.000			29.606			-3.701
113400.000			29.605			-3.701
113501.000			29.604			-3.701
113602.000			29.604			-3.701
113700.000			29.605			-3.701
113800.000			29.604			-3.700
113901.000			29.603			-3.700
114000.000			29.602			-3.700
114100.000			29.601			-3.700
114200.000			29.601			-3.700
114301.000			29.601			-3.700
114402.000			29.600			-3.700
114500.000			29.599			-3.700
114600.000			29.600			-3.700
114701.000			29.600			-3.700
114800.000			29.598			-3.700
114900.000			29.598			-3.700
115001.000			29.597			-3.700
115100.000			29.597			-3.700
115201.000			29.597			-3.700
115302.000			29.596			-3.699
115400.000			29.595			-3.699
115500.000			29.595			-3.699
115601.000			29.595			-3.699
115700.000			29.594			-3.699
115800.000			29.594			-3.699
115901.000			29.593			-3.699
116000.000			29.593			-3.699
116101.000			29.593			-3.699
116202.000			29.591			-3.699
116300.000			29.590			-3.699
116400.000			29.589			-3.699
116501.000			29.589			-3.699
116600.000			29.590			-3.699
116700.000			29.589			-3.699
116801.000			29.589			-3.699
116900.000			29.589			-3.699
117001.000			29.589			-3.699
117102.000			29.588			-3.699
117200.000			29.587			-3.698
117300.000			29.586			-3.698
117400.000			29.585			-3.698
117500.000			29.586			-3.698
117601.000			29.585			-3.698
117700.000			29.585			-3.698
117800.000			29.584			-3.698
117902.000			29.584			-3.698
118001.000			29.583			-3.698
118100.000			29.582			-3.698
118201.000			29.582			-3.698
118300.000			29.582			-3.698
118400.000			29.581			-3.698
118501.000			29.581			-3.698
118600.000			29.579			-3.697
118700.000			29.578			-3.697
118802.000			29.579			-3.697
118901.000			29.578			-3.697
119000.000			29.578			-3.697
119101.000			29.578			-3.697
119200.000			29.577			-3.697
119300.000			29.576			-3.697
119401.000			29.575			-3.697
119500.000			29.576			-3.697
119600.000			29.575			-3.697
119702.000			29.575			-3.697
119801.000			29.574			-3.697
119900.000			29.574			-3.697
120001.000			29.574			-3.697
120100.000			29.574			-3.697
120200.000			29.572			-3.696
120301.000			29.572			-3.696
120400.000			29.572			-3.697
120502.000			29.571			-3.696
120601.000			29.570			-3.696
120701.000			29.570			-3.696
120801.000			29.569			-3.696
120900.000			29.569			-3.696
121000.000			29.569			-3.696
121101.000			29.569			-3.696
121200.000			29.567			-3.696
121300.000			29.567			-3.696
121402.000			29.567			-3.696
121501.000			29.566			-3.696
121600.000			29.566			-3.696
121701.000			29.565			-3.696
121800.000			29.564			-3.696
121900.000			29.564			-3.696
122001.000			29.564			-3.696
122100.000			29.564			-3.695
122200.000			29.563			-3.695
122302.000			29.563			-3.695
122401.000			29.562			-3.695
122500.000			29.562			-3.695
122601.000			29.561			-3.695
122700.000			29.560			-3.695
122800.000			29.561			-3.695
122901.000			29.561			-3.695
123000.000			29.560			-3.695
123101.000			29.559			-3.695
123202.000			29.558			-3.695
123301.000			29.558			-3.695
123400.000			29.557			-3.695
123501.000			29.557			-3.695
123600.000			29.557			-3.695
123700.000			29.557			-3.695
123800.000			29.556			-3.694
123900.000			29.555			-3.694
124002.000			29.554			-3.694
124101.000			29.554			-3.694
124201.000			29.554			-3.694
124301.000			29.554			-3.694
124400.000			29.553			-3.694
124500.000			29.552			-3.694
124601.000			29.551			-3.694
124700.000			29.551			-3.694
124800.000			29.550			-3.694
124902.000			29.551			-3.694
125001.000			29.551			-3.694
125100.000			29.550			-3.694
125201.000			29.549			-3.694
125300.000			29.548			-3.694
125400.000			29.549			-3.694
125501.000			29.548			-3.693
125600.000			29.548			-3.693
125700.000			29.548			-3.693
125802.000			29.546			-3.693
125901.000			29.545			-3.693
126000.000			29.545			-3.693
126101.000			29.544			-3.693
126200.000			29.543			-3.693
126300.000			29.544			-3.693
126401.000			29.545			-3.693
126500.000			29.544			-3.693
126601.000			29.544			-3.693
126702.000			29.542			-3.693
126801.000			29.542			-3.693
126900.000			29.542			-3.693
127000.000			29.541			-3.693
127100.000			29.541			-3.693
127201.000			29.540			-3.693
127300.000			29.540			-3.693
127400.000			29.539			-3.692
127502.000			29.540			-3.692
127601.000			29.539			-3.692
127700.000			29.538			-3.692
127801.000			29.537			-3.692
127900.000			29.537			-3.692
128000.000			29.537			-3.692
128101.000			29.536			-3.692
128200.000			29.536			-3.692
128300.000			29.536			-3.692
128402.000			29.536			-3.692
128501.000			29.535			-3.692
128600.000			29.534			-3.692
128701.000			29.534			-3.692
128800.000			29.534			-3.692
128900.000			29.532			-3.691
129001.000			29.532			-3.692
129100.000			29.532			-3.692
129201.000			29.532			-3.691
129302.000			29.531			-3.691
129401.000			29.530			-3.691
129500.000			29.530			-3.691
129601.000			29.530			-3.691
129700.000			29.530			-3.691
129800.000			29.530			-3.691
129901.000			29.529			-3.691
130000.000			29.528			-3.691
130102.000			29.528			-3.691
130201.000			29.528			-3.691
130300.000			29.528			-3.691
130401.000			29.527			-3.691
130500.000			29.526			-3.691
130600.000			29.525			-3.691
130701.000			29.526			-3.691
130800.000			29.525			-3.691
130900.000			29.524			-3.691
131002.000			29.523			-3.690
131101.000			29.524			-3.691
131200.000			29.523			-3.690
131301.000			29.522			-3.690
131400.000			29.522			-3.690
131500.000			29.523			-3.690
131601.000			29.522			-3.690
131700.000			29.521			-3.690
131800.000			29.521			-3.690
131902.000			29.521			-3.690
132001.000			29.520			-3.690
132100.000			29.520			-3.690
132201.000			29.518			-3.690
132300.000			29.518			-3.690
132400.000			29.520			-3.690
132501.000			29.518			-3.690
132600.000			29.518			-3.690
132700.000			29.518			-3.690
132802.000			29.517			-3.690
132901.000			29.517			-3.690
133001.000			29.515			-3.689
133101.000			29.515			-3.689
133200.000			29.515			-3.689
133300.000			29.515			-3.689
133400.000			29.514			-3.689
133500.000			29.513			-3.689
133601.000			29.514			-3.689
133701.000			29.514			-3.689
133801.000			29.512			-3.689
133902.000			29.511			-3.689
134000.000			29.511			-3.689
134100.000			29.510			-3.689
134201.000			29.510			-3.689
134300.000			29.511			-3.689
134400.000			29.510			-3.689
134501.000			29.510			-3.689
134601.000			29.509			-3.689
134701.000			29.508			-3.689
134802.000			29.507			-3.688
134900.000			29.508			-3.688
135000.000			29.507			-3.688
135101.000			29.506			-3.688
135200.000			29.506			-3.688
135300.000			29.507			-3.688
135401.000			29.505			-3.688
135500.000			29.504			-3.688
135601.000			29.504			-3.688
135702.000			29.504			-3.688
135800.000			29.504			-3.688
135900.000			29.504			-3.688
136001.000			29.503			-3.688
136100.000			29.503			-3.688
136200.000			29.502			-3.688
136301.000			29.501			-3.688
136400.000			29.501			-3.688
136502.000			29.501			-3.688
136601.000			29.501			-3.688
136701.000			29.501			-3.688
136801.000			29.501			-3.688
136900.000			29.499			-3.687
137000.000			29.499			-3.687
137101.000			29.499			-3.687
137200.000			29.498			-3.687
137300.000			29.498			-3.687
137401.000			29.499			-3.687
137501.000			29.498			-3.687
137601.000			29.496			-3.687
137701.000			29.496			-3.687
137800.000			29.496			-3.687
137900.000			29.496			-3.687
138001.000			29.495			-3.687
138100.000			29.494			-3.687
138200.000			29.494			-3.687
138301.000			29.494			-3.687
138400.000			29.493			-3.687
138501.000			29.492			-3.686
138602.000			29.492			-3.686
138700.000			29.492			-3.687
138800.000			29.492			-3.687
138901.000			29.492			-3.687
139000.000			29.491			-3.686
139100.000			29.490			-3.686
139201.000			29.490			-3.686
139300.000			29.490			-3.686
139400.000			29.489			-3.686
139502.000			29.489			-3.686
139601.000			29.489			-3.686
139700.000			29.488			-3.686
139800.000			29.488			-3.686
139900.000			29.488			-3.686
140001.000			29.487			-3.686
140100.000			29.486			-3.686
140200.000			29.485			-3.686
140301.000			29.485			-3.686
140401.000			29.485			-3.686
140501.000			29.486			-3.686
140602.000			29.484			-3.685
140700.000			29.483			-3.685
140800.000			29.483			-3.685
140901.000			29.483			-3.685
141000.000			29.482			-3.685
141100.000			29.482			-3.685
141201.000			29.482			-3.685
141300.000			29.481			-3.685
141401.000			29.480			-3.685
141502.000			29.480			-3.685
141600.000			29.481			-3.685
141700.000			29.480			-3.685
141801.000			29.480			-3.685
141900.000			29.479			-3.685
142000.000			29.478			-3.685
142101.000			29.479			-3.685
142200.000			29.478			-3.685
142301.000			29.478			-3.685
142402.000			29.478			-3.685
142501.000			29.477			-3.685
142600.000			29.477			-3.685
142701.000			29.476			-3.684
142800.000			29.476			-3.685
142900.000			29.476			-3.685
143000.000			29.475			-3.684
143100.000			29.474			-3.684
143201.000			29.474			-3.684
143301.000			29.474			-3.684
143401.000			29.473			-3.684
143501.000			29.473			-3.684
143600.000			29.473			-3.684
143700.000			29.473			-3.684
143801.000			29.472			-3.684
143900.000			29.471			-3.684
144000.000			29.471			-3.684
144101.000			29.471			-3.684
144201.000			29.470			-3.684
144301.000			29.469			-3.684
144402.000			29.469			-3.684
144500.000			29.469			-3.684
144600.000			29.469			-3.684
144701.000			29.468			-3.683
144800.000			29.468			-3.684
144900.000			29.468			-3.683
145001.000			29.468			-3.683
145100.000			29.468			-3.683
145201.000			29.467			-3.683
145302.000			29.467			-3.683
145401.000			29.467			-3.683
145500.000			29.466			-3.683
145601.000			29.464			-3.683
145700.000			29.463			-3.683
145800.000			29.464			-3.683
145901.000			29.463			-3.683
146000.000			29.463			-3.683
146100.000			29.463			-3.683
146202.000			29.462			-3.683
146301.000			29.461			-3.683
146401.000			29.461			-3.683
146500.000			29.461			-3.683
146600.000			29.460			-3.683
146701.000			29.460			-3.683
146800.000			29.460			-3.682
146900.000			29.458			-3.682
147001.000			29.459			-3.682
147100.000			29.458			-3.682
147201.000			29.458			-3.682
147302.000			29.458			-3.682
147400.000			29.457			-3.682
147500.000			29.457			-3.682
147601.000			29.457			-3.682
147700.000			29.457			-3.682
147800.000			29.456			-3.682
147901.000			29.455			-3.682
148000.000			29.455			-3.682
148100.000			29.456			-3.682
148202.000			29.455			-3.682
148301.000			29.454			-3.682
148400.000			29.454			-3.682
148501.000			29.454			-3.682
148600.000			29.454			-3.682
148700.000			29.454			-3.682
148801.000			29.453			-3.682
148900.000			29.452			-3.681
149000.000			29.452			-3.681
149102.000			29.451			-3.681
149201.000			29.451			-3.681
149302.000			29.451			-3.681
149400.000			29.450			-3.681
149500.000			29.450			-3.681
149601.000			29.449			-3.681
149700.000			29.449			-3.681
149800.000			29.449			-3.681
149901.000			29.448			-3.681
150000.000			29.449			-3.681
150101.000			29.448			-3.681
150202.000			29.447			-3.681
150301.000			29.446			-3.681
150400.000			29.446			-3.681
150501.000			29.447			-3.681
150600.000			29.444			-3.681
150700.000			29.445			-3.681
150801.000			29.444			-3.681
150900.000			29.445			-3.681
151000.000			29.444			-3.681
151102.000			29.444			-3.681
151201.000			29.443			-3.680
151300.000			29.443			-3.680
151401.000			29.443			-3.680
151500.000			29.442			-3.680
151600.000			29.442			-3.680
151701.000			29.442			-3.680
151800.000			29.441			-3.680
151900.000			29.441			-3.680
152002.000			29.440			-3.680
152101.000			29.439			-3.680
152200.000			29.439			-3.680
152301.000			29.440			-3.680
152400.000			29.439			-3.680
152500.000			29.439			-3.680
152600.000			29.439			-3.680
152700.000			29.438			-3.680
152801.000			29.438			-3.680
152901.000			29.437			-3.680
153001.000			29.437			-3.680
153102.000			29.437			-3.680
153200.000			29.437			-3.680
153300.000			29.435			-3.679
153401.000			29.434			-3.679
153500.000			29.435			-3.679
153600.000			29.434			-3.679
153701.000			29.434			-3.679
153801.000			29.434			-3.679
153901.000			29.433			-3.679
154002.000			29.434			-3.679
154100.000			29.433			-3.679
154200.000			29.433			-3.679
154301.000			29.432			-3.679
154400.000			29.431			-3.679
154500.000			29.431			-3.679
154601.000			29.431			-3.679
154700.000			29.430			-3.679
154801.000			29.429			-3.679
154902.000			29.430			-3.679
155000.000			29.429			-3.679
155100.000			29.429			-3.679
155201.000			29.428			-3.679
155300.000			29.428			-3.679
155400.000			29.429			-3.679
155501.000			29.429			-3.679
155600.000			29.429			-3.679
155702.000			29.427			-3.678
155801.000			29.427			-3.678
155901.000			29.426			-3.678
156001.000			29.425			-3.678
156100.000			29.425			-3.678
156200.000			29.425			-3.678
156301.000			29.425			-3.678
156400.000			29.425			-3.678
156500.000			29.423			-3.678
156601.000			29.423			-3.678
156701.000			29.423			-3.678
156801.000			29.424			-3.678
156901.000			29.424			-3.678
157000.000			29.423			-3.678
157100.000			29.423			-3.678
157201.000			29.422			-3.678
157300.000			29.421			-3.678
157400.000			29.421			-3.678
157501.000			29.421			-3.678
157601.000			29.420			-3.678
157701.000			29.420			-3.677
157801.000			29.420			-3.677
157900.000			29.419			-3.677
158000.000			29.419			-3.677
158101.000			29.419			-3.677
158200.000			29.418			-3.677
158300.000			29.417			-3.677
158401.000			29.418			-3.677
158500.000			29.417			-3.677
158601.000			29.416			-3.677
158702.000			29.415			-3.677
158800.000			29.416			-3.677
158900.000			29.416			-3.677
159000.000			29.416			-3.677
159100.000			29.414			-3.677
159201.000			29.415			-3.677
159300.000			29.414			-3.677
159400.000			29.414			-3.677
159501.000			29.414			-3.677
159601.000			29.414			-3.677
159701.000			29.414			-3.677
159801.000			29.414			-3.677
159900.000			29.414			-3.677
160000.000			29.413			-3.677
160101.000			29.412			-3.676
160200.000			29.411			-3.676
160300.000			29.411			-3.676
160401.000			29.411			-3.676
160501.000			29.410			-3.676
160601.000			29.410			-3.676
160701.000			29.410			-3.676
160800.000			29.409			-3.676
160900.000			29.409			-3.676
161001.000			29.409			-3.676
161100.000			29.409			-3.676
161200.000			29.408			-3.676
161301.000			29.408			-3.676
161401.000			29.408			-3.676
161501.000			29.406			-3.676
161602.000			29.406			-3.676
161700.000			29.406			-3.676
161800.000			29.405			-3.676
161901.000			29.406			-3.676
162000.000			29.405			-3.676
162100.000			29.404			-3.676
162200.000			29.404			-3.675
162300.000			29.403			-3.675
162402.000			29.403			-3.675
162501.000			29.403			-3.675
162600.000			29.403			-3.675
162701.000			29.403			-3.675
162800.000			29.403			-3.675
162900.000			29.402			-3.675
163001.000			29.402			-3.675
163100.000			29.401			-3.675
163200.000			29.401			-3.675
163302.000			29.402			-3.675
163401.000			29.401			-3.675
163500.000			29.400			-3.675
163601.000			29.398			-3.675
163700.000			29.399			-3.675
163800.000			29.399			-3.675
163901.000			29.398			-3.675
164000.000			29.399			-3.675
164100.000			29.399			-3.675
164201.000			29.398			-3.675
164301.000			29.397			-3.675
164401.000			29.396			-3.674
164501.000			29.396			-3.674
164600.000			29.397			-3.675
164700.000			29.397			-3.675
164801.000			29.396			-3.675
164900.000			29.395			-3.674
165000.000			29.394			-3.674
165101.000			29.393			-3.674
165201.000			29.392			-3.674
165302.000			29.392			-3.674
165401.000			29.391			-3.674
165500.000			29.392			-3.674
165601.000			29.392			-3.674
165700.000			29.391			-3.674
165800.000			29.390			-3.674
165901.000			29.390			-3.674
166000.000			29.390			-3.674
166100.000			29.390			-3.674
166202.000			29.389			-3.674
166301.000			29.389			-3.674
166401.000			29.389			-3.674
166501.000			29.389			-3.674
166600.000			29.388			-3.674
166700.000			29.388			-3.674
166801.000			29.388			-3.674
166900.000			29.387			-3.673
167000.000			29.387			-3.673
167101.000			29.388			-3.673
167201.000			29.387			-3.673
167301.000			29.385			-3.673
167401.000			29.386			-3.673
167500.000			29.386			-3.673
167600.000			29.385			-3.673
167701.000			29.384			-3.673
167800.000			29.385			-3.673
167900.000			29.384			-3.673
168001.000			29.384			-3.673
168100.000			29.384			-3.673
168201.000			29.384			-3.673
168302.000			29.384			-3.673
168400.000			29.383			-3.673
168500.000			29.383			-3.673
168600.000			29.383			-3.673
168700.000			29.383			-3.673
168801.000			29.381			-3.673
168900.000			29.380			-3.673
169000.000			29.380			-3.673
169101.000			29.380			-3.672
169201.000			29.378			-3.672
169301.000			29.378			-3.672
169401.000			29.378			-3.672
169500.000			29.378			-3.672
169600.000			29.378			-3.672
169701.000			29.378			-3.672
169800.000			29.378			-3.672
169900.000			29.378			-3.672
170001.000			29.378			-3.672
170100.000			29.378			-3.672
170201.000			29.377			-3.672
170302.000			29.376			-3.672
170400.000			29.377			-3.672
170500.000			29.377			-3.672
170601.000			29.376			-3.672
170700.000			29.376			-3.672
170800.000			29.374			-3.672
170901.000			29.374			-3.672
171000.000			29.374			-3.672
171101.000			29.374			-3.672
171202.000			29.375			-3.672
171301.000			29.374			-3.672
171400.000			29.373			-3.672
171501.000			29.373			-3.672
171600.000			29.373			-3.672
171700.000			29.372			-3.672
171800.000			29.372			-3.672
171900.000			29.372			-3.672
172001.000			29.371			-3.671
172101.000			29.369			-3.671
172201.000			29.370			-3.671
172301.000			29.370			-3.671
172400.000			29.369			-3.671
172500.000			29.369			-3.671
172601.000			29.369			-3.671
172700.000			29.368			-3.671
172800.000			29.367			-3.671
172901.000			29.367			-3.671
173001.000			29.367			-3.671
173101.000			29.367			-3.671
173202.000			29.366			-3.671
173300.000			29.366			-3.671
173400.000			29.366			-3.671
173501.000			29.365			-3.671
173600.000			29.365			-3.671
173700.000			29.365			-3.671
173801.000			29.364			-3.670
173900.000			29.363			-3.670
174001.000			29.364			-3.670
174102.000			29.363			-3.670
174201.000			29.363			-3.670
174300.000			29.362			-3.670
174401.000			29.362			-3.670
174500.000			29.361			-3.670
174600.000			29.361			-3.670
174701.000			29.361			-3.670
174800.000			29.361			-3.670
174900.000			29.360			-3.670
175002.000			29.359			-3.670
175101.000			29.359			-3.670
175201.000			29.359			-3.670
175300.000			29.359			-3.670
175400.000			29.359			-3.670
175501.000			29.359			-3.670
175600.000			29.359			-3.670
175700.000			29.358			-3.670
175801.000			29.357			-3.670
175901.000			29.357			-3.670
176001.000			29.357			-3.670
176102.000			29.356			-3.669
176200.000			29.356			-3.670
176300.000			29.355			-3.669
176401.000			29.355			-3.669
176500.000			29.355			-3.669
176600.000			29.354			-3.669
176701.000			29.355			-3.669
176800.000			29.354			-3.669
176900.000			29.354			-3.669
177002.000			29.355			-3.669
177101.000			29.355			-3.669
177200.000			29.354			-3.669
177301.000			29.353			-3.669
177400.000			29.352			-3.669
177500.000			29.352			-3.669
177601.000			29.352			-3.669
177700.000			29.351			-3.669
177800.000			29.350			-3.669
177902.000			29.350			-3.669
178001.000			29.350			-3.669
178100.000			29.351			-3.669
178200.000			29.351			-3.669
178300.000			29.350			-3.669
178401.000			29.349			-3.669
178500.000			29.348			-3.668
178600.000			29.348			-3.669
178701.000			29.349			-3.669
178800.000			29.349			-3.669
178901.000			29.348			-3.668
179002.000			29.348			-3.668
179100.000			29.346			-3.668
179200.000			29.347			-3.668
179301.000			29.347			-3.668
179400.000			29.346			-3.668
179500.000			29.346			-3.668
179601.000			29.347			-3.668
179700.000			29.347			-3.668
179800.000			29.346			-3.668
179902.000			29.345			-3.668
180001.000			29.344			-3.668
180100.000			29.344			-3.668
180201.000			29.344			-3.668
180300.000			29.343			-3.668
180400.000			29.342			-3.668
180501.000			29.343			-3.668
180600.000			29.343			-3.668
180700.000			29.342			-3.668
180802.000			29.342			-3.668
180901.000			29.341			-3.668
181000.000			29.341			-3.668
181101.000			29.341			-3.668
181200.000			29.341			-3.668
181300.000			29.340			-3.668
181400.000			29.340			-3.667
181500.000			29.340			-3.667
181601.000			29.340			-3.668
181701.000			29.339			-3.667
181801.000			29.339			-3.667
181901.000			29.339			-3.667
182000.000			29.338			-3.667
182100.000			29.337			-3.667
182201.000			29.337			-3.667
182300.000			29.337			-3.667
182400.000			29.336			-3.667
182501.000			29.337			-3.667
182600.000			29.336			-3.667
182701.000			29.336			-3.667
182802.000			29.335			-3.667
182900.000			29.336			-3.667
183000.000			29.336			-3.667
183101.000			29.335			-3.667
183200.000			29.335			-3.667
183300.000			29.334			-3.667
183401.000			29.334			-3.667
183500.000			29.334			-3.667
183601.000			29.334			-3.667
183702.000			29.333			-3.667
183801.000			29.333			-3.667
183900.000			29.333			-3.667
184001.000			29.333			-3.667
184100.000			29.331			-3.666
184200.000			29.330			-3.666
184301.000			29.330			-3.666
184400.000			29.330			-3.666
184500.000			29.331			-3.666
184602.000			29.331			-3.666
184701.000			29.330			-3.666
184801.000			29.330			-3.666
184900.000			29.329			-3.666
185000.000			29.329			-3.666
185101.000			29.330			-3.666
185200.000			29.329			-3.666
185300.000			29.328			-3.666
185401.000			29.329			-3.666
185501.000			29.327			-3.666
185601.000			29.327			-3.666
185702.000			29.327			-3.666
185800.000			29.327			-3.666
185900.000			29.327			-3.666
186001.000			29.326			-3.666
186100.000			29.325			-3.666
186200.000			29.325			-3.666
186301.000			29.324			-3.666
186400.000			29.325			-3.666
186501.000			29.325			-3.666
186602.000			29.325			-3.666
186701.000			29.324			-3.665
186800.000			29.323			-3.665
186901.000			29.323			-3.665
187000.000			29.322			-3.665
187100.000			29.321			-3.665
187201.000			29.321			-3.665
187300.000			29.321			-3.665
187400.000			29.322			-3.665
187502.000			29.322			-3.665
187601.000			29.322			-3.665
187700.000			29.321			-3.665
187800.000			29.321			-3.665
187900.000			29.320			-3.665
188001.000			29.320			-3.665
188100.000			29.319			-3.665
188200.000			29.320			-3.665
188301.000			29.318			-3.665
188400.000			29.319			-3.665
188501.000			29.318			-3.665
188602.000			29.317			-3.665
188700.000			29.318			-3.665
188800.000			29.317			-3.665
188901.000			29.316			-3.665
189000.000			29.317			-3.665
189100.000			29.316			-3.664
189201.000			29.316			-3.664
189300.000			29.316			-3.665
189400.000			29.316			-3.664
189502.000			29.315			-3.664
189601.000			29.315			-3.664
189700.000			29.315			-3.664
189801.000			29.314			-3.664
189900.000			29.314			-3.664
190000.000			29.314			-3.664
190101.000			29.313			-3.664
190200.000			29.313			-3.664
190300.000			29.313			-3.664
190402.000			29.312			-3.664
190501.000			29.311			-3.664
190601.000			29.311			-3.664
190701.000			29.311			-3.664
190800.000			29.311			-3.664
190900.000			29.310			-3.664
191000.000			29.310			-3.664
191100.000			29.311			-3.664
191201.000			29.309			-3.664
191301.000			29.309			-3.664
191401.000			29.309			-3.664
191502.000			29.310			-3.664
191600.000			29.310			-3.664
191700.000			29.309			-3.664
191801.000			29.308			-3.664
191900.000			29.308			-3.663
192000.000			29.307			-3.663
192101.000			29.307			-3.663
192200.000			29.307			-3.663
192301.000			29.305			-3.663
192402.000			29.306			-3.663
192501.000			29.306			-3.663
192600.000			29.306			-3.663
192701.000			29.306			-3.663
192800.000			29.305			-3.663
192900.000			29.305			-3.663
193001.000			29.305			-3.663
193100.000			29.305			-3.663
193200.000			29.305			-3.663
193302.000			29.305			-3.663
193401.000			29.304			-3.663
193500.000			29.303			-3.663
193601.000			29.303			-3.663
193700.000			29.302			-3.663
193800.000			29.302			-3.663
193901.000			29.302			-3.663
194000.000			29.302			-3.663
194100.000			29.302			-3.663
194202.000			29.301			-3.663
194301.000			29.301			-3.663
194402.000			29.301			-3.663
194500.000			29.300			-3.663
194600.000			29.299			-3.662
194701.000			29.300			-3.662
194800.000			29.299			-3.662
194900.000			29.299			-3.662
195001.000			29.298			-3.662
195100.000			29.299			-3.662
195201.000			29.299			-3.662
195302.000			29.299			-3.662
195401.000			29.298			-3.662
195500.000			29.298			-3.662
195601.000			29.298			-3.662
195700.000			29.297			-3.662
195800.000			29.296			-3.662
195901.000			29.296			-3.662
196000.000			29.297			-3.662
196100.000			29.297			-3.662
196202.000			29.296			-3.662
196301.000			29.296			-3.662
196401.000			29.296			-3.662
196501.000			29.294			-3.662
196600.000			29.294			-3.662
196700.000			29.295			-3.662
196801.000			29.295			-3.662
196900.000			29.293			-3.662
197000.000			29.293			-3.662
197101.000			29.294			-3.662
197201.000			29.294			-3.662
197302.000			29.293			-3.662
197401.000			29.291			-3.661
197500.000			29.292			-3.661
197601.000			29.292			-3.662
197700.000			29.292			-3.661
197800.000			29.292			-3.662
197901.000			29.292			-3.661
198000.000			29.291			-3.661
198100.000			29.290			-3.661
198202.000			29.290			-3.661
198301.000			29.290			-3.661
198401.000			29.290			-3.661
198501.000			29.289			-3.661
198600.000			29.288			-3.661
198700.000			29.288			-3.661
198801.000			29.289			-3.661
198900.000			29.287			-3.661
199000.000			29.288			-3.661
199101.000			29.289			-3.661
199201.000			29.287			-3.661
199301.000			29.286			-3.661
199402.000			29.287			-3.661
199500.000			29.287			-3.661
199600.000			29.287			-3.661
199701.000			29.286			-3.661
199800.000			29.286			-3.661
199900.000			29.284			-3.661
200001.000			29.284			-3.660
200100.000			29.283			-3.660
200200.000			29.284			-3.660
200302.000			29.284			-3.660
200401.000			29.283			-3.660
200500.000			29.284			-3.660
200600.000			29.284			-3.660
200700.000			29.283			-3.660
200801.000			29.283			-3.660
200900.000			29.283			-3.660
201000.000			29.283			-3.660
201101.000			29.282			-3.660
201201.000			29.282			-3.660
201301.000			29.282			-3.660
201401.000			29.281			-3.660
201500.000			29.280			-3.660
201600.000			29.281			-3.660
201701.000			29.281			-3.660
201800.000			29.279			-3.660
201900.000			29.280			-3.660
202001.000			29.280			-3.660
202101.000			29.280			-3.660
202201.000			29.279			-3.660
202301.000			29.278			-3.660
202400.000			29.278			-3.660
202500.000			29.278			-3.660
202601.000			29.278			-3.660
202700.000			29.278			-3.660
202800.000			29.277			-3.660
202901.000			29.277			-3.660
203001.000			29.276			-3.660
203101.000			29.277			-3.660
203202.000			29.277			-3.660
203300.000			29.277			-3.660
203400.000			29.276			-3.660
203501.000			29.276			-3.659
203600.000			29.275			-3.659
203700.000			29.274			-3.659
203800.000			29.274			-3.659
203900.000			29.274			-3.659
204002.000			29.274			-3.659
204101.000			29.274			-3.659
204200.000			29.273			-3.659
204301.000			29.273			-3.659
204400.000			29.272			-3.659
204500.000			29.272			-3.659
204601.000			29.272			-3.659
204700.000			29.272			-3.659
204800.000			29.272			-3.659
204902.000			29.272			-3.659
205001.000			29.272			-3.659
205100.000			29.272			-3.659
205201.000			29.271			-3.659
205300.000			29.270			-3.659
205400.000			29.270			-3.659
205501.000			29.270			-3.659
205600.000			29.270			-3.659
205700.000			29.270			-3.659
205802.000			29.269			-3.659
205901.000			29.269			-3.659
206000.000			29.269			-3.659
206101.000			29.267			-3.658
206200.000			29.268			-3.658
206300.000			29.268			-3.658
206401.000			29.267			-3.658
206500.000			29.266			-3.658
206600.000			29.267			-3.658
206702.000			29.266			-3.658
206801.000			29.266			-3.658
206902.000			29.266			-3.658
207000.000			29.265			-3.658
207100.000			29.265			-3.658
207201.000			29.266			-3.658
207300.000			29.265			-3.658
207400.000			29.264			-3.658
207501.000			29.265			-3.658
207600.000			29.264			-3.658
207701.000			29.263			-3.658
207802.000			29.263			-3.658
207900.000			29.263			-3.658
208000.000			29.262			-3.658
208101.000			29.262			-3.658
208200.000			29.261			-3.658
208300.000			29.262			-3.658
208401.000			29.262			-3.658
208500.000			29.263			-3.658
208601.000			29.262			-3.658
208702.000			29.262			-3.658
208801.000			29.262			-3.658
208900.000			29.261			-3.658
209001.000			29.261			-3.658
209100.000			29.260			-3.657
209200.000			29.259			-3.657
209301.000			29.260			-3.657
209400.000			29.259			-3.657
209500.000			29.258			-3.657
209602.000			29.258			-3.657
209701.000			29.259			-3.657
209800.000			29.260			-3.657
209901.000			29.258			-3.657
210000.000			29.257			-3.657
210100.000			29.257			-3.657
210200.000			29.258			-3.657
210300.000			29.257			-3.657
210401.000			29.257			-3.657
210501.000			29.256			-3.657
210601.000			29.256			-3.657
210702.000			29.256			-3.657
210800.000			29.256			-3.657
210900.000			29.256			-3.657
211001.000			29.255			-3.657
211100.000			29.255			-3.657
211200.000			29.254			-3.657
211301.000			29.254			-3.657
211401.000			29.254			-3.657
211501.000			29.254			-3.657
211602.000			29.254			-3.657
211700.000			29.254			-3.657
211800.000			29.254			-3.657
211901.000			29.253			-3.657
212000.000			29.252			-3.657
212100.000			29.253			-3.657
212201.000			29.253			-3.657
212300.000			29.253			-3.657
212401.000			29.252			-3.656
212502.000			29.252			-3.657
212600.000			29.252			-3.656
212700.000			29.251			-3.656
212801.000			29.251			-3.656
212900.000			29.251			-3.656
213000.000			29.250			-3.656
213101.000			29.249			-3.656
213200.000			29.249			-3.656
213302.000			29.249			-3.656
213401.000			29.249			-3.656
213500.000			29.249			-3.656
213601.000			29.249			-3.656
213700.000			29.248			-3.656
213800.000			29.248			-3.656
213901.000			29.247			-3.656
214000.000			29.246			-3.656
214100.000			29.248			-3.656
214202.000			29.247			-3.656
214301.000			29.248			-3.656
214401.000			29.246			-3.656
214501.000			29.246			-3.656
214600.000			29.246			-3.656
214700.000			29.245			-3.656
214801.000			29.244			-3.655
214900.000			29.244			-3.656
215000.000			29.245			-3.656
215101.000			29.244			-3.655
215201.000			29.244			-3.656
215301.000			29.243			-3.655
215401.000			29.242			-3.655
215500.000			29.242			-3.655
215600.000			29.243			-3.655
215701.000			29.242			-3.655
215800.000			29.241			-3.655
215900.000			29.242			-3.655
216001.000			29.242			-3.655
216101.000			29.242			-3.655
216201.000			29.242			-3.655
216301.000			29.242			-3.655
216400.000			29.241			-3.655
216500.000			29.240			-3.655
216600.000			29.240			-3.655
216700.000			29.240			-3.655
216801.000			29.239			-3.655
216900.000			29.239			-3.655
217000.000			29.239			-3.655
217102.000			29.239			-3.655
217201.000			29.239			-3.655
217300.000			29.238			-3.655
217401.000			29.238			-3.655
217500.000			29.236			-3.654
217600.000			29.236			-3.654
217701.000			29.236			-3.654
217800.000			29.236			-3.654
217900.000			29.236			-3.655
218002.000			29.236			-3.655
218101.000			29.236			-3.655
218201.000			29.236			-3.654
218301.000			29.235			-3.654
218400.000			29.235			-3.654
218500.000			29.235			-3.654
218601.000			29.234			-3.654
218700.000			29.233			-3.654
218800.000			29.234			-3.654
218901.000			29.234			-3.654
219001.000			29.232			-3.654
219101.000			29.232			-3.654
219201.000			29.232			-3.654
219300.000			29.233			-3.654
219400.000			29.232			-3.654
219501.000			29.232			-3.654
219600.000			29.231			-3.654
219700.000			29.231			-3.654
219800.000			29.231			-3.654
219901.000			29.231			-3.654
220002.000			29.232			-3.654
220101.000			29.231			-3.654
220200.000			29.231			-3.654
220301.000			29.230			-3.654
220400.000			29.230			-3.654
220500.000			29.231			-3.654
220601.000			29.230			-3.654
220700.000			29.229			-3.654
220801.000			29.229			-3.654
220902.000			29.229			-3.654
221001.000			29.228			-3.654
221100.000			29.229			-3.654
221201.000			29.228			-3.654
221300.000			29.227			-3.653
221400.000			29.227			-3.653
221501.000			29.227			-3.653
221600.000			29.228			-3.653
221701.000			29.227			-3.653
221802.000			29.227			-3.653
221901.000			29.228			-3.654
222000.000			29.227			-3.653
222101.000			29.225			-3.653
222200.000			29.225			-3.653
222300.000			29.225			-3.653
222401.000			29.225			-3.653
222500.000			29.225			-3.653
222601.000			29.224			-3.653
222702.000			29.224			-3.653
222801.000			29.224			-3.653
222900.000			29.223			-3.653
223000.000			29.224			-3.653
223100.000			29.223			-3.653
223201.000			29.223			-3.653
223300.000			29.223			-3.653
223400.000			29.222			-3.653
223502.000			29.222			-3.653
223601.000			29.222			-3.653
223701.000			29.222			-3.653
223801.000			29.221			-3.653
223900.000			29.221			-3.653
224000.000			29.221			-3.653
224101.000			29.220			-3.652
224200.000			29.220			-3.652
224300.000			29.220			-3.653
224401.000			29.220			-3.653
224501.000			29.219			-3.652
224601.000			29.219			-3.652
224701.000			29.219			-3.652
224800.000			29.218			-3.652
224900.000			29.217			-3.652
225001.000			29.217			-3.652
225100.000			29.218			-3.652
225200.000			29.217			-3.652
225301.000			29.218			-3.652
225401.000			29.218			-3.652
225501.000			29.218			-3.652
225601.000			29.216			-3.652
225700.000			29.216			-3.652
225800.000			29.217			-3.652
225901.000			29.215			-3.652
226000.000			29.215			-3.652
226100.000			29.215			-3.652
226200.000			29.215			-3.652
226301.000			29.215			-3.652
226402.000			29.215			-3.652
226501.000			29.215			-3.652
226600.000			29.215			-3.652
226701.000			29.215			-3.652
226800.000			29.214			-3.652
226900.000			29.213			-3.652
227001.000			29.213			-3.652
227100.000			29.213			-3.652
227201.000			29.213			-3.652
227302.000			29.212			-3.651
227401.000			29.213			-3.652
227500.000			29.212			-3.652
227601.000			29.211			-3.651
227700.000			29.211			-3.651
227800.000			29.212			-3.652
227901.000			29.211			-3.651
228000.000			29.210			-3.651
228101.000			29.211			-3.651
228202.000			29.210			-3.651
228301.000			29.210			-3.651
228400.000			29.210			-3.651
228501.000			29.209			-3.651
228600.000			29.209			-3.651
228700.000			29.209			-3.651
228801.000			29.208			-3.651
228900.000			29.208			-3.651
229000.000			29.208			-3.651
229102.000			29.207			-3.651
229201.000			29.207			-3.651
229300.000			29.207			-3.651
229400.000			29.207			-3.651
229500.000			29.206			-3.651
229601.000			29.207			-3.651
229700.000			29.207			-3.651
229800.000			29.207			-3.651
229901.000			29.206			-3.651
230001.000			29.205			-3.651
230101.000			29.205			-3.651
230202.000			29.204			-3.651
230300.000			29.205			-3.651
230400.000			29.204			-3.651
230501.000			29.204			-3.650
230600.000			29.204			-3.651
230700.000			29.204			-3.651
230801.000			29.205			-3.651
230901.000			29.203			-3.650
231001.000			29.203			-3.650
231102.000			29.202			-3.650
231200.000			29.201			-3.650
231300.000			29.201			-3.650
231401.000			29.201			-3.650
231500.000			29.200			-3.650
231600.000			29.201			-3.650
231701.000			29.201			-3.650
231801.000			29.201			-3.650
231901.000			29.199			-3.650
232002.000			29.199			-3.650
232100.000			29.199			-3.650
232200.000			29.200			-3.650
232301.000			29.200			-3.650
232400.000			29.200			-3.650
232500.000			29.201			-3.650
232600.000			29.200			-3.650
232700.000			29.199			-3.650
232802.000			29.199			-3.650
232901.000			29.198			-3.650
233000.000			29.198			-3.650
233101.000			29.198			-3.650
233200.000			29.198			-3.650
233300.000			29.197			-3.650
233401.000			29.196			-3.650
233500.000			29.197			-3.650
233600.000			29.197			-3.650
233702.000			29.197			-3.650
233801.000			29.196			-3.649
233901.000			29.196			-3.649
234001.000			29.196			-3.649
234100.000			29.194			-3.649
234200.000			29.195			-3.649
234301.000			29.197			-3.650
234400.000			29.196			-3.649
234500.000			29.195			-3.649
234601.000			29.194			-3.649
234701.000			29.194			-3.649
234801.000			29.195			-3.649
234901.000			29.195			-3.649
235000.000			29.194			-3.649
235100.000			29.193			-3.649
235201.000			29.193			-3.649
235300.000			29.193			-3.649
235400.000			29.192			-3.649
235501.000			29.192			-3.649
235600.000			29.191			-3.649
235702.000			29.191			-3.649
235801.000			29.191			-3.649
235900.000			29.191			-3.649
236001.000			29.190			-3.649
236100.000			29.192			-3.649
236200.000			29.190			-3.649
236301.000			29.190			-3.649
236400.000			29.191			-3.649
236500.000			29.191			-3.649
236602.000			29.190			-3.649
236701.000			29.190			-3.649
236801.000			29.189			-3.649
236901.000			29.189			-3.649
237000.000			29.188			-3.649
237100.000			29.188			-3.648
237201.000			29.189			-3.649
237300.000			29.188			-3.648
237400.000			29.186			-3.648
237501.000			29.187			-3.648
237601.000			29.187			-3.648
237701.000			29.187			-3.648
237802.000			29.187			-3.648
237900.000			29.186			-3.648
238000.000			29.186			-3.648
238101.000			29.186			-3.648
238200.000			29.185			-3.648
238300.000			29.186			-3.648
238401.000			29.185			-3.648
238500.000			29.186			-3.648
238601.000			29.185			-3.648
238702.000			29.185			-3.648
238800.000			29.185			-3.648
238900.000			29.185			-3.648
239000.000			29.183			-3.648
239100.000			29.183			-3.648
239201.000			29.182			-3.648
239300.000			29.183			-3.648
239400.000			29.182			-3.648
239502.000			29.181			-3.648
239601.000			29.182			-3.648
239701.000			29.182			-3.648
239801.000			29.182			-3.648
239900.000			29.181			-3.648
240000.000			29.181			-3.648
240101.000			29.181			-3.648
240200.000			29.180			-3.648
240300.000			29.181			-3.648
240401.000			29.180			-3.647
240501.000			29.180			-3.647
240601.000			29.179			-3.647
240701.000			29.179			-3.647
240800.000			29.180			-3.647
240900.000			29.180			-3.647
241001.000			29.180			-3.647
241100.000			29.177			-3.647
241200.000			29.178			-3.647
241301.000			29.178			-3.647
241401.000			29.177			-3.647
241501.000			29.177			-3.647
241602.000			29.177			-3.647
241700.000			29.176			-3.647
241800.000			29.175			-3.647
241901.000			29.176			-3.647
242000.000			29.175			-3.647
242100.000			29.176			-3.647
242200.000			29.175			-3.647
242300.000			29.175			-3.647
242402.000			29.176			-3.647
242501.000			29.176			-3.647
242601.000			29.174			-3.647
242701.000			29.174			-3.647
242800.000			29.174			-3.647
242900.000			29.174			-3.647
243001.000			29.174			-3.647
243100.000			29.174			-3.647
243200.000			29.173			-3.647
243302.000			29.173			-3.647
243401.000			29.173			-3.647
243501.000			29.172			-3.647
243601.000			29.172			-3.646
243700.000			29.172			-3.647
243800.000			29.172			-3.647
243901.000			29.172			-3.647
244000.000			29.172			-3.646
244100.000			29.171			-3.646
244201.000			29.171			-3.646
244301.000			29.170			-3.646
244401.000			29.169			-3.646
244501.000			29.170			-3.646
244600.000			29.170			-3.646
244700.000			29.169			-3.646
244801.000			29.169			-3.646
244900.000			29.168			-3.646
245000.000			29.168			-3.646
245101.000			29.168			-3.646
245201.000			29.168			-3.646
245302.000			29.169			-3.646
245401.000			29.168			-3.646
245500.000			29.168			-3.646
245601.000			29.167			-3.646
245700.000			29.167			-3.646
245800.000			29.167			-3.646
245901.000			29.168			-3.646
246000.000			29.167			-3.646
246100.000			29.166			-3.646
246202.000			29.166			-3.646
246301.000			29.165			-3.646
246401.000			29.165			-3.646
246501.000			29.166			-3.646
246600.000			29.165			-3.646
246700.000			29.165			-3.646
246801.000			29.164			-3.646
246900.000			29.165			-3.646
247000.000			29.165			-3.646
247101.000			29.164			-3.645
247201.000			29.163			-3.645
247301.000			29.164			-3.645
247401.000			29.164			-3.646
247500.000			29.164			-3.645
247600.000			29.164			-3.646
247701.000			29.163			-3.645
247800.000			29.163			-3.645
247900.000			29.163			-3.645
248001.000			29.161			-3.645
248101.000			29.161			-3.645
248201.000			29.161			-3.645
248301.000			29.161			-3.645
248400.000			29.161			-3.645
248500.000			29.161			-3.645
248600.000			29.161			-3.645
248700.000			29.160			-3.645
248801.000			29.160			-3.645
248900.000			29.160			-3.645
249000.000			29.160			-3.645
249102.000			29.159			-3.645
249201.000			29.159			-3.645
249300.000			29.159			-3.645
249401.000			29.159			-3.645
249500.000			29.160			-3.645
249600.000			29.159			-3.645
249701.000			29.159			-3.645
249800.000			29.159			-3.645
249900.000			29.158			-3.645
250002.000			29.158			-3.645
250101.000			29.157			-3.645
250201.000			29.157			-3.645
250301.000			29.157			-3.645
250400.000			29.157			-3.645
250500.000			29.158			-3.645
250601.000			29.158			-3.645
250700.000			29.157			-3.645
250800.000			29.156			-3.645
250901.000			29.156			-3.644
251001.000			29.156			-3.645
251101.000			29.155			-3.644
251201.000			29.156			-3.644
251300.000			29.156			-3.645
251400.000			29.156			-3.644
251501.000			29.156			-3.645
251600.000			29.156			-3.644
251700.000			29.155			-3.644
251800.000			29.155			-3.644
251900.000			29.155			-3.644
252002.000			29.153			-3.644
252101.000			29.153			-3.644
252200.000			29.153			-3.644
252301.000			29.152			-3.644
252400.000			29.152			-3.644
252500.000			29.152			-3.644
252601.000			29.152			-3.644
252700.000			29.153			-3.644
252800.000			29.152			-3.644
252902.000			29.152			-3.644
253001.000			29.152			-3.644
253100.000			29.151			-3.644
253201.000			29.151			-3.644
253300.000			29.150			-3.644
253400.000			29.151			-3.644
253501.000			29.151			-3.644
253600.000			29.150			-3.644
253700.000			29.150			-3.644
253802.000			29.150			-3.644
253901.000			29.151			-3.644
254001.000			29.150			-3.644
254101.000			29.149			-3.644
254200.000			29.149			-3.644
254300.000			29.149			-3.644
254401.000			29.149			-3.644
254500.000			29.148			-3.643
254600.000			29.148			-3.643
254701.000			29.148			-3.643
254801.000			29.147			-3.643
254902.000			29.147			-3.643
255000.000			29.147			-3.643
255100.000			29.146			-3.643
255201.000			29.146			-3.643
255300.000			29.145			-3.643
255400.000			29.145			-3.643
255501.000			29.145			-3.643
255600.000			29.146			-3.643
255701.000			29.144			-3.643
255802.000			29.144			-3.643
255901.000			29.145			-3.643
256000.000			29.144			-3.643
256101.000			29.144			-3.643
256200.000			29.144			-3.643
256300.000			29.143			-3.643
256401.000			29.143			-3.643
256500.000			29.142			-3.643
256600.000			29.141			-3.643
256702.000			29.142			-3.643
256801.000			29.142			-3.643
256900.000			29.141			-3.643
257001.000			29.141			-3.643
257100.000			29.141			-3.643
257200.000			29.141			-3.643
257301.000			29.140			-3.643
257400.000			29.141			-3.643
257500.000			29.141			-3.643
257602.000			29.141			-3.643
257701.000			29.141			-3.643
257800.000			29.140			-3.642
257901.000			29.139			-3.642
258000.000			29.138			-3.642
258100.000			29.139			-3.642
258200.000			29.139			-3.642
258300.000			29.140			-3.642
258401.000			29.138			-3.642
258501.000			29.138			-3.642
258601.000			29.138			-3.642
258702.000			29.137			-3.642
258800.000			29.137			-3.642
258900.000			29.137			-3.642
259001.000			29.137			-3.642
259100.000			29.137			-3.642
259200.000			29.137			-3.642
259301.000			29.136			-3.642
259400.000			29.135			-3.642
259500.000			29.136			-3.642
259602.000			29.136			-3.642
259701.000			29.135			-3.642
259800.000			29.136			-3.642
259901.000			29.135			-3.642
260000.000			29.135			-3.642
260100.000			29.135			-3.642
260201.000			29.134			-3.642
260300.000			29.134			-3.642
260400.000			29.135			-3.642
260502.000			29.134			-3.642
260601.000			29.134			-3.642
260700.000			29.134			-3.642
260801.000			29.133			-3.642
260900.000			29.133			-3.642
261000.000			29.133			-3.642
261101.000			29.133			-3.642
261200.000			29.132			-3.641
261300.000			29.131			-3.641
261402.000			29.132			-3.641
261501.000			29.131			-3.641
261601.000			29.131			-3.641
261700.000			29.132			-3.641
261800.000			29.131			-3.641
261901.000			29.130			-3.641
262000.000			29.130			-3.641
262100.000			29.131			-3.641
262201.000			29.130			-3.641
262301.000			29.128			-3.641
262401.000			29.128			-3.641
262502.000			29.129			-3.641
262600.000			29.129			-3.641
262700.000			29.129			-3.641
262801.000			29.128			-3.641
262900.000			29.128			-3.641
263000.000			29.128			-3.641
263101.000			29.128			-3.641
263200.000			29.128			-3.641
263301.000			29.127			-3.641
263402.000			29.128			-3.641
263500.000			29.127			-3.641
263600.000			29.126			-3.641
263701.000			29.126			-3.641
263800.000			29.127			-3.641
263900.000			29.127			-3.641
264001.000			29.126			-3.641
264100.000			29.126			-3.641
264201.000			29.126			-3.641
264302.000			29.125			-3.641
264401.000			29.125			-3.641
264500.000			29.125			-3.641
264600.000			29.124			-3.640
264700.000			29.123			-3.640
264801.000			29.124			-3.640
264900.000			29.124			-3.641
265000.000			29.123			-3.640
265101.000			29.123			-3.640
265201.000			29.123			-3.640
265301.000			29.123			-3.640
265401.000			29.123			-3.640
265500.000			29.122			-3.640
265600.000			29.122			-3.640
265701.000			29.123			-3.640
265800.000			29.124			-3.640
265900.000			29.122			-3.640
266001.000			29.121			-3.640
266101.000			29.120			-3.640
266201.000			29.121			-3.640
266301.000			29.121			-3.640
266400.000			29.120			-3.640
266500.000			29.121			-3.640
266601.000			29.121			-3.640
266700.000			29.120			-3.640
266800.000			29.120			-3.640
266901.000			29.120			-3.640
267001.000			29.120			-3.640
267101.000			29.119			-3.640
267202.000			29.119			-3.640
267300.000			29.119			-3.640
267400.000			29.117			-3.640
267501.000			29.118			-3.640
267600.000			29.119			-3.640
267700.000			29.119			-3.640
267800.000			29.118			-3.640
267900.000			29.118			-3.640
268002.000			29.117			-3.640
268101.000			29.117			-3.640
268200.000			29.117			-3.640
268301.000			29.117			-3.640
268400.000			29.116			-3.640
268500.000			29.116			-3.640
268601.000			29.115			-3.639
268700.000			29.115			-3.639
268800.000			29.116			-3.640
268902.000			29.116			-3.639
269001.000			29.115			-3.639
269101.000			29.116			-3.639
269201.000			29.115			-3.639
269300.000			29.114			-3.639
269400.000			29.115			-3.639
269501.000			29.115			-3.639
269600.000			29.115			-3.639
269700.000			29.115			-3.639
269801.000			29.113			-3.639
269901.000			29.113			-3.639
270001.000			29.113			-3.639
270101.000			29.113			-3.639
270200.000			29.112			-3.639
270300.000			29.112			-3.639
270401.000			29.112			-3.639
270500.000			29.112			-3.639
270600.000			29.111			-3.639
270701.000			29.111			-3.639
270801.000			29.110			-3.639
270902.000			29.111			-3.639
271000.000			29.111			-3.639
271100.000			29.111			-3.639
271201.000			29.111			-3.639
271300.000			29.110			-3.639
271400.000			29.110			-3.639
271501.000			29.109			-3.639
271600.000			29.110			-3.639
271701.000			29.109			-3.639
271802.000			29.109			-3.639
271900.000			29.109			-3.639
272000.000			29.108			-3.639
272101.000			29.109			-3.639
272200.000			29.108			-3.638
272300.000			29.107			-3.638
272401.000			29.107			-3.638
272500.000			29.107			-3.638
272601.000			29.107			-3.638
272702.000			29.107			-3.638
272801.000			29.108			-3.638
272900.000			29.107			-3.638
273001.000			29.106			-3.638
273100.000			29.106			-3.638
273200.000			29.107			-3.638
273301.000			29.107			-3.638
273400.000			29.106			-3.638
273500.000			29.106			-3.638
273602.000			29.105			-3.638
273701.000			29.106			-3.638
273800.000			29.104			-3.638
273901.000			29.105			-3.638
274000.000			29.105			-3.638
274100.000			29.104			-3.638
274200.000			29.104			-3.638
274300.000			29.105			-3.638
274401.000			29.104			-3.638
274501.000			29.103			-3.638
274601.000			29.103			-3.638
274701.000			29.102			-3.638
274800.000			29.103			-3.638
274900.000			29.103			-3.638
275001.000			29.102			-3.638
275100.000			29.101			-3.638
275200.000			29.101			-3.638
275301.000			29.101			-3.638
275401.000			29.101			-3.638
275501.000			29.101			-3.638
275601.000			29.100			-3.638
275700.000			29.100			-3.638
275800.000			29.101			-3.638
275901.000			29.100			-3.638
276000.000			29.099			-3.637
276100.000			29.101			-3.638
276201.000			29.101			-3.638
276301.000			29.099			-3.637
276401.000			29.099			-3.637
276501.000			29.099			-3.637
276600.000			29.100			-3.638
276700.000			29.100			-3.638
276801.000			29.098			-3.637
276900.000			29.098			-3.637
277000.000			29.099			-3.637
277101.000			29.098			-3.637
277200.000			29.098			-3.637
277302.000			29.098			-3.637
277401.000			29.098			-3.637
277500.000			29.097			-3.637
277601.000			29.097			-3.637
277700.000			29.097			-3.637
277800.000			29.097			-3.637
277901.000			29.097			-3.637
278000.000			29.097			-3.637
278100.000			29.096			-3.637
278201.000			29.095			-3.637
278301.000			29.096			-3.637
278401.000			29.095			-3.637
278501.000			29.095			-3.637
278600.000			29.095			-3.637
278700.000			29.094			-3.637
278801.000			29.094			-3.637
278900.000			29.094			-3.637
279000.000			29.095			-3.637
279101.000			29.094			-3.637
279201.000			29.093			-3.637
279301.000			29.094			-3.637
279402.000			29.094			-3.637
279500.000			29.093			-3.637
279600.000			29.093			-3.637
279701.000			29.094			-3.637
279800.000			29.093			-3.637
279900.000			29.092			-3.636
280001.000			29.092			-3.636
280100.000			29.092			-3.636
280200.000			29.092			-3.637
280302.000			29.092			-3.636
280401.000			29.091			-3.636
280500.000			29.091			-3.636
280600.000			29.091			-3.636
280700.000			29.091			-3.636
280801.000			29.091			-3.636
280900.000			29.091			-3.636
281000.000			29.090			-3.636
281101.000			29.091			-3.636
281201.000			29.089			-3.636
281301.000			29.089			-3.636
281401.000			29.089			-3.636
281500.000			29.089			-3.636
281600.000			29.089			-3.636
281701.000			29.089			-3.636
281800.000			29.089			-3.636
281900.000			29.088			-3.636
282001.000			29.087			-3.636
282101.000			29.088			-3.636
282201.000			29.088			-3.636
282302.000			29.086			-3.636
282400.000			29.087			-3.636
282500.000			29.089			-3.636
282601.000			29.088			-3.636
282700.000			29.086			-3.636
282800.000			29.086			-3.636
282901.000			29.087			-3.636
283000.000			29.086			-3.636
283101.000			29.086			-3.636
283202.000			29.085			-3.636
283301.000			29.086			-3.636
283400.000			29.087			-3.636
283501.000			29.087			-3.636
283600.000			29.087			-3.636
283700.000			29.085			-3.636
283800.000			29.085			-3.636
283900.000			29.085			-3.636
284001.000			29.085			-3.636
284101.000			29.085			-3.636
284201.000			29.084			-3.636
284301.000			29.085			-3.636
284400.000			29.085			-3.636
284500.000			29.083			-3.635
284601.000			29.083			-3.635
284700.000			29.083			-3.635
284800.000			29.083			-3.635
284901.000			29.083			-3.635
285001.000			29.083			-3.635
285101.000			29.083			-3.635
285202.000			29.082			-3.635
285300.000			29.082			-3.635
285400.000			29.082			-3.635
285501.000			29.082			-3.635
285600.000			29.082			-3.635
285700.000			29.081			-3.635
285801.000			29.082			-3.635
285900.000			29.080			-3.635
286001.000			29.081			-3.635
286102.000			29.080			-3.635
286200.000			29.080			-3.635
286300.000			29.080			-3.635
286401.000			29.080			-3.635
286500.000			29.080			-3.635
286600.000			29.079			-3.635
286701.000			29.079			-3.635
286800.000			29.079			-3.635
286900.000			29.079			-3.635
287002.000			29.079			-3.635
287101.000			29.078			-3.635
287201.000			29.078			-3.635
287300.000			29.078			-3.635
287400.000			29.078			-3.635
287501.000			29.077			-3.635
287600.000			29.078			-3.635
287700.000			29.077			-3.635
287801.000			29.076			-3.635
287901.000			29.076			-3.634
288001.000			29.076			-3.634
288102.000			29.076			-3.634
288200.000			29.076			-3.634
288300.000			29.075			-3.634
288401.000			29.075			-3.634
288500.000			29.075			-3.634
288600.000			29.075			-3.634
288701.000			29.074			-3.634
288800.000			29.074			-3.634
288900.000			29.074			-3.634
289002.000			29.074			-3.634
289101.000			29.074			-3.634
289200.000			29.073			-3.634
289301.000			29.073			-3.634
289400.000			29.073			-3.634
289500.000			29.073			-3.634
289601.000			29.074			-3.634
289700.000			29.073			-3.634
289800.000			29.073			-3.634
289902.000			29.074			-3.634
290001.000			29.073			-3.634
290102.000			29.072			-3.634
290200.000			29.072			-3.634
290300.000			29.072			-3.634
290401.000			29.072			-3.634
290500.000			29.072			-3.634
290600.000			29.071			-3.634
290701.000			29.071			-3.634
290800.000			29.071			-3.634
290901.000			29.070			-3.634
291002.000			29.071			-3.634
291100.000			29.071			-3.634
291200.000			29.070			-3.634
291301.000			29.069			-3.634
291400.000			29.068			-3.634
291500.000			29.069			-3.634
291601.000			29.069			-3.634
291700.000			29.070			-3.634
291801.000			29.069			-3.634
291902.000			29.067			-3.633
292001.000			29.068			-3.633
292100.000			29.068			-3.633
292201.000			29.068			-3.634
292300.000			29.068			-3.633
292400.000			29.067			-3.633
292501.000			29.067			-3.633
292600.000			29.069			-3.634
292700.000			29.068			-3.633
292802.000			29.067			-3.633
292901.000			29.067			-3.633
293000.000			29.067			-3.633
293101.000			29.066			-3.633
293200.000			29.066			-3.633
293300.000			29.066			-3.633
293400.000			29.067			-3.633
293500.000			29.066			-3.633
293601.000			29.066			-3.633
293700.000			29.065			-3.633
293801.000			29.065			-3.633
293902.000			29.064			-3.633
294000.000			29.064			-3.633
294100.000			29.064			-3.633
294201.000			29.064			-3.633
294300.000			29.065			-3.633
294400.000			29.064			-3.633
294501.000			29.064			-3.633
294600.000			29.063			-3.633
294701.000			29.063			-3.633
294802.000			29.063			-3.633
294901.000			29.064			-3.633
295000.000			29.064			-3.633
295101.000			29.063			-3.633
295200.000			29.063			-3.633
295300.000			29.061			-3.633
295401.000			29.062			-3.633
295500.000			29.062			-3.633
295600.000			29.061			-3.633
295702.000			29.061			-3.633
295801.000			29.061			-3.633
295900.000			29.061			-3.633
296001.000			29.060			-3.633
296100.000			29.061			-3.633
296200.000			29.062			-3.633
296301.000			29.061			-3.633
296400.000			29.060			-3.632
296500.000			29.060			-3.632
296602.000			29.060			-3.632
296701.000			29.060			-3.632
296802.000			29.058			-3.632
296900.000			29.059			-3.632
297000.000			29.060			-3.633
297101.000			29.060			-3.632
297200.000			29.059			-3.632
297300.000			29.058			-3.632
297401.000			29.057			-3.632
297500.000			29.059			-3.632
297601.000			29.058			-3.632
297702.000			29.057			-3.632
297801.000			29.057			-3.632
297900.000			29.057			-3.632
298001.000			29.057			-3.632
298100.000			29.057			-3.632
298200.000			29.056			-3.632
298301.000			29.055			-3.632
298400.000			29.055			-3.632
298500.000			29.056			-3.632
298602.000			29.055			-3.632
298701.000			29.055			-3.632
298801.000			29.055			-3.632
298901.000			29.055			-3.632
299000.000			29.055			-3.632
299100.000			29.055			-3.632
299201.000			29.055			-3.632
299300.000			29.054			-3.632
299400.000			29.054			-3.632
299501.000			29.055			-3.632
299601.000			29.054			-3.632
299702.000			29.053			-3.632
299801.000			29.052			-3.631
299900.000			29.051			-3.631
