# Acquired on 30/01/2024 11:17:24 
# SPIDER: Creep_11mm_HM077x145x38AA-2
# CREEP MEASUREMENT

# time [ms]		force [N]		stiffness [N/mm]
1.000			-66.294			-6.027
105.000			-67.546			-6.141
204.000			-67.854			-6.169
305.000			-67.631			-6.148
404.000			-67.265			-6.115
503.000			-67.142			-6.104
605.000			-67.033			-6.094
704.000			-66.937			-6.085
804.000			-66.849			-6.077
905.000			-66.772			-6.070
1004.000			-66.701			-6.064
1104.000			-66.634			-6.058
1204.000			-66.513			-6.047
1304.000			-66.458			-6.042
1404.000			-66.406			-6.037
1505.000			-66.357			-6.032
1604.000			-66.311			-6.028
1704.000			-66.267			-6.024
1805.000			-66.224			-6.020
1904.000			-66.145			-6.013
2004.000			-66.109			-6.010
2105.000			-66.074			-6.007
2204.000			-66.039			-6.004
2304.000			-66.007			-6.001
2404.000			-65.974			-5.998
2504.000			-65.945			-5.995
2605.000			-65.886			-5.990
2704.000			-65.859			-5.987
2804.000			-65.832			-5.985
2905.000			-65.807			-5.982
3004.000			-65.781			-5.980
3103.000			-65.755			-5.978
3205.000			-65.731			-5.976
3304.000			-65.684			-5.971
3404.000			-65.661			-5.969
3505.000			-65.639			-5.967
3604.000			-65.618			-5.965
3704.000			-65.598			-5.963
3804.000			-65.577			-5.962
3904.000			-65.556			-5.960
4004.000			-65.536			-5.958
4105.000			-65.499			-5.954
4204.000			-65.479			-5.953
4303.000			-65.461			-5.951
4405.000			-65.443			-5.949
4504.000			-65.426			-5.948
4604.000			-65.408			-5.946
4705.000			-65.391			-5.945
4804.000			-65.357			-5.942
4904.000			-65.341			-5.940
5004.000			-65.326			-5.939
5104.000			-65.310			-5.937
5204.000			-65.296			-5.936
5305.000			-65.281			-5.935
5404.000			-65.265			-5.933
5504.000			-65.236			-5.931
5605.000			-65.222			-5.929
5703.000			-65.208			-5.928
5805.000			-65.194			-5.927
5904.000			-65.180			-5.925
6004.000			-65.167			-5.924
6105.000			-65.154			-5.923
6203.000			-65.127			-5.921
6304.000			-65.115			-5.920
6405.000			-65.103			-5.918
6504.000			-65.091			-5.917
6604.000			-65.078			-5.916
6705.000			-65.065			-5.915
6804.000			-65.053			-5.914
6903.000			-65.042			-5.913
7005.000			-65.019			-5.911
7104.000			-65.008			-5.910
7204.000			-64.997			-5.909
7305.000			-64.985			-5.908
7404.000			-64.975			-5.907
7504.000			-64.964			-5.906
7604.000			-64.953			-5.905
7704.000			-64.931			-5.903
7804.000			-64.920			-5.902
7905.000			-64.910			-5.901
8004.000			-64.900			-5.900
8103.000			-64.890			-5.899
8205.000			-64.880			-5.898
8304.000			-64.871			-5.897
8404.000			-64.851			-5.896
8505.000			-64.841			-5.895
8604.000			-64.831			-5.894
8704.000			-64.822			-5.893
8804.000			-64.813			-5.892
8904.000			-64.803			-5.891
9005.000			-64.794			-5.890
9104.000			-64.775			-5.889
9204.000			-64.767			-5.888
9305.000			-64.758			-5.887
9404.000			-64.751			-5.886
9503.000			-64.741			-5.886
9605.000			-64.732			-5.885
9704.000			-64.724			-5.884
9804.000			-64.715			-5.883
9905.000			-64.698			-5.882
10003.000			-64.690			-5.881
10104.000			-64.683			-5.880
10205.000			-64.674			-5.879
10304.000			-64.666			-5.879
10404.000			-64.658			-5.878
10505.000			-64.650			-5.877
10604.000			-64.633			-5.876
10703.000			-64.625			-5.875
10805.000			-64.618			-5.874
10904.000			-64.610			-5.874
11004.000			-64.603			-5.873
11105.000			-64.596			-5.872
11204.000			-64.588			-5.872
11304.000			-64.574			-5.870
11404.000			-64.565			-5.870
11504.000			-64.558			-5.869
11604.000			-64.551			-5.868
11705.000			-64.544			-5.868
11804.000			-64.536			-5.867
11904.000			-64.529			-5.866
12005.000			-64.516			-5.865
12103.000			-64.508			-5.864
12205.000			-64.502			-5.864
12304.000			-64.495			-5.863
12404.000			-64.488			-5.863
12505.000			-64.481			-5.862
12604.000			-64.475			-5.861
12704.000			-64.469			-5.861
12804.000			-64.454			-5.859
12904.000			-64.449			-5.859
13004.000			-64.441			-5.858
13105.000			-64.435			-5.858
13204.000			-64.429			-5.857
13303.000			-64.422			-5.857
13405.000			-64.416			-5.856
13504.000			-64.404			-5.855
13604.000			-64.398			-5.854
13705.000			-64.391			-5.854
13804.000			-64.385			-5.853
13904.000			-64.379			-5.853
14004.000			-64.374			-5.852
14104.000			-64.368			-5.852
14204.000			-64.355			-5.850
14305.000			-64.349			-5.850
14404.000			-64.343			-5.849
14504.000			-64.336			-5.849
14605.000			-64.331			-5.848
14703.000			-64.325			-5.848
14804.000			-64.319			-5.847
14905.000			-64.307			-5.846
15004.000			-64.300			-5.845
15104.000			-64.296			-5.845
15205.000			-64.289			-5.844
15304.000			-64.284			-5.844
15403.000			-64.280			-5.844
15504.000			-64.274			-5.843
15604.000			-64.263			-5.842
15705.000			-64.257			-5.842
15804.000			-64.253			-5.841
15904.000			-64.247			-5.841
16005.000			-64.241			-5.840
16103.000			-64.235			-5.840
16204.000			-64.230			-5.839
16305.000			-64.226			-5.839
16404.000			-64.215			-5.838
16504.000			-64.211			-5.837
16605.000			-64.206			-5.837
16704.000			-64.200			-5.836
16803.000			-64.195			-5.836
16905.000			-64.190			-5.835
17004.000			-64.184			-5.835
17104.000			-64.174			-5.834
17205.000			-64.169			-5.834
17304.000			-64.163			-5.833
17404.000			-64.158			-5.833
17504.000			-64.153			-5.832
17604.000			-64.149			-5.832
17704.000			-64.145			-5.831
17805.000			-64.135			-5.830
17904.000			-64.130			-5.830
18003.000			-64.124			-5.829
18105.000			-64.119			-5.829
18204.000			-64.115			-5.829
18304.000			-64.110			-5.828
18405.000			-64.106			-5.828
18504.000			-64.097			-5.827
18605.000			-64.091			-5.826
18703.000			-64.087			-5.826
18804.000			-64.083			-5.826
18905.000			-64.078			-5.825
19004.000			-64.073			-5.825
19104.000			-64.068			-5.824
19205.000			-64.063			-5.824
19304.000			-64.054			-5.823
19403.000			-64.051			-5.823
19505.000			-64.046			-5.822
19604.000			-64.041			-5.822
19704.000			-64.039			-5.822
19805.000			-64.034			-5.821
19904.000			-64.029			-5.821
20004.000			-64.020			-5.820
20104.000			-64.016			-5.820
20204.000			-64.011			-5.819
20304.000			-64.006			-5.819
20405.000			-64.002			-5.818
20504.000			-63.998			-5.818
20603.000			-63.994			-5.818
20705.000			-63.986			-5.817
20803.000			-63.982			-5.817
20904.000			-63.977			-5.816
21005.000			-63.973			-5.816
21104.000			-63.969			-5.815
21204.000			-63.966			-5.815
21304.000			-63.962			-5.815
21404.000			-63.953			-5.814
21503.000			-63.948			-5.813
21605.000			-63.945			-5.813
21704.000			-63.942			-5.813
21805.000			-63.936			-5.812
21904.000			-63.932			-5.812
22004.000			-63.929			-5.812
22105.000			-63.925			-5.811
22203.000			-63.916			-5.811
22304.000			-63.912			-5.810
22405.000			-63.908			-5.810
22504.000			-63.904			-5.809
22604.000			-63.901			-5.809
22704.000			-63.897			-5.809
22804.000			-63.894			-5.809
22903.000			-63.886			-5.808
23005.000			-63.883			-5.808
23104.000			-63.879			-5.807
23204.000			-63.875			-5.807
23305.000			-63.871			-5.806
23404.000			-63.867			-5.806
23504.000			-63.863			-5.806
23604.000			-63.856			-5.805
23704.000			-63.851			-5.805
23804.000			-63.847			-5.804
23905.000			-63.844			-5.804
24004.000			-63.840			-5.804
24104.000			-63.836			-5.803
24205.000			-63.833			-5.803
24303.000			-63.826			-5.802
24404.000			-63.822			-5.802
24505.000			-63.819			-5.802
24604.000			-63.815			-5.801
24704.000			-63.812			-5.801
24805.000			-63.808			-5.801
24904.000			-63.804			-5.800
25003.000			-63.801			-5.800
25104.000			-63.794			-5.799
25204.000			-63.790			-5.799
25305.000			-63.787			-5.799
25404.000			-63.783			-5.798
25504.000			-63.780			-5.798
25605.000			-63.777			-5.798
25703.000			-63.773			-5.798
25804.000			-63.766			-5.797
25905.000			-63.763			-5.797
26004.000			-63.759			-5.796
26104.000			-63.755			-5.796
26205.000			-63.752			-5.796
26304.000			-63.749			-5.795
26403.000			-63.745			-5.795
26505.000			-63.738			-5.794
26604.000			-63.734			-5.794
26704.000			-63.732			-5.794
26805.000			-63.729			-5.794
26904.000			-63.726			-5.793
27004.000			-63.722			-5.793
27104.000			-63.718			-5.793
27204.000			-63.711			-5.792
27304.000			-63.708			-5.792
27405.000			-63.705			-5.791
27504.000			-63.703			-5.791
27604.000			-63.699			-5.791
27705.000			-63.697			-5.791
27803.000			-63.693			-5.790
27904.000			-63.689			-5.790
28005.000			-63.682			-5.789
28104.000			-63.679			-5.789
28205.000			-63.677			-5.789
28304.000			-63.674			-5.789
28404.000			-63.671			-5.788
28504.000			-63.668			-5.788
28604.000			-63.665			-5.788
28704.000			-63.658			-5.787
28805.000			-63.655			-5.787
28904.000			-63.651			-5.786
29004.000			-63.648			-5.786
29105.000			-63.645			-5.786
29203.000			-63.642			-5.786
29304.000			-63.640			-5.785
29405.000			-63.634			-5.785
29504.000			-63.629			-5.784
29604.000			-63.627			-5.784
29705.000			-63.625			-5.784
29804.000			-63.621			-5.784
29903.000			-63.618			-5.783
30005.000			-63.614			-5.783
30104.000			-63.609			-5.783
30204.000			-63.606			-5.782
30305.000			-63.604			-5.782
30404.000			-63.600			-5.782
30504.000			-63.597			-5.782
30604.000			-63.594			-5.781
30704.000			-63.590			-5.781
30804.000			-63.588			-5.781
30905.000			-63.584			-5.780
31004.000			-63.582			-5.780
31104.000			-63.578			-5.780
31205.000			-63.574			-5.779
31303.000			-63.572			-5.779
31405.000			-63.569			-5.779
31504.000			-63.566			-5.779
31604.000			-63.560			-5.778
31705.000			-63.557			-5.778
31804.000			-63.554			-5.778
31904.000			-63.552			-5.777
32004.000			-63.549			-5.777
32104.000			-63.547			-5.777
32204.000			-63.544			-5.777
32305.000			-63.538			-5.776
32404.000			-63.536			-5.776
32503.000			-63.533			-5.776
32605.000			-63.530			-5.775
32704.000			-63.527			-5.775
32804.000			-63.524			-5.775
32905.000			-63.521			-5.775
33004.000			-63.514			-5.774
33104.000			-63.513			-5.774
33204.000			-63.511			-5.774
33304.000			-63.507			-5.773
33404.000			-63.506			-5.773
33505.000			-63.503			-5.773
33604.000			-63.499			-5.773
33704.000			-63.498			-5.773
33805.000			-63.491			-5.772
33903.000			-63.488			-5.772
34004.000			-63.485			-5.771
34105.000			-63.482			-5.771
34204.000			-63.480			-5.771
34304.000			-63.478			-5.771
34405.000			-63.475			-5.770
34504.000			-63.470			-5.770
34603.000			-63.467			-5.770
34704.000			-63.465			-5.770
34804.000			-63.462			-5.769
34905.000			-63.459			-5.769
35004.000			-63.457			-5.769
35104.000			-63.454			-5.769
35205.000			-63.449			-5.768
35303.000			-63.446			-5.768
35404.000			-63.444			-5.768
35505.000			-63.444			-5.768
35604.000			-63.440			-5.767
35704.000			-63.437			-5.767
35805.000			-63.434			-5.767
35904.000			-63.429			-5.766
36003.000			-63.426			-5.766
36105.000			-63.423			-5.766
36204.000			-63.421			-5.766
36304.000			-63.419			-5.765
36405.000			-63.417			-5.765
36504.000			-63.414			-5.765
36604.000			-63.410			-5.765
36704.000			-63.406			-5.764
36804.000			-63.404			-5.764
36904.000			-63.402			-5.764
37005.000			-63.400			-5.764
37104.000			-63.397			-5.763
37204.000			-63.393			-5.763
37305.000			-63.391			-5.763
37403.000			-63.386			-5.762
37504.000			-63.385			-5.762
37605.000			-63.382			-5.762
37704.000			-63.379			-5.762
37805.000			-63.376			-5.761
37904.000			-63.374			-5.761
38004.000			-63.372			-5.761
38104.000			-63.367			-5.761
38204.000			-63.364			-5.760
38304.000			-63.361			-5.760
38405.000			-63.359			-5.760
38504.000			-63.357			-5.760
38604.000			-63.355			-5.760
38705.000			-63.354			-5.759
38803.000			-63.347			-5.759
38904.000			-63.345			-5.759
39005.000			-63.344			-5.759
39104.000			-63.341			-5.758
39204.000			-63.339			-5.758
39305.000			-63.337			-5.758
39404.000			-63.335			-5.758
39503.000			-63.332			-5.757
39605.000			-63.327			-5.757
39704.000			-63.325			-5.757
39804.000			-63.324			-5.757
39905.000			-63.321			-5.756
40004.000			-63.318			-5.756
40104.000			-63.315			-5.756
40204.000			-63.314			-5.756
40304.000			-63.309			-5.755
40404.000			-63.307			-5.755
40505.000			-63.305			-5.755
40604.000			-63.302			-5.755
40703.000			-63.300			-5.755
40805.000			-63.298			-5.754
40904.000			-63.296			-5.754
41005.000			-63.290			-5.754
41104.000			-63.288			-5.753
41204.000			-63.286			-5.753
41305.000			-63.284			-5.753
41403.000			-63.282			-5.753
41504.000			-63.279			-5.753
41605.000			-63.277			-5.752
41704.000			-63.274			-5.752
41804.000			-63.272			-5.752
41905.000			-63.270			-5.752
42004.000			-63.267			-5.752
42103.000			-63.265			-5.751
42205.000			-63.262			-5.751
42304.000			-63.261			-5.751
42404.000			-63.257			-5.751
42505.000			-63.254			-5.750
42604.000			-63.251			-5.750
42704.000			-63.250			-5.750
42804.000			-63.247			-5.750
42904.000			-63.245			-5.750
43004.000			-63.243			-5.749
43105.000			-63.241			-5.749
43204.000			-63.237			-5.749
43304.000			-63.235			-5.749
43405.000			-63.233			-5.748
43503.000			-63.231			-5.748
43604.000			-63.229			-5.748
43705.000			-63.226			-5.748
43804.000			-63.222			-5.747
43904.000			-63.221			-5.747
44004.000			-63.219			-5.747
44104.000			-63.215			-5.747
44203.000			-63.213			-5.747
44304.000			-63.211			-5.746
44404.000			-63.209			-5.746
44505.000			-63.207			-5.746
44604.000			-63.203			-5.746
44703.000			-63.201			-5.746
44805.000			-63.198			-5.745
44904.000			-63.196			-5.745
45004.000			-63.195			-5.745
45105.000			-63.193			-5.745
45204.000			-63.191			-5.745
45304.000			-63.188			-5.744
45404.000			-63.186			-5.744
45504.000			-63.183			-5.744
45604.000			-63.181			-5.744
45705.000			-63.179			-5.744
45804.000			-63.177			-5.743
45904.000			-63.176			-5.743
46005.000			-63.173			-5.743
46103.000			-63.170			-5.743
46204.000			-63.168			-5.743
46305.000			-63.165			-5.742
46404.000			-63.162			-5.742
46504.000			-63.160			-5.742
46605.000			-63.160			-5.742
46704.000			-63.158			-5.742
46803.000			-63.153			-5.741
46905.000			-63.152			-5.741
47004.000			-63.150			-5.741
47104.000			-63.148			-5.741
47205.000			-63.145			-5.740
47304.000			-63.143			-5.740
47405.000			-63.141			-5.740
47503.000			-63.138			-5.740
47604.000			-63.135			-5.740
47705.000			-63.132			-5.739
47804.000			-63.131			-5.739
47904.000			-63.130			-5.739
48005.000			-63.128			-5.739
48104.000			-63.126			-5.739
48203.000			-63.123			-5.738
48305.000			-63.121			-5.738
48404.000			-63.118			-5.738
48504.000			-63.116			-5.738
48605.000			-63.114			-5.738
48704.000			-63.111			-5.737
48804.000			-63.111			-5.737
48904.000			-63.109			-5.737
49004.000			-63.104			-5.737
49104.000			-63.104			-5.737
49205.000			-63.101			-5.736
49304.000			-63.098			-5.736
49404.000			-63.097			-5.736
49505.000			-63.095			-5.736
49603.000			-63.092			-5.736
49704.000			-63.089			-5.735
49805.000			-63.087			-5.735
49904.000			-63.085			-5.735
50004.000			-63.084			-5.735
50105.000			-63.082			-5.735
50204.000			-63.080			-5.735
50303.000			-63.078			-5.734
50405.000			-63.075			-5.734
50504.000			-63.073			-5.734
50605.000			-63.071			-5.734
50704.000			-63.070			-5.734
50804.000			-63.067			-5.733
50905.000			-63.065			-5.733
51003.000			-63.064			-5.733
51104.000			-63.060			-5.733
51205.000			-63.059			-5.733
51304.000			-63.057			-5.732
51404.000			-63.054			-5.732
51504.000			-63.052			-5.732
51604.000			-63.051			-5.732
51703.000			-63.051			-5.732
51805.000			-63.048			-5.732
51904.000			-63.044			-5.731
52004.000			-63.043			-5.731
52105.000			-63.040			-5.731
52203.000			-63.037			-5.731
52304.000			-63.036			-5.731
52405.000			-63.035			-5.730
52504.000			-63.033			-5.730
52604.000			-63.030			-5.730
52705.000			-63.027			-5.730
52804.000			-63.025			-5.730
52903.000			-63.024			-5.729
53005.000			-63.022			-5.729
53104.000			-63.020			-5.729
53204.000			-63.019			-5.729
53305.000			-63.016			-5.729
53404.000			-63.013			-5.728
53504.000			-63.012			-5.728
53604.000			-63.010			-5.728
53704.000			-63.008			-5.728
53805.000			-63.006			-5.728
53904.000			-63.005			-5.728
54004.000			-63.001			-5.727
54104.000			-62.999			-5.727
54204.000			-62.998			-5.727
54303.000			-62.997			-5.727
54405.000			-62.996			-5.727
54504.000			-62.993			-5.727
54604.000			-62.991			-5.726
54705.000			-62.990			-5.726
54804.000			-62.986			-5.726
54904.000			-62.985			-5.726
55004.000			-62.983			-5.726
55104.000			-62.981			-5.726
55204.000			-62.979			-5.725
55305.000			-62.977			-5.725
55404.000			-62.976			-5.725
55504.000			-62.972			-5.725
55605.000			-62.971			-5.725
55703.000			-62.969			-5.724
55804.000			-62.968			-5.724
55905.000			-62.966			-5.724
56004.000			-62.964			-5.724
56104.000			-62.962			-5.724
56205.000			-62.959			-5.724
56304.000			-62.958			-5.723
56403.000			-62.956			-5.723
56505.000			-62.954			-5.723
56604.000			-62.952			-5.723
56704.000			-62.949			-5.723
56805.000			-62.948			-5.723
56904.000			-62.946			-5.722
57005.000			-62.944			-5.722
57103.000			-62.943			-5.722
57204.000			-62.940			-5.722
57305.000			-62.939			-5.722
57404.000			-62.937			-5.722
57504.000			-62.936			-5.721
57605.000			-62.934			-5.721
57704.000			-62.932			-5.721
57803.000			-62.930			-5.721
57905.000			-62.928			-5.721
58004.000			-62.927			-5.721
58104.000			-62.925			-5.720
58205.000			-62.924			-5.720
58304.000			-62.922			-5.720
58404.000			-62.918			-5.720
58504.000			-62.917			-5.720
58604.000			-62.915			-5.720
58704.000			-62.913			-5.719
58805.000			-62.912			-5.719
58904.000			-62.911			-5.719
59004.000			-62.909			-5.719
59105.000			-62.906			-5.719
59203.000			-62.904			-5.719
59304.000			-62.903			-5.718
59405.000			-62.901			-5.718
59504.000			-62.900			-5.718
59604.000			-62.898			-5.718
59705.000			-62.896			-5.718
59804.000			-62.893			-5.718
59903.000			-62.892			-5.717
60005.000			-62.890			-5.717
60104.000			-62.888			-5.717
60205.000			-62.887			-5.717
60304.000			-62.885			-5.717
60404.000			-62.884			-5.717
60505.000			-62.881			-5.716
60603.000			-62.879			-5.716
60704.000			-62.877			-5.716
60805.000			-62.875			-5.716
60904.000			-62.873			-5.716
61004.000			-62.872			-5.716
61105.000			-62.871			-5.716
61204.000			-62.869			-5.715
61303.000			-62.866			-5.715
61405.000			-62.865			-5.715
61504.000			-62.863			-5.715
61604.000			-62.861			-5.715
61705.000			-62.861			-5.715
61804.000			-62.859			-5.714
61904.000			-62.857			-5.714
62004.000			-62.853			-5.714
62104.000			-62.853			-5.714
62204.000			-62.851			-5.714
62305.000			-62.849			-5.714
62404.000			-62.848			-5.713
62504.000			-62.846			-5.713
62605.000			-62.844			-5.713
62703.000			-62.841			-5.713
62804.000			-62.840			-5.713
62905.000			-62.839			-5.713
63004.000			-62.837			-5.712
63104.000			-62.837			-5.712
63205.000			-62.835			-5.712
63304.000			-62.832			-5.712
63403.000			-62.831			-5.712
63504.000			-62.829			-5.712
63604.000			-62.826			-5.711
63705.000			-62.825			-5.711
63804.000			-62.823			-5.711
63904.000			-62.821			-5.711
64005.000			-62.821			-5.711
64103.000			-62.819			-5.711
64204.000			-62.815			-5.710
64305.000			-62.814			-5.710
64404.000			-62.813			-5.710
64504.000			-62.812			-5.710
64605.000			-62.811			-5.710
64704.000			-62.809			-5.710
64803.000			-62.808			-5.710
64905.000			-62.804			-5.709
65004.000			-62.803			-5.709
65104.000			-62.801			-5.709
65205.000			-62.801			-5.709
65303.000			-62.800			-5.709
65404.000			-62.797			-5.709
65505.000			-62.796			-5.709
65604.000			-62.793			-5.708
65704.000			-62.792			-5.708
65805.000			-62.790			-5.708
65904.000			-62.790			-5.708
66004.000			-62.789			-5.708
66105.000			-62.786			-5.708
66203.000			-62.784			-5.708
66304.000			-62.783			-5.708
66405.000			-62.780			-5.707
66504.000			-62.779			-5.707
66605.000			-62.778			-5.707
66704.000			-62.777			-5.707
66804.000			-62.775			-5.707
66904.000			-62.773			-5.707
67004.000			-62.771			-5.706
67104.000			-62.770			-5.706
67205.000			-62.768			-5.706
67304.000			-62.767			-5.706
67404.000			-62.765			-5.706
67505.000			-62.764			-5.706
67603.000			-62.762			-5.706
67704.000			-62.761			-5.706
67805.000			-62.758			-5.705
67904.000			-62.756			-5.705
68004.000			-62.756			-5.705
68105.000			-62.754			-5.705
68204.000			-62.752			-5.705
68303.000			-62.751			-5.705
68405.000			-62.749			-5.704
68504.000			-62.745			-5.704
68604.000			-62.745			-5.704
68705.000			-62.743			-5.704
68804.000			-62.742			-5.704
68904.000			-62.741			-5.704
69005.000			-62.739			-5.704
69104.000			-62.737			-5.703
69203.000			-62.735			-5.703
69305.000			-62.733			-5.703
69404.000			-62.733			-5.703
69504.000			-62.731			-5.703
69605.000			-62.729			-5.703
69704.000			-62.729			-5.703
69805.000			-62.727			-5.702
69903.000			-62.726			-5.702
70004.000			-62.722			-5.702
70105.000			-62.721			-5.702
70204.000			-62.720			-5.702
70304.000			-62.718			-5.702
70405.000			-62.718			-5.702
70504.000			-62.716			-5.701
70603.000			-62.714			-5.701
70705.000			-62.712			-5.701
70804.000			-62.711			-5.701
70904.000			-62.710			-5.701
71005.000			-62.708			-5.701
71104.000			-62.706			-5.701
71204.000			-62.705			-5.700
71304.000			-62.702			-5.700
71404.000			-62.701			-5.700
71504.000			-62.699			-5.700
71605.000			-62.698			-5.700
71704.000			-62.697			-5.700
71804.000			-62.695			-5.700
71905.000			-62.695			-5.700
72003.000			-62.693			-5.699
72104.000			-62.691			-5.699
72205.000			-62.690			-5.699
72304.000			-62.688			-5.699
72404.000			-62.687			-5.699
72505.000			-62.686			-5.699
72604.000			-62.683			-5.698
72703.000			-62.682			-5.698
72805.000			-62.681			-5.698
72904.000			-62.679			-5.698
73005.000			-62.677			-5.698
73104.000			-62.677			-5.698
73204.000			-62.676			-5.698
73305.000			-62.673			-5.698
73403.000			-62.672			-5.697
73504.000			-62.671			-5.697
73605.000			-62.668			-5.697
73704.000			-62.666			-5.697
73804.000			-62.665			-5.697
73905.000			-62.664			-5.697
74004.000			-62.663			-5.697
74103.000			-62.663			-5.697
74205.000			-62.661			-5.696
74304.000			-62.658			-5.696
74404.000			-62.657			-5.696
74505.000			-62.655			-5.696
74604.000			-62.654			-5.696
74704.000			-62.652			-5.696
74804.000			-62.650			-5.695
74904.000			-62.649			-5.695
75003.000			-62.649			-5.695
75105.000			-62.646			-5.695
75204.000			-62.645			-5.695
75304.000			-62.644			-5.695
75405.000			-62.643			-5.695
75504.000			-62.642			-5.695
75604.000			-62.640			-5.695
75704.000			-62.639			-5.694
75804.000			-62.638			-5.694
75904.000			-62.636			-5.694
76005.000			-62.634			-5.694
76104.000			-62.633			-5.694
76205.000			-62.633			-5.694
76304.000			-62.632			-5.694
76403.000			-62.629			-5.694
76505.000			-62.626			-5.693
76604.000			-62.625			-5.693
76704.000			-62.624			-5.693
76805.000			-62.623			-5.693
76904.000			-62.621			-5.693
77004.000			-62.621			-5.693
77104.000			-62.619			-5.693
77204.000			-62.616			-5.692
77304.000			-62.615			-5.692
77405.000			-62.613			-5.692
77504.000			-62.613			-5.692
77604.000			-62.612			-5.692
77705.000			-62.610			-5.692
77803.000			-62.609			-5.692
77904.000			-62.606			-5.691
78005.000			-62.606			-5.691
78104.000			-62.605			-5.691
78204.000			-62.604			-5.691
78305.000			-62.602			-5.691
78404.000			-62.601			-5.691
78503.000			-62.599			-5.691
78605.000			-62.598			-5.691
78704.000			-62.596			-5.691
78804.000			-62.595			-5.690
78905.000			-62.593			-5.690
79004.000			-62.591			-5.690
79104.000			-62.590			-5.690
79204.000			-62.589			-5.690
79304.000			-62.588			-5.690
79405.000			-62.586			-5.690
79504.000			-62.586			-5.690
79604.000			-62.585			-5.690
79705.000			-62.583			-5.689
79804.000			-62.582			-5.689
79903.000			-62.581			-5.689
80005.000			-62.579			-5.689
80104.000			-62.575			-5.689
80204.000			-62.574			-5.689
80305.000			-62.574			-5.689
80404.000			-62.574			-5.689
80504.000			-62.572			-5.688
80604.000			-62.571			-5.688
80704.000			-62.569			-5.688
80804.000			-62.566			-5.688
80905.000			-62.565			-5.688
81004.000			-62.564			-5.688
81104.000			-62.562			-5.687
81205.000			-62.562			-5.687
81303.000			-62.563			-5.688
81404.000			-62.560			-5.687
81505.000			-62.558			-5.687
81604.000			-62.557			-5.687
81704.000			-62.555			-5.687
81805.000			-62.553			-5.687
81904.000			-62.552			-5.687
82003.000			-62.552			-5.687
82105.000			-62.551			-5.686
82204.000			-62.550			-5.686
82304.000			-62.547			-5.686
82405.000			-62.545			-5.686
82504.000			-62.545			-5.686
82605.000			-62.543			-5.686
82704.000			-62.543			-5.686
82804.000			-62.542			-5.686
82904.000			-62.541			-5.686
83004.000			-62.537			-5.685
83104.000			-62.536			-5.685
83205.000			-62.535			-5.685
83304.000			-62.534			-5.685
83404.000			-62.534			-5.685
83505.000			-62.532			-5.685
83603.000			-62.531			-5.685
83704.000			-62.528			-5.684
83805.000			-62.527			-5.684
83904.000			-62.526			-5.684
84004.000			-62.525			-5.684
84105.000			-62.523			-5.684
84204.000			-62.522			-5.684
84303.000			-62.521			-5.684
84405.000			-62.520			-5.684
84504.000			-62.518			-5.683
84604.000			-62.517			-5.683
84705.000			-62.516			-5.683
84804.000			-62.515			-5.683
84904.000			-62.514			-5.683
85004.000			-62.512			-5.683
85104.000			-62.511			-5.683
85204.000			-62.508			-5.683
85305.000			-62.507			-5.682
85404.000			-62.507			-5.682
85504.000			-62.506			-5.682
85605.000			-62.505			-5.682
85703.000			-62.504			-5.682
85805.000			-62.502			-5.682
85904.000			-62.500			-5.682
86004.000			-62.499			-5.682
86105.000			-62.498			-5.682
86204.000			-62.497			-5.682
86304.000			-62.496			-5.681
86404.000			-62.494			-5.681
86504.000			-62.494			-5.681
86604.000			-62.491			-5.681
86705.000			-62.491			-5.681
86804.000			-62.489			-5.681
86904.000			-62.488			-5.681
87005.000			-62.487			-5.681
87103.000			-62.485			-5.680
87204.000			-62.485			-5.680
87304.000			-62.484			-5.680
87404.000			-62.481			-5.680
87504.000			-62.480			-5.680
87605.000			-62.479			-5.680
87704.000			-62.478			-5.680
87803.000			-62.477			-5.680
87905.000			-62.475			-5.680
88003.000			-62.475			-5.680
88104.000			-62.472			-5.679
88205.000			-62.471			-5.679
88304.000			-62.470			-5.679
88404.000			-62.469			-5.679
88505.000			-62.468			-5.679
88604.000			-62.467			-5.679
88703.000			-62.465			-5.679
88805.000			-62.463			-5.678
88904.000			-62.463			-5.678
89005.000			-62.463			-5.678
89104.000			-62.461			-5.678
89204.000			-62.459			-5.678
89305.000			-62.458			-5.678
89403.000			-62.458			-5.678
89504.000			-62.454			-5.678
89605.000			-62.453			-5.678
89704.000			-62.452			-5.677
89804.000			-62.451			-5.677
89905.000			-62.451			-5.677
90004.000			-62.450			-5.677
90103.000			-62.449			-5.677
90205.000			-62.446			-5.677
90304.000			-62.444			-5.677
90404.000			-62.443			-5.677
90505.000			-62.442			-5.677
90604.000			-62.441			-5.676
90704.000			-62.441			-5.676
90804.000			-62.439			-5.676
90904.000			-62.438			-5.676
91004.000			-62.436			-5.676
91105.000			-62.434			-5.676
91204.000			-62.433			-5.676
91304.000			-62.432			-5.676
91405.000			-62.431			-5.676
91503.000			-62.431			-5.676
91604.000			-62.431			-5.676
91705.000			-62.428			-5.675
91804.000			-62.427			-5.675
91904.000			-62.426			-5.675
92005.000			-62.425			-5.675
92104.000			-62.423			-5.675
92203.000			-62.422			-5.675
92304.000			-62.421			-5.675
92404.000			-62.419			-5.674
92505.000			-62.417			-5.674
92604.000			-62.416			-5.674
92704.000			-62.415			-5.674
92805.000			-62.415			-5.674
92903.000			-62.414			-5.674
93004.000			-62.413			-5.674
93105.000			-62.412			-5.674
93204.000			-62.410			-5.674
93304.000			-62.408			-5.673
93405.000			-62.407			-5.673
93504.000			-62.405			-5.673
93603.000			-62.405			-5.673
93705.000			-62.405			-5.673
93804.000			-62.404			-5.673
93904.000			-62.402			-5.673
94005.000			-62.400			-5.673
94104.000			-62.400			-5.673
94204.000			-62.399			-5.673
94304.000			-62.399			-5.673
94404.000			-62.397			-5.672
94504.000			-62.396			-5.672
94605.000			-62.393			-5.672
94704.000			-62.392			-5.672
94804.000			-62.391			-5.672
94905.000			-62.391			-5.672
95003.000			-62.389			-5.672
95104.000			-62.388			-5.672
95205.000			-62.387			-5.672
95304.000			-62.386			-5.671
95405.000			-62.384			-5.671
95504.000			-62.383			-5.671
95604.000			-62.382			-5.671
95705.000			-62.381			-5.671
95804.000			-62.381			-5.671
95903.000			-62.379			-5.671
96005.000			-62.378			-5.671
96104.000			-62.377			-5.671
96204.000			-62.375			-5.670
96305.000			-62.375			-5.670
96404.000			-62.374			-5.670
96504.000			-62.372			-5.670
96604.000			-62.370			-5.670
96704.000			-62.370			-5.670
96804.000			-62.368			-5.670
96905.000			-62.366			-5.670
97004.000			-62.365			-5.670
97104.000			-62.366			-5.670
97205.000			-62.365			-5.670
97303.000			-62.363			-5.669
97404.000			-62.363			-5.669
97505.000			-62.359			-5.669
97604.000			-62.360			-5.669
97704.000			-62.359			-5.669
97805.000			-62.357			-5.669
97904.000			-62.356			-5.669
98003.000			-62.356			-5.669
98105.000			-62.355			-5.669
98204.000			-62.352			-5.668
98304.000			-62.352			-5.668
98405.000			-62.350			-5.668
98504.000			-62.349			-5.668
98605.000			-62.349			-5.668
98704.000			-62.347			-5.668
98804.000			-62.346			-5.668
98904.000			-62.344			-5.668
99004.000			-62.344			-5.668
99104.000			-62.343			-5.668
99205.000			-62.342			-5.667
99304.000			-62.340			-5.667
99404.000			-62.338			-5.667
99505.000			-62.338			-5.667
99603.000			-62.337			-5.667
99704.000			-62.336			-5.667
99805.000			-62.335			-5.667
99904.000			-62.334			-5.667
100004.000			-62.332			-5.667
100105.000			-62.332			-5.667
100204.000			-62.331			-5.666
100303.000			-62.329			-5.666
100405.000			-62.328			-5.666
100504.000			-62.326			-5.666
100604.000			-62.325			-5.666
100705.000			-62.325			-5.666
100804.000			-62.324			-5.666
100904.000			-62.323			-5.666
101004.000			-62.321			-5.666
101104.000			-62.321			-5.666
101204.000			-62.320			-5.665
101305.000			-62.319			-5.665
101404.000			-62.317			-5.665
101504.000			-62.317			-5.665
101605.000			-62.317			-5.665
101703.000			-62.316			-5.665
101805.000			-62.312			-5.665
101904.000			-62.311			-5.665
102004.000			-62.311			-5.665
102105.000			-62.310			-5.665
102204.000			-62.308			-5.664
102304.000			-62.308			-5.664
102404.000			-62.308			-5.664
102504.000			-62.306			-5.664
102604.000			-62.304			-5.664
102705.000			-62.303			-5.664
102804.000			-62.302			-5.664
102904.000			-62.301			-5.664
103005.000			-62.300			-5.664
103103.000			-62.298			-5.663
103204.000			-62.297			-5.663
103305.000			-62.297			-5.663
103404.000			-62.297			-5.663
103504.000			-62.295			-5.663
103605.000			-62.294			-5.663
103704.000			-62.292			-5.663
103803.000			-62.291			-5.663
103905.000			-62.290			-5.663
104004.000			-62.289			-5.663
104104.000			-62.287			-5.662
104205.000			-62.286			-5.662
104304.000			-62.285			-5.662
104404.000			-62.284			-5.662
104504.000			-62.283			-5.662
104604.000			-62.281			-5.662
104703.000			-62.281			-5.662
104805.000			-62.280			-5.662
104904.000			-62.279			-5.662
105005.000			-62.279			-5.662
105104.000			-62.277			-5.662
105204.000			-62.276			-5.661
105305.000			-62.275			-5.661
105403.000			-62.275			-5.661
105504.000			-62.272			-5.661
105605.000			-62.271			-5.661
105704.000			-62.272			-5.661
105804.000			-62.271			-5.661
105905.000			-62.269			-5.661
106004.000			-62.268			-5.661
106103.000			-62.267			-5.661
106205.000			-62.265			-5.660
106304.000			-62.264			-5.660
106404.000			-62.262			-5.660
106505.000			-62.262			-5.660
106604.000			-62.262			-5.660
106704.000			-62.261			-5.660
106804.000			-62.259			-5.660
106904.000			-62.257			-5.660
107004.000			-62.256			-5.660
107105.000			-62.255			-5.660
107204.000			-62.254			-5.659
107304.000			-62.254			-5.659
107405.000			-62.254			-5.659
107503.000			-62.252			-5.659
107604.000			-62.250			-5.659
107705.000			-62.250			-5.659
107804.000			-62.249			-5.659
107904.000			-62.248			-5.659
108005.000			-62.246			-5.659
108104.000			-62.245			-5.659
108203.000			-62.244			-5.659
108304.000			-62.244			-5.659
108404.000			-62.242			-5.658
108505.000			-62.241			-5.658
108604.000			-62.240			-5.658
108704.000			-62.238			-5.658
108805.000			-62.238			-5.658
108903.000			-62.238			-5.658
109004.000			-62.237			-5.658
109105.000			-62.234			-5.658
109204.000			-62.234			-5.658
109304.000			-62.234			-5.658
109405.000			-62.232			-5.657
109504.000			-62.231			-5.657
109603.000			-62.230			-5.657
109705.000			-62.230			-5.657
109803.000			-62.228			-5.657
109904.000			-62.228			-5.657
110005.000			-62.227			-5.657
110104.000			-62.225			-5.657
110204.000			-62.224			-5.657
110304.000			-62.223			-5.657
110404.000			-62.223			-5.657
110503.000			-62.220			-5.656
110605.000			-62.219			-5.656
110704.000			-62.218			-5.656
110804.000			-62.218			-5.656
110905.000			-62.217			-5.656
111003.000			-62.214			-5.656
111104.000			-62.215			-5.656
111205.000			-62.214			-5.656
111304.000			-62.213			-5.656
111405.000			-62.213			-5.656
111504.000			-62.212			-5.656
111604.000			-62.210			-5.655
111704.000			-62.209			-5.655
111804.000			-62.208			-5.655
111903.000			-62.207			-5.655
112005.000			-62.205			-5.655
112104.000			-62.203			-5.655
112204.000			-62.203			-5.655
112305.000			-62.203			-5.655
112404.000			-62.203			-5.655
112504.000			-62.202			-5.655
112604.000			-62.200			-5.655
112704.000			-62.199			-5.654
112804.000			-62.197			-5.654
112905.000			-62.197			-5.654
113004.000			-62.197			-5.654
113104.000			-62.196			-5.654
113205.000			-62.195			-5.654
113303.000			-62.193			-5.654
113404.000			-62.192			-5.654
113505.000			-62.191			-5.654
113604.000			-62.190			-5.654
113704.000			-62.189			-5.654
113805.000			-62.189			-5.654
113904.000			-62.189			-5.654
114003.000			-62.186			-5.653
114105.000			-62.184			-5.653
114204.000			-62.184			-5.653
114304.000			-62.183			-5.653
114405.000			-62.183			-5.653
114504.000			-62.181			-5.653
114605.000			-62.179			-5.653
114703.000			-62.178			-5.653
114804.000			-62.178			-5.653
114905.000			-62.178			-5.653
115004.000			-62.176			-5.652
115104.000			-62.175			-5.652
115205.000			-62.175			-5.652
115304.000			-62.173			-5.652
115403.000			-62.172			-5.652
115505.000			-62.171			-5.652
115603.000			-62.170			-5.652
115704.000			-62.168			-5.652
115805.000			-62.166			-5.651
115904.000			-62.166			-5.651
116004.000			-62.166			-5.651
116105.000			-62.166			-5.651
116204.000			-62.165			-5.651
116303.000			-62.163			-5.651
116405.000			-62.162			-5.651
116504.000			-62.161			-5.651
116604.000			-62.160			-5.651
116705.000			-62.160			-5.651
116804.000			-62.159			-5.651
116904.000			-62.157			-5.651
117004.000			-62.157			-5.651
117104.000			-62.155			-5.650
117204.000			-62.154			-5.650
117305.000			-62.153			-5.650
117404.000			-62.152			-5.650
117504.000			-62.152			-5.650
117605.000			-62.152			-5.650
117703.000			-62.150			-5.650
117805.000			-62.148			-5.650
117904.000			-62.148			-5.650
118004.000			-62.146			-5.650
118105.000			-62.145			-5.650
118204.000			-62.145			-5.650
118304.000			-62.144			-5.649
118404.000			-62.145			-5.650
118504.000			-62.142			-5.649
118604.000			-62.140			-5.649
118705.000			-62.139			-5.649
118804.000			-62.138			-5.649
118904.000			-62.138			-5.649
119005.000			-62.137			-5.649
119104.000			-62.137			-5.649
119204.000			-62.135			-5.649
119304.000			-62.134			-5.649
119404.000			-62.133			-5.648
119504.000			-62.133			-5.648
119605.000			-62.132			-5.648
119704.000			-62.131			-5.648
119804.000			-62.131			-5.648
119905.000			-62.129			-5.648
120003.000			-62.127			-5.648
120104.000			-62.126			-5.648
120205.000			-62.126			-5.648
120304.000			-62.126			-5.648
120404.000			-62.125			-5.648
120505.000			-62.123			-5.648
120604.000			-62.123			-5.648
120703.000			-62.121			-5.647
120805.000			-62.120			-5.647
120904.000			-62.120			-5.647
121005.000			-62.119			-5.647
121104.000			-62.118			-5.647
121204.000			-62.118			-5.647
121305.000			-62.117			-5.647
121403.000			-62.113			-5.647
121504.000			-62.113			-5.647
121605.000			-62.113			-5.647
121704.000			-62.112			-5.647
121804.000			-62.111			-5.646
121904.000			-62.110			-5.646
122004.000			-62.110			-5.646
122103.000			-62.109			-5.646
122205.000			-62.107			-5.646
122304.000			-62.106			-5.646
122404.000			-62.106			-5.646
122505.000			-62.105			-5.646
122604.000			-62.104			-5.646
122704.000			-62.103			-5.646
122804.000			-62.102			-5.646
122904.000			-62.100			-5.645
123004.000			-62.100			-5.645
123105.000			-62.101			-5.646
123204.000			-62.099			-5.645
123304.000			-62.098			-5.645
123405.000			-62.096			-5.645
123503.000			-62.095			-5.645
123604.000			-62.095			-5.645
123705.000			-62.094			-5.645
123804.000			-62.093			-5.645
123904.000			-62.092			-5.645
124005.000			-62.091			-5.645
124104.000			-62.091			-5.645
124203.000			-62.091			-5.645
124304.000			-62.088			-5.644
124404.000			-62.087			-5.644
124505.000			-62.087			-5.644
124604.000			-62.086			-5.644
124704.000			-62.084			-5.644
124805.000			-62.084			-5.644
124903.000			-62.083			-5.644
125004.000			-62.081			-5.644
125105.000			-62.081			-5.644
125204.000			-62.080			-5.644
125304.000			-62.080			-5.644
125405.000			-62.079			-5.644
125504.000			-62.078			-5.643
125603.000			-62.076			-5.643
125705.000			-62.076			-5.643
125804.000			-62.075			-5.643
125904.000			-62.074			-5.643
126005.000			-62.073			-5.643
126104.000			-62.072			-5.643
126204.000			-62.072			-5.643
126304.000			-62.071			-5.643
126404.000			-62.069			-5.643
126503.000			-62.069			-5.643
126605.000			-62.068			-5.643
126704.000			-62.067			-5.642
126804.000			-62.066			-5.642
126905.000			-62.065			-5.642
127004.000			-62.064			-5.642
127104.000			-62.063			-5.642
127204.000			-62.061			-5.642
127304.000			-62.061			-5.642
127405.000			-62.061			-5.642
127504.000			-62.059			-5.642
127604.000			-62.058			-5.642
127705.000			-62.059			-5.642
127804.000			-62.058			-5.642
127903.000			-62.055			-5.641
128005.000			-62.054			-5.641
128104.000			-62.054			-5.641
128204.000			-62.054			-5.641
128305.000			-62.054			-5.641
128404.000			-62.052			-5.641
128504.000			-62.050			-5.641
128604.000			-62.050			-5.641
128704.000			-62.048			-5.641
128804.000			-62.047			-5.641
128905.000			-62.047			-5.641
129004.000			-62.047			-5.641
129104.000			-62.045			-5.640
129205.000			-62.045			-5.640
129303.000			-62.045			-5.640
129404.000			-62.042			-5.640
129505.000			-62.041			-5.640
129604.000			-62.041			-5.640
129704.000			-62.040			-5.640
129805.000			-62.040			-5.640
129904.000			-62.038			-5.640
130004.000			-62.037			-5.640
130105.000			-62.036			-5.640
130203.000			-62.035			-5.640
130304.000			-62.035			-5.640
130405.000			-62.034			-5.639
130504.000			-62.033			-5.639
130605.000			-62.032			-5.639
130704.000			-62.031			-5.639
130804.000			-62.030			-5.639
130904.000			-62.029			-5.639
131004.000			-62.029			-5.639
131104.000			-62.028			-5.639
131205.000			-62.028			-5.639
131304.000			-62.028			-5.639
131404.000			-62.027			-5.639
131505.000			-62.024			-5.639
131603.000			-62.023			-5.638
131704.000			-62.022			-5.638
131805.000			-62.021			-5.638
131904.000			-62.020			-5.638
132004.000			-62.021			-5.638
132105.000			-62.021			-5.638
132204.000			-62.019			-5.638
132303.000			-62.018			-5.638
132405.000			-62.016			-5.638
132503.000			-62.016			-5.638
132604.000			-62.015			-5.638
132705.000			-62.014			-5.638
132804.000			-62.014			-5.638
132904.000			-62.012			-5.637
133005.000			-62.011			-5.637
133104.000			-62.011			-5.637
133203.000			-62.010			-5.637
133305.000			-62.009			-5.637
133404.000			-62.008			-5.637
133504.000			-62.007			-5.637
133605.000			-62.006			-5.637
133704.000			-62.006			-5.637
133805.000			-62.005			-5.637
133904.000			-62.004			-5.637
134004.000			-62.004			-5.637
134104.000			-62.003			-5.637
134204.000			-62.002			-5.637
134304.000			-62.000			-5.636
134405.000			-62.000			-5.636
134504.000			-62.000			-5.636
134604.000			-61.998			-5.636
134705.000			-61.997			-5.636
134804.000			-61.996			-5.636
134904.000			-61.995			-5.636
135004.000			-61.995			-5.636
135104.000			-61.994			-5.636
135204.000			-61.992			-5.636
135305.000			-61.992			-5.636
135404.000			-61.991			-5.636
135504.000			-61.990			-5.635
135605.000			-61.989			-5.635
135704.000			-61.989			-5.635
135804.000			-61.989			-5.635
135904.000			-61.987			-5.635
136004.000			-61.986			-5.635
136104.000			-61.986			-5.635
136205.000			-61.984			-5.635
136304.000			-61.983			-5.635
136404.000			-61.983			-5.635
136505.000			-61.982			-5.635
136604.000			-61.981			-5.635
136704.000			-61.980			-5.635
136804.000			-61.979			-5.634
136904.000			-61.978			-5.634
137003.000			-61.976			-5.634
137104.000			-61.976			-5.634
137204.000			-61.976			-5.634
137305.000			-61.975			-5.634
137404.000			-61.974			-5.634
137504.000			-61.974			-5.634
137605.000			-61.973			-5.634
137704.000			-61.971			-5.634
137804.000			-61.971			-5.634
137904.000			-61.970			-5.634
138004.000			-61.970			-5.634
138104.000			-61.968			-5.633
138205.000			-61.968			-5.633
138304.000			-61.967			-5.633
138404.000			-61.966			-5.633
138505.000			-61.966			-5.633
138604.000			-61.965			-5.633
138704.000			-61.964			-5.633
138804.000			-61.963			-5.633
138904.000			-61.962			-5.633
139004.000			-61.962			-5.633
139105.000			-61.961			-5.633
139204.000			-61.959			-5.633
139304.000			-61.959			-5.633
139405.000			-61.957			-5.632
139504.000			-61.956			-5.632
139604.000			-61.955			-5.632
139704.000			-61.954			-5.632
139804.000			-61.954			-5.632
139903.000			-61.953			-5.632
140005.000			-61.953			-5.632
140104.000			-61.953			-5.632
140205.000			-61.951			-5.632
140304.000			-61.950			-5.632
140404.000			-61.949			-5.632
140505.000			-61.948			-5.632
140603.000			-61.948			-5.632
140704.000			-61.948			-5.632
140804.000			-61.947			-5.632
140904.000			-61.945			-5.631
141004.000			-61.945			-5.631
141105.000			-61.943			-5.631
141204.000			-61.943			-5.631
141304.000			-61.941			-5.631
141405.000			-61.941			-5.631
141503.000			-61.941			-5.631
141604.000			-61.941			-5.631
141704.000			-61.938			-5.631
141804.000			-61.937			-5.631
141904.000			-61.936			-5.631
142005.000			-61.936			-5.631
142104.000			-61.936			-5.631
142204.000			-61.935			-5.630
142305.000			-61.935			-5.630
142403.000			-61.932			-5.630
142504.000			-61.931			-5.630
142605.000			-61.931			-5.630
142704.000			-61.931			-5.630
142804.000			-61.931			-5.630
142905.000			-61.930			-5.630
143004.000			-61.928			-5.630
143104.000			-61.928			-5.630
143205.000			-61.927			-5.630
143303.000			-61.926			-5.630
143405.000			-61.925			-5.630
143504.000			-61.925			-5.630
143604.000			-61.924			-5.629
143705.000			-61.923			-5.629
143804.000			-61.922			-5.629
143904.000			-61.921			-5.629
144005.000			-61.920			-5.629
144104.000			-61.920			-5.629
144203.000			-61.919			-5.629
144305.000			-61.919			-5.629
144404.000			-61.917			-5.629
144504.000			-61.916			-5.629
144605.000			-61.915			-5.629
144704.000			-61.914			-5.629
144804.000			-61.913			-5.628
144905.000			-61.914			-5.629
145004.000			-61.912			-5.628
145103.000			-61.911			-5.628
145205.000			-61.910			-5.628
145304.000			-61.908			-5.628
145404.000			-61.907			-5.628
145505.000			-61.907			-5.628
145604.000			-61.908			-5.628
145704.000			-61.906			-5.628
145805.000			-61.906			-5.628
145904.000			-61.906			-5.628
146003.000			-61.905			-5.628
146105.000			-61.904			-5.628
146204.000			-61.902			-5.627
146304.000			-61.902			-5.627
146405.000			-61.902			-5.627
146504.000			-61.901			-5.627
146605.000			-61.900			-5.627
146704.000			-61.898			-5.627
146804.000			-61.899			-5.627
146904.000			-61.898			-5.627
147004.000			-61.898			-5.627
147103.000			-61.897			-5.627
147205.000			-61.895			-5.627
147304.000			-61.894			-5.627
147404.000			-61.893			-5.627
147505.000			-61.892			-5.627
147604.000			-61.891			-5.626
147704.000			-61.890			-5.626
147805.000			-61.890			-5.626
147904.000			-61.890			-5.626
148003.000			-61.889			-5.626
148105.000			-61.888			-5.626
148203.000			-61.886			-5.626
148304.000			-61.886			-5.626
148405.000			-61.886			-5.626
148504.000			-61.885			-5.626
148604.000			-61.885			-5.626
148705.000			-61.884			-5.626
148804.000			-61.884			-5.626
148904.000			-61.882			-5.626
149005.000			-61.881			-5.626
149103.000			-61.880			-5.625
149204.000			-61.879			-5.625
149305.000			-61.878			-5.625
149404.000			-61.878			-5.625
149504.000			-61.879			-5.625
149605.000			-61.877			-5.625
149704.000			-61.876			-5.625
149805.000			-61.876			-5.625
149904.000			-61.875			-5.625
150003.000			-61.874			-5.625
150105.000			-61.872			-5.625
150203.000			-61.872			-5.625
150304.000			-61.872			-5.625
150405.000			-61.870			-5.625
150504.000			-61.870			-5.625
150604.000			-61.870			-5.625
150705.000			-61.869			-5.624
150804.000			-61.868			-5.624
150903.000			-61.866			-5.624
151005.000			-61.867			-5.624
151104.000			-61.867			-5.624
151204.000			-61.866			-5.624
151305.000			-61.865			-5.624
151404.000			-61.863			-5.624
151504.000			-61.862			-5.624
151605.000			-61.863			-5.624
151704.000			-61.862			-5.624
151803.000			-61.860			-5.624
151905.000			-61.860			-5.624
152003.000			-61.859			-5.624
152104.000			-61.858			-5.623
152205.000			-61.857			-5.623
152304.000			-61.856			-5.623
152404.000			-61.855			-5.623
152505.000			-61.854			-5.623
152604.000			-61.853			-5.623
152703.000			-61.853			-5.623
152805.000			-61.853			-5.623
152903.000			-61.853			-5.623
153005.000			-61.852			-5.623
153104.000			-61.850			-5.623
153204.000			-61.850			-5.623
153305.000			-61.849			-5.623
153404.000			-61.849			-5.623
153504.000			-61.848			-5.623
153604.000			-61.846			-5.622
153704.000			-61.847			-5.622
153803.000			-61.845			-5.622
153905.000			-61.844			-5.622
154004.000			-61.844			-5.622
154104.000			-61.842			-5.622
154205.000			-61.842			-5.622
154304.000			-61.841			-5.622
154404.000			-61.840			-5.622
154504.000			-61.840			-5.622
154604.000			-61.839			-5.622
154703.000			-61.837			-5.622
154805.000			-61.838			-5.622
154904.000			-61.838			-5.622
155004.000			-61.838			-5.622
155105.000			-61.837			-5.622
155204.000			-61.835			-5.621
155304.000			-61.835			-5.621
155405.000			-61.833			-5.621
155504.000			-61.833			-5.621
155603.000			-61.832			-5.621
155705.000			-61.832			-5.621
155804.000			-61.832			-5.621
155904.000			-61.831			-5.621
156005.000			-61.830			-5.621
156104.000			-61.828			-5.621
156205.000			-61.827			-5.621
156304.000			-61.828			-5.621
156404.000			-61.827			-5.621
156504.000			-61.826			-5.621
156604.000			-61.825			-5.620
156704.000			-61.825			-5.620
156805.000			-61.823			-5.620
156904.000			-61.822			-5.620
157004.000			-61.822			-5.620
157105.000			-61.822			-5.620
157204.000			-61.821			-5.620
157304.000			-61.820			-5.620
157404.000			-61.819			-5.620
157504.000			-61.818			-5.620
157604.000			-61.818			-5.620
157705.000			-61.817			-5.620
157804.000			-61.815			-5.620
157904.000			-61.815			-5.620
158005.000			-61.815			-5.620
158104.000			-61.814			-5.619
158204.000			-61.815			-5.620
158304.000			-61.812			-5.619
158404.000			-61.812			-5.619
158504.000			-61.811			-5.619
158605.000			-61.810			-5.619
158704.000			-61.809			-5.619
158804.000			-61.808			-5.619
158905.000			-61.809			-5.619
159004.000			-61.808			-5.619
159104.000			-61.807			-5.619
159204.000			-61.806			-5.619
159304.000			-61.806			-5.619
159403.000			-61.806			-5.619
159504.000			-61.804			-5.619
159604.000			-61.803			-5.618
159705.000			-61.802			-5.618
159804.000			-61.802			-5.618
159904.000			-61.800			-5.618
160005.000			-61.799			-5.618
160103.000			-61.800			-5.618
160204.000			-61.800			-5.618
160304.000			-61.798			-5.618
160404.000			-61.797			-5.618
160504.000			-61.798			-5.618
160605.000			-61.797			-5.618
160704.000			-61.796			-5.618
160804.000			-61.796			-5.618
160905.000			-61.794			-5.618
161004.000			-61.793			-5.618
161104.000			-61.793			-5.618
161204.000			-61.792			-5.617
161304.000			-61.791			-5.617
161404.000			-61.791			-5.617
161505.000			-61.790			-5.617
161604.000			-61.789			-5.617
161704.000			-61.788			-5.617
161805.000			-61.788			-5.617
161904.000			-61.787			-5.617
162004.000			-61.786			-5.617
162104.000			-61.786			-5.617
162204.000			-61.785			-5.617
162304.000			-61.784			-5.617
162405.000			-61.783			-5.617
162504.000			-61.783			-5.617
162605.000			-61.782			-5.617
162704.000			-61.781			-5.616
162804.000			-61.780			-5.616
162905.000			-61.779			-5.616
163003.000			-61.780			-5.616
163104.000			-61.779			-5.616
163204.000			-61.779			-5.616
163304.000			-61.778			-5.616
163404.000			-61.775			-5.616
163505.000			-61.775			-5.616
163604.000			-61.776			-5.616
163704.000			-61.775			-5.616
163805.000			-61.773			-5.616
163903.000			-61.772			-5.616
164004.000			-61.771			-5.616
164104.000			-61.771			-5.616
164204.000			-61.771			-5.616
164304.000			-61.770			-5.615
164405.000			-61.769			-5.615
164504.000			-61.769			-5.615
164604.000			-61.769			-5.615
164705.000			-61.767			-5.615
164803.000			-61.766			-5.615
164904.000			-61.765			-5.615
165004.000			-61.765			-5.615
165104.000			-61.764			-5.615
165204.000			-61.763			-5.615
165305.000			-61.762			-5.615
165404.000			-61.761			-5.615
165504.000			-61.761			-5.615
165605.000			-61.761			-5.615
165704.000			-61.759			-5.614
165805.000			-61.759			-5.614
165903.000			-61.758			-5.614
166004.000			-61.758			-5.614
166105.000			-61.758			-5.614
166204.000			-61.757			-5.614
166304.000			-61.755			-5.614
166405.000			-61.755			-5.614
166504.000			-61.755			-5.614
166604.000			-61.754			-5.614
166705.000			-61.754			-5.614
166803.000			-61.752			-5.614
166904.000			-61.751			-5.614
167004.000			-61.752			-5.614
167104.000			-61.752			-5.614
167204.000			-61.751			-5.614
167305.000			-61.749			-5.614
167404.000			-61.748			-5.613
167504.000			-61.747			-5.613
167605.000			-61.747			-5.613
167703.000			-61.747			-5.613
167804.000			-61.745			-5.613
167904.000			-61.744			-5.613
168004.000			-61.742			-5.613
168104.000			-61.743			-5.613
168205.000			-61.744			-5.613
168304.000			-61.743			-5.613
168404.000			-61.741			-5.613
168505.000			-61.740			-5.613
168604.000			-61.740			-5.613
168704.000			-61.740			-5.613
168804.000			-61.739			-5.613
168904.000			-61.738			-5.613
169005.000			-61.738			-5.613
169104.000			-61.737			-5.612
169204.000			-61.736			-5.612
169305.000			-61.735			-5.612
169404.000			-61.735			-5.612
169504.000			-61.734			-5.612
169605.000			-61.734			-5.612
169703.000			-61.733			-5.612
169804.000			-61.733			-5.612
169904.000			-61.731			-5.612
170004.000			-61.730			-5.612
170104.000			-61.730			-5.612
170205.000			-61.729			-5.612
170304.000			-61.727			-5.612
170404.000			-61.727			-5.612
170505.000			-61.727			-5.612
170603.000			-61.726			-5.611
170704.000			-61.725			-5.611
170804.000			-61.725			-5.611
170904.000			-61.725			-5.611
171004.000			-61.723			-5.611
171105.000			-61.722			-5.611
171204.000			-61.723			-5.611
171304.000			-61.722			-5.611
171405.000			-61.722			-5.611
171504.000			-61.721			-5.611
171604.000			-61.719			-5.611
171704.000			-61.718			-5.611
171804.000			-61.718			-5.611
171904.000			-61.718			-5.611
172005.000			-61.718			-5.611
172104.000			-61.716			-5.611
172205.000			-61.716			-5.611
172304.000			-61.716			-5.611
172404.000			-61.716			-5.611
172505.000			-61.714			-5.610
172603.000			-61.713			-5.610
172704.000			-61.712			-5.610
172805.000			-61.712			-5.610
172904.000			-61.711			-5.610
173004.000			-61.710			-5.610
173105.000			-61.711			-5.610
173204.000			-61.710			-5.610
173304.000			-61.710			-5.610
173405.000			-61.709			-5.610
173503.000			-61.707			-5.610
173604.000			-61.707			-5.610
173705.000			-61.706			-5.610
173804.000			-61.705			-5.610
173904.000			-61.704			-5.609
174005.000			-61.704			-5.609
174104.000			-61.704			-5.609
174204.000			-61.703			-5.609
174305.000			-61.702			-5.609
174403.000			-61.701			-5.609
174504.000			-61.700			-5.609
174605.000			-61.699			-5.609
174704.000			-61.698			-5.609
174804.000			-61.699			-5.609
174905.000			-61.698			-5.609
175004.000			-61.697			-5.609
175104.000			-61.696			-5.609
175205.000			-61.695			-5.609
175303.000			-61.694			-5.609
175405.000			-61.694			-5.609
175503.000			-61.695			-5.609
175604.000			-61.694			-5.609
175705.000			-61.692			-5.608
175804.000			-61.692			-5.608
175904.000			-61.691			-5.608
176005.000			-61.690			-5.608
176104.000			-61.689			-5.608
176204.000			-61.689			-5.608
176305.000			-61.688			-5.608
176403.000			-61.688			-5.608
176504.000			-61.687			-5.608
176605.000			-61.686			-5.608
176704.000			-61.686			-5.608
176804.000			-61.685			-5.608
176905.000			-61.683			-5.608
177004.000			-61.683			-5.608
177104.000			-61.683			-5.608
177205.000			-61.682			-5.607
177303.000			-61.681			-5.607
177404.000			-61.681			-5.607
177504.000			-61.680			-5.607
177604.000			-61.679			-5.607
177704.000			-61.679			-5.607
177805.000			-61.678			-5.607
177904.000			-61.678			-5.607
178004.000			-61.677			-5.607
178105.000			-61.676			-5.607
178204.000			-61.676			-5.607
178304.000			-61.675			-5.607
178404.000			-61.674			-5.607
178504.000			-61.674			-5.607
178605.000			-61.674			-5.607
178704.000			-61.672			-5.607
178804.000			-61.671			-5.606
178905.000			-61.671			-5.606
179004.000			-61.670			-5.606
179104.000			-61.670			-5.606
179205.000			-61.669			-5.606
179303.000			-61.668			-5.606
179404.000			-61.666			-5.606
179504.000			-61.667			-5.606
179604.000			-61.667			-5.606
179704.000			-61.667			-5.606
179805.000			-61.666			-5.606
179904.000			-61.665			-5.606
180004.000			-61.664			-5.606
180105.000			-61.663			-5.606
180204.000			-61.662			-5.606
180304.000			-61.662			-5.606
180404.000			-61.660			-5.605
180504.000			-61.660			-5.605
180604.000			-61.660			-5.605
180705.000			-61.660			-5.605
180804.000			-61.659			-5.605
180904.000			-61.659			-5.605
181005.000			-61.657			-5.605
181104.000			-61.656			-5.605
181204.000			-61.656			-5.605
181304.000			-61.656			-5.605
181404.000			-61.656			-5.605
181504.000			-61.654			-5.605
181605.000			-61.653			-5.605
181704.000			-61.652			-5.605
181805.000			-61.653			-5.605
181904.000			-61.652			-5.605
182004.000			-61.651			-5.605
182105.000			-61.651			-5.605
182203.000			-61.650			-5.605
182304.000			-61.649			-5.604
182405.000			-61.648			-5.604
182504.000			-61.648			-5.604
182604.000			-61.648			-5.604
182705.000			-61.647			-5.604
182804.000			-61.646			-5.604
182904.000			-61.646			-5.604
183005.000			-61.645			-5.604
183103.000			-61.644			-5.604
183204.000			-61.643			-5.604
183305.000			-61.643			-5.604
183404.000			-61.642			-5.604
183504.000			-61.642			-5.604
183605.000			-61.642			-5.604
183704.000			-61.639			-5.604
183804.000			-61.640			-5.604
183905.000			-61.640			-5.604
184003.000			-61.639			-5.604
184104.000			-61.640			-5.604
184205.000			-61.639			-5.604
184304.000			-61.637			-5.603
184404.000			-61.635			-5.603
184505.000			-61.635			-5.603
184604.000			-61.635			-5.603
184704.000			-61.633			-5.603
184805.000			-61.633			-5.603
184903.000			-61.632			-5.603
185005.000			-61.632			-5.603
185103.000			-61.630			-5.603
185204.000			-61.631			-5.603
185305.000			-61.630			-5.603
185404.000			-61.629			-5.603
185504.000			-61.629			-5.603
185605.000			-61.628			-5.603
185704.000			-61.627			-5.602
185804.000			-61.627			-5.602
185905.000			-61.625			-5.602
186003.000			-61.625			-5.602
186104.000			-61.625			-5.602
186205.000			-61.625			-5.602
186304.000			-61.624			-5.602
186404.000			-61.623			-5.602
186505.000			-61.623			-5.602
186604.000			-61.622			-5.602
186704.000			-61.621			-5.602
186805.000			-61.621			-5.602
186903.000			-61.621			-5.602
187004.000			-61.620			-5.602
187105.000			-61.619			-5.602
187204.000			-61.618			-5.602
187304.000			-61.617			-5.602
187405.000			-61.617			-5.602
187504.000			-61.617			-5.602
187604.000			-61.616			-5.601
187705.000			-61.616			-5.601
187803.000			-61.616			-5.601
187904.000			-61.615			-5.601
188005.000			-61.613			-5.601
188104.000			-61.612			-5.601
188205.000			-61.612			-5.601
188304.000			-61.611			-5.601
188404.000			-61.611			-5.601
188505.000			-61.611			-5.601
188604.000			-61.611			-5.601
188703.000			-61.608			-5.601
188805.000			-61.607			-5.601
188904.000			-61.607			-5.601
189004.000			-61.607			-5.601
189105.000			-61.607			-5.601
189204.000			-61.606			-5.601
189304.000			-61.605			-5.600
189405.000			-61.604			-5.600
189504.000			-61.603			-5.600
189603.000			-61.604			-5.600
189705.000			-61.603			-5.600
189803.000			-61.602			-5.600
189904.000			-61.603			-5.600
190005.000			-61.602			-5.600
190104.000			-61.600			-5.600
190204.000			-61.601			-5.600
190305.000			-61.600			-5.600
190404.000			-61.599			-5.600
190503.000			-61.598			-5.600
190605.000			-61.598			-5.600
190703.000			-61.597			-5.600
190804.000			-61.596			-5.600
190905.000			-61.595			-5.600
191004.000			-61.594			-5.599
191104.000			-61.594			-5.599
191205.000			-61.594			-5.599
191304.000			-61.593			-5.599
191405.000			-61.593			-5.599
191504.000			-61.593			-5.599
191603.000			-61.591			-5.599
191705.000			-61.591			-5.599
191804.000			-61.590			-5.599
191904.000			-61.590			-5.599
192005.000			-61.589			-5.599
192104.000			-61.589			-5.599
192204.000			-61.588			-5.599
192305.000			-61.586			-5.599
192404.000			-61.586			-5.599
192503.000			-61.585			-5.599
192605.000			-61.584			-5.599
192703.000			-61.584			-5.599
192804.000			-61.583			-5.598
192905.000			-61.583			-5.598
193004.000			-61.583			-5.598
193104.000			-61.582			-5.598
193205.000			-61.580			-5.598
193304.000			-61.580			-5.598
193403.000			-61.580			-5.598
193505.000			-61.579			-5.598
193603.000			-61.579			-5.598
193704.000			-61.577			-5.598
193805.000			-61.577			-5.598
193904.000			-61.577			-5.598
194004.000			-61.576			-5.598
194105.000			-61.577			-5.598
194204.000			-61.577			-5.598
194304.000			-61.576			-5.598
194405.000			-61.575			-5.598
194503.000			-61.573			-5.598
194605.000			-61.572			-5.597
194704.000			-61.573			-5.598
194804.000			-61.571			-5.597
194905.000			-61.571			-5.597
195004.000			-61.572			-5.597
195104.000			-61.570			-5.597
195205.000			-61.570			-5.597
195304.000			-61.568			-5.597
195403.000			-61.567			-5.597
195505.000			-61.567			-5.597
195604.000			-61.566			-5.597
195704.000			-61.566			-5.597
195805.000			-61.565			-5.597
195904.000			-61.563			-5.597
196004.000			-61.564			-5.597
196105.000			-61.563			-5.597
196204.000			-61.563			-5.597
196303.000			-61.563			-5.597
196405.000			-61.562			-5.597
196503.000			-61.561			-5.596
196604.000			-61.560			-5.596
196705.000			-61.560			-5.596
196804.000			-61.559			-5.596
196904.000			-61.558			-5.596
197005.000			-61.558			-5.596
197104.000			-61.558			-5.596
197203.000			-61.557			-5.596
197305.000			-61.556			-5.596
197403.000			-61.556			-5.596
197504.000			-61.556			-5.596
197605.000			-61.554			-5.596
197704.000			-61.554			-5.596
197805.000			-61.552			-5.596
197904.000			-61.552			-5.596
198004.000			-61.552			-5.596
198105.000			-61.551			-5.596
198204.000			-61.551			-5.596
198303.000			-61.551			-5.596
198405.000			-61.550			-5.595
198504.000			-61.549			-5.595
198604.000			-61.549			-5.595
198705.000			-61.547			-5.595
198804.000			-61.547			-5.595
198904.000			-61.546			-5.595
199005.000			-61.545			-5.595
199104.000			-61.544			-5.595
199203.000			-61.544			-5.595
199305.000			-61.544			-5.595
199404.000			-61.543			-5.595
199504.000			-61.542			-5.595
199605.000			-61.542			-5.595
199704.000			-61.542			-5.595
199804.000			-61.542			-5.595
199905.000			-61.542			-5.595
200004.000			-61.541			-5.595
200103.000			-61.540			-5.595
200205.000			-61.540			-5.595
200304.000			-61.537			-5.594
200404.000			-61.538			-5.594
200505.000			-61.537			-5.594
200604.000			-61.534			-5.594
200704.000			-61.534			-5.594
200804.000			-61.535			-5.594
200904.000			-61.535			-5.594
201003.000			-61.533			-5.594
201104.000			-61.532			-5.594
201204.000			-61.532			-5.594
201305.000			-61.531			-5.594
201404.000			-61.532			-5.594
201504.000			-61.530			-5.594
201605.000			-61.528			-5.593
201703.000			-61.528			-5.593
201804.000			-61.528			-5.593
201905.000			-61.527			-5.593
202004.000			-61.528			-5.593
202104.000			-61.527			-5.593
202205.000			-61.526			-5.593
202304.000			-61.525			-5.593
202404.000			-61.525			-5.593
202505.000			-61.523			-5.593
202603.000			-61.523			-5.593
202704.000			-61.523			-5.593
202805.000			-61.522			-5.593
202904.000			-61.521			-5.593
203004.000			-61.521			-5.593
203105.000			-61.520			-5.593
203204.000			-61.519			-5.593
203304.000			-61.520			-5.593
203405.000			-61.519			-5.593
203503.000			-61.518			-5.593
203604.000			-61.518			-5.593
203705.000			-61.516			-5.592
203804.000			-61.516			-5.592
203904.000			-61.515			-5.592
204005.000			-61.514			-5.592
204104.000			-61.514			-5.592
204203.000			-61.514			-5.592
204304.000			-61.514			-5.592
204403.000			-61.514			-5.592
204505.000			-61.513			-5.592
204604.000			-61.510			-5.592
204704.000			-61.510			-5.592
204805.000			-61.510			-5.592
204904.000			-61.509			-5.592
205004.000			-61.509			-5.592
205104.000			-61.509			-5.592
205204.000			-61.508			-5.592
205304.000			-61.507			-5.592
205405.000			-61.506			-5.591
205504.000			-61.505			-5.591
205604.000			-61.505			-5.591
205705.000			-61.505			-5.591
205804.000			-61.504			-5.591
205904.000			-61.503			-5.591
206004.000			-61.503			-5.591
206104.000			-61.502			-5.591
206204.000			-61.501			-5.591
206305.000			-61.501			-5.591
206404.000			-61.500			-5.591
206504.000			-61.501			-5.591
206605.000			-61.500			-5.591
206704.000			-61.499			-5.591
206804.000			-61.499			-5.591
206904.000			-61.497			-5.591
207004.000			-61.498			-5.591
207104.000			-61.497			-5.591
207205.000			-61.496			-5.591
207304.000			-61.496			-5.591
207405.000			-61.495			-5.590
207504.000			-61.493			-5.590
207604.000			-61.493			-5.590
207705.000			-61.492			-5.590
207803.000			-61.493			-5.590
207904.000			-61.492			-5.590
208005.000			-61.492			-5.590
208104.000			-61.491			-5.590
208204.000			-61.490			-5.590
208305.000			-61.490			-5.590
208404.000			-61.490			-5.590
208504.000			-61.489			-5.590
208605.000			-61.488			-5.590
208703.000			-61.487			-5.590
208804.000			-61.487			-5.590
208905.000			-61.486			-5.590
209004.000			-61.486			-5.590
209104.000			-61.485			-5.590
209205.000			-61.485			-5.590
209304.000			-61.484			-5.589
209404.000			-61.483			-5.589
209505.000			-61.482			-5.589
209603.000			-61.482			-5.589
209704.000			-61.481			-5.589
209805.000			-61.480			-5.589
209904.000			-61.481			-5.589
210004.000			-61.481			-5.589
210105.000			-61.480			-5.589
210204.000			-61.479			-5.589
210304.000			-61.477			-5.589
210405.000			-61.476			-5.589
210503.000			-61.476			-5.589
210605.000			-61.475			-5.589
210704.000			-61.474			-5.589
210804.000			-61.474			-5.589
210905.000			-61.475			-5.589
211004.000			-61.475			-5.589
211104.000			-61.474			-5.589
211205.000			-61.473			-5.588
211304.000			-61.472			-5.588
211403.000			-61.471			-5.588
211505.000			-61.470			-5.588
211604.000			-61.471			-5.588
211704.000			-61.470			-5.588
211805.000			-61.469			-5.588
211904.000			-61.469			-5.588
212004.000			-61.467			-5.588
212104.000			-61.467			-5.588
212204.000			-61.467			-5.588
212303.000			-61.467			-5.588
212405.000			-61.466			-5.588
212504.000			-61.465			-5.588
212604.000			-61.464			-5.588
212705.000			-61.464			-5.588
212804.000			-61.464			-5.588
212904.000			-61.464			-5.588
213004.000			-61.464			-5.588
213104.000			-61.462			-5.587
213204.000			-61.461			-5.587
213305.000			-61.461			-5.587
213404.000			-61.460			-5.587
213504.000			-61.459			-5.587
213605.000			-61.458			-5.587
213704.000			-61.459			-5.587
213805.000			-61.458			-5.587
213903.000			-61.458			-5.587
214004.000			-61.456			-5.587
214105.000			-61.456			-5.587
214204.000			-61.456			-5.587
214304.000			-61.457			-5.587
214405.000			-61.455			-5.587
214504.000			-61.454			-5.587
214604.000			-61.454			-5.587
214705.000			-61.454			-5.587
214803.000			-61.453			-5.587
214904.000			-61.453			-5.587
215005.000			-61.452			-5.587
215104.000			-61.451			-5.586
215204.000			-61.450			-5.586
215305.000			-61.450			-5.586
215404.000			-61.450			-5.586
215504.000			-61.448			-5.586
215605.000			-61.448			-5.586
215703.000			-61.447			-5.586
215804.000			-61.447			-5.586
215905.000			-61.448			-5.586
216004.000			-61.447			-5.586
216104.000			-61.447			-5.586
216205.000			-61.444			-5.586
216304.000			-61.445			-5.586
216404.000			-61.444			-5.586
216505.000			-61.444			-5.586
216603.000			-61.444			-5.586
216704.000			-61.443			-5.586
216805.000			-61.442			-5.586
216904.000			-61.442			-5.586
217005.000			-61.441			-5.586
217104.000			-61.440			-5.585
217204.000			-61.440			-5.585
217305.000			-61.440			-5.585
217404.000			-61.439			-5.585
217503.000			-61.438			-5.585
217605.000			-61.437			-5.585
217704.000			-61.436			-5.585
217804.000			-61.437			-5.585
217905.000			-61.436			-5.585
218004.000			-61.436			-5.585
218104.000			-61.435			-5.585
218205.000			-61.435			-5.585
218304.000			-61.434			-5.585
218403.000			-61.434			-5.585
218505.000			-61.433			-5.585
218604.000			-61.433			-5.585
218704.000			-61.433			-5.585
218805.000			-61.431			-5.585
218904.000			-61.430			-5.585
219004.000			-61.431			-5.585
219104.000			-61.429			-5.584
219204.000			-61.429			-5.584
219303.000			-61.428			-5.584
219405.000			-61.428			-5.584
219504.000			-61.426			-5.584
219604.000			-61.427			-5.584
219705.000			-61.427			-5.584
219804.000			-61.425			-5.584
219904.000			-61.425			-5.584
220004.000			-61.425			-5.584
220104.000			-61.424			-5.584
220203.000			-61.423			-5.584
220304.000			-61.422			-5.584
220404.000			-61.422			-5.584
220505.000			-61.422			-5.584
220604.000			-61.422			-5.584
220704.000			-61.421			-5.584
220805.000			-61.422			-5.584
220903.000			-61.421			-5.584
221004.000			-61.419			-5.584
221105.000			-61.418			-5.583
221204.000			-61.418			-5.583
221304.000			-61.418			-5.583
221405.000			-61.417			-5.583
221504.000			-61.417			-5.583
221603.000			-61.417			-5.583
221705.000			-61.417			-5.583
221803.000			-61.415			-5.583
221904.000			-61.415			-5.583
222005.000			-61.413			-5.583
222104.000			-61.414			-5.583
222204.000			-61.413			-5.583
222305.000			-61.412			-5.583
222404.000			-61.412			-5.583
222503.000			-61.411			-5.583
222605.000			-61.411			-5.583
222704.000			-61.410			-5.583
222804.000			-61.409			-5.583
222905.000			-61.409			-5.583
223004.000			-61.409			-5.583
223104.000			-61.409			-5.583
223205.000			-61.409			-5.583
223304.000			-61.407			-5.582
223403.000			-61.407			-5.582
223504.000			-61.405			-5.582
223604.000			-61.405			-5.582
223705.000			-61.405			-5.582
223804.000			-61.405			-5.582
223904.000			-61.405			-5.582
224005.000			-61.405			-5.582
224104.000			-61.403			-5.582
224204.000			-61.402			-5.582
224304.000			-61.401			-5.582
224404.000			-61.401			-5.582
224504.000			-61.400			-5.582
224605.000			-61.402			-5.582
224704.000			-61.400			-5.582
224804.000			-61.399			-5.582
224905.000			-61.399			-5.582
225003.000			-61.398			-5.582
225104.000			-61.397			-5.582
225204.000			-61.396			-5.581
225304.000			-61.396			-5.581
225404.000			-61.396			-5.581
225505.000			-61.396			-5.581
225604.000			-61.396			-5.581
225704.000			-61.395			-5.581
225805.000			-61.395			-5.581
225903.000			-61.394			-5.581
226004.000			-61.394			-5.581
226104.000			-61.392			-5.581
226204.000			-61.391			-5.581
226304.000			-61.392			-5.581
226405.000			-61.390			-5.581
226504.000			-61.391			-5.581
226605.000			-61.391			-5.581
226704.000			-61.389			-5.581
226803.000			-61.389			-5.581
226905.000			-61.388			-5.581
227003.000			-61.388			-5.581
227104.000			-61.387			-5.581
227205.000			-61.388			-5.581
227304.000			-61.387			-5.581
227404.000			-61.386			-5.581
227505.000			-61.385			-5.580
227604.000			-61.384			-5.580
227703.000			-61.385			-5.580
227805.000			-61.383			-5.580
227903.000			-61.383			-5.580
228004.000			-61.383			-5.580
228105.000			-61.383			-5.580
228204.000			-61.382			-5.580
228304.000			-61.381			-5.580
228405.000			-61.381			-5.580
228504.000			-61.380			-5.580
228603.000			-61.380			-5.580
228705.000			-61.380			-5.580
228803.000			-61.378			-5.580
228904.000			-61.377			-5.580
229005.000			-61.377			-5.580
229104.000			-61.378			-5.580
229204.000			-61.376			-5.580
229305.000			-61.376			-5.580
229404.000			-61.376			-5.580
229503.000			-61.376			-5.580
229605.000			-61.375			-5.580
229703.000			-61.374			-5.579
229805.000			-61.374			-5.579
229904.000			-61.373			-5.579
230004.000			-61.373			-5.579
230105.000			-61.372			-5.579
230204.000			-61.372			-5.579
230304.000			-61.372			-5.579
230404.000			-61.371			-5.579
230504.000			-61.370			-5.579
230603.000			-61.370			-5.579
230705.000			-61.369			-5.579
230804.000			-61.369			-5.579
230904.000			-61.368			-5.579
231005.000			-61.368			-5.579
231104.000			-61.367			-5.579
231204.000			-61.367			-5.579
231304.000			-61.366			-5.579
231404.000			-61.365			-5.579
231504.000			-61.366			-5.579
231605.000			-61.365			-5.579
231704.000			-61.365			-5.579
231804.000			-61.364			-5.579
231905.000			-61.363			-5.578
232004.000			-61.363			-5.578
232104.000			-61.362			-5.578
232204.000			-61.362			-5.578
232304.000			-61.361			-5.578
232404.000			-61.361			-5.578
232505.000			-61.361			-5.578
232604.000			-61.359			-5.578
232704.000			-61.358			-5.578
232805.000			-61.359			-5.578
232904.000			-61.358			-5.578
233005.000			-61.358			-5.578
233103.000			-61.358			-5.578
233204.000			-61.355			-5.578
233305.000			-61.355			-5.578
233404.000			-61.355			-5.578
233504.000			-61.355			-5.578
233605.000			-61.353			-5.578
233704.000			-61.354			-5.578
233804.000			-61.354			-5.578
233905.000			-61.354			-5.578
234003.000			-61.353			-5.578
234104.000			-61.351			-5.577
234205.000			-61.352			-5.577
234304.000			-61.351			-5.577
234404.000			-61.351			-5.577
234505.000			-61.350			-5.577
234604.000			-61.350			-5.577
234703.000			-61.349			-5.577
234805.000			-61.349			-5.577
234904.000			-61.349			-5.577
235004.000			-61.347			-5.577
235105.000			-61.347			-5.577
235204.000			-61.346			-5.577
235304.000			-61.345			-5.577
235405.000			-61.346			-5.577
235504.000			-61.346			-5.577
235603.000			-61.345			-5.577
235705.000			-61.345			-5.577
235804.000			-61.344			-5.577
235904.000			-61.344			-5.577
236005.000			-61.344			-5.577
236104.000			-61.344			-5.577
236205.000			-61.342			-5.577
236304.000			-61.341			-5.576
236404.000			-61.342			-5.577
236504.000			-61.341			-5.576
236604.000			-61.339			-5.576
236704.000			-61.339			-5.576
236805.000			-61.338			-5.576
236904.000			-61.338			-5.576
237004.000			-61.339			-5.576
237105.000			-61.337			-5.576
237204.000			-61.337			-5.576
237304.000			-61.337			-5.576
237404.000			-61.336			-5.576
237504.000			-61.336			-5.576
237604.000			-61.334			-5.576
237705.000			-61.335			-5.576
237804.000			-61.335			-5.576
237904.000			-61.334			-5.576
238005.000			-61.333			-5.576
238104.000			-61.332			-5.576
238204.000			-61.331			-5.576
238304.000			-61.332			-5.576
238404.000			-61.331			-5.576
238504.000			-61.330			-5.575
238605.000			-61.331			-5.576
238704.000			-61.330			-5.575
238804.000			-61.330			-5.575
238905.000			-61.329			-5.575
239004.000			-61.329			-5.575
239104.000			-61.328			-5.575
239204.000			-61.327			-5.575
239304.000			-61.326			-5.575
239405.000			-61.325			-5.575
239504.000			-61.325			-5.575
239604.000			-61.325			-5.575
239705.000			-61.324			-5.575
239804.000			-61.324			-5.575
239904.000			-61.323			-5.575
240005.000			-61.323			-5.575
240103.000			-61.321			-5.575
240204.000			-61.323			-5.575
240305.000			-61.322			-5.575
240404.000			-61.320			-5.575
240504.000			-61.320			-5.575
240605.000			-61.319			-5.574
240704.000			-61.319			-5.574
240804.000			-61.318			-5.574
240905.000			-61.317			-5.574
241003.000			-61.316			-5.574
241104.000			-61.316			-5.574
241205.000			-61.317			-5.574
241304.000			-61.316			-5.574
241404.000			-61.315			-5.574
241505.000			-61.315			-5.574
241604.000			-61.314			-5.574
241703.000			-61.314			-5.574
241805.000			-61.313			-5.574
241904.000			-61.314			-5.574
242004.000			-61.312			-5.574
242105.000			-61.312			-5.574
242204.000			-61.312			-5.574
242304.000			-61.311			-5.574
242405.000			-61.311			-5.574
242504.000			-61.310			-5.574
242603.000			-61.309			-5.574
242704.000			-61.309			-5.574
242804.000			-61.310			-5.574
242905.000			-61.309			-5.574
243004.000			-61.307			-5.573
243104.000			-61.307			-5.573
243205.000			-61.306			-5.573
243304.000			-61.306			-5.573
243404.000			-61.306			-5.573
243504.000			-61.306			-5.573
243604.000			-61.305			-5.573
243704.000			-61.304			-5.573
243805.000			-61.303			-5.573
243904.000			-61.303			-5.573
244004.000			-61.302			-5.573
244105.000			-61.301			-5.573
244203.000			-61.302			-5.573
244304.000			-61.301			-5.573
244405.000			-61.301			-5.573
244504.000			-61.300			-5.573
244604.000			-61.300			-5.573
244705.000			-61.300			-5.573
244804.000			-61.299			-5.573
244904.000			-61.299			-5.573
245005.000			-61.299			-5.573
245103.000			-61.298			-5.573
245204.000			-61.297			-5.572
245305.000			-61.297			-5.572
245404.000			-61.297			-5.572
245504.000			-61.295			-5.572
245605.000			-61.295			-5.572
245704.000			-61.294			-5.572
245805.000			-61.294			-5.572
245904.000			-61.294			-5.572
246003.000			-61.294			-5.572
246105.000			-61.292			-5.572
246204.000			-61.292			-5.572
246304.000			-61.291			-5.572
246405.000			-61.290			-5.572
246504.000			-61.291			-5.572
246604.000			-61.289			-5.572
246705.000			-61.288			-5.572
246804.000			-61.289			-5.572
246903.000			-61.289			-5.572
247005.000			-61.288			-5.572
247103.000			-61.286			-5.571
247204.000			-61.287			-5.572
247305.000			-61.286			-5.571
247404.000			-61.286			-5.571
247504.000			-61.285			-5.571
247605.000			-61.285			-5.571
247704.000			-61.283			-5.571
247803.000			-61.284			-5.571
247905.000			-61.283			-5.571
248003.000			-61.283			-5.571
248104.000			-61.283			-5.571
248205.000			-61.282			-5.571
248304.000			-61.282			-5.571
248404.000			-61.281			-5.571
248505.000			-61.280			-5.571
248604.000			-61.280			-5.571
248704.000			-61.280			-5.571
248805.000			-61.279			-5.571
248903.000			-61.278			-5.571
249005.000			-61.278			-5.571
249104.000			-61.276			-5.571
249204.000			-61.276			-5.571
249305.000			-61.276			-5.571
249404.000			-61.277			-5.571
249504.000			-61.276			-5.571
249605.000			-61.275			-5.570
249704.000			-61.275			-5.570
249803.000			-61.273			-5.570
249905.000			-61.273			-5.570
250004.000			-61.273			-5.570
250104.000			-61.272			-5.570
250205.000			-61.272			-5.570
250304.000			-61.272			-5.570
250404.000			-61.271			-5.570
250505.000			-61.271			-5.570
250604.000			-61.270			-5.570
250703.000			-61.270			-5.570
250805.000			-61.269			-5.570
250904.000			-61.269			-5.570
251004.000			-61.269			-5.570
251105.000			-61.267			-5.570
251204.000			-61.267			-5.570
251304.000			-61.269			-5.570
251405.000			-61.268			-5.570
251504.000			-61.267			-5.570
251603.000			-61.265			-5.570
251705.000			-61.264			-5.569
251804.000			-61.264			-5.569
251904.000			-61.263			-5.569
252005.000			-61.263			-5.569
252104.000			-61.263			-5.569
252205.000			-61.263			-5.569
252304.000			-61.262			-5.569
252404.000			-61.261			-5.569
252504.000			-61.261			-5.569
252604.000			-61.261			-5.569
252704.000			-61.260			-5.569
252805.000			-61.260			-5.569
252904.000			-61.261			-5.569
253004.000			-61.260			-5.569
253105.000			-61.259			-5.569
253204.000			-61.257			-5.569
253304.000			-61.256			-5.569
253404.000			-61.256			-5.569
253504.000			-61.257			-5.569
253604.000			-61.256			-5.569
253705.000			-61.255			-5.569
253804.000			-61.254			-5.569
253904.000			-61.254			-5.569
254005.000			-61.254			-5.569
254103.000			-61.254			-5.569
254204.000			-61.253			-5.568
254304.000			-61.254			-5.569
254404.000			-61.252			-5.568
254504.000			-61.253			-5.568
254605.000			-61.251			-5.568
254704.000			-61.250			-5.568
254804.000			-61.250			-5.568
254905.000			-61.250			-5.568
255003.000			-61.249			-5.568
255104.000			-61.248			-5.568
255205.000			-61.247			-5.568
255304.000			-61.247			-5.568
255405.000			-61.247			-5.568
255504.000			-61.247			-5.568
255604.000			-61.247			-5.568
255705.000			-61.248			-5.568
255804.000			-61.246			-5.568
255903.000			-61.245			-5.568
256005.000			-61.244			-5.568
256104.000			-61.245			-5.568
256204.000			-61.244			-5.568
256305.000			-61.243			-5.568
256404.000			-61.241			-5.567
256504.000			-61.242			-5.567
256605.000			-61.242			-5.567
256704.000			-61.241			-5.567
256803.000			-61.239			-5.567
256905.000			-61.238			-5.567
257004.000			-61.239			-5.567
257104.000			-61.239			-5.567
257205.000			-61.238			-5.567
257304.000			-61.237			-5.567
257404.000			-61.237			-5.567
257505.000			-61.236			-5.567
257604.000			-61.236			-5.567
257703.000			-61.236			-5.567
257805.000			-61.235			-5.567
257904.000			-61.235			-5.567
258004.000			-61.235			-5.567
258105.000			-61.234			-5.567
258204.000			-61.233			-5.567
258304.000			-61.232			-5.567
258405.000			-61.233			-5.567
258504.000			-61.232			-5.567
258603.000			-61.232			-5.567
258704.000			-61.230			-5.566
258803.000			-61.230			-5.566
258905.000			-61.229			-5.566
259004.000			-61.230			-5.566
259104.000			-61.230			-5.566
259205.000			-61.230			-5.566
259304.000			-61.228			-5.566
259404.000			-61.228			-5.566
259504.000			-61.228			-5.566
259604.000			-61.228			-5.566
259703.000			-61.227			-5.566
259805.000			-61.227			-5.566
259904.000			-61.226			-5.566
260004.000			-61.225			-5.566
260105.000			-61.224			-5.566
260204.000			-61.224			-5.566
260304.000			-61.224			-5.566
260404.000			-61.222			-5.566
260504.000			-61.223			-5.566
260604.000			-61.222			-5.566
260705.000			-61.221			-5.566
260804.000			-61.220			-5.565
260904.000			-61.221			-5.566
261005.000			-61.221			-5.566
261104.000			-61.220			-5.565
261204.000			-61.220			-5.565
261304.000			-61.220			-5.565
261404.000			-61.218			-5.565
261504.000			-61.218			-5.565
261605.000			-61.218			-5.565
261704.000			-61.218			-5.565
261805.000			-61.215			-5.565
261904.000			-61.215			-5.565
262003.000			-61.215			-5.565
262105.000			-61.214			-5.565
262203.000			-61.214			-5.565
262304.000			-61.214			-5.565
262405.000			-61.214			-5.565
262504.000			-61.214			-5.565
262604.000			-61.213			-5.565
262705.000			-61.212			-5.565
262804.000			-61.212			-5.565
262903.000			-61.211			-5.565
263005.000			-61.211			-5.565
263104.000			-61.211			-5.565
263204.000			-61.211			-5.565
263305.000			-61.210			-5.565
263404.000			-61.209			-5.564
263504.000			-61.209			-5.564
263605.000			-61.208			-5.564
263704.000			-61.208			-5.564
263803.000			-61.207			-5.564
263905.000			-61.206			-5.564
264004.000			-61.206			-5.564
264104.000			-61.206			-5.564
264205.000			-61.207			-5.564
264304.000			-61.206			-5.564
264404.000			-61.205			-5.564
264505.000			-61.205			-5.564
264604.000			-61.203			-5.564
264703.000			-61.203			-5.564
264805.000			-61.204			-5.564
264904.000			-61.203			-5.564
265005.000			-61.202			-5.564
265104.000			-61.202			-5.564
265204.000			-61.202			-5.564
265305.000			-61.201			-5.564
265403.000			-61.201			-5.564
265504.000			-61.200			-5.564
265604.000			-61.199			-5.564
265704.000			-61.199			-5.564
265804.000			-61.198			-5.563
265905.000			-61.197			-5.563
266004.000			-61.198			-5.563
266104.000			-61.197			-5.563
266205.000			-61.196			-5.563
266304.000			-61.195			-5.563
266404.000			-61.195			-5.563
266504.000			-61.195			-5.563
266604.000			-61.195			-5.563
266704.000			-61.194			-5.563
266805.000			-61.194			-5.563
266904.000			-61.192			-5.563
267004.000			-61.192			-5.563
267105.000			-61.192			-5.563
267204.000			-61.192			-5.563
267304.000			-61.191			-5.563
267404.000			-61.192			-5.563
267504.000			-61.191			-5.563
267604.000			-61.190			-5.563
267705.000			-61.189			-5.563
267804.000			-61.189			-5.563
267904.000			-61.189			-5.563
268005.000			-61.188			-5.563
268104.000			-61.188			-5.563
268205.000			-61.188			-5.563
268303.000			-61.186			-5.562
268404.000			-61.186			-5.562
268505.000			-61.186			-5.562
268604.000			-61.186			-5.562
268704.000			-61.186			-5.562
268805.000			-61.185			-5.562
268904.000			-61.183			-5.562
269004.000			-61.184			-5.562
269105.000			-61.182			-5.562
269203.000			-61.182			-5.562
269304.000			-61.182			-5.562
269404.000			-61.181			-5.562
269504.000			-61.181			-5.562
269604.000			-61.182			-5.562
269705.000			-61.182			-5.562
269804.000			-61.180			-5.562
269904.000			-61.180			-5.562
270005.000			-61.180			-5.562
270103.000			-61.179			-5.562
270204.000			-61.178			-5.562
270304.000			-61.177			-5.562
270404.000			-61.176			-5.561
270504.000			-61.174			-5.561
270605.000			-61.175			-5.561
270704.000			-61.176			-5.561
270804.000			-61.175			-5.561
270905.000			-61.175			-5.561
271003.000			-61.174			-5.561
271104.000			-61.174			-5.561
271204.000			-61.174			-5.561
271304.000			-61.173			-5.561
271405.000			-61.172			-5.561
271504.000			-61.172			-5.561
271604.000			-61.172			-5.561
271705.000			-61.172			-5.561
271804.000			-61.171			-5.561
271903.000			-61.170			-5.561
272005.000			-61.171			-5.561
272104.000			-61.170			-5.561
272204.000			-61.170			-5.561
272305.000			-61.169			-5.561
272404.000			-61.168			-5.561
272504.000			-61.168			-5.561
272605.000			-61.168			-5.561
272704.000			-61.166			-5.561
272803.000			-61.165			-5.560
272905.000			-61.166			-5.561
273004.000			-61.166			-5.561
273104.000			-61.165			-5.560
273205.000			-61.166			-5.561
273304.000			-61.165			-5.560
273404.000			-61.163			-5.560
273504.000			-61.163			-5.560
273604.000			-61.163			-5.560
273703.000			-61.164			-5.560
273805.000			-61.163			-5.560
273904.000			-61.162			-5.560
274004.000			-61.161			-5.560
274105.000			-61.161			-5.560
274204.000			-61.161			-5.560
274304.000			-61.161			-5.560
274404.000			-61.159			-5.560
274504.000			-61.158			-5.560
274603.000			-61.158			-5.560
274704.000			-61.158			-5.560
274804.000			-61.158			-5.560
274905.000			-61.157			-5.560
275004.000			-61.157			-5.560
275104.000			-61.157			-5.560
275205.000			-61.156			-5.560
275303.000			-61.155			-5.560
275404.000			-61.156			-5.560
275504.000			-61.155			-5.560
275604.000			-61.155			-5.560
275704.000			-61.154			-5.559
275805.000			-61.154			-5.559
275904.000			-61.153			-5.559
276004.000			-61.152			-5.559
276105.000			-61.152			-5.559
276203.000			-61.152			-5.559
276304.000			-61.151			-5.559
276405.000			-61.151			-5.559
276504.000			-61.151			-5.559
276604.000			-61.150			-5.559
276705.000			-61.149			-5.559
276804.000			-61.149			-5.559
276904.000			-61.149			-5.559
277005.000			-61.148			-5.559
277103.000			-61.147			-5.559
277204.000			-61.147			-5.559
277305.000			-61.146			-5.559
277404.000			-61.146			-5.559
277504.000			-61.146			-5.559
277605.000			-61.147			-5.559
277704.000			-61.146			-5.559
277805.000			-61.146			-5.559
277904.000			-61.144			-5.559
278003.000			-61.144			-5.559
278105.000			-61.144			-5.559
278204.000			-61.143			-5.558
278304.000			-61.144			-5.559
278405.000			-61.142			-5.558
278504.000			-61.142			-5.558
278604.000			-61.141			-5.558
278705.000			-61.141			-5.558
278804.000			-61.140			-5.558
278903.000			-61.139			-5.558
279005.000			-61.140			-5.558
279104.000			-61.139			-5.558
279204.000			-61.139			-5.558
279305.000			-61.138			-5.558
279404.000			-61.137			-5.558
279504.000			-61.137			-5.558
279605.000			-61.136			-5.558
279704.000			-61.136			-5.558
279803.000			-61.137			-5.558
279905.000			-61.137			-5.558
280004.000			-61.135			-5.558
280104.000			-61.135			-5.558
280205.000			-61.135			-5.558
280304.000			-61.134			-5.558
280404.000			-61.133			-5.558
280505.000			-61.133			-5.558
280604.000			-61.133			-5.558
280703.000			-61.132			-5.557
280805.000			-61.132			-5.557
280904.000			-61.131			-5.557
281005.000			-61.131			-5.557
281104.000			-61.131			-5.557
281204.000			-61.131			-5.557
281305.000			-61.130			-5.557
281404.000			-61.129			-5.557
281504.000			-61.129			-5.557
281604.000			-61.129			-5.557
281704.000			-61.127			-5.557
281804.000			-61.127			-5.557
281905.000			-61.127			-5.557
282004.000			-61.127			-5.557
282104.000			-61.126			-5.557
282205.000			-61.126			-5.557
282304.000			-61.125			-5.557
282404.000			-61.125			-5.557
282504.000			-61.124			-5.557
282604.000			-61.124			-5.557
282704.000			-61.123			-5.557
282805.000			-61.123			-5.557
282904.000			-61.122			-5.557
283004.000			-61.123			-5.557
283105.000			-61.123			-5.557
283203.000			-61.122			-5.557
283304.000			-61.121			-5.556
283404.000			-61.121			-5.556
283504.000			-61.120			-5.556
283604.000			-61.120			-5.556
283705.000			-61.120			-5.556
283804.000			-61.119			-5.556
283904.000			-61.118			-5.556
284005.000			-61.118			-5.556
284103.000			-61.117			-5.556
284205.000			-61.117			-5.556
284304.000			-61.116			-5.556
284404.000			-61.116			-5.556
284505.000			-61.116			-5.556
284604.000			-61.117			-5.556
284704.000			-61.115			-5.556
284805.000			-61.114			-5.556
284904.000			-61.113			-5.556
285003.000			-61.114			-5.556
285105.000			-61.112			-5.556
285204.000			-61.113			-5.556
285304.000			-61.113			-5.556
285405.000			-61.112			-5.556
285504.000			-61.112			-5.556
285604.000			-61.112			-5.556
285704.000			-61.111			-5.556
285804.000			-61.111			-5.556
285903.000			-61.112			-5.556
286005.000			-61.110			-5.555
286104.000			-61.109			-5.555
286204.000			-61.108			-5.555
286305.000			-61.108			-5.555
286404.000			-61.108			-5.555
286504.000			-61.107			-5.555
286604.000			-61.106			-5.555
286704.000			-61.106			-5.555
286803.000			-61.105			-5.555
286905.000			-61.106			-5.555
287004.000			-61.105			-5.555
287104.000			-61.104			-5.555
287205.000			-61.104			-5.555
287304.000			-61.103			-5.555
287405.000			-61.103			-5.555
287504.000			-61.103			-5.555
287604.000			-61.102			-5.555
287704.000			-61.102			-5.555
287804.000			-61.102			-5.555
287904.000			-61.101			-5.555
288005.000			-61.101			-5.555
288104.000			-61.100			-5.555
288204.000			-61.101			-5.555
288305.000			-61.101			-5.555
288403.000			-61.100			-5.555
288504.000			-61.099			-5.554
288604.000			-61.099			-5.554
288704.000			-61.099			-5.554
288804.000			-61.098			-5.554
288905.000			-61.098			-5.554
289004.000			-61.097			-5.554
289104.000			-61.096			-5.554
289205.000			-61.096			-5.554
289303.000			-61.096			-5.554
289404.000			-61.095			-5.554
289504.000			-61.094			-5.554
289604.000			-61.094			-5.554
289704.000			-61.095			-5.554
289805.000			-61.095			-5.554
289904.000			-61.093			-5.554
290004.000			-61.092			-5.554
290105.000			-61.092			-5.554
290204.000			-61.092			-5.554
290304.000			-61.091			-5.554
290404.000			-61.091			-5.554
290504.000			-61.090			-5.554
290605.000			-61.091			-5.554
290704.000			-61.091			-5.554
290804.000			-61.090			-5.554
290905.000			-61.090			-5.554
291004.000			-61.088			-5.553
291103.000			-61.088			-5.553
291205.000			-61.089			-5.554
291303.000			-61.088			-5.553
291404.000			-61.087			-5.553
291505.000			-61.087			-5.553
291604.000			-61.086			-5.553
291704.000			-61.086			-5.553
291805.000			-61.086			-5.553
291904.000			-61.085			-5.553
292004.000			-61.083			-5.553
292105.000			-61.083			-5.553
292203.000			-61.084			-5.553
292304.000			-61.083			-5.553
292405.000			-61.083			-5.553
292504.000			-61.082			-5.553
292604.000			-61.082			-5.553
292705.000			-61.081			-5.553
292804.000			-61.081			-5.553
292904.000			-61.082			-5.553
293005.000			-61.081			-5.553
293103.000			-61.080			-5.553
293204.000			-61.079			-5.553
293305.000			-61.078			-5.553
293404.000			-61.078			-5.553
293504.000			-61.077			-5.552
293605.000			-61.078			-5.553
293704.000			-61.078			-5.553
293805.000			-61.076			-5.552
293904.000			-61.076			-5.552
294003.000			-61.077			-5.552
294105.000			-61.077			-5.552
294204.000			-61.076			-5.552
294304.000			-61.075			-5.552
294405.000			-61.074			-5.552
294504.000			-61.074			-5.552
294604.000			-61.074			-5.552
294705.000			-61.073			-5.552
294804.000			-61.073			-5.552
294903.000			-61.072			-5.552
295005.000			-61.072			-5.552
295104.000			-61.073			-5.552
295204.000			-61.072			-5.552
295305.000			-61.071			-5.552
295404.000			-61.071			-5.552
295504.000			-61.069			-5.552
295605.000			-61.069			-5.552
295704.000			-61.069			-5.552
295803.000			-61.069			-5.552
295905.000			-61.068			-5.552
296004.000			-61.068			-5.552
296104.000			-61.068			-5.552
296205.000			-61.067			-5.552
296304.000			-61.066			-5.551
296404.000			-61.066			-5.551
296505.000			-61.066			-5.551
296604.000			-61.067			-5.552
296703.000			-61.065			-5.551
296805.000			-61.065			-5.551
296904.000			-61.065			-5.551
297005.000			-61.064			-5.551
297104.000			-61.063			-5.551
297204.000			-61.062			-5.551
297305.000			-61.063			-5.551
297404.000			-61.062			-5.551
297504.000			-61.062			-5.551
297604.000			-61.061			-5.551
297704.000			-61.061			-5.551
297803.000			-61.061			-5.551
297905.000			-61.061			-5.551
298004.000			-61.061			-5.551
298104.000			-61.060			-5.551
298205.000			-61.059			-5.551
298304.000			-61.059			-5.551
298404.000			-61.058			-5.551
298504.000			-61.057			-5.551
298604.000			-61.057			-5.551
298703.000			-61.057			-5.551
298805.000			-61.057			-5.551
298904.000			-61.057			-5.551
299004.000			-61.055			-5.550
299105.000			-61.054			-5.550
299204.000			-61.055			-5.550
299304.000			-61.056			-5.551
299404.000			-61.054			-5.550
299504.000			-61.053			-5.550
299603.000			-61.052			-5.550
299705.000			-61.053			-5.550
299804.000			-61.052			-5.550
299904.000			-61.051			-5.550
