# Acquired on 25/01/2024 17:00:01 
# SPIDER: Creep_7mm_GRPCNT1454A-3
# CREEP MEASUREMENT

# time [ms]		force [N]		stiffness [N/mm]
1.000			-29.935			-4.276
104.000			-31.220			-4.460
203.000			-31.063			-4.438
304.000			-30.800			-4.400
405.000			-30.598			-4.371
504.000			-30.433			-4.348
604.000			-30.292			-4.327
704.000			-30.170			-4.310
804.000			-29.966			-4.281
904.000			-29.878			-4.268
1005.000			-29.798			-4.257
1104.000			-29.723			-4.246
1204.000			-29.654			-4.236
1305.000			-29.590			-4.227
1403.000			-29.530			-4.219
1504.000			-29.421			-4.203
1605.000			-29.370			-4.196
1704.000			-29.324			-4.189
1804.000			-29.278			-4.183
1904.000			-29.234			-4.176
2004.000			-29.193			-4.170
2103.000			-29.154			-4.165
2205.000			-29.078			-4.154
2304.000			-29.043			-4.149
2404.000			-29.010			-4.144
2505.000			-28.978			-4.140
2603.000			-28.946			-4.135
2704.000			-28.916			-4.131
2805.000			-28.887			-4.127
2904.000			-28.830			-4.119
3004.000			-28.803			-4.115
3105.000			-28.778			-4.111
3204.000			-28.752			-4.107
3303.000			-28.729			-4.104
3405.000			-28.705			-4.101
3504.000			-28.682			-4.097
3605.000			-28.659			-4.094
3704.000			-28.616			-4.088
3803.000			-28.596			-4.085
3905.000			-28.576			-4.082
4003.000			-28.556			-4.079
4104.000			-28.536			-4.077
4205.000			-28.516			-4.074
4304.000			-28.498			-4.071
4404.000			-28.461			-4.066
4504.000			-28.445			-4.064
4604.000			-28.428			-4.061
4704.000			-28.411			-4.059
4805.000			-28.395			-4.056
4904.000			-28.378			-4.054
5004.000			-28.363			-4.052
5105.000			-28.331			-4.047
5203.000			-28.316			-4.045
5304.000			-28.302			-4.043
5405.000			-28.287			-4.041
5504.000			-28.273			-4.039
5604.000			-28.259			-4.037
5705.000			-28.244			-4.035
5804.000			-28.217			-4.031
5903.000			-28.203			-4.029
6005.000			-28.191			-4.027
6104.000			-28.178			-4.025
6204.000			-28.166			-4.024
6305.000			-28.153			-4.022
6403.000			-28.140			-4.020
6504.000			-28.128			-4.018
6605.000			-28.105			-4.015
6704.000			-28.094			-4.013
6805.000			-28.081			-4.012
6904.000			-28.070			-4.010
7004.000			-28.059			-4.008
7104.000			-28.048			-4.007
7204.000			-28.037			-4.005
7304.000			-28.016			-4.002
7405.000			-28.005			-4.001
7504.000			-27.995			-3.999
7604.000			-27.984			-3.998
7705.000			-27.974			-3.996
7803.000			-27.964			-3.995
7904.000			-27.955			-3.994
8005.000			-27.934			-3.991
8104.000			-27.925			-3.989
8204.000			-27.916			-3.988
8304.000			-27.906			-3.987
8404.000			-27.896			-3.985
8504.000			-27.887			-3.984
8605.000			-27.877			-3.982
8704.000			-27.859			-3.980
8804.000			-27.849			-3.978
8905.000			-27.840			-3.977
9004.000			-27.831			-3.976
9104.000			-27.822			-3.975
9205.000			-27.814			-3.973
9304.000			-27.806			-3.972
9404.000			-27.798			-3.971
9505.000			-27.783			-3.969
9604.000			-27.774			-3.968
9703.000			-27.766			-3.967
9805.000			-27.758			-3.965
9904.000			-27.751			-3.964
10005.000			-27.743			-3.963
10104.000			-27.736			-3.962
10204.000			-27.721			-3.960
10305.000			-27.713			-3.959
10403.000			-27.705			-3.958
10504.000			-27.698			-3.957
10605.000			-27.692			-3.956
10704.000			-27.684			-3.955
10804.000			-27.677			-3.954
10905.000			-27.663			-3.952
11004.000			-27.656			-3.951
11103.000			-27.649			-3.950
11205.000			-27.642			-3.949
11304.000			-27.635			-3.948
11404.000			-27.628			-3.947
11505.000			-27.622			-3.946
11604.000			-27.615			-3.945
11704.000			-27.601			-3.943
11804.000			-27.594			-3.942
11904.000			-27.588			-3.941
12004.000			-27.583			-3.940
12105.000			-27.576			-3.939
12204.000			-27.569			-3.938
12304.000			-27.563			-3.938
12405.000			-27.549			-3.936
12503.000			-27.543			-3.935
12604.000			-27.538			-3.934
12705.000			-27.531			-3.933
12804.000			-27.525			-3.932
12904.000			-27.519			-3.931
13004.000			-27.514			-3.931
13104.000			-27.501			-3.929
13203.000			-27.497			-3.928
13304.000			-27.492			-3.927
13404.000			-27.487			-3.927
13505.000			-27.479			-3.926
13604.000			-27.474			-3.925
13704.000			-27.468			-3.924
13805.000			-27.457			-3.922
13903.000			-27.451			-3.922
14004.000			-27.445			-3.921
14105.000			-27.440			-3.920
14204.000			-27.435			-3.919
14304.000			-27.430			-3.919
14404.000			-27.426			-3.918
14504.000			-27.420			-3.917
14603.000			-27.410			-3.916
14705.000			-27.404			-3.915
14804.000			-27.399			-3.914
14904.000			-27.395			-3.914
15005.000			-27.389			-3.913
15104.000			-27.385			-3.912
15204.000			-27.380			-3.911
15304.000			-27.370			-3.910
15404.000			-27.365			-3.909
15504.000			-27.360			-3.909
15605.000			-27.355			-3.908
15704.000			-27.351			-3.907
15803.000			-27.346			-3.907
15905.000			-27.342			-3.906
16003.000			-27.333			-3.905
16104.000			-27.327			-3.904
16205.000			-27.322			-3.903
16304.000			-27.318			-3.903
16405.000			-27.314			-3.902
16504.000			-27.309			-3.901
16604.000			-27.305			-3.901
16704.000			-27.300			-3.900
16804.000			-27.292			-3.899
16904.000			-27.287			-3.898
17005.000			-27.282			-3.897
17104.000			-27.279			-3.897
17204.000			-27.274			-3.896
17305.000			-27.270			-3.896
17403.000			-27.265			-3.895
17504.000			-27.256			-3.894
17605.000			-27.252			-3.893
17704.000			-27.249			-3.893
17804.000			-27.244			-3.892
17905.000			-27.240			-3.891
18004.000			-27.235			-3.891
18103.000			-27.231			-3.890
18205.000			-27.224			-3.889
18304.000			-27.220			-3.889
18404.000			-27.215			-3.888
18505.000			-27.211			-3.887
18603.000			-27.207			-3.887
18704.000			-27.204			-3.886
18805.000			-27.199			-3.886
18904.000			-27.190			-3.884
19004.000			-27.186			-3.884
19105.000			-27.184			-3.883
19204.000			-27.179			-3.883
19303.000			-27.174			-3.882
19405.000			-27.171			-3.882
19504.000			-27.169			-3.881
19605.000			-27.164			-3.881
19704.000			-27.156			-3.879
19804.000			-27.151			-3.879
19905.000			-27.147			-3.878
20004.000			-27.144			-3.878
20104.000			-27.141			-3.877
20204.000			-27.137			-3.877
20304.000			-27.133			-3.876
20404.000			-27.126			-3.875
20505.000			-27.122			-3.875
20604.000			-27.118			-3.874
20703.000			-27.115			-3.874
20805.000			-27.111			-3.873
20904.000			-27.108			-3.873
21004.000			-27.104			-3.872
21105.000			-27.096			-3.871
21204.000			-27.093			-3.870
21304.000			-27.090			-3.870
21404.000			-27.087			-3.870
21504.000			-27.084			-3.869
21604.000			-27.080			-3.869
21705.000			-27.076			-3.868
21804.000			-27.069			-3.867
21904.000			-27.065			-3.866
22005.000			-27.063			-3.866
22103.000			-27.060			-3.866
22204.000			-27.056			-3.865
22305.000			-27.053			-3.865
22404.000			-27.049			-3.864
22504.000			-27.046			-3.864
22603.000			-27.039			-3.863
22704.000			-27.036			-3.862
22805.000			-27.033			-3.862
22904.000			-27.029			-3.861
23004.000			-27.026			-3.861
23105.000			-27.022			-3.860
23204.000			-27.019			-3.860
23303.000			-27.013			-3.859
23405.000			-27.010			-3.859
23504.000			-27.007			-3.858
23604.000			-27.003			-3.858
23705.000			-27.000			-3.857
23804.000			-26.997			-3.857
23904.000			-26.994			-3.856
24004.000			-26.988			-3.855
24104.000			-26.984			-3.855
24204.000			-26.980			-3.854
24305.000			-26.977			-3.854
24404.000			-26.975			-3.854
24504.000			-26.971			-3.853
24605.000			-26.969			-3.853
24703.000			-26.967			-3.852
24804.000			-26.961			-3.852
24905.000			-26.958			-3.851
25004.000			-26.954			-3.851
25104.000			-26.951			-3.850
25205.000			-26.948			-3.850
25304.000			-26.946			-3.849
25403.000			-26.942			-3.849
25505.000			-26.936			-3.848
25604.000			-26.933			-3.848
25704.000			-26.931			-3.847
25805.000			-26.928			-3.847
25904.000			-26.924			-3.846
26005.000			-26.921			-3.846
26103.000			-26.918			-3.845
26204.000			-26.911			-3.844
26305.000			-26.909			-3.844
26404.000			-26.908			-3.844
26504.000			-26.905			-3.844
26605.000			-26.901			-3.843
26704.000			-26.899			-3.843
26803.000			-26.897			-3.842
26905.000			-26.890			-3.841
27004.000			-26.887			-3.841
27104.000			-26.885			-3.841
27205.000			-26.883			-3.840
27304.000			-26.880			-3.840
27404.000			-26.877			-3.840
27504.000			-26.874			-3.839
27604.000			-26.870			-3.839
27704.000			-26.866			-3.838
27805.000			-26.863			-3.838
27904.000			-26.861			-3.837
28004.000			-26.859			-3.837
28105.000			-26.856			-3.837
28203.000			-26.853			-3.836
28304.000			-26.850			-3.836
28405.000			-26.845			-3.835
28504.000			-26.842			-3.835
28604.000			-26.840			-3.834
28705.000			-26.837			-3.834
28804.000			-26.834			-3.833
28903.000			-26.833			-3.833
29005.000			-26.830			-3.833
29104.000			-26.825			-3.832
29205.000			-26.821			-3.832
29304.000			-26.819			-3.831
29404.000			-26.817			-3.831
29505.000			-26.814			-3.831
29603.000			-26.812			-3.830
29704.000			-26.810			-3.830
29805.000			-26.804			-3.829
29904.000			-26.802			-3.829
30004.000			-26.800			-3.829
30105.000			-26.797			-3.828
30204.000			-26.794			-3.828
30303.000			-26.792			-3.827
30405.000			-26.790			-3.827
30504.000			-26.787			-3.827
30604.000			-26.781			-3.826
30705.000			-26.779			-3.826
30804.000			-26.777			-3.825
30904.000			-26.774			-3.825
31004.000			-26.772			-3.825
31104.000			-26.770			-3.824
31204.000			-26.767			-3.824
31305.000			-26.763			-3.823
31404.000			-26.760			-3.823
31504.000			-26.758			-3.823
31605.000			-26.755			-3.822
31703.000			-26.753			-3.822
31804.000			-26.751			-3.822
31905.000			-26.749			-3.821
32004.000			-26.745			-3.821
32104.000			-26.741			-3.820
32204.000			-26.739			-3.820
32304.000			-26.737			-3.820
32403.000			-26.736			-3.819
32504.000			-26.732			-3.819
32604.000			-26.730			-3.819
32705.000			-26.727			-3.818
32804.000			-26.723			-3.818
32904.000			-26.721			-3.817
33005.000			-26.720			-3.817
33103.000			-26.717			-3.817
33204.000			-26.714			-3.816
33305.000			-26.712			-3.816
33404.000			-26.710			-3.816
33504.000			-26.706			-3.815
33604.000			-26.704			-3.815
33704.000			-26.701			-3.814
33803.000			-26.699			-3.814
33905.000			-26.697			-3.814
34004.000			-26.695			-3.814
34104.000			-26.693			-3.813
34205.000			-26.688			-3.813
34304.000			-26.686			-3.812
34404.000			-26.685			-3.812
34504.000			-26.683			-3.812
34604.000			-26.679			-3.811
34704.000			-26.677			-3.811
34805.000			-26.676			-3.811
34904.000			-26.670			-3.810
35004.000			-26.668			-3.810
35105.000			-26.666			-3.809
35203.000			-26.663			-3.809
35304.000			-26.662			-3.809
35405.000			-26.660			-3.809
35504.000			-26.658			-3.808
35605.000			-26.657			-3.808
35704.000			-26.653			-3.808
35804.000			-26.651			-3.807
35904.000			-26.648			-3.807
36004.000			-26.645			-3.806
36104.000			-26.643			-3.806
36205.000			-26.641			-3.806
36304.000			-26.640			-3.806
36404.000			-26.637			-3.805
36505.000			-26.635			-3.805
36603.000			-26.632			-3.805
36704.000			-26.629			-3.804
36805.000			-26.627			-3.804
36904.000			-26.626			-3.804
37004.000			-26.624			-3.803
37105.000			-26.620			-3.803
37204.000			-26.618			-3.803
37303.000			-26.616			-3.802
37405.000			-26.614			-3.802
37504.000			-26.612			-3.802
37604.000			-26.610			-3.801
37705.000			-26.608			-3.801
37804.000			-26.606			-3.801
37904.000			-26.604			-3.801
38004.000			-26.602			-3.800
38104.000			-26.599			-3.800
38204.000			-26.597			-3.800
38305.000			-26.596			-3.799
38404.000			-26.594			-3.799
38504.000			-26.591			-3.799
38605.000			-26.587			-3.798
38703.000			-26.585			-3.798
38805.000			-26.582			-3.797
38904.000			-26.579			-3.797
39004.000			-26.576			-3.797
39105.000			-26.575			-3.796
39204.000			-26.573			-3.796
39304.000			-26.569			-3.796
39404.000			-26.567			-3.795
39504.000			-26.565			-3.795
39604.000			-26.563			-3.795
39705.000			-26.560			-3.794
39804.000			-26.558			-3.794
39904.000			-26.557			-3.794
40005.000			-26.554			-3.793
40103.000			-26.551			-3.793
40204.000			-26.549			-3.793
40305.000			-26.548			-3.793
40404.000			-26.546			-3.792
40504.000			-26.544			-3.792
40605.000			-26.543			-3.792
40704.000			-26.542			-3.792
40803.000			-26.537			-3.791
40905.000			-26.535			-3.791
41004.000			-26.533			-3.790
41104.000			-26.532			-3.790
41205.000			-26.530			-3.790
41303.000			-26.528			-3.790
41404.000			-26.526			-3.789
41505.000			-26.525			-3.789
41604.000			-26.522			-3.789
41704.000			-26.520			-3.789
41804.000			-26.518			-3.788
41904.000			-26.517			-3.788
42003.000			-26.516			-3.788
42104.000			-26.514			-3.788
42204.000			-26.510			-3.787
42305.000			-26.508			-3.787
42404.000			-26.507			-3.787
42504.000			-26.506			-3.787
42605.000			-26.504			-3.786
42703.000			-26.502			-3.786
42804.000			-26.500			-3.786
42905.000			-26.498			-3.785
43004.000			-26.496			-3.785
43104.000			-26.494			-3.785
43205.000			-26.492			-3.785
43304.000			-26.491			-3.784
43403.000			-26.488			-3.784
43505.000			-26.487			-3.784
43604.000			-26.486			-3.784
43704.000			-26.482			-3.783
43805.000			-26.481			-3.783
43904.000			-26.480			-3.783
44004.000			-26.478			-3.783
44104.000			-26.474			-3.782
44204.000			-26.474			-3.782
44304.000			-26.473			-3.782
44405.000			-26.468			-3.781
44504.000			-26.466			-3.781
44604.000			-26.465			-3.781
44705.000			-26.464			-3.781
44803.000			-26.463			-3.780
44904.000			-26.460			-3.780
45005.000			-26.458			-3.780
45104.000			-26.454			-3.779
45205.000			-26.453			-3.779
45304.000			-26.451			-3.779
45404.000			-26.449			-3.778
45504.000			-26.447			-3.778
45604.000			-26.445			-3.778
45704.000			-26.443			-3.778
45805.000			-26.442			-3.777
45904.000			-26.438			-3.777
46003.000			-26.437			-3.777
46105.000			-26.435			-3.776
46204.000			-26.433			-3.776
46304.000			-26.432			-3.776
46405.000			-26.431			-3.776
46504.000			-26.430			-3.776
46604.000			-26.425			-3.775
46704.000			-26.424			-3.775
46804.000			-26.424			-3.775
46904.000			-26.422			-3.775
47005.000			-26.420			-3.774
47104.000			-26.419			-3.774
47204.000			-26.417			-3.774
47305.000			-26.415			-3.774
47403.000			-26.413			-3.773
47504.000			-26.412			-3.773
47605.000			-26.410			-3.773
47704.000			-26.408			-3.773
47804.000			-26.407			-3.772
47905.000			-26.406			-3.772
48004.000			-26.402			-3.772
48103.000			-26.401			-3.772
48205.000			-26.401			-3.772
48304.000			-26.399			-3.771
48405.000			-26.398			-3.771
48504.000			-26.396			-3.771
48604.000			-26.395			-3.771
48705.000			-26.394			-3.771
48803.000			-26.390			-3.770
48904.000			-26.389			-3.770
49005.000			-26.387			-3.770
49104.000			-26.385			-3.769
49204.000			-26.383			-3.769
49305.000			-26.381			-3.769
49404.000			-26.381			-3.769
49503.000			-26.377			-3.768
49605.000			-26.377			-3.768
49704.000			-26.376			-3.768
49804.000			-26.374			-3.768
49905.000			-26.373			-3.768
50004.000			-26.370			-3.767
50104.000			-26.369			-3.767
50204.000			-26.367			-3.767
50304.000			-26.365			-3.766
50404.000			-26.364			-3.766
50505.000			-26.363			-3.766
50604.000			-26.362			-3.766
50704.000			-26.360			-3.766
50805.000			-26.359			-3.766
50903.000			-26.358			-3.765
51004.000			-26.354			-3.765
51105.000			-26.353			-3.765
51204.000			-26.352			-3.765
51304.000			-26.350			-3.764
51404.000			-26.347			-3.764
51504.000			-26.346			-3.764
51603.000			-26.346			-3.764
51704.000			-26.343			-3.763
51804.000			-26.341			-3.763
51905.000			-26.340			-3.763
52004.000			-26.339			-3.763
52103.000			-26.338			-3.763
52205.000			-26.335			-3.762
52304.000			-26.333			-3.762
52404.000			-26.332			-3.762
52505.000			-26.330			-3.761
52604.000			-26.328			-3.761
52704.000			-26.327			-3.761
52804.000			-26.326			-3.761
52904.000			-26.324			-3.761
53004.000			-26.323			-3.760
53105.000			-26.320			-3.760
53204.000			-26.319			-3.760
53304.000			-26.318			-3.760
53405.000			-26.317			-3.760
53503.000			-26.315			-3.759
53604.000			-26.314			-3.759
53705.000			-26.311			-3.759
53804.000			-26.310			-3.759
53904.000			-26.308			-3.758
54005.000			-26.306			-3.758
54104.000			-26.304			-3.758
54203.000			-26.303			-3.758
54305.000			-26.301			-3.757
54404.000			-26.299			-3.757
54504.000			-26.298			-3.757
54605.000			-26.295			-3.756
54703.000			-26.294			-3.756
54805.000			-26.291			-3.756
54904.000			-26.290			-3.756
55004.000			-26.289			-3.756
55105.000			-26.288			-3.755
55204.000			-26.286			-3.755
55304.000			-26.284			-3.755
55404.000			-26.282			-3.755
55504.000			-26.281			-3.754
55603.000			-26.280			-3.754
55705.000			-26.278			-3.754
55804.000			-26.276			-3.754
55904.000			-26.276			-3.754
56005.000			-26.272			-3.753
56103.000			-26.272			-3.753
56204.000			-26.271			-3.753
56305.000			-26.269			-3.753
56404.000			-26.268			-3.753
56504.000			-26.267			-3.752
56605.000			-26.265			-3.752
56704.000			-26.263			-3.752
56804.000			-26.262			-3.752
56905.000			-26.260			-3.751
57003.000			-26.258			-3.751
57104.000			-26.257			-3.751
57205.000			-26.256			-3.751
57304.000			-26.255			-3.751
57404.000			-26.254			-3.751
57504.000			-26.251			-3.750
57604.000			-26.251			-3.750
57704.000			-26.250			-3.750
57804.000			-26.247			-3.750
57904.000			-26.247			-3.750
58005.000			-26.246			-3.749
58104.000			-26.244			-3.749
58203.000			-26.242			-3.749
58305.000			-26.240			-3.749
58404.000			-26.239			-3.748
58504.000			-26.238			-3.748
58605.000			-26.238			-3.748
58704.000			-26.236			-3.748
58804.000			-26.235			-3.748
58905.000			-26.233			-3.748
59004.000			-26.230			-3.747
59103.000			-26.229			-3.747
59205.000			-26.228			-3.747
59304.000			-26.227			-3.747
59404.000			-26.226			-3.747
59505.000			-26.225			-3.746
59603.000			-26.223			-3.746
59704.000			-26.220			-3.746
59805.000			-26.218			-3.745
59904.000			-26.217			-3.745
60004.000			-26.217			-3.745
60105.000			-26.217			-3.745
60204.000			-26.215			-3.745
60303.000			-26.214			-3.745
60405.000			-26.211			-3.744
60504.000			-26.209			-3.744
60604.000			-26.209			-3.744
60705.000			-26.207			-3.744
60804.000			-26.207			-3.744
60904.000			-26.205			-3.744
61003.000			-26.204			-3.743
61104.000			-26.202			-3.743
61205.000			-26.199			-3.743
61304.000			-26.199			-3.743
61404.000			-26.199			-3.743
61505.000			-26.197			-3.742
61604.000			-26.196			-3.742
61703.000			-26.194			-3.742
61805.000			-26.193			-3.742
61904.000			-26.192			-3.742
62004.000			-26.190			-3.741
62105.000			-26.188			-3.741
62204.000			-26.186			-3.741
62304.000			-26.185			-3.741
62404.000			-26.184			-3.741
62504.000			-26.182			-3.740
62604.000			-26.180			-3.740
62705.000			-26.179			-3.740
62804.000			-26.177			-3.740
62903.000			-26.177			-3.740
63005.000			-26.176			-3.739
63104.000			-26.174			-3.739
63204.000			-26.172			-3.739
63305.000			-26.168			-3.738
63404.000			-26.168			-3.738
63504.000			-26.166			-3.738
63604.000			-26.164			-3.738
63704.000			-26.163			-3.738
63804.000			-26.162			-3.737
63905.000			-26.161			-3.737
64004.000			-26.159			-3.737
64104.000			-26.158			-3.737
64205.000			-26.158			-3.737
64303.000			-26.156			-3.737
64405.000			-26.156			-3.737
64504.000			-26.156			-3.737
64604.000			-26.153			-3.736
64705.000			-26.151			-3.736
64804.000			-26.150			-3.736
64904.000			-26.149			-3.736
65004.000			-26.148			-3.735
65104.000			-26.147			-3.735
65204.000			-26.146			-3.735
65305.000			-26.145			-3.735
65404.000			-26.144			-3.735
65504.000			-26.142			-3.735
65605.000			-26.141			-3.734
65703.000			-26.141			-3.734
65804.000			-26.140			-3.734
65905.000			-26.140			-3.734
66004.000			-26.138			-3.734
66104.000			-26.137			-3.734
66205.000			-26.135			-3.734
66304.000			-26.133			-3.733
66403.000			-26.133			-3.733
66505.000			-26.132			-3.733
66604.000			-26.130			-3.733
66704.000			-26.130			-3.733
66805.000			-26.129			-3.733
66904.000			-26.127			-3.732
67004.000			-26.124			-3.732
67104.000			-26.123			-3.732
67204.000			-26.122			-3.732
67304.000			-26.120			-3.731
67404.000			-26.118			-3.731
67504.000			-26.117			-3.731
67605.000			-26.117			-3.731
67704.000			-26.114			-3.731
67803.000			-26.113			-3.730
67905.000			-26.113			-3.730
68004.000			-26.112			-3.730
68104.000			-26.111			-3.730
68205.000			-26.110			-3.730
68304.000			-26.109			-3.730
68404.000			-26.106			-3.729
68504.000			-26.106			-3.729
68604.000			-26.105			-3.729
68704.000			-26.104			-3.729
68805.000			-26.102			-3.729
68904.000			-26.101			-3.729
69003.000			-26.100			-3.729
69105.000			-26.099			-3.728
69204.000			-26.099			-3.728
69304.000			-26.098			-3.728
69405.000			-26.096			-3.728
69504.000			-26.095			-3.728
69604.000			-26.092			-3.727
69704.000			-26.091			-3.727
69804.000			-26.092			-3.727
69903.000			-26.090			-3.727
70005.000			-26.089			-3.727
70104.000			-26.089			-3.727
70204.000			-26.088			-3.727
70305.000			-26.086			-3.727
70404.000			-26.085			-3.726
70504.000			-26.084			-3.726
70603.000			-26.082			-3.726
70704.000			-26.080			-3.726
70805.000			-26.079			-3.726
70904.000			-26.079			-3.726
71004.000			-26.077			-3.725
71105.000			-26.077			-3.725
71204.000			-26.075			-3.725
71303.000			-26.072			-3.725
71405.000			-26.071			-3.724
71504.000			-26.069			-3.724
71604.000			-26.069			-3.724
71705.000			-26.069			-3.724
71804.000			-26.068			-3.724
71904.000			-26.067			-3.724
72004.000			-26.066			-3.724
72104.000			-26.063			-3.723
72204.000			-26.062			-3.723
72305.000			-26.062			-3.723
72404.000			-26.061			-3.723
72503.000			-26.060			-3.723
72605.000			-26.058			-3.723
72704.000			-26.057			-3.722
72804.000			-26.057			-3.722
72905.000			-26.056			-3.722
73004.000			-26.054			-3.722
73104.000			-26.052			-3.722
73204.000			-26.052			-3.722
73304.000			-26.051			-3.722
73404.000			-26.051			-3.722
73505.000			-26.049			-3.721
73604.000			-26.048			-3.721
73704.000			-26.046			-3.721
73805.000			-26.044			-3.721
73903.000			-26.044			-3.721
74005.000			-26.042			-3.720
74104.000			-26.042			-3.720
74204.000			-26.042			-3.720
74305.000			-26.040			-3.720
74404.000			-26.039			-3.720
74504.000			-26.037			-3.720
74604.000			-26.037			-3.720
74704.000			-26.037			-3.720
74804.000			-26.035			-3.719
74905.000			-26.033			-3.719
75004.000			-26.032			-3.719
75104.000			-26.031			-3.719
75205.000			-26.030			-3.719
75303.000			-26.028			-3.718
75404.000			-26.028			-3.718
75505.000			-26.026			-3.718
75604.000			-26.024			-3.718
75704.000			-26.025			-3.718
75805.000			-26.023			-3.718
75904.000			-26.021			-3.717
76003.000			-26.021			-3.717
76105.000			-26.020			-3.717
76204.000			-26.019			-3.717
76304.000			-26.019			-3.717
76405.000			-26.016			-3.717
76504.000			-26.017			-3.717
76604.000			-26.015			-3.716
76704.000			-26.013			-3.716
76804.000			-26.012			-3.716
76904.000			-26.012			-3.716
77004.000			-26.011			-3.716
77104.000			-26.011			-3.716
77205.000			-26.008			-3.715
77304.000			-26.007			-3.715
77403.000			-26.006			-3.715
77505.000			-26.006			-3.715
77604.000			-26.006			-3.715
77704.000			-26.003			-3.715
77805.000			-26.002			-3.715
77904.000			-26.000			-3.714
78004.000			-25.999			-3.714
78104.000			-25.999			-3.714
78204.000			-25.997			-3.714
78304.000			-25.997			-3.714
78405.000			-25.996			-3.714
78504.000			-25.995			-3.714
78604.000			-25.995			-3.714
78705.000			-25.993			-3.713
78803.000			-25.991			-3.713
78904.000			-25.991			-3.713
79005.000			-25.990			-3.713
79104.000			-25.989			-3.713
79204.000			-25.988			-3.713
79305.000			-25.987			-3.712
79404.000			-25.986			-3.712
79503.000			-25.985			-3.712
79605.000			-25.984			-3.712
79703.000			-25.983			-3.712
79804.000			-25.982			-3.712
79905.000			-25.982			-3.712
80004.000			-25.981			-3.712
80104.000			-25.979			-3.711
80204.000			-25.978			-3.711
80304.000			-25.976			-3.711
80403.000			-25.976			-3.711
80504.000			-25.975			-3.711
80604.000			-25.975			-3.711
80705.000			-25.974			-3.711
80804.000			-25.971			-3.710
80904.000			-25.971			-3.710
81005.000			-25.970			-3.710
81103.000			-25.968			-3.710
81204.000			-25.967			-3.710
81305.000			-25.966			-3.709
81404.000			-25.964			-3.709
81504.000			-25.964			-3.709
81605.000			-25.962			-3.709
81704.000			-25.961			-3.709
81803.000			-25.961			-3.709
81905.000			-25.959			-3.708
82004.000			-25.958			-3.708
82104.000			-25.957			-3.708
82205.000			-25.955			-3.708
82304.000			-25.953			-3.708
82404.000			-25.952			-3.707
82504.000			-25.952			-3.707
82604.000			-25.950			-3.707
82704.000			-25.949			-3.707
82805.000			-25.948			-3.707
82904.000			-25.948			-3.707
83004.000			-25.947			-3.707
83105.000			-25.945			-3.706
83203.000			-25.944			-3.706
83304.000			-25.943			-3.706
83405.000			-25.942			-3.706
83504.000			-25.941			-3.706
83605.000			-25.941			-3.706
83704.000			-25.939			-3.706
83804.000			-25.938			-3.705
83904.000			-25.938			-3.705
84004.000			-25.937			-3.705
84103.000			-25.936			-3.705
84205.000			-25.935			-3.705
84304.000			-25.935			-3.705
84404.000			-25.932			-3.705
84505.000			-25.932			-3.705
84604.000			-25.933			-3.705
84704.000			-25.930			-3.704
84804.000			-25.929			-3.704
84904.000			-25.929			-3.704
85004.000			-25.927			-3.704
85105.000			-25.927			-3.704
85204.000			-25.925			-3.704
85304.000			-25.924			-3.703
85405.000			-25.924			-3.703
85503.000			-25.923			-3.703
85604.000			-25.922			-3.703
85705.000			-25.922			-3.703
85804.000			-25.921			-3.703
85904.000			-25.920			-3.703
86005.000			-25.919			-3.703
86104.000			-25.919			-3.703
86203.000			-25.917			-3.702
86305.000			-25.915			-3.702
86404.000			-25.915			-3.702
86504.000			-25.915			-3.702
86605.000			-25.912			-3.702
86704.000			-25.912			-3.702
86805.000			-25.911			-3.702
86903.000			-25.910			-3.701
87004.000			-25.909			-3.701
87105.000			-25.909			-3.701
87204.000			-25.908			-3.701
87304.000			-25.907			-3.701
87405.000			-25.906			-3.701
87504.000			-25.905			-3.701
87603.000			-25.904			-3.701
87705.000			-25.903			-3.700
87804.000			-25.903			-3.700
87904.000			-25.904			-3.701
88005.000			-25.901			-3.700
88104.000			-25.899			-3.700
88204.000			-25.899			-3.700
88304.000			-25.898			-3.700
88404.000			-25.896			-3.699
88503.000			-25.896			-3.699
88605.000			-25.894			-3.699
88704.000			-25.892			-3.699
88804.000			-25.891			-3.699
88905.000			-25.889			-3.698
89004.000			-25.888			-3.698
89104.000			-25.888			-3.698
89204.000			-25.888			-3.698
89304.000			-25.887			-3.698
89404.000			-25.885			-3.698
89505.000			-25.883			-3.698
89604.000			-25.882			-3.697
89704.000			-25.881			-3.697
89805.000			-25.881			-3.697
89903.000			-25.881			-3.697
90005.000			-25.880			-3.697
90104.000			-25.878			-3.697
90204.000			-25.877			-3.697
90305.000			-25.877			-3.697
90404.000			-25.875			-3.696
90504.000			-25.874			-3.696
90604.000			-25.873			-3.696
90704.000			-25.872			-3.696
90803.000			-25.873			-3.696
90905.000			-25.872			-3.696
91004.000			-25.869			-3.696
91104.000			-25.869			-3.696
91205.000			-25.868			-3.695
91304.000			-25.867			-3.695
91404.000			-25.867			-3.695
91504.000			-25.866			-3.695
91604.000			-25.865			-3.695
91704.000			-25.863			-3.695
91805.000			-25.863			-3.695
91904.000			-25.862			-3.695
92004.000			-25.860			-3.694
92105.000			-25.860			-3.694
92203.000			-25.859			-3.694
92304.000			-25.858			-3.694
92405.000			-25.859			-3.694
92504.000			-25.857			-3.694
92604.000			-25.857			-3.694
92705.000			-25.855			-3.694
92804.000			-25.855			-3.694
92903.000			-25.855			-3.694
93005.000			-25.854			-3.693
93104.000			-25.852			-3.693
93205.000			-25.852			-3.693
93304.000			-25.851			-3.693
93404.000			-25.851			-3.693
93505.000			-25.850			-3.693
93603.000			-25.849			-3.693
93704.000			-25.849			-3.693
93805.000			-25.847			-3.692
93904.000			-25.846			-3.692
94004.000			-25.845			-3.692
94105.000			-25.844			-3.692
94204.000			-25.843			-3.692
94303.000			-25.843			-3.692
94405.000			-25.843			-3.692
94504.000			-25.842			-3.692
94604.000			-25.841			-3.692
94705.000			-25.839			-3.691
94804.000			-25.839			-3.691
94904.000			-25.838			-3.691
95005.000			-25.838			-3.691
95104.000			-25.837			-3.691
95203.000			-25.836			-3.691
95305.000			-25.834			-3.691
95404.000			-25.833			-3.690
95504.000			-25.831			-3.690
95605.000			-25.831			-3.690
95704.000			-25.830			-3.690
95804.000			-25.830			-3.690
95904.000			-25.830			-3.690
96004.000			-25.828			-3.690
96104.000			-25.827			-3.690
96204.000			-25.826			-3.689
96304.000			-25.824			-3.689
96405.000			-25.824			-3.689
96504.000			-25.824			-3.689
96603.000			-25.823			-3.689
96705.000			-25.821			-3.689
96804.000			-25.820			-3.689
96904.000			-25.820			-3.689
97005.000			-25.819			-3.688
97104.000			-25.817			-3.688
97204.000			-25.817			-3.688
97304.000			-25.816			-3.688
97404.000			-25.816			-3.688
97504.000			-25.814			-3.688
97605.000			-25.814			-3.688
97704.000			-25.814			-3.688
97804.000			-25.813			-3.688
97905.000			-25.812			-3.687
98003.000			-25.811			-3.687
98104.000			-25.811			-3.687
98205.000			-25.810			-3.687
98304.000			-25.809			-3.687
98404.000			-25.807			-3.687
98505.000			-25.805			-3.686
98604.000			-25.805			-3.686
98703.000			-25.804			-3.686
98805.000			-25.802			-3.686
98903.000			-25.802			-3.686
99004.000			-25.802			-3.686
99105.000			-25.801			-3.686
99204.000			-25.799			-3.686
99304.000			-25.799			-3.686
99404.000			-25.798			-3.685
99504.000			-25.796			-3.685
99603.000			-25.796			-3.685
99704.000			-25.793			-3.685
99804.000			-25.793			-3.685
99905.000			-25.793			-3.685
100004.000			-25.792			-3.685
100104.000			-25.791			-3.684
100205.000			-25.791			-3.684
100303.000			-25.792			-3.685
100404.000			-25.790			-3.684
100505.000			-25.789			-3.684
100604.000			-25.788			-3.684
100704.000			-25.787			-3.684
100805.000			-25.786			-3.684
100904.000			-25.786			-3.684
101003.000			-25.785			-3.684
101105.000			-25.784			-3.683
101203.000			-25.783			-3.683
101304.000			-25.782			-3.683
101405.000			-25.782			-3.683
101504.000			-25.781			-3.683
101604.000			-25.780			-3.683
101705.000			-25.779			-3.683
101804.000			-25.779			-3.683
101903.000			-25.777			-3.682
102005.000			-25.777			-3.682
102104.000			-25.776			-3.682
102204.000			-25.776			-3.682
102305.000			-25.775			-3.682
102404.000			-25.776			-3.682
102504.000			-25.775			-3.682
102603.000			-25.772			-3.682
102704.000			-25.772			-3.682
102805.000			-25.772			-3.682
102904.000			-25.771			-3.682
103004.000			-25.770			-3.681
103105.000			-25.770			-3.681
103204.000			-25.770			-3.681
103303.000			-25.770			-3.681
103405.000			-25.768			-3.681
103504.000			-25.766			-3.681
103604.000			-25.765			-3.681
103705.000			-25.764			-3.681
103804.000			-25.765			-3.681
103904.000			-25.763			-3.680
104005.000			-25.761			-3.680
104104.000			-25.761			-3.680
104203.000			-25.760			-3.680
104305.000			-25.759			-3.680
104404.000			-25.758			-3.680
104504.000			-25.756			-3.679
104605.000			-25.755			-3.679
104704.000			-25.755			-3.679
104804.000			-25.752			-3.679
104904.000			-25.752			-3.679
105004.000			-25.752			-3.679
105104.000			-25.752			-3.679
105205.000			-25.750			-3.679
105304.000			-25.749			-3.678
105404.000			-25.748			-3.678
105505.000			-25.746			-3.678
105603.000			-25.746			-3.678
105704.000			-25.745			-3.678
105805.000			-25.745			-3.678
105904.000			-25.745			-3.678
106005.000			-25.745			-3.678
106104.000			-25.744			-3.678
106204.000			-25.742			-3.677
106304.000			-25.741			-3.677
106404.000			-25.741			-3.677
106504.000			-25.740			-3.677
106605.000			-25.739			-3.677
106704.000			-25.739			-3.677
106804.000			-25.739			-3.677
106905.000			-25.739			-3.677
107003.000			-25.737			-3.677
107104.000			-25.737			-3.677
107205.000			-25.736			-3.677
107304.000			-25.736			-3.677
107404.000			-25.735			-3.676
107505.000			-25.734			-3.676
107604.000			-25.733			-3.676
107704.000			-25.732			-3.676
107805.000			-25.731			-3.676
107903.000			-25.730			-3.676
108004.000			-25.729			-3.676
108105.000			-25.729			-3.676
108204.000			-25.729			-3.676
108304.000			-25.729			-3.676
108405.000			-25.727			-3.675
108504.000			-25.724			-3.675
108603.000			-25.724			-3.675
108705.000			-25.725			-3.675
108804.000			-25.723			-3.675
108904.000			-25.721			-3.674
109005.000			-25.720			-3.674
109104.000			-25.721			-3.674
109205.000			-25.719			-3.674
109303.000			-25.718			-3.674
109404.000			-25.717			-3.674
109504.000			-25.717			-3.674
109604.000			-25.718			-3.674
109704.000			-25.716			-3.674
109805.000			-25.714			-3.673
109904.000			-25.713			-3.673
110004.000			-25.712			-3.673
110105.000			-25.710			-3.673
110203.000			-25.710			-3.673
110304.000			-25.710			-3.673
110405.000			-25.710			-3.673
110504.000			-25.710			-3.673
110604.000			-25.710			-3.673
110705.000			-25.708			-3.673
110804.000			-25.707			-3.672
110903.000			-25.706			-3.672
111005.000			-25.706			-3.672
111104.000			-25.705			-3.672
111204.000			-25.704			-3.672
111305.000			-25.704			-3.672
111404.000			-25.704			-3.672
111504.000			-25.704			-3.672
111604.000			-25.703			-3.672
111704.000			-25.702			-3.672
111804.000			-25.702			-3.672
111905.000			-25.701			-3.672
112004.000			-25.701			-3.672
112104.000			-25.700			-3.671
112205.000			-25.699			-3.671
112303.000			-25.698			-3.671
112405.000			-25.699			-3.671
112504.000			-25.698			-3.671
112604.000			-25.698			-3.671
112705.000			-25.697			-3.671
112804.000			-25.696			-3.671
112904.000			-25.696			-3.671
113004.000			-25.695			-3.671
113104.000			-25.696			-3.671
113204.000			-25.695			-3.671
113305.000			-25.693			-3.670
113404.000			-25.692			-3.670
113504.000			-25.692			-3.670
113605.000			-25.692			-3.670
113703.000			-25.691			-3.670
113804.000			-25.689			-3.670
113904.000			-25.689			-3.670
114004.000			-25.689			-3.670
114104.000			-25.687			-3.670
114205.000			-25.687			-3.670
114304.000			-25.686			-3.669
114404.000			-25.685			-3.669
114505.000			-25.685			-3.669
114603.000			-25.684			-3.669
114704.000			-25.682			-3.669
114805.000			-25.681			-3.669
114904.000			-25.681			-3.669
115004.000			-25.680			-3.669
115105.000			-25.679			-3.668
115204.000			-25.678			-3.668
115303.000			-25.677			-3.668
115405.000			-25.677			-3.668
115504.000			-25.676			-3.668
115605.000			-25.675			-3.668
115704.000			-25.676			-3.668
115804.000			-25.675			-3.668
115905.000			-25.674			-3.668
116003.000			-25.674			-3.668
116104.000			-25.673			-3.668
116204.000			-25.673			-3.668
116304.000			-25.671			-3.667
116404.000			-25.670			-3.667
116505.000			-25.668			-3.667
116604.000			-25.667			-3.667
116704.000			-25.666			-3.667
116805.000			-25.666			-3.667
116903.000			-25.665			-3.666
117004.000			-25.664			-3.666
117105.000			-25.664			-3.666
117204.000			-25.662			-3.666
117304.000			-25.661			-3.666
117405.000			-25.660			-3.666
117504.000			-25.660			-3.666
117603.000			-25.659			-3.666
117705.000			-25.658			-3.665
117804.000			-25.658			-3.665
117904.000			-25.657			-3.665
118005.000			-25.656			-3.665
118104.000			-25.655			-3.665
118204.000			-25.656			-3.665
118305.000			-25.655			-3.665
118404.000			-25.653			-3.665
118503.000			-25.653			-3.665
118605.000			-25.652			-3.665
118704.000			-25.652			-3.665
118805.000			-25.652			-3.665
118904.000			-25.651			-3.664
119004.000			-25.650			-3.664
119105.000			-25.650			-3.664
119203.000			-25.650			-3.664
119304.000			-25.649			-3.664
119405.000			-25.647			-3.664
119504.000			-25.646			-3.664
119604.000			-25.647			-3.664
119705.000			-25.646			-3.664
119804.000			-25.644			-3.663
119904.000			-25.644			-3.663
120005.000			-25.644			-3.663
120103.000			-25.643			-3.663
120204.000			-25.643			-3.663
120305.000			-25.642			-3.663
120404.000			-25.641			-3.663
120504.000			-25.641			-3.663
120605.000			-25.640			-3.663
120704.000			-25.640			-3.663
120803.000			-25.639			-3.663
120905.000			-25.635			-3.662
121004.000			-25.635			-3.662
121104.000			-25.635			-3.662
121205.000			-25.634			-3.662
121304.000			-25.634			-3.662
121404.000			-25.634			-3.662
121504.000			-25.634			-3.662
121604.000			-25.632			-3.662
121704.000			-25.631			-3.662
121804.000			-25.631			-3.662
121904.000			-25.631			-3.662
122005.000			-25.630			-3.661
122104.000			-25.629			-3.661
122203.000			-25.627			-3.661
122305.000			-25.627			-3.661
122404.000			-25.627			-3.661
122504.000			-25.628			-3.661
122605.000			-25.625			-3.661
122704.000			-25.624			-3.661
122804.000			-25.624			-3.661
122904.000			-25.624			-3.661
123004.000			-25.624			-3.661
123104.000			-25.623			-3.660
123205.000			-25.623			-3.660
123304.000			-25.622			-3.660
123404.000			-25.621			-3.660
123505.000			-25.620			-3.660
123603.000			-25.619			-3.660
123704.000			-25.620			-3.660
123805.000			-25.619			-3.660
123904.000			-25.618			-3.660
124004.000			-25.618			-3.660
124105.000			-25.617			-3.660
124204.000			-25.617			-3.660
124303.000			-25.616			-3.659
124405.000			-25.616			-3.659
124504.000			-25.616			-3.659
124604.000			-25.615			-3.659
124705.000			-25.614			-3.659
124804.000			-25.613			-3.659
124904.000			-25.613			-3.659
125004.000			-25.612			-3.659
125104.000			-25.612			-3.659
125203.000			-25.612			-3.659
125304.000			-25.610			-3.659
125404.000			-25.609			-3.658
125505.000			-25.610			-3.659
125604.000			-25.609			-3.658
125704.000			-25.609			-3.658
125805.000			-25.608			-3.658
125903.000			-25.607			-3.658
126004.000			-25.607			-3.658
126105.000			-25.607			-3.658
126204.000			-25.606			-3.658
126304.000			-25.605			-3.658
126405.000			-25.605			-3.658
126504.000			-25.604			-3.658
126603.000			-25.603			-3.658
126705.000			-25.602			-3.657
126804.000			-25.601			-3.657
126904.000			-25.602			-3.657
127005.000			-25.600			-3.657
127104.000			-25.600			-3.657
127204.000			-25.598			-3.657
127304.000			-25.598			-3.657
127404.000			-25.599			-3.657
127503.000			-25.598			-3.657
127605.000			-25.597			-3.657
127704.000			-25.596			-3.657
127804.000			-25.597			-3.657
127905.000			-25.595			-3.656
128004.000			-25.594			-3.656
128104.000			-25.594			-3.656
128203.000			-25.593			-3.656
128304.000			-25.593			-3.656
128405.000			-25.592			-3.656
128504.000			-25.591			-3.656
128604.000			-25.591			-3.656
128705.000			-25.591			-3.656
128804.000			-25.590			-3.656
128903.000			-25.588			-3.655
129005.000			-25.586			-3.655
129103.000			-25.586			-3.655
129204.000			-25.585			-3.655
129305.000			-25.585			-3.655
129404.000			-25.585			-3.655
129504.000			-25.583			-3.655
129605.000			-25.581			-3.654
129704.000			-25.582			-3.655
129803.000			-25.582			-3.655
129905.000			-25.580			-3.654
130004.000			-25.578			-3.654
130104.000			-25.577			-3.654
130205.000			-25.577			-3.654
130304.000			-25.577			-3.654
130404.000			-25.576			-3.654
130504.000			-25.576			-3.654
130604.000			-25.574			-3.653
130704.000			-25.574			-3.653
130805.000			-25.574			-3.653
130904.000			-25.573			-3.653
131004.000			-25.573			-3.653
131105.000			-25.571			-3.653
131203.000			-25.571			-3.653
131304.000			-25.570			-3.653
131403.000			-25.569			-3.653
131504.000			-25.569			-3.653
131605.000			-25.570			-3.653
131704.000			-25.568			-3.653
131804.000			-25.567			-3.652
131905.000			-25.567			-3.652
132004.000			-25.567			-3.652
132103.000			-25.566			-3.652
132205.000			-25.564			-3.652
132304.000			-25.564			-3.652
132404.000			-25.564			-3.652
132505.000			-25.562			-3.652
132604.000			-25.560			-3.651
132704.000			-25.560			-3.651
132805.000			-25.560			-3.651
132904.000			-25.558			-3.651
133003.000			-25.558			-3.651
133105.000			-25.558			-3.651
133204.000			-25.557			-3.651
133304.000			-25.555			-3.651
133405.000			-25.555			-3.651
133504.000			-25.554			-3.651
133604.000			-25.554			-3.651
133705.000			-25.552			-3.650
133804.000			-25.551			-3.650
133903.000			-25.551			-3.650
134005.000			-25.551			-3.650
134104.000			-25.550			-3.650
134204.000			-25.549			-3.650
134305.000			-25.549			-3.650
134404.000			-25.549			-3.650
134504.000			-25.548			-3.650
134604.000			-25.547			-3.650
134704.000			-25.545			-3.649
134803.000			-25.545			-3.649
134904.000			-25.545			-3.649
135004.000			-25.544			-3.649
135105.000			-25.543			-3.649
135204.000			-25.544			-3.649
135304.000			-25.543			-3.649
135405.000			-25.542			-3.649
135504.000			-25.541			-3.649
135604.000			-25.540			-3.649
135704.000			-25.540			-3.649
135804.000			-25.541			-3.649
135904.000			-25.540			-3.649
136005.000			-25.539			-3.648
136104.000			-25.539			-3.648
136204.000			-25.538			-3.648
136305.000			-25.536			-3.648
136403.000			-25.536			-3.648
136504.000			-25.536			-3.648
136604.000			-25.537			-3.648
136704.000			-25.537			-3.648
136804.000			-25.536			-3.648
136905.000			-25.534			-3.648
137004.000			-25.533			-3.648
137104.000			-25.533			-3.648
137205.000			-25.532			-3.647
137303.000			-25.532			-3.647
137404.000			-25.532			-3.647
137505.000			-25.531			-3.647
137604.000			-25.530			-3.647
137704.000			-25.530			-3.647
137804.000			-25.530			-3.647
137904.000			-25.529			-3.647
138005.000			-25.529			-3.647
138104.000			-25.528			-3.647
138203.000			-25.529			-3.647
138305.000			-25.528			-3.647
138403.000			-25.526			-3.647
138504.000			-25.526			-3.647
138605.000			-25.525			-3.646
138704.000			-25.525			-3.646
138804.000			-25.525			-3.646
138905.000			-25.524			-3.646
139004.000			-25.523			-3.646
139103.000			-25.523			-3.646
139205.000			-25.522			-3.646
139304.000			-25.522			-3.646
139404.000			-25.522			-3.646
139505.000			-25.522			-3.646
139604.000			-25.520			-3.646
139704.000			-25.520			-3.646
139805.000			-25.519			-3.646
139904.000			-25.518			-3.645
140003.000			-25.518			-3.645
140105.000			-25.518			-3.645
140204.000			-25.518			-3.645
140304.000			-25.517			-3.645
140405.000			-25.516			-3.645
140504.000			-25.515			-3.645
140604.000			-25.514			-3.645
140705.000			-25.513			-3.645
140804.000			-25.513			-3.645
140903.000			-25.512			-3.645
141005.000			-25.511			-3.644
141104.000			-25.511			-3.644
141205.000			-25.511			-3.644
141304.000			-25.510			-3.644
141404.000			-25.509			-3.644
141505.000			-25.509			-3.644
141604.000			-25.508			-3.644
141704.000			-25.507			-3.644
141804.000			-25.505			-3.644
141904.000			-25.505			-3.644
142004.000			-25.506			-3.644
142105.000			-25.506			-3.644
142204.000			-25.505			-3.644
142304.000			-25.504			-3.643
142405.000			-25.504			-3.643
142503.000			-25.504			-3.643
142604.000			-25.503			-3.643
142704.000			-25.504			-3.643
142804.000			-25.503			-3.643
142904.000			-25.501			-3.643
143005.000			-25.501			-3.643
143104.000			-25.501			-3.643
143204.000			-25.500			-3.643
143305.000			-25.500			-3.643
143403.000			-25.500			-3.643
143504.000			-25.498			-3.643
143605.000			-25.498			-3.643
143704.000			-25.498			-3.643
143804.000			-25.497			-3.642
143905.000			-25.498			-3.643
144004.000			-25.497			-3.642
144104.000			-25.497			-3.642
144205.000			-25.496			-3.642
144303.000			-25.494			-3.642
144405.000			-25.493			-3.642
144504.000			-25.492			-3.642
144604.000			-25.492			-3.642
144705.000			-25.491			-3.642
144804.000			-25.491			-3.642
144904.000			-25.489			-3.641
145005.000			-25.490			-3.641
145104.000			-25.488			-3.641
145203.000			-25.486			-3.641
145305.000			-25.486			-3.641
145403.000			-25.486			-3.641
145504.000			-25.486			-3.641
145605.000			-25.486			-3.641
145704.000			-25.485			-3.641
145804.000			-25.484			-3.641
145905.000			-25.483			-3.640
146004.000			-25.481			-3.640
146103.000			-25.481			-3.640
146205.000			-25.482			-3.640
146303.000			-25.481			-3.640
146404.000			-25.480			-3.640
146505.000			-25.480			-3.640
146604.000			-25.479			-3.640
146704.000			-25.478			-3.640
146805.000			-25.478			-3.640
146904.000			-25.477			-3.640
147004.000			-25.476			-3.639
147105.000			-25.475			-3.639
147203.000			-25.475			-3.639
147304.000			-25.475			-3.639
147405.000			-25.475			-3.639
147504.000			-25.474			-3.639
147605.000			-25.473			-3.639
147704.000			-25.473			-3.639
147804.000			-25.473			-3.639
147905.000			-25.474			-3.639
148004.000			-25.473			-3.639
148103.000			-25.472			-3.639
148205.000			-25.471			-3.639
148304.000			-25.471			-3.639
148404.000			-25.471			-3.639
148505.000			-25.471			-3.639
148604.000			-25.470			-3.639
148704.000			-25.470			-3.639
148805.000			-25.469			-3.638
148904.000			-25.468			-3.638
149003.000			-25.468			-3.638
149105.000			-25.469			-3.638
149204.000			-25.467			-3.638
149304.000			-25.467			-3.638
149405.000			-25.467			-3.638
149504.000			-25.466			-3.638
149604.000			-25.465			-3.638
149705.000			-25.464			-3.638
149804.000			-25.465			-3.638
149903.000			-25.465			-3.638
150005.000			-25.463			-3.638
150104.000			-25.463			-3.638
150204.000			-25.463			-3.638
150305.000			-25.462			-3.637
150404.000			-25.462			-3.637
150504.000			-25.462			-3.637
150604.000			-25.462			-3.637
150704.000			-25.460			-3.637
150803.000			-25.459			-3.637
150904.000			-25.458			-3.637
151003.000			-25.459			-3.637
151105.000			-25.458			-3.637
151204.000			-25.458			-3.637
151304.000			-25.458			-3.637
151405.000			-25.457			-3.637
151504.000			-25.457			-3.637
151604.000			-25.457			-3.637
151704.000			-25.457			-3.637
151804.000			-25.455			-3.636
151904.000			-25.455			-3.636
152005.000			-25.454			-3.636
152104.000			-25.452			-3.636
152204.000			-25.452			-3.636
152305.000			-25.451			-3.636
152404.000			-25.450			-3.636
152504.000			-25.450			-3.636
152604.000			-25.449			-3.636
152704.000			-25.447			-3.635
152804.000			-25.447			-3.635
152905.000			-25.445			-3.635
153004.000			-25.445			-3.635
153104.000			-25.445			-3.635
153205.000			-25.444			-3.635
153304.000			-25.443			-3.635
153404.000			-25.443			-3.635
153504.000			-25.441			-3.634
153604.000			-25.440			-3.634
153704.000			-25.440			-3.634
153804.000			-25.440			-3.634
153904.000			-25.439			-3.634
154005.000			-25.438			-3.634
154104.000			-25.438			-3.634
154204.000			-25.437			-3.634
154305.000			-25.436			-3.634
154403.000			-25.436			-3.634
154504.000			-25.436			-3.634
154605.000			-25.435			-3.634
154704.000			-25.435			-3.634
154804.000			-25.434			-3.633
154905.000			-25.434			-3.633
155004.000			-25.432			-3.633
155104.000			-25.432			-3.633
155205.000			-25.432			-3.633
155303.000			-25.431			-3.633
155404.000			-25.431			-3.633
155505.000			-25.431			-3.633
155604.000			-25.430			-3.633
155704.000			-25.429			-3.633
155805.000			-25.429			-3.633
155904.000			-25.429			-3.633
156004.000			-25.430			-3.633
156105.000			-25.430			-3.633
156203.000			-25.429			-3.633
156304.000			-25.427			-3.632
156405.000			-25.426			-3.632
156504.000			-25.426			-3.632
156604.000			-25.426			-3.632
156705.000			-25.425			-3.632
156804.000			-25.424			-3.632
156904.000			-25.424			-3.632
157005.000			-25.423			-3.632
157103.000			-25.422			-3.632
157205.000			-25.421			-3.632
157304.000			-25.419			-3.631
157404.000			-25.419			-3.631
157505.000			-25.417			-3.631
157604.000			-25.417			-3.631
157704.000			-25.417			-3.631
157805.000			-25.416			-3.631
157904.000			-25.417			-3.631
158003.000			-25.414			-3.631
158105.000			-25.414			-3.631
158204.000			-25.414			-3.631
158304.000			-25.413			-3.630
158405.000			-25.413			-3.630
158504.000			-25.412			-3.630
158604.000			-25.411			-3.630
158704.000			-25.411			-3.630
158804.000			-25.410			-3.630
158903.000			-25.408			-3.630
159005.000			-25.408			-3.630
159104.000			-25.408			-3.630
159204.000			-25.407			-3.630
159305.000			-25.407			-3.630
159404.000			-25.406			-3.629
159504.000			-25.405			-3.629
159604.000			-25.404			-3.629
159704.000			-25.405			-3.629
159803.000			-25.404			-3.629
159905.000			-25.403			-3.629
160004.000			-25.402			-3.629
160104.000			-25.401			-3.629
160205.000			-25.402			-3.629
160304.000			-25.402			-3.629
160405.000			-25.401			-3.629
160503.000			-25.401			-3.629
160604.000			-25.400			-3.629
160705.000			-25.399			-3.628
160804.000			-25.399			-3.628
160904.000			-25.398			-3.628
161005.000			-25.398			-3.628
161104.000			-25.398			-3.628
161204.000			-25.396			-3.628
161305.000			-25.396			-3.628
161403.000			-25.395			-3.628
161504.000			-25.395			-3.628
161604.000			-25.396			-3.628
161704.000			-25.394			-3.628
161804.000			-25.394			-3.628
161905.000			-25.394			-3.628
162004.000			-25.394			-3.628
162104.000			-25.392			-3.627
162205.000			-25.392			-3.627
162303.000			-25.391			-3.627
162404.000			-25.391			-3.627
162505.000			-25.390			-3.627
162604.000			-25.391			-3.627
162704.000			-25.390			-3.627
162805.000			-25.390			-3.627
162904.000			-25.389			-3.627
163004.000			-25.388			-3.627
163105.000			-25.387			-3.627
163203.000			-25.386			-3.627
163304.000			-25.387			-3.627
163403.000			-25.387			-3.627
163504.000			-25.386			-3.627
163605.000			-25.386			-3.627
163704.000			-25.386			-3.627
163804.000			-25.385			-3.626
163905.000			-25.385			-3.626
164004.000			-25.385			-3.626
164103.000			-25.384			-3.626
164205.000			-25.383			-3.626
164303.000			-25.383			-3.626
164404.000			-25.383			-3.626
164505.000			-25.383			-3.626
164604.000			-25.382			-3.626
164704.000			-25.382			-3.626
164805.000			-25.382			-3.626
164904.000			-25.381			-3.626
165003.000			-25.380			-3.626
165105.000			-25.380			-3.626
165203.000			-25.379			-3.626
165304.000			-25.379			-3.626
165405.000			-25.377			-3.625
165504.000			-25.377			-3.625
165604.000			-25.377			-3.625
165705.000			-25.377			-3.625
165804.000			-25.376			-3.625
165904.000			-25.375			-3.625
166005.000			-25.375			-3.625
166103.000			-25.375			-3.625
166204.000			-25.375			-3.625
166305.000			-25.373			-3.625
166404.000			-25.372			-3.625
166504.000			-25.372			-3.625
166604.000			-25.371			-3.624
166704.000			-25.371			-3.624
166805.000			-25.372			-3.625
166904.000			-25.372			-3.625
167003.000			-25.372			-3.625
167105.000			-25.372			-3.625
167204.000			-25.370			-3.624
167304.000			-25.369			-3.624
167405.000			-25.369			-3.624
167504.000			-25.368			-3.624
167604.000			-25.368			-3.624
167705.000			-25.368			-3.624
167804.000			-25.367			-3.624
167903.000			-25.367			-3.624
168005.000			-25.367			-3.624
168104.000			-25.366			-3.624
168204.000			-25.366			-3.624
168305.000			-25.365			-3.624
168404.000			-25.364			-3.623
168504.000			-25.363			-3.623
168605.000			-25.364			-3.623
168704.000			-25.362			-3.623
168803.000			-25.362			-3.623
168905.000			-25.361			-3.623
169004.000			-25.360			-3.623
169104.000			-25.360			-3.623
169205.000			-25.359			-3.623
169304.000			-25.359			-3.623
169404.000			-25.358			-3.623
169505.000			-25.358			-3.623
169604.000			-25.358			-3.623
169704.000			-25.357			-3.622
169805.000			-25.357			-3.622
169903.000			-25.356			-3.622
170005.000			-25.356			-3.622
170104.000			-25.355			-3.622
170204.000			-25.355			-3.622
170305.000			-25.353			-3.622
170404.000			-25.353			-3.622
170504.000			-25.353			-3.622
170605.000			-25.352			-3.622
170704.000			-25.352			-3.622
170803.000			-25.353			-3.622
170905.000			-25.352			-3.622
171004.000			-25.352			-3.622
171104.000			-25.352			-3.622
171205.000			-25.351			-3.622
171304.000			-25.350			-3.621
171404.000			-25.349			-3.621
171504.000			-25.348			-3.621
171604.000			-25.348			-3.621
171703.000			-25.348			-3.621
171805.000			-25.348			-3.621
171904.000			-25.348			-3.621
172004.000			-25.347			-3.621
172105.000			-25.346			-3.621
172204.000			-25.345			-3.621
172304.000			-25.345			-3.621
172404.000			-25.344			-3.621
172504.000			-25.344			-3.621
172603.000			-25.342			-3.620
172705.000			-25.343			-3.620
172804.000			-25.342			-3.620
172904.000			-25.342			-3.620
173005.000			-25.342			-3.620
173104.000			-25.341			-3.620
173205.000			-25.341			-3.620
173303.000			-25.341			-3.620
173404.000			-25.340			-3.620
173504.000			-25.340			-3.620
173604.000			-25.339			-3.620
173704.000			-25.339			-3.620
173805.000			-25.338			-3.620
173904.000			-25.338			-3.620
174004.000			-25.337			-3.620
174105.000			-25.336			-3.619
174203.000			-25.335			-3.619
174304.000			-25.335			-3.619
174404.000			-25.335			-3.619
174504.000			-25.334			-3.619
174604.000			-25.334			-3.619
174705.000			-25.333			-3.619
174804.000			-25.333			-3.619
174904.000			-25.332			-3.619
175005.000			-25.331			-3.619
175103.000			-25.332			-3.619
175204.000			-25.332			-3.619
175304.000			-25.331			-3.619
175404.000			-25.331			-3.619
175504.000			-25.331			-3.619
175605.000			-25.331			-3.619
175704.000			-25.330			-3.619
175804.000			-25.330			-3.619
175905.000			-25.330			-3.619
176003.000			-25.329			-3.618
176104.000			-25.328			-3.618
176205.000			-25.329			-3.618
176304.000			-25.328			-3.618
176405.000			-25.328			-3.618
176504.000			-25.327			-3.618
176604.000			-25.327			-3.618
176705.000			-25.327			-3.618
176804.000			-25.326			-3.618
176903.000			-25.325			-3.618
177005.000			-25.325			-3.618
177103.000			-25.324			-3.618
177204.000			-25.324			-3.618
177305.000			-25.323			-3.618
177404.000			-25.323			-3.618
177504.000			-25.324			-3.618
177605.000			-25.322			-3.617
177704.000			-25.322			-3.617
177803.000			-25.323			-3.618
177905.000			-25.322			-3.617
178003.000			-25.321			-3.617
178104.000			-25.320			-3.617
178205.000			-25.320			-3.617
178304.000			-25.320			-3.617
178404.000			-25.318			-3.617
178505.000			-25.318			-3.617
178604.000			-25.318			-3.617
178704.000			-25.317			-3.617
178805.000			-25.315			-3.616
178903.000			-25.316			-3.617
179004.000			-25.316			-3.617
179105.000			-25.315			-3.616
179204.000			-25.314			-3.616
179304.000			-25.314			-3.616
179404.000			-25.314			-3.616
179504.000			-25.314			-3.616
179605.000			-25.313			-3.616
179704.000			-25.313			-3.616
179803.000			-25.310			-3.616
179905.000			-25.309			-3.616
180004.000			-25.308			-3.615
180104.000			-25.308			-3.615
180205.000			-25.309			-3.616
180304.000			-25.308			-3.615
180404.000			-25.307			-3.615
180505.000			-25.306			-3.615
180604.000			-25.305			-3.615
180703.000			-25.305			-3.615
180805.000			-25.305			-3.615
180904.000			-25.304			-3.615
181004.000			-25.303			-3.615
181105.000			-25.303			-3.615
181204.000			-25.303			-3.615
181304.000			-25.302			-3.615
181404.000			-25.302			-3.615
181504.000			-25.302			-3.615
181603.000			-25.301			-3.614
181705.000			-25.301			-3.614
181804.000			-25.300			-3.614
181904.000			-25.299			-3.614
182005.000			-25.299			-3.614
182104.000			-25.299			-3.614
182204.000			-25.299			-3.614
182304.000			-25.299			-3.614
182404.000			-25.299			-3.614
182503.000			-25.298			-3.614
182605.000			-25.299			-3.614
182704.000			-25.296			-3.614
182805.000			-25.296			-3.614
182904.000			-25.296			-3.614
183004.000			-25.294			-3.613
183105.000			-25.294			-3.613
183204.000			-25.296			-3.614
183304.000			-25.295			-3.614
183404.000			-25.295			-3.614
183504.000			-25.294			-3.613
183604.000			-25.294			-3.613
183705.000			-25.293			-3.613
183804.000			-25.293			-3.613
183904.000			-25.293			-3.613
184005.000			-25.293			-3.613
184104.000			-25.293			-3.613
184204.000			-25.291			-3.613
184304.000			-25.292			-3.613
184404.000			-25.292			-3.613
184504.000			-25.291			-3.613
184605.000			-25.290			-3.613
184704.000			-25.290			-3.613
184804.000			-25.288			-3.613
184905.000			-25.290			-3.613
185004.000			-25.290			-3.613
185104.000			-25.289			-3.613
185204.000			-25.290			-3.613
185304.000			-25.289			-3.613
185404.000			-25.289			-3.613
185505.000			-25.288			-3.613
185604.000			-25.288			-3.613
185704.000			-25.287			-3.612
185805.000			-25.286			-3.612
185904.000			-25.286			-3.612
186005.000			-25.287			-3.612
186103.000			-25.286			-3.612
186204.000			-25.285			-3.612
186304.000			-25.284			-3.612
186404.000			-25.284			-3.612
186504.000			-25.284			-3.612
186605.000			-25.283			-3.612
186704.000			-25.282			-3.612
186804.000			-25.281			-3.612
186905.000			-25.280			-3.611
187003.000			-25.280			-3.611
187104.000			-25.278			-3.611
187204.000			-25.278			-3.611
187304.000			-25.277			-3.611
187404.000			-25.277			-3.611
187505.000			-25.275			-3.611
187604.000			-25.275			-3.611
187704.000			-25.276			-3.611
187805.000			-25.276			-3.611
187904.000			-25.275			-3.611
188004.000			-25.274			-3.611
188104.000			-25.274			-3.611
188204.000			-25.274			-3.611
188304.000			-25.273			-3.610
188405.000			-25.272			-3.610
188504.000			-25.273			-3.610
188604.000			-25.273			-3.610
188705.000			-25.272			-3.610
188804.000			-25.271			-3.610
188904.000			-25.271			-3.610
189003.000			-25.272			-3.610
189104.000			-25.271			-3.610
189205.000			-25.271			-3.610
189304.000			-25.270			-3.610
189404.000			-25.271			-3.610
189505.000			-25.270			-3.610
189604.000			-25.270			-3.610
189704.000			-25.270			-3.610
189805.000			-25.270			-3.610
189903.000			-25.270			-3.610
190004.000			-25.268			-3.610
190105.000			-25.269			-3.610
190204.000			-25.267			-3.610
190304.000			-25.266			-3.609
190405.000			-25.268			-3.610
190504.000			-25.267			-3.610
190604.000			-25.267			-3.610
190705.000			-25.267			-3.610
190803.000			-25.266			-3.609
190904.000			-25.265			-3.609
191004.000			-25.265			-3.609
191104.000			-25.264			-3.609
191204.000			-25.264			-3.609
191305.000			-25.264			-3.609
191404.000			-25.264			-3.609
191504.000			-25.262			-3.609
191605.000			-25.261			-3.609
191703.000			-25.261			-3.609
191804.000			-25.261			-3.609
191904.000			-25.261			-3.609
192004.000			-25.261			-3.609
192104.000			-25.261			-3.609
192204.000			-25.260			-3.609
192304.000			-25.259			-3.608
192405.000			-25.258			-3.608
192504.000			-25.259			-3.608
192603.000			-25.259			-3.608
192705.000			-25.259			-3.608
192803.000			-25.257			-3.608
192904.000			-25.256			-3.608
193005.000			-25.255			-3.608
193104.000			-25.256			-3.608
193204.000			-25.255			-3.608
193305.000			-25.254			-3.608
193404.000			-25.254			-3.608
193503.000			-25.254			-3.608
193605.000			-25.253			-3.608
193703.000			-25.252			-3.607
193804.000			-25.252			-3.607
193905.000			-25.251			-3.607
194004.000			-25.252			-3.607
194104.000			-25.251			-3.607
194205.000			-25.251			-3.607
194304.000			-25.252			-3.607
194403.000			-25.250			-3.607
194505.000			-25.250			-3.607
194604.000			-25.249			-3.607
194704.000			-25.248			-3.607
194805.000			-25.249			-3.607
194904.000			-25.249			-3.607
195004.000			-25.248			-3.607
195105.000			-25.248			-3.607
195204.000			-25.246			-3.607
195303.000			-25.246			-3.607
195405.000			-25.246			-3.607
195503.000			-25.246			-3.607
195605.000			-25.245			-3.606
195704.000			-25.245			-3.606
195804.000			-25.245			-3.606
195905.000			-25.244			-3.606
196004.000			-25.244			-3.606
196104.000			-25.244			-3.606
196204.000			-25.243			-3.606
196304.000			-25.243			-3.606
196403.000			-25.243			-3.606
196505.000			-25.242			-3.606
196604.000			-25.242			-3.606
196704.000			-25.242			-3.606
196805.000			-25.241			-3.606
196904.000			-25.241			-3.606
197004.000			-25.240			-3.606
197104.000			-25.240			-3.606
197204.000			-25.240			-3.606
197303.000			-25.239			-3.606
197405.000			-25.238			-3.605
197504.000			-25.239			-3.606
197604.000			-25.240			-3.606
197705.000			-25.239			-3.606
197804.000			-25.238			-3.605
197904.000			-25.238			-3.605
198004.000			-25.237			-3.605
198104.000			-25.236			-3.605
198203.000			-25.236			-3.605
198305.000			-25.237			-3.605
198404.000			-25.235			-3.605
198504.000			-25.235			-3.605
198605.000			-25.234			-3.605
198704.000			-25.234			-3.605
198805.000			-25.234			-3.605
198904.000			-25.233			-3.605
199004.000			-25.233			-3.605
199104.000			-25.233			-3.605
199204.000			-25.233			-3.605
199304.000			-25.232			-3.605
199405.000			-25.231			-3.604
199504.000			-25.231			-3.604
199604.000			-25.231			-3.604
199705.000			-25.230			-3.604
199804.000			-25.230			-3.604
199904.000			-25.231			-3.604
200004.000			-25.229			-3.604
200104.000			-25.228			-3.604
200204.000			-25.229			-3.604
200305.000			-25.228			-3.604
200404.000			-25.228			-3.604
200504.000			-25.228			-3.604
200605.000			-25.226			-3.604
200703.000			-25.227			-3.604
200804.000			-25.228			-3.604
200904.000			-25.226			-3.604
201004.000			-25.225			-3.604
201104.000			-25.225			-3.604
201205.000			-25.225			-3.604
201304.000			-25.225			-3.604
201404.000			-25.225			-3.604
201505.000			-25.224			-3.603
201603.000			-25.223			-3.603
201704.000			-25.222			-3.603
201805.000			-25.222			-3.603
201904.000			-25.222			-3.603
202005.000			-25.221			-3.603
202104.000			-25.222			-3.603
202204.000			-25.222			-3.603
202304.000			-25.221			-3.603
202404.000			-25.220			-3.603
202503.000			-25.219			-3.603
202605.000			-25.218			-3.603
202704.000			-25.219			-3.603
202804.000			-25.218			-3.603
202905.000			-25.218			-3.603
203004.000			-25.218			-3.603
203104.000			-25.217			-3.602
203204.000			-25.216			-3.602
203304.000			-25.216			-3.602
203404.000			-25.215			-3.602
203505.000			-25.215			-3.602
203604.000			-25.215			-3.602
203704.000			-25.214			-3.602
203805.000			-25.213			-3.602
203904.000			-25.213			-3.602
204004.000			-25.213			-3.602
204104.000			-25.212			-3.602
204204.000			-25.212			-3.602
204304.000			-25.213			-3.602
204405.000			-25.212			-3.602
204504.000			-25.210			-3.601
204604.000			-25.211			-3.602
204705.000			-25.210			-3.601
204803.000			-25.209			-3.601
204904.000			-25.210			-3.601
205005.000			-25.209			-3.601
205104.000			-25.208			-3.601
205205.000			-25.208			-3.601
205304.000			-25.206			-3.601
205404.000			-25.205			-3.601
205505.000			-25.205			-3.601
205604.000			-25.205			-3.601
205703.000			-25.205			-3.601
205805.000			-25.203			-3.600
205904.000			-25.202			-3.600
206004.000			-25.201			-3.600
206105.000			-25.201			-3.600
206204.000			-25.201			-3.600
206304.000			-25.200			-3.600
206404.000			-25.199			-3.600
206504.000			-25.198			-3.600
206603.000			-25.199			-3.600
206705.000			-25.198			-3.600
206804.000			-25.198			-3.600
206904.000			-25.198			-3.600
207005.000			-25.198			-3.600
207104.000			-25.196			-3.599
207204.000			-25.195			-3.599
207304.000			-25.195			-3.599
207404.000			-25.195			-3.599
207503.000			-25.195			-3.599
207605.000			-25.195			-3.599
207704.000			-25.194			-3.599
207804.000			-25.194			-3.599
207905.000			-25.193			-3.599
208004.000			-25.194			-3.599
208104.000			-25.194			-3.599
208203.000			-25.193			-3.599
208304.000			-25.192			-3.599
208405.000			-25.192			-3.599
208504.000			-25.191			-3.599
208604.000			-25.191			-3.599
208705.000			-25.191			-3.599
208804.000			-25.191			-3.599
208904.000			-25.191			-3.599
209005.000			-25.192			-3.599
209103.000			-25.191			-3.599
209204.000			-25.190			-3.599
209305.000			-25.190			-3.599
209404.000			-25.190			-3.599
209504.000			-25.189			-3.598
209605.000			-25.187			-3.598
209704.000			-25.187			-3.598
209804.000			-25.187			-3.598
209905.000			-25.188			-3.598
210003.000			-25.187			-3.598
210104.000			-25.186			-3.598
210205.000			-25.186			-3.598
210304.000			-25.186			-3.598
210404.000			-25.185			-3.598
210505.000			-25.184			-3.598
210604.000			-25.184			-3.598
210704.000			-25.183			-3.598
210805.000			-25.182			-3.597
210903.000			-25.182			-3.597
211004.000			-25.183			-3.598
211105.000			-25.182			-3.597
211204.000			-25.182			-3.597
211304.000			-25.181			-3.597
211404.000			-25.181			-3.597
211504.000			-25.180			-3.597
211603.000			-25.179			-3.597
211704.000			-25.180			-3.597
211803.000			-25.180			-3.597
211905.000			-25.180			-3.597
212004.000			-25.180			-3.597
212104.000			-25.179			-3.597
212205.000			-25.179			-3.597
212304.000			-25.179			-3.597
212404.000			-25.178			-3.597
212504.000			-25.178			-3.597
212604.000			-25.176			-3.597
212704.000			-25.176			-3.597
212805.000			-25.177			-3.597
212904.000			-25.177			-3.597
213004.000			-25.176			-3.597
213105.000			-25.175			-3.596
213204.000			-25.176			-3.597
213304.000			-25.175			-3.596
213404.000			-25.175			-3.596
213504.000			-25.174			-3.596
213604.000			-25.174			-3.596
213705.000			-25.174			-3.596
213804.000			-25.173			-3.596
213904.000			-25.173			-3.596
214005.000			-25.173			-3.596
214104.000			-25.172			-3.596
214204.000			-25.171			-3.596
214304.000			-25.171			-3.596
214404.000			-25.172			-3.596
214504.000			-25.170			-3.596
214604.000			-25.170			-3.596
214704.000			-25.168			-3.595
214805.000			-25.169			-3.596
214904.000			-25.170			-3.596
215003.000			-25.169			-3.596
215105.000			-25.167			-3.595
215203.000			-25.168			-3.595
215304.000			-25.168			-3.595
215405.000			-25.169			-3.596
215504.000			-25.168			-3.595
215604.000			-25.167			-3.595
215705.000			-25.166			-3.595
215804.000			-25.166			-3.595
215903.000			-25.166			-3.595
216005.000			-25.166			-3.595
216104.000			-25.165			-3.595
216204.000			-25.163			-3.595
216305.000			-25.164			-3.595
216404.000			-25.163			-3.595
216504.000			-25.162			-3.595
216605.000			-25.162			-3.595
216704.000			-25.161			-3.594
216803.000			-25.160			-3.594
216905.000			-25.159			-3.594
217004.000			-25.159			-3.594
217104.000			-25.159			-3.594
217205.000			-25.159			-3.594
217304.000			-25.159			-3.594
217404.000			-25.159			-3.594
217505.000			-25.158			-3.594
217604.000			-25.158			-3.594
217703.000			-25.156			-3.594
217805.000			-25.156			-3.594
217904.000			-25.156			-3.594
218005.000			-25.157			-3.594
218104.000			-25.156			-3.594
218204.000			-25.155			-3.594
218305.000			-25.155			-3.594
218404.000			-25.154			-3.593
218504.000			-25.153			-3.593
218604.000			-25.153			-3.593
218704.000			-25.153			-3.593
218804.000			-25.154			-3.593
218905.000			-25.154			-3.593
219004.000			-25.153			-3.593
219104.000			-25.152			-3.593
219205.000			-25.152			-3.593
219304.000			-25.153			-3.593
219404.000			-25.152			-3.593
219504.000			-25.152			-3.593
219604.000			-25.151			-3.593
219704.000			-25.150			-3.593
219805.000			-25.150			-3.593
219904.000			-25.150			-3.593
220004.000			-25.150			-3.593
220105.000			-25.149			-3.593
220203.000			-25.149			-3.593
220304.000			-25.149			-3.593
220404.000			-25.149			-3.593
220504.000			-25.148			-3.593
220604.000			-25.148			-3.593
220705.000			-25.148			-3.593
220804.000			-25.148			-3.593
220904.000			-25.148			-3.593
221005.000			-25.147			-3.592
221103.000			-25.146			-3.592
221205.000			-25.146			-3.592
221304.000			-25.146			-3.592
221404.000			-25.145			-3.592
221505.000			-25.145			-3.592
221604.000			-25.145			-3.592
221704.000			-25.145			-3.592
221805.000			-25.145			-3.592
221904.000			-25.143			-3.592
222003.000			-25.142			-3.592
222105.000			-25.141			-3.592
222204.000			-25.142			-3.592
222304.000			-25.142			-3.592
222405.000			-25.141			-3.592
222504.000			-25.142			-3.592
222604.000			-25.140			-3.591
222704.000			-25.140			-3.591
222804.000			-25.140			-3.591
222903.000			-25.140			-3.591
223005.000			-25.139			-3.591
223104.000			-25.140			-3.591
223204.000			-25.139			-3.591
223305.000			-25.139			-3.591
223404.000			-25.139			-3.591
223504.000			-25.138			-3.591
223604.000			-25.137			-3.591
223704.000			-25.136			-3.591
223804.000			-25.137			-3.591
223905.000			-25.137			-3.591
224004.000			-25.136			-3.591
224104.000			-25.136			-3.591
224205.000			-25.135			-3.591
224304.000			-25.135			-3.591
224405.000			-25.134			-3.591
224503.000			-25.133			-3.590
224604.000			-25.134			-3.591
224705.000			-25.134			-3.591
224804.000			-25.134			-3.591
224904.000			-25.133			-3.590
225005.000			-25.133			-3.590
225104.000			-25.133			-3.590
225203.000			-25.133			-3.590
225305.000			-25.132			-3.590
225403.000			-25.132			-3.590
225504.000			-25.132			-3.590
225605.000			-25.131			-3.590
225704.000			-25.131			-3.590
225804.000			-25.129			-3.590
225905.000			-25.130			-3.590
226004.000			-25.129			-3.590
226103.000			-25.129			-3.590
226205.000			-25.128			-3.590
226304.000			-25.127			-3.590
226404.000			-25.126			-3.589
226505.000			-25.126			-3.589
226604.000			-25.127			-3.590
226704.000			-25.127			-3.590
226805.000			-25.126			-3.589
226904.000			-25.126			-3.589
227003.000			-25.126			-3.589
227105.000			-25.125			-3.589
227204.000			-25.124			-3.589
227304.000			-25.124			-3.589
227405.000			-25.124			-3.589
227504.000			-25.124			-3.589
227605.000			-25.124			-3.589
227704.000			-25.123			-3.589
227804.000			-25.124			-3.589
227904.000			-25.122			-3.589
228004.000			-25.121			-3.589
228104.000			-25.121			-3.589
228205.000			-25.121			-3.589
228304.000			-25.122			-3.589
228404.000			-25.121			-3.589
228505.000			-25.120			-3.589
228604.000			-25.119			-3.588
228704.000			-25.120			-3.589
228804.000			-25.119			-3.588
228904.000			-25.120			-3.589
229004.000			-25.120			-3.589
229105.000			-25.119			-3.588
229204.000			-25.118			-3.588
229304.000			-25.118			-3.588
229405.000			-25.118			-3.588
229504.000			-25.117			-3.588
229604.000			-25.117			-3.588
229704.000			-25.116			-3.588
229804.000			-25.116			-3.588
229904.000			-25.116			-3.588
230005.000			-25.115			-3.588
230104.000			-25.114			-3.588
230204.000			-25.114			-3.588
230305.000			-25.114			-3.588
230404.000			-25.113			-3.588
230504.000			-25.113			-3.588
230603.000			-25.113			-3.588
230704.000			-25.113			-3.588
230805.000			-25.113			-3.588
230904.000			-25.112			-3.587
231004.000			-25.112			-3.587
231105.000			-25.111			-3.587
231204.000			-25.111			-3.587
231303.000			-25.111			-3.587
231405.000			-25.110			-3.587
231504.000			-25.110			-3.587
231604.000			-25.108			-3.587
231705.000			-25.108			-3.587
231804.000			-25.108			-3.587
231904.000			-25.109			-3.587
232004.000			-25.108			-3.587
232104.000			-25.108			-3.587
232203.000			-25.108			-3.587
232305.000			-25.108			-3.587
232404.000			-25.108			-3.587
232504.000			-25.107			-3.587
232605.000			-25.107			-3.587
232704.000			-25.107			-3.587
232804.000			-25.106			-3.587
232904.000			-25.106			-3.587
233004.000			-25.106			-3.587
233104.000			-25.104			-3.586
233205.000			-25.103			-3.586
233304.000			-25.104			-3.586
233404.000			-25.104			-3.586
233505.000			-25.103			-3.586
233604.000			-25.103			-3.586
233704.000			-25.102			-3.586
233803.000			-25.102			-3.586
233904.000			-25.101			-3.586
234005.000			-25.101			-3.586
234104.000			-25.101			-3.586
234204.000			-25.100			-3.586
234305.000			-25.099			-3.586
234404.000			-25.099			-3.586
234503.000			-25.099			-3.586
234605.000			-25.099			-3.586
234703.000			-25.100			-3.586
234804.000			-25.099			-3.586
234905.000			-25.099			-3.586
235004.000			-25.099			-3.586
235104.000			-25.096			-3.585
235205.000			-25.096			-3.585
235304.000			-25.096			-3.585
235403.000			-25.097			-3.585
235505.000			-25.096			-3.585
235603.000			-25.095			-3.585
235704.000			-25.094			-3.585
235805.000			-25.095			-3.585
235904.000			-25.095			-3.585
236004.000			-25.095			-3.585
236105.000			-25.094			-3.585
236204.000			-25.093			-3.585
236303.000			-25.093			-3.585
236405.000			-25.092			-3.585
236503.000			-25.093			-3.585
236604.000			-25.093			-3.585
236705.000			-25.092			-3.585
236804.000			-25.090			-3.584
236904.000			-25.090			-3.584
237004.000			-25.091			-3.584
237104.000			-25.091			-3.584
237203.000			-25.089			-3.584
237304.000			-25.090			-3.584
237403.000			-25.090			-3.584
237505.000			-25.089			-3.584
237604.000			-25.089			-3.584
237704.000			-25.088			-3.584
237805.000			-25.087			-3.584
237904.000			-25.086			-3.584
238004.000			-25.087			-3.584
238104.000			-25.088			-3.584
238204.000			-25.087			-3.584
238303.000			-25.087			-3.584
238405.000			-25.085			-3.584
238504.000			-25.085			-3.584
238604.000			-25.086			-3.584
238705.000			-25.084			-3.583
238804.000			-25.084			-3.583
238904.000			-25.084			-3.583
239004.000			-25.084			-3.583
239104.000			-25.084			-3.583
239203.000			-25.083			-3.583
239305.000			-25.083			-3.583
239404.000			-25.083			-3.583
239504.000			-25.082			-3.583
239605.000			-25.083			-3.583
239704.000			-25.083			-3.583
239804.000			-25.082			-3.583
239904.000			-25.082			-3.583
240004.000			-25.082			-3.583
240103.000			-25.079			-3.583
240205.000			-25.079			-3.583
240304.000			-25.079			-3.583
240405.000			-25.079			-3.583
240504.000			-25.077			-3.582
240604.000			-25.078			-3.583
240705.000			-25.078			-3.583
240804.000			-25.077			-3.582
240904.000			-25.077			-3.582
241004.000			-25.077			-3.582
241104.000			-25.076			-3.582
241204.000			-25.076			-3.582
241305.000			-25.077			-3.582
241404.000			-25.076			-3.582
241504.000			-25.075			-3.582
241605.000			-25.075			-3.582
241703.000			-25.074			-3.582
241804.000			-25.074			-3.582
241904.000			-25.074			-3.582
242004.000			-25.074			-3.582
242104.000			-25.073			-3.582
242205.000			-25.074			-3.582
242304.000			-25.072			-3.582
242404.000			-25.073			-3.582
242505.000			-25.072			-3.582
242603.000			-25.071			-3.582
242704.000			-25.071			-3.582
242805.000			-25.071			-3.582
242904.000			-25.071			-3.582
243004.000			-25.070			-3.581
243105.000			-25.070			-3.581
243204.000			-25.069			-3.581
243304.000			-25.068			-3.581
243405.000			-25.067			-3.581
243503.000			-25.067			-3.581
243605.000			-25.068			-3.581
243704.000			-25.067			-3.581
243804.000			-25.067			-3.581
243905.000			-25.067			-3.581
244004.000			-25.067			-3.581
244104.000			-25.066			-3.581
244205.000			-25.066			-3.581
244304.000			-25.066			-3.581
244403.000			-25.065			-3.581
244505.000			-25.066			-3.581
244604.000			-25.065			-3.581
244704.000			-25.064			-3.581
244805.000			-25.064			-3.581
244904.000			-25.063			-3.580
245004.000			-25.062			-3.580
245104.000			-25.063			-3.580
245204.000			-25.063			-3.580
245303.000			-25.063			-3.580
245405.000			-25.062			-3.580
245504.000			-25.062			-3.580
245604.000			-25.061			-3.580
245705.000			-25.061			-3.580
245804.000			-25.062			-3.580
245904.000			-25.061			-3.580
246004.000			-25.060			-3.580
246104.000			-25.059			-3.580
246203.000			-25.059			-3.580
246305.000			-25.059			-3.580
246404.000			-25.059			-3.580
246504.000			-25.059			-3.580
246605.000			-25.059			-3.580
246704.000			-25.058			-3.580
246805.000			-25.057			-3.580
246904.000			-25.057			-3.580
247004.000			-25.056			-3.579
247104.000			-25.056			-3.579
247204.000			-25.057			-3.580
247304.000			-25.056			-3.579
247405.000			-25.055			-3.579
247504.000			-25.055			-3.579
247604.000			-25.053			-3.579
247705.000			-25.054			-3.579
247803.000			-25.054			-3.579
247904.000			-25.054			-3.579
248004.000			-25.054			-3.579
248104.000			-25.053			-3.579
248204.000			-25.052			-3.579
248305.000			-25.051			-3.579
248404.000			-25.052			-3.579
248504.000			-25.053			-3.579
248605.000			-25.052			-3.579
248703.000			-25.052			-3.579
248804.000			-25.052			-3.579
248904.000			-25.051			-3.579
249004.000			-25.050			-3.579
249104.000			-25.050			-3.579
249205.000			-25.050			-3.579
249304.000			-25.049			-3.578
249404.000			-25.049			-3.578
249505.000			-25.049			-3.578
249603.000			-25.049			-3.578
249704.000			-25.047			-3.578
249803.000			-25.047			-3.578
249904.000			-25.047			-3.578
250005.000			-25.048			-3.578
250104.000			-25.048			-3.578
250204.000			-25.047			-3.578
250305.000			-25.046			-3.578
250404.000			-25.046			-3.578
250503.000			-25.045			-3.578
250605.000			-25.044			-3.578
250704.000			-25.044			-3.578
250804.000			-25.044			-3.578
250905.000			-25.044			-3.578
251004.000			-25.044			-3.578
251104.000			-25.043			-3.578
251205.000			-25.043			-3.578
251304.000			-25.043			-3.578
251403.000			-25.042			-3.577
251505.000			-25.042			-3.577
251604.000			-25.041			-3.577
251704.000			-25.041			-3.577
251805.000			-25.041			-3.577
251904.000			-25.040			-3.577
252004.000			-25.040			-3.577
252104.000			-25.041			-3.577
252204.000			-25.040			-3.577
252303.000			-25.039			-3.577
252405.000			-25.038			-3.577
252504.000			-25.039			-3.577
252604.000			-25.038			-3.577
252705.000			-25.038			-3.577
252804.000			-25.037			-3.577
252904.000			-25.037			-3.577
253003.000			-25.037			-3.577
253104.000			-25.037			-3.577
253205.000			-25.036			-3.577
253304.000			-25.036			-3.577
253404.000			-25.036			-3.577
253505.000			-25.035			-3.576
253604.000			-25.035			-3.576
253704.000			-25.035			-3.576
253805.000			-25.034			-3.576
253903.000			-25.033			-3.576
254004.000			-25.034			-3.576
254105.000			-25.034			-3.576
254204.000			-25.034			-3.576
254304.000			-25.034			-3.576
254405.000			-25.033			-3.576
254504.000			-25.033			-3.576
254603.000			-25.032			-3.576
254705.000			-25.032			-3.576
254803.000			-25.030			-3.576
254904.000			-25.029			-3.576
255005.000			-25.030			-3.576
255104.000			-25.029			-3.576
255204.000			-25.029			-3.576
255305.000			-25.030			-3.576
255404.000			-25.029			-3.576
255503.000			-25.028			-3.575
255605.000			-25.027			-3.575
255704.000			-25.028			-3.575
255804.000			-25.028			-3.575
255905.000			-25.028			-3.575
256004.000			-25.027			-3.575
256104.000			-25.027			-3.575
256204.000			-25.027			-3.575
256304.000			-25.026			-3.575
256403.000			-25.026			-3.575
256504.000			-25.026			-3.575
256604.000			-25.025			-3.575
256705.000			-25.025			-3.575
256804.000			-25.026			-3.575
256904.000			-25.024			-3.575
257005.000			-25.024			-3.575
257104.000			-25.024			-3.575
257204.000			-25.024			-3.575
257304.000			-25.023			-3.575
257404.000			-25.023			-3.575
257504.000			-25.023			-3.575
257605.000			-25.022			-3.575
257704.000			-25.021			-3.574
257804.000			-25.021			-3.574
257905.000			-25.021			-3.574
258004.000			-25.021			-3.574
258104.000			-25.020			-3.574
258204.000			-25.020			-3.574
258304.000			-25.021			-3.574
258404.000			-25.020			-3.574
258505.000			-25.020			-3.574
258604.000			-25.019			-3.574
258704.000			-25.018			-3.574
258805.000			-25.018			-3.574
258903.000			-25.018			-3.574
259004.000			-25.018			-3.574
259104.000			-25.018			-3.574
259204.000			-25.017			-3.574
259304.000			-25.016			-3.574
259404.000			-25.017			-3.574
259504.000			-25.016			-3.574
259605.000			-25.015			-3.574
259704.000			-25.016			-3.574
259803.000			-25.015			-3.574
259905.000			-25.014			-3.573
260003.000			-25.014			-3.573
260104.000			-25.014			-3.573
260205.000			-25.013			-3.573
260304.000			-25.014			-3.573
260404.000			-25.014			-3.573
260505.000			-25.013			-3.573
260604.000			-25.013			-3.573
260703.000			-25.012			-3.573
260805.000			-25.011			-3.573
260904.000			-25.010			-3.573
261004.000			-25.011			-3.573
261105.000			-25.011			-3.573
261204.000			-25.011			-3.573
261304.000			-25.010			-3.573
261404.000			-25.010			-3.573
261504.000			-25.010			-3.573
261604.000			-25.009			-3.573
261705.000			-25.009			-3.573
261804.000			-25.009			-3.573
261904.000			-25.009			-3.573
262005.000			-25.008			-3.573
262104.000			-25.008			-3.573
262204.000			-25.008			-3.573
262304.000			-25.006			-3.572
262404.000			-25.006			-3.572
262504.000			-25.006			-3.572
262604.000			-25.006			-3.572
262704.000			-25.005			-3.572
262805.000			-25.005			-3.572
262904.000			-25.005			-3.572
263003.000			-25.005			-3.572
263105.000			-25.005			-3.572
263204.000			-25.003			-3.572
263304.000			-25.004			-3.572
263405.000			-25.004			-3.572
263504.000			-25.003			-3.572
263604.000			-25.002			-3.572
263705.000			-25.003			-3.572
263804.000			-25.003			-3.572
263903.000			-25.003			-3.572
264005.000			-25.002			-3.572
264104.000			-25.002			-3.572
264204.000			-25.001			-3.572
264305.000			-25.001			-3.572
264404.000			-25.001			-3.572
264504.000			-25.000			-3.571
264604.000			-25.000			-3.571
264704.000			-24.999			-3.571
264803.000			-24.999			-3.571
264905.000			-24.999			-3.571
265004.000			-24.998			-3.571
265104.000			-24.998			-3.571
265205.000			-24.997			-3.571
265304.000			-24.997			-3.571
265404.000			-24.996			-3.571
265505.000			-24.995			-3.571
265604.000			-24.996			-3.571
265703.000			-24.995			-3.571
265805.000			-24.995			-3.571
265904.000			-24.994			-3.571
266005.000			-24.993			-3.570
266104.000			-24.993			-3.570
266204.000			-24.994			-3.571
266305.000			-24.993			-3.570
266404.000			-24.992			-3.570
266504.000			-24.993			-3.570
266604.000			-24.993			-3.570
266704.000			-24.993			-3.570
266803.000			-24.993			-3.570
266905.000			-24.993			-3.570
267004.000			-24.992			-3.570
267104.000			-24.992			-3.570
267205.000			-24.991			-3.570
267304.000			-24.991			-3.570
267404.000			-24.992			-3.570
267504.000			-24.991			-3.570
267604.000			-24.990			-3.570
267703.000			-24.990			-3.570
267805.000			-24.990			-3.570
267904.000			-24.990			-3.570
268004.000			-24.989			-3.570
268105.000			-24.990			-3.570
268204.000			-24.990			-3.570
268304.000			-24.989			-3.570
268405.000			-24.988			-3.570
268504.000			-24.989			-3.570
268603.000			-24.989			-3.570
268705.000			-24.988			-3.570
268804.000			-24.987			-3.570
268904.000			-24.987			-3.570
269005.000			-24.986			-3.569
269104.000			-24.986			-3.569
269205.000			-24.986			-3.569
269304.000			-24.986			-3.569
269404.000			-24.986			-3.569
269505.000			-24.985			-3.569
269604.000			-24.985			-3.569
269703.000			-24.985			-3.569
269805.000			-24.985			-3.569
269904.000			-24.985			-3.569
270004.000			-24.983			-3.569
270105.000			-24.983			-3.569
270204.000			-24.984			-3.569
270304.000			-24.983			-3.569
270405.000			-24.983			-3.569
270504.000			-24.984			-3.569
270603.000			-24.984			-3.569
270705.000			-24.982			-3.569
270804.000			-24.982			-3.569
270904.000			-24.981			-3.569
271005.000			-24.980			-3.569
271104.000			-24.980			-3.569
271204.000			-24.980			-3.569
271305.000			-24.981			-3.569
271404.000			-24.980			-3.569
271503.000			-24.980			-3.569
271605.000			-24.980			-3.569
271704.000			-24.980			-3.569
271804.000			-24.980			-3.569
271905.000			-24.979			-3.568
272004.000			-24.977			-3.568
272104.000			-24.977			-3.568
272204.000			-24.976			-3.568
272304.000			-24.976			-3.568
272403.000			-24.976			-3.568
272504.000			-24.976			-3.568
272603.000			-24.975			-3.568
272705.000			-24.975			-3.568
272804.000			-24.974			-3.568
272904.000			-24.973			-3.568
273005.000			-24.972			-3.567
273104.000			-24.972			-3.567
273204.000			-24.973			-3.568
273304.000			-24.974			-3.568
273404.000			-24.973			-3.568
273503.000			-24.973			-3.568
273605.000			-24.973			-3.568
273704.000			-24.972			-3.567
273804.000			-24.971			-3.567
273905.000			-24.971			-3.567
274004.000			-24.971			-3.567
274104.000			-24.970			-3.567
274204.000			-24.969			-3.567
274304.000			-24.969			-3.567
274403.000			-24.969			-3.567
274505.000			-24.968			-3.567
274604.000			-24.969			-3.567
274704.000			-24.970			-3.567
274805.000			-24.969			-3.567
274904.000			-24.967			-3.567
275004.000			-24.967			-3.567
275105.000			-24.968			-3.567
275204.000			-24.967			-3.567
275303.000			-24.967			-3.567
275405.000			-24.967			-3.567
275504.000			-24.966			-3.567
275605.000			-24.966			-3.567
275704.000			-24.966			-3.567
275804.000			-24.965			-3.566
275905.000			-24.965			-3.566
276004.000			-24.964			-3.566
276104.000			-24.964			-3.566
276204.000			-24.964			-3.566
276304.000			-24.963			-3.566
276403.000			-24.963			-3.566
276505.000			-24.960			-3.566
276604.000			-24.960			-3.566
276704.000			-24.960			-3.566
276805.000			-24.959			-3.566
276904.000			-24.959			-3.566
277004.000			-24.960			-3.566
277105.000			-24.959			-3.566
277204.000			-24.959			-3.566
277303.000			-24.958			-3.565
277405.000			-24.958			-3.565
277504.000			-24.958			-3.565
277604.000			-24.958			-3.565
277705.000			-24.958			-3.565
277804.000			-24.958			-3.565
277904.000			-24.959			-3.566
278005.000			-24.958			-3.565
278104.000			-24.958			-3.565
278203.000			-24.958			-3.565
278305.000			-24.958			-3.565
278403.000			-24.957			-3.565
278504.000			-24.955			-3.565
278605.000			-24.954			-3.565
278704.000			-24.956			-3.565
278805.000			-24.954			-3.565
278904.000			-24.955			-3.565
279004.000			-24.955			-3.565
279104.000			-24.955			-3.565
279204.000			-24.955			-3.565
279303.000			-24.954			-3.565
279405.000			-24.954			-3.565
279504.000			-24.953			-3.565
279604.000			-24.954			-3.565
279705.000			-24.953			-3.565
279804.000			-24.952			-3.565
279904.000			-24.952			-3.565
280005.000			-24.952			-3.565
280104.000			-24.952			-3.565
280203.000			-24.952			-3.565
280305.000			-24.951			-3.564
280404.000			-24.950			-3.564
280504.000			-24.950			-3.564
280605.000			-24.950			-3.564
280704.000			-24.950			-3.564
280804.000			-24.949			-3.564
280905.000			-24.948			-3.564
281004.000			-24.948			-3.564
281103.000			-24.947			-3.564
281205.000			-24.946			-3.564
281304.000			-24.946			-3.564
281404.000			-24.947			-3.564
281505.000			-24.947			-3.564
281604.000			-24.946			-3.564
281704.000			-24.946			-3.564
281804.000			-24.946			-3.564
281904.000			-24.945			-3.564
282003.000			-24.945			-3.564
282104.000			-24.945			-3.564
282203.000			-24.945			-3.564
282305.000			-24.945			-3.564
282404.000			-24.944			-3.563
282504.000			-24.944			-3.563
282605.000			-24.944			-3.563
282704.000			-24.944			-3.563
282804.000			-24.943			-3.563
282904.000			-24.943			-3.563
283004.000			-24.944			-3.563
283103.000			-24.943			-3.563
283205.000			-24.943			-3.563
283304.000			-24.943			-3.563
283404.000			-24.941			-3.563
283505.000			-24.941			-3.563
283604.000			-24.941			-3.563
283704.000			-24.941			-3.563
283804.000			-24.939			-3.563
283904.000			-24.939			-3.563
284003.000			-24.939			-3.563
284105.000			-24.938			-3.563
284204.000			-24.937			-3.562
284304.000			-24.937			-3.562
284405.000			-24.937			-3.562
284504.000			-24.935			-3.562
284604.000			-24.936			-3.562
284704.000			-24.937			-3.562
284804.000			-24.936			-3.562
284903.000			-24.935			-3.562
285005.000			-24.934			-3.562
285104.000			-24.934			-3.562
285205.000			-24.934			-3.562
285304.000			-24.935			-3.562
285404.000			-24.934			-3.562
285505.000			-24.934			-3.562
285604.000			-24.934			-3.562
285704.000			-24.934			-3.562
285804.000			-24.934			-3.562
285904.000			-24.933			-3.562
286004.000			-24.933			-3.562
286105.000			-24.933			-3.562
286204.000			-24.932			-3.562
286304.000			-24.932			-3.562
286405.000			-24.932			-3.562
286504.000			-24.933			-3.562
286604.000			-24.932			-3.562
286704.000			-24.931			-3.562
286804.000			-24.931			-3.562
286904.000			-24.932			-3.562
287005.000			-24.932			-3.562
287104.000			-24.931			-3.562
287204.000			-24.932			-3.562
287305.000			-24.932			-3.562
287404.000			-24.931			-3.562
287504.000			-24.930			-3.561
287604.000			-24.929			-3.561
287704.000			-24.929			-3.561
287803.000			-24.930			-3.561
287905.000			-24.931			-3.562
288004.000			-24.931			-3.562
288104.000			-24.930			-3.561
288205.000			-24.929			-3.561
288304.000			-24.929			-3.561
288405.000			-24.929			-3.561
288504.000			-24.929			-3.561
288604.000			-24.928			-3.561
288704.000			-24.929			-3.561
288804.000			-24.928			-3.561
288903.000			-24.927			-3.561
289005.000			-24.927			-3.561
289104.000			-24.927			-3.561
289204.000			-24.928			-3.561
289305.000			-24.927			-3.561
289404.000			-24.926			-3.561
289504.000			-24.925			-3.561
289604.000			-24.927			-3.561
289704.000			-24.926			-3.561
289803.000			-24.926			-3.561
289905.000			-24.926			-3.561
290004.000			-24.924			-3.561
290104.000			-24.924			-3.561
290205.000			-24.924			-3.561
290304.000			-24.923			-3.560
290404.000			-24.923			-3.560
290504.000			-24.923			-3.560
290604.000			-24.922			-3.560
290703.000			-24.922			-3.560
290805.000			-24.922			-3.560
290904.000			-24.922			-3.560
291004.000			-24.921			-3.560
291105.000			-24.920			-3.560
291204.000			-24.920			-3.560
291304.000			-24.920			-3.560
291403.000			-24.921			-3.560
291504.000			-24.922			-3.560
291603.000			-24.920			-3.560
291704.000			-24.920			-3.560
291804.000			-24.920			-3.560
291905.000			-24.919			-3.560
292004.000			-24.919			-3.560
292104.000			-24.919			-3.560
292205.000			-24.919			-3.560
292303.000			-24.921			-3.560
292404.000			-24.920			-3.560
292504.000			-24.918			-3.560
292604.000			-24.917			-3.560
292704.000			-24.917			-3.560
292805.000			-24.917			-3.560
292904.000			-24.917			-3.560
293004.000			-24.917			-3.560
293105.000			-24.917			-3.560
293204.000			-24.916			-3.559
293304.000			-24.916			-3.559
293404.000			-24.916			-3.559
293504.000			-24.916			-3.559
293604.000			-24.915			-3.559
293705.000			-24.915			-3.559
293804.000			-24.915			-3.559
293904.000			-24.914			-3.559
294005.000			-24.913			-3.559
294104.000			-24.913			-3.559
294204.000			-24.914			-3.559
294304.000			-24.915			-3.559
294404.000			-24.914			-3.559
294504.000			-24.914			-3.559
294604.000			-24.913			-3.559
294704.000			-24.911			-3.559
294805.000			-24.913			-3.559
294904.000			-24.913			-3.559
295004.000			-24.912			-3.559
295105.000			-24.911			-3.559
295203.000			-24.912			-3.559
295304.000			-24.911			-3.559
295405.000			-24.910			-3.559
295504.000			-24.910			-3.559
295604.000			-24.910			-3.559
295705.000			-24.910			-3.559
295804.000			-24.910			-3.559
295904.000			-24.910			-3.559
296005.000			-24.909			-3.558
296103.000			-24.908			-3.558
296204.000			-24.909			-3.558
296305.000			-24.908			-3.558
296404.000			-24.907			-3.558
296504.000			-24.907			-3.558
296605.000			-24.907			-3.558
296704.000			-24.908			-3.558
296804.000			-24.906			-3.558
296905.000			-24.906			-3.558
297003.000			-24.906			-3.558
297104.000			-24.906			-3.558
297205.000			-24.906			-3.558
297304.000			-24.905			-3.558
297404.000			-24.904			-3.558
297505.000			-24.905			-3.558
297604.000			-24.904			-3.558
297704.000			-24.904			-3.558
297805.000			-24.903			-3.558
297903.000			-24.903			-3.558
298005.000			-24.902			-3.557
298103.000			-24.902			-3.557
298204.000			-24.902			-3.557
298305.000			-24.902			-3.557
298404.000			-24.902			-3.557
298504.000			-24.902			-3.557
298605.000			-24.901			-3.557
298704.000			-24.901			-3.557
298803.000			-24.901			-3.557
298905.000			-24.901			-3.557
299004.000			-24.901			-3.557
299104.000			-24.900			-3.557
299205.000			-24.900			-3.557
299304.000			-24.900			-3.557
299404.000			-24.899			-3.557
299505.000			-24.899			-3.557
299604.000			-24.899			-3.557
299704.000			-24.898			-3.557
299805.000			-24.898			-3.557
299903.000			-24.898			-3.557
