# Acquired on 08/01/2024 15:03:49 
# SPIDER: Creep_4mm_0771453C
# CREEP MEASUREMENT

# time [ms]		force [N]		stiffness [N/mm]
0.000			-11.544			-2.886
100.000			-12.545			-3.136
200.000			-12.921			-3.230
301.000			-12.932			-3.233
401.000			-12.883			-3.221
501.000			-12.847			-3.212
601.000			-12.817			-3.204
700.000			-12.772			-3.193
800.000			-12.753			-3.188
901.000			-12.736			-3.184
1000.000			-12.721			-3.180
1100.000			-12.708			-3.177
1202.000			-12.694			-3.174
1301.000			-12.682			-3.171
1400.000			-12.659			-3.165
1501.000			-12.650			-3.162
1600.000			-12.640			-3.160
1700.000			-12.632			-3.158
1801.000			-12.624			-3.156
1901.000			-12.615			-3.154
2001.000			-12.607			-3.152
2101.000			-12.592			-3.148
2200.000			-12.585			-3.146
2300.000			-12.578			-3.144
2400.000			-12.572			-3.143
2500.000			-12.566			-3.142
2601.000			-12.560			-3.140
2701.000			-12.554			-3.139
2801.000			-12.544			-3.136
2901.000			-12.538			-3.135
3000.000			-12.533			-3.133
3100.000			-12.529			-3.132
3201.000			-12.523			-3.131
3300.000			-12.519			-3.130
3401.000			-12.514			-3.128
3502.000			-12.510			-3.127
3601.000			-12.500			-3.125
3700.000			-12.496			-3.124
3801.000			-12.492			-3.123
3900.000			-12.488			-3.122
4000.000			-12.483			-3.121
4101.000			-12.480			-3.120
4201.000			-12.477			-3.119
4301.000			-12.469			-3.117
4401.000			-12.467			-3.117
4500.000			-12.463			-3.116
4600.000			-12.459			-3.115
4701.000			-12.457			-3.114
4800.000			-12.453			-3.113
4900.000			-12.449			-3.112
5002.000			-12.442			-3.111
5101.000			-12.439			-3.110
5200.000			-12.437			-3.109
5301.000			-12.434			-3.109
5400.000			-12.432			-3.108
5500.000			-12.429			-3.107
5600.000			-12.426			-3.106
5701.000			-12.420			-3.105
5802.000			-12.417			-3.104
5900.000			-12.415			-3.104
6000.000			-12.413			-3.103
6101.000			-12.410			-3.103
6200.000			-12.407			-3.102
6300.000			-12.405			-3.101
6401.000			-12.402			-3.101
6501.000			-12.398			-3.099
6601.000			-12.395			-3.099
6701.000			-12.391			-3.098
6800.000			-12.390			-3.097
6900.000			-12.387			-3.097
7001.000			-12.384			-3.096
7100.000			-12.382			-3.095
7201.000			-12.379			-3.095
7302.000			-12.376			-3.094
7400.000			-12.374			-3.093
7500.000			-12.373			-3.093
7601.000			-12.371			-3.093
7700.000			-12.368			-3.092
7800.000			-12.365			-3.091
7901.000			-12.362			-3.091
8001.000			-12.359			-3.090
8101.000			-12.358			-3.090
8201.000			-12.357			-3.089
8300.000			-12.354			-3.089
8400.000			-12.352			-3.088
8501.000			-12.350			-3.088
8600.000			-12.346			-3.087
8700.000			-12.345			-3.086
8802.000			-12.342			-3.086
8901.000			-12.341			-3.085
9001.000			-12.340			-3.085
9100.000			-12.338			-3.085
9200.000			-12.336			-3.084
9301.000			-12.332			-3.083
9400.000			-12.331			-3.083
9501.000			-12.330			-3.082
9602.000			-12.328			-3.082
9700.000			-12.325			-3.081
9800.000			-12.323			-3.081
9901.000			-12.322			-3.081
10000.000			-12.322			-3.080
10100.000			-12.318			-3.080
10201.000			-12.316			-3.079
10301.000			-12.313			-3.078
10401.000			-12.312			-3.078
10501.000			-12.311			-3.078
10600.000			-12.310			-3.077
10700.000			-12.308			-3.077
10801.000			-12.305			-3.076
10900.000			-12.304			-3.076
11001.000			-12.303			-3.076
11102.000			-12.301			-3.075
11200.000			-12.300			-3.075
11300.000			-12.299			-3.075
11401.000			-12.295			-3.074
11500.000			-12.294			-3.073
11600.000			-12.293			-3.073
11701.000			-12.291			-3.073
11801.000			-12.289			-3.072
11902.000			-12.289			-3.072
12000.000			-12.286			-3.072
12100.000			-12.285			-3.071
12201.000			-12.283			-3.071
12300.000			-12.282			-3.070
12400.000			-12.280			-3.070
12501.000			-12.279			-3.070
12601.000			-12.278			-3.069
12701.000			-12.276			-3.069
12801.000			-12.275			-3.069
12900.000			-12.273			-3.068
13000.000			-12.271			-3.068
13101.000			-12.271			-3.068
13200.000			-12.269			-3.067
13300.000			-12.267			-3.067
13402.000			-12.266			-3.066
13501.000			-12.265			-3.066
13600.000			-12.264			-3.066
13701.000			-12.262			-3.065
13800.000			-12.261			-3.065
13900.000			-12.260			-3.065
14001.000			-12.258			-3.065
14101.000			-12.257			-3.064
14201.000			-12.256			-3.064
14301.000			-12.254			-3.064
14400.000			-12.253			-3.063
14500.000			-12.251			-3.063
14601.000			-12.250			-3.062
14700.000			-12.249			-3.062
14800.000			-12.248			-3.062
14902.000			-12.247			-3.062
15001.000			-12.246			-3.061
15100.000			-12.244			-3.061
15200.000			-12.242			-3.061
15300.000			-12.241			-3.060
15401.000			-12.241			-3.060
15500.000			-12.239			-3.060
15600.000			-12.238			-3.059
15702.000			-12.237			-3.059
15801.000			-12.236			-3.059
15900.000			-12.233			-3.058
16001.000			-12.232			-3.058
16100.000			-12.231			-3.058
16200.000			-12.230			-3.057
16301.000			-12.229			-3.057
16400.000			-12.229			-3.057
16501.000			-12.228			-3.057
16602.000			-12.226			-3.057
16700.000			-12.225			-3.056
16800.000			-12.223			-3.056
16901.000			-12.222			-3.056
17000.000			-12.222			-3.055
17100.000			-12.221			-3.055
17202.000			-12.220			-3.055
17301.000			-12.218			-3.055
17400.000			-12.217			-3.054
17501.000			-12.217			-3.054
17600.000			-12.217			-3.054
17700.000			-12.215			-3.054
17801.000			-12.213			-3.053
17900.000			-12.212			-3.053
18001.000			-12.211			-3.053
18102.000			-12.209			-3.052
18200.000			-12.208			-3.052
18300.000			-12.209			-3.052
18400.000			-12.208			-3.052
18500.000			-12.207			-3.052
18601.000			-12.205			-3.051
18700.000			-12.204			-3.051
18801.000			-12.202			-3.051
18902.000			-12.200			-3.050
19000.000			-12.199			-3.050
19100.000			-12.199			-3.050
19201.000			-12.199			-3.050
19300.000			-12.198			-3.050
19400.000			-12.197			-3.049
19501.000			-12.195			-3.049
19601.000			-12.193			-3.048
19701.000			-12.193			-3.048
19801.000			-12.193			-3.048
19900.000			-12.192			-3.048
20000.000			-12.191			-3.048
20101.000			-12.191			-3.048
20200.000			-12.189			-3.047
20300.000			-12.189			-3.047
20402.000			-12.188			-3.047
20501.000			-12.186			-3.047
20600.000			-12.184			-3.046
20701.000			-12.184			-3.046
20800.000			-12.184			-3.046
20900.000			-12.181			-3.045
21001.000			-12.182			-3.045
21101.000			-12.181			-3.045
21201.000			-12.179			-3.045
21301.000			-12.178			-3.044
21400.000			-12.179			-3.045
21500.000			-12.178			-3.045
21600.000			-12.176			-3.044
21700.000			-12.176			-3.044
21801.000			-12.175			-3.044
21901.000			-12.174			-3.044
22001.000			-12.173			-3.043
22101.000			-12.172			-3.043
22200.000			-12.171			-3.043
22300.000			-12.170			-3.043
22401.000			-12.169			-3.042
22500.000			-12.168			-3.042
22600.000			-12.168			-3.042
22702.000			-12.167			-3.042
22801.000			-12.166			-3.042
22900.000			-12.166			-3.041
23001.000			-12.165			-3.041
23100.000			-12.163			-3.041
23200.000			-12.163			-3.041
23301.000			-12.162			-3.040
23400.000			-12.161			-3.040
23501.000			-12.160			-3.040
23602.000			-12.160			-3.040
23700.000			-12.159			-3.040
23800.000			-12.159			-3.040
23901.000			-12.158			-3.039
24000.000			-12.156			-3.039
24100.000			-12.154			-3.039
24201.000			-12.154			-3.038
24301.000			-12.154			-3.039
24401.000			-12.154			-3.038
24501.000			-12.151			-3.038
24600.000			-12.150			-3.037
24700.000			-12.151			-3.038
24800.000			-12.151			-3.038
24900.000			-12.150			-3.038
25001.000			-12.150			-3.037
25101.000			-12.150			-3.037
25201.000			-12.148			-3.037
25301.000			-12.146			-3.037
25400.000			-12.146			-3.037
25500.000			-12.145			-3.036
25601.000			-12.145			-3.036
25700.000			-12.144			-3.036
25800.000			-12.141			-3.035
25902.000			-12.141			-3.035
26001.000			-12.141			-3.035
26100.000			-12.140			-3.035
26201.000			-12.140			-3.035
26300.000			-12.139			-3.035
26400.000			-12.138			-3.034
26501.000			-12.137			-3.034
26601.000			-12.137			-3.034
26701.000			-12.135			-3.034
26801.000			-12.135			-3.034
26900.000			-12.135			-3.034
27000.000			-12.135			-3.034
27101.000			-12.133			-3.033
27200.000			-12.131			-3.033
27300.000			-12.131			-3.033
27402.000			-12.131			-3.033
27501.000			-12.130			-3.032
27600.000			-12.129			-3.032
27701.000			-12.130			-3.032
27800.000			-12.129			-3.032
27900.000			-12.125			-3.031
28000.000			-12.126			-3.031
28100.000			-12.126			-3.032
28202.000			-12.126			-3.032
28301.000			-12.125			-3.031
28400.000			-12.124			-3.031
28501.000			-12.124			-3.031
28600.000			-12.123			-3.031
28700.000			-12.122			-3.031
28801.000			-12.122			-3.030
28900.000			-12.121			-3.030
29001.000			-12.120			-3.030
29102.000			-12.119			-3.030
29200.000			-12.119			-3.030
29300.000			-12.119			-3.030
29401.000			-12.117			-3.029
29500.000			-12.116			-3.029
29600.000			-12.116			-3.029
29702.000			-12.116			-3.029
29801.000			-12.115			-3.029
29901.000			-12.114			-3.029
30001.000			-12.114			-3.029
30100.000			-12.112			-3.028
30200.000			-12.111			-3.028
30301.000			-12.111			-3.028
30400.000			-12.110			-3.028
30501.000			-12.109			-3.027
30602.000			-12.109			-3.027
30700.000			-12.109			-3.027
30800.000			-12.108			-3.027
30901.000			-12.108			-3.027
31000.000			-12.106			-3.027
31100.000			-12.105			-3.026
31202.000			-12.105			-3.026
31301.000			-12.106			-3.027
31401.000			-12.106			-3.026
31500.000			-12.104			-3.026
31600.000			-12.104			-3.026
31701.000			-12.103			-3.026
31800.000			-12.103			-3.026
31900.000			-12.102			-3.026
32002.000			-12.101			-3.025
32101.000			-12.101			-3.025
32200.000			-12.099			-3.025
32301.000			-12.099			-3.025
32400.000			-12.099			-3.025
32500.000			-12.099			-3.025
32601.000			-12.098			-3.024
32700.000			-12.096			-3.024
32801.000			-12.096			-3.024
32902.000			-12.097			-3.024
33000.000			-12.095			-3.024
33100.000			-12.094			-3.024
33201.000			-12.094			-3.024
33300.000			-12.093			-3.023
33400.000			-12.092			-3.023
33502.000			-12.092			-3.023
33601.000			-12.091			-3.023
33700.000			-12.091			-3.023
33801.000			-12.091			-3.023
33900.000			-12.089			-3.022
34000.000			-12.089			-3.022
34101.000			-12.088			-3.022
34200.000			-12.089			-3.022
34302.000			-12.088			-3.022
34401.000			-12.088			-3.022
34501.000			-12.088			-3.022
34601.000			-12.084			-3.021
34700.000			-12.085			-3.021
34800.000			-12.084			-3.021
34901.000			-12.085			-3.021
35000.000			-12.084			-3.021
35101.000			-12.083			-3.021
35202.000			-12.083			-3.021
35300.000			-12.083			-3.021
35400.000			-12.081			-3.020
35501.000			-12.080			-3.020
35600.000			-12.080			-3.020
35700.000			-12.080			-3.020
35801.000			-12.080			-3.020
35901.000			-12.080			-3.020
36001.000			-12.079			-3.020
36101.000			-12.077			-3.019
36200.000			-12.076			-3.019
36300.000			-12.075			-3.019
36401.000			-12.075			-3.019
36500.000			-12.074			-3.019
36600.000			-12.074			-3.018
36702.000			-12.073			-3.018
36801.000			-12.074			-3.018
36900.000			-12.074			-3.018
37001.000			-12.073			-3.018
37100.000			-12.073			-3.018
37200.000			-12.072			-3.018
37301.000			-12.071			-3.018
37400.000			-12.070			-3.018
37502.000			-12.070			-3.018
37601.000			-12.071			-3.018
37700.000			-12.070			-3.018
37801.000			-12.069			-3.017
37900.000			-12.067			-3.017
38000.000			-12.067			-3.017
38101.000			-12.067			-3.017
38200.000			-12.067			-3.017
38301.000			-12.066			-3.016
38402.000			-12.065			-3.016
38500.000			-12.064			-3.016
38600.000			-12.065			-3.016
38701.000			-12.064			-3.016
38800.000			-12.064			-3.016
38900.000			-12.064			-3.016
39001.000			-12.063			-3.016
39101.000			-12.062			-3.016
39201.000			-12.062			-3.015
39301.000			-12.061			-3.015
39400.000			-12.061			-3.015
39500.000			-12.060			-3.015
39601.000			-12.059			-3.015
39700.000			-12.059			-3.015
39800.000			-12.059			-3.015
39902.000			-12.058			-3.015
40001.000			-12.058			-3.014
40100.000			-12.057			-3.014
40201.000			-12.056			-3.014
40300.000			-12.056			-3.014
40400.000			-12.057			-3.014
40501.000			-12.056			-3.014
40601.000			-12.055			-3.014
40702.000			-12.054			-3.014
40801.000			-12.053			-3.013
40900.000			-12.052			-3.013
41001.000			-12.053			-3.013
41100.000			-12.052			-3.013
41200.000			-12.051			-3.013
41301.000			-12.051			-3.013
41401.000			-12.051			-3.013
41501.000			-12.051			-3.013
41601.000			-12.050			-3.012
41700.000			-12.050			-3.012
41800.000			-12.049			-3.012
41901.000			-12.049			-3.012
42000.000			-12.047			-3.012
42100.000			-12.048			-3.012
42202.000			-12.047			-3.012
42301.000			-12.046			-3.012
42400.000			-12.046			-3.012
42501.000			-12.046			-3.012
42600.000			-12.045			-3.011
42700.000			-12.045			-3.011
42801.000			-12.044			-3.011
42901.000			-12.043			-3.011
43001.000			-12.044			-3.011
43101.000			-12.044			-3.011
43200.000			-12.043			-3.011
43300.000			-12.042			-3.011
43401.000			-12.041			-3.010
43500.000			-12.041			-3.010
43600.000			-12.041			-3.010
43702.000			-12.040			-3.010
43801.000			-12.040			-3.010
43900.000			-12.040			-3.010
44000.000			-12.039			-3.010
44100.000			-12.039			-3.010
44201.000			-12.038			-3.010
44300.000			-12.039			-3.010
44400.000			-12.037			-3.009
44502.000			-12.037			-3.009
44601.000			-12.037			-3.009
44700.000			-12.036			-3.009
44801.000			-12.036			-3.009
44900.000			-12.034			-3.009
45000.000			-12.034			-3.008
45101.000			-12.034			-3.008
45201.000			-12.035			-3.009
45301.000			-12.033			-3.008
45401.000			-12.032			-3.008
45500.000			-12.033			-3.008
45600.000			-12.031			-3.008
45701.000			-12.031			-3.008
45800.000			-12.030			-3.007
45900.000			-12.030			-3.008
46002.000			-12.031			-3.008
46101.000			-12.031			-3.008
46200.000			-12.030			-3.007
46301.000			-12.028			-3.007
46400.000			-12.028			-3.007
46500.000			-12.028			-3.007
46601.000			-12.028			-3.007
46700.000			-12.027			-3.007
46801.000			-12.026			-3.007
46902.000			-12.026			-3.007
47000.000			-12.026			-3.006
47100.000			-12.026			-3.007
47200.000			-12.025			-3.006
47300.000			-12.024			-3.006
47401.000			-12.023			-3.006
47500.000			-12.023			-3.006
47601.000			-12.023			-3.006
47702.000			-12.023			-3.006
47800.000			-12.023			-3.006
47900.000			-12.021			-3.005
48001.000			-12.021			-3.005
48100.000			-12.022			-3.005
48200.000			-12.021			-3.005
48302.000			-12.020			-3.005
48401.000			-12.019			-3.005
48500.000			-12.020			-3.005
48601.000			-12.019			-3.005
48700.000			-12.019			-3.005
48800.000			-12.018			-3.005
48901.000			-12.019			-3.005
49000.000			-12.018			-3.005
49101.000			-12.018			-3.004
49202.000			-12.017			-3.004
49300.000			-12.017			-3.004
49400.000			-12.016			-3.004
49501.000			-12.016			-3.004
49600.000			-12.015			-3.004
49700.000			-12.014			-3.004
49801.000			-12.014			-3.003
49901.000			-12.014			-3.003
50001.000			-12.013			-3.003
50101.000			-12.013			-3.003
50200.000			-12.012			-3.003
50300.000			-12.011			-3.003
50400.000			-12.012			-3.003
50500.000			-12.011			-3.003
50602.000			-12.012			-3.003
50701.000			-12.011			-3.003
50801.000			-12.010			-3.003
50901.000			-12.011			-3.003
51000.000			-12.010			-3.003
51100.000			-12.009			-3.002
51201.000			-12.009			-3.002
51300.000			-12.009			-3.002
51401.000			-12.008			-3.002
51502.000			-12.008			-3.002
51600.000			-12.007			-3.002
51700.000			-12.007			-3.002
51801.000			-12.007			-3.002
51900.000			-12.007			-3.002
52000.000			-12.005			-3.001
52101.000			-12.005			-3.001
52201.000			-12.006			-3.001
52301.000			-12.005			-3.001
52401.000			-12.004			-3.001
52500.000			-12.004			-3.001
52600.000			-12.004			-3.001
52701.000			-12.004			-3.001
52800.000			-12.004			-3.001
52901.000			-12.003			-3.001
53002.000			-12.001			-3.000
53100.000			-12.002			-3.000
53200.000			-12.001			-3.000
53301.000			-12.000			-3.000
53400.000			-12.000			-3.000
53500.000			-12.000			-3.000
53602.000			-12.001			-3.000
53701.000			-11.999			-3.000
53802.000			-11.999			-3.000
53900.000			-11.999			-3.000
54000.000			-11.998			-3.000
54101.000			-11.997			-2.999
54200.000			-11.998			-2.999
54300.000			-11.998			-2.999
54401.000			-11.997			-2.999
54501.000			-11.996			-2.999
54601.000			-11.996			-2.999
54701.000			-11.995			-2.999
54800.000			-11.995			-2.999
54900.000			-11.995			-2.999
55001.000			-11.994			-2.999
55100.000			-11.994			-2.998
55200.000			-11.994			-2.998
55302.000			-11.993			-2.998
55401.000			-11.993			-2.998
55500.000			-11.994			-2.998
55601.000			-11.992			-2.998
55700.000			-11.992			-2.998
55800.000			-11.992			-2.998
55901.000			-11.991			-2.998
56000.000			-11.991			-2.998
56100.000			-11.991			-2.998
56202.000			-11.991			-2.998
56301.000			-11.990			-2.998
56400.000			-11.990			-2.997
56501.000			-11.988			-2.997
56600.000			-11.988			-2.997
56700.000			-11.989			-2.997
56800.000			-11.989			-2.997
56900.000			-11.988			-2.997
57002.000			-11.987			-2.997
57101.000			-11.987			-2.997
57200.000			-11.988			-2.997
57301.000			-11.987			-2.997
57400.000			-11.986			-2.996
57500.000			-11.985			-2.996
57601.000			-11.985			-2.996
57700.000			-11.985			-2.996
57801.000			-11.985			-2.996
57902.000			-11.986			-2.996
58001.000			-11.985			-2.996
58100.000			-11.984			-2.996
58201.000			-11.984			-2.996
58300.000			-11.984			-2.996
58400.000			-11.983			-2.996
58501.000			-11.982			-2.995
58600.000			-11.981			-2.995
58701.000			-11.982			-2.995
58802.000			-11.982			-2.996
58900.000			-11.980			-2.995
59000.000			-11.980			-2.995
59101.000			-11.981			-2.995
59200.000			-11.981			-2.995
59300.000			-11.980			-2.995
59401.000			-11.979			-2.995
59501.000			-11.978			-2.995
59601.000			-11.978			-2.995
59701.000			-11.979			-2.995
59800.000			-11.979			-2.995
59900.000			-11.978			-2.995
60000.000			-11.977			-2.994
60100.000			-11.978			-2.994
60201.000			-11.977			-2.994
60301.000			-11.976			-2.994
60401.000			-11.976			-2.994
60501.000			-11.976			-2.994
60600.000			-11.975			-2.994
60700.000			-11.974			-2.994
60801.000			-11.974			-2.993
60900.000			-11.974			-2.994
61000.000			-11.974			-2.993
61101.000			-11.974			-2.993
61201.000			-11.974			-2.994
61301.000			-11.974			-2.993
61401.000			-11.973			-2.993
61500.000			-11.973			-2.993
61600.000			-11.971			-2.993
61701.000			-11.971			-2.993
61800.000			-11.971			-2.993
61900.000			-11.971			-2.993
62002.000			-11.971			-2.993
62101.000			-11.971			-2.993
62200.000			-11.969			-2.992
62301.000			-11.970			-2.992
62400.000			-11.969			-2.992
62500.000			-11.968			-2.992
62601.000			-11.969			-2.992
62700.000			-11.969			-2.992
62801.000			-11.968			-2.992
62902.000			-11.966			-2.991
63000.000			-11.966			-2.991
63100.000			-11.966			-2.992
63200.000			-11.965			-2.991
63300.000			-11.966			-2.992
63401.000			-11.967			-2.992
63500.000			-11.966			-2.992
63601.000			-11.965			-2.991
63702.000			-11.964			-2.991
63800.000			-11.964			-2.991
63900.000			-11.964			-2.991
64001.000			-11.964			-2.991
64100.000			-11.965			-2.991
64200.000			-11.964			-2.991
64301.000			-11.962			-2.991
64401.000			-11.963			-2.991
64501.000			-11.963			-2.991
64601.000			-11.963			-2.991
64700.000			-11.962			-2.990
64800.000			-11.961			-2.990
64901.000			-11.962			-2.990
65000.000			-11.961			-2.990
65100.000			-11.960			-2.990
65202.000			-11.961			-2.990
65301.000			-11.960			-2.990
65400.000			-11.959			-2.990
65501.000			-11.959			-2.990
65600.000			-11.959			-2.990
65700.000			-11.959			-2.990
65801.000			-11.959			-2.990
65900.000			-11.959			-2.990
66001.000			-11.958			-2.990
66102.000			-11.958			-2.990
66200.000			-11.958			-2.990
66300.000			-11.958			-2.989
66400.000			-11.957			-2.989
66500.000			-11.956			-2.989
66601.000			-11.957			-2.989
66700.000			-11.956			-2.989
66800.000			-11.956			-2.989
66902.000			-11.956			-2.989
67001.000			-11.956			-2.989
67100.000			-11.955			-2.989
67201.000			-11.953			-2.988
67300.000			-11.953			-2.988
67400.000			-11.953			-2.988
67501.000			-11.952			-2.988
67600.000			-11.952			-2.988
67701.000			-11.952			-2.988
67802.000			-11.952			-2.988
67900.000			-11.953			-2.988
68000.000			-11.953			-2.988
68101.000			-11.952			-2.988
68200.000			-11.951			-2.988
68300.000			-11.949			-2.987
68401.000			-11.949			-2.987
68501.000			-11.950			-2.988
68601.000			-11.950			-2.988
68701.000			-11.949			-2.987
68800.000			-11.950			-2.987
68900.000			-11.950			-2.988
69001.000			-11.949			-2.987
69100.000			-11.948			-2.987
69200.000			-11.948			-2.987
69301.000			-11.948			-2.987
69401.000			-11.948			-2.987
69502.000			-11.948			-2.987
69600.000			-11.947			-2.987
69700.000			-11.947			-2.987
69801.000			-11.946			-2.987
69900.000			-11.946			-2.987
70000.000			-11.946			-2.986
70101.000			-11.946			-2.987
70201.000			-11.946			-2.986
70301.000			-11.945			-2.986
70401.000			-11.946			-2.986
70500.000			-11.944			-2.986
70600.000			-11.944			-2.986
70701.000			-11.944			-2.986
70800.000			-11.943			-2.986
70900.000			-11.944			-2.986
71002.000			-11.944			-2.986
71101.000			-11.943			-2.986
71200.000			-11.943			-2.986
71301.000			-11.943			-2.986
71400.000			-11.942			-2.986
71500.000			-11.942			-2.985
71601.000			-11.941			-2.985
71700.000			-11.941			-2.985
71801.000			-11.941			-2.985
71902.000			-11.940			-2.985
72000.000			-11.941			-2.985
72100.000			-11.941			-2.985
72201.000			-11.941			-2.985
72300.000			-11.939			-2.985
72400.000			-11.939			-2.985
72501.000			-11.939			-2.985
72601.000			-11.938			-2.985
72702.000			-11.939			-2.985
72800.000			-11.938			-2.985
72900.000			-11.938			-2.984
73001.000			-11.937			-2.984
73100.000			-11.938			-2.984
73200.000			-11.937			-2.984
73301.000			-11.935			-2.984
73401.000			-11.936			-2.984
73501.000			-11.936			-2.984
73601.000			-11.935			-2.984
73700.000			-11.935			-2.984
73800.000			-11.935			-2.984
73901.000			-11.934			-2.983
74000.000			-11.934			-2.983
74100.000			-11.934			-2.983
74201.000			-11.934			-2.984
74301.000			-11.934			-2.984
74401.000			-11.933			-2.983
74501.000			-11.932			-2.983
74600.000			-11.932			-2.983
74700.000			-11.932			-2.983
74801.000			-11.933			-2.983
74900.000			-11.933			-2.983
75000.000			-11.932			-2.983
75102.000			-11.932			-2.983
75201.000			-11.931			-2.983
75300.000			-11.931			-2.983
75401.000			-11.931			-2.983
75500.000			-11.930			-2.982
75600.000			-11.930			-2.983
75701.000			-11.931			-2.983
75800.000			-11.930			-2.983
75902.000			-11.930			-2.982
76001.000			-11.929			-2.982
76100.000			-11.929			-2.982
76201.000			-11.929			-2.982
76300.000			-11.928			-2.982
76400.000			-11.928			-2.982
76501.000			-11.929			-2.982
76600.000			-11.928			-2.982
76701.000			-11.927			-2.982
76802.000			-11.927			-2.982
76901.000			-11.927			-2.982
77000.000			-11.926			-2.981
77101.000			-11.927			-2.982
77200.000			-11.927			-2.982
77300.000			-11.925			-2.981
77401.000			-11.925			-2.981
77500.000			-11.925			-2.981
77601.000			-11.925			-2.981
77702.000			-11.925			-2.981
77800.000			-11.924			-2.981
77900.000			-11.924			-2.981
78001.000			-11.924			-2.981
78100.000			-11.924			-2.981
78200.000			-11.923			-2.981
78301.000			-11.923			-2.981
78401.000			-11.923			-2.981
78501.000			-11.922			-2.980
78601.000			-11.921			-2.980
78700.000			-11.922			-2.981
78800.000			-11.923			-2.981
78901.000			-11.922			-2.981
79000.000			-11.921			-2.980
79100.000			-11.921			-2.980
79202.000			-11.921			-2.980
79301.000			-11.920			-2.980
79401.000			-11.920			-2.980
79500.000			-11.919			-2.980
79600.000			-11.919			-2.980
79701.000			-11.919			-2.980
79800.000			-11.918			-2.980
79900.000			-11.919			-2.980
80002.000			-11.919			-2.980
80101.000			-11.919			-2.980
80200.000			-11.919			-2.980
80301.000			-11.918			-2.979
80400.000			-11.918			-2.980
80500.000			-11.918			-2.980
80601.000			-11.918			-2.980
80700.000			-11.917			-2.979
80801.000			-11.916			-2.979
80902.000			-11.917			-2.979
81000.000			-11.916			-2.979
81100.000			-11.916			-2.979
81201.000			-11.915			-2.979
81300.000			-11.915			-2.979
81400.000			-11.916			-2.979
81501.000			-11.915			-2.979
81601.000			-11.914			-2.979
81701.000			-11.914			-2.978
81801.000			-11.914			-2.979
81900.000			-11.913			-2.978
82000.000			-11.913			-2.978
82101.000			-11.913			-2.978
82200.000			-11.913			-2.978
82300.000			-11.914			-2.979
82402.000			-11.913			-2.978
82501.000			-11.913			-2.978
82601.000			-11.913			-2.978
82700.000			-11.912			-2.978
82800.000			-11.912			-2.978
82901.000			-11.912			-2.978
83000.000			-11.910			-2.978
83100.000			-11.910			-2.978
83202.000			-11.909			-2.977
83301.000			-11.910			-2.978
83400.000			-11.910			-2.978
83501.000			-11.910			-2.978
83600.000			-11.911			-2.978
83700.000			-11.910			-2.977
83801.000			-11.909			-2.977
83900.000			-11.909			-2.977
84000.000			-11.909			-2.977
84102.000			-11.909			-2.977
84201.000			-11.909			-2.977
84300.000			-11.907			-2.977
84401.000			-11.907			-2.977
84500.000			-11.907			-2.977
84600.000			-11.908			-2.977
84701.000			-11.907			-2.977
84800.000			-11.907			-2.977
84901.000			-11.907			-2.977
85002.000			-11.907			-2.977
85100.000			-11.905			-2.976
85200.000			-11.905			-2.976
85301.000			-11.906			-2.976
85400.000			-11.905			-2.976
85500.000			-11.905			-2.976
85600.000			-11.906			-2.977
85701.000			-11.905			-2.976
85802.000			-11.904			-2.976
85900.000			-11.904			-2.976
86000.000			-11.903			-2.976
86101.000			-11.903			-2.976
86200.000			-11.905			-2.976
86300.000			-11.904			-2.976
86401.000			-11.903			-2.976
86501.000			-11.903			-2.976
86601.000			-11.903			-2.976
86701.000			-11.902			-2.976
86800.000			-11.902			-2.975
86900.000			-11.902			-2.976
87001.000			-11.902			-2.976
87100.000			-11.901			-2.975
87200.000			-11.901			-2.975
87302.000			-11.901			-2.975
87401.000			-11.901			-2.975
87500.000			-11.901			-2.975
87601.000			-11.900			-2.975
87700.000			-11.900			-2.975
87800.000			-11.900			-2.975
87901.000			-11.900			-2.975
88000.000			-11.898			-2.975
88101.000			-11.898			-2.974
88202.000			-11.898			-2.974
88301.000			-11.898			-2.974
88400.000			-11.897			-2.974
88501.000			-11.897			-2.974
88600.000			-11.897			-2.974
88700.000			-11.897			-2.974
88800.000			-11.897			-2.974
88900.000			-11.897			-2.974
89002.000			-11.896			-2.974
89101.000			-11.896			-2.974
89200.000			-11.896			-2.974
89301.000			-11.896			-2.974
89400.000			-11.896			-2.974
89500.000			-11.896			-2.974
89601.000			-11.894			-2.974
89700.000			-11.896			-2.974
89800.000			-11.895			-2.974
89902.000			-11.894			-2.974
90001.000			-11.894			-2.974
90100.000			-11.893			-2.973
90201.000			-11.894			-2.973
90300.000			-11.894			-2.973
90400.000			-11.892			-2.973
90501.000			-11.893			-2.973
90600.000			-11.894			-2.973
90701.000			-11.893			-2.973
90802.000			-11.893			-2.973
90900.000			-11.893			-2.973
91000.000			-11.893			-2.973
91101.000			-11.892			-2.973
91200.000			-11.892			-2.973
91300.000			-11.891			-2.973
91401.000			-11.892			-2.973
91501.000			-11.892			-2.973
91601.000			-11.891			-2.973
91702.000			-11.891			-2.973
91800.000			-11.891			-2.973
91900.000			-11.890			-2.972
92000.000			-11.890			-2.973
92100.000			-11.890			-2.973
92201.000			-11.890			-2.972
92300.000			-11.889			-2.972
92401.000			-11.889			-2.972
92502.000			-11.889			-2.972
92600.000			-11.888			-2.972
92700.000			-11.889			-2.972
92801.000			-11.887			-2.972
92900.000			-11.886			-2.972
93000.000			-11.886			-2.972
93101.000			-11.887			-2.972
93201.000			-11.888			-2.972
93301.000			-11.886			-2.972
93401.000			-11.886			-2.972
93500.000			-11.886			-2.971
93600.000			-11.886			-2.972
93701.000			-11.885			-2.971
93800.000			-11.886			-2.971
93900.000			-11.886			-2.972
94001.000			-11.885			-2.971
94101.000			-11.884			-2.971
94201.000			-11.885			-2.971
94301.000			-11.884			-2.971
94400.000			-11.884			-2.971
94500.000			-11.885			-2.971
94601.000			-11.885			-2.971
94700.000			-11.884			-2.971
94800.000			-11.884			-2.971
94902.000			-11.884			-2.971
95001.000			-11.882			-2.971
95100.000			-11.882			-2.971
95200.000			-11.882			-2.971
95300.000			-11.882			-2.970
95401.000			-11.881			-2.970
95500.000			-11.880			-2.970
95600.000			-11.881			-2.970
95702.000			-11.882			-2.971
95801.000			-11.881			-2.970
95901.000			-11.881			-2.970
96001.000			-11.881			-2.970
96100.000			-11.879			-2.970
96200.000			-11.879			-2.970
96301.000			-11.879			-2.970
96400.000			-11.879			-2.970
96500.000			-11.880			-2.970
96602.000			-11.880			-2.970
96701.000			-11.879			-2.970
96800.000			-11.880			-2.970
96901.000			-11.878			-2.970
97000.000			-11.878			-2.969
97100.000			-11.878			-2.969
97201.000			-11.877			-2.969
97300.000			-11.877			-2.969
97401.000			-11.878			-2.969
97502.000			-11.878			-2.970
97601.000			-11.878			-2.969
97700.000			-11.877			-2.969
97801.000			-11.877			-2.969
97900.000			-11.877			-2.969
98000.000			-11.877			-2.969
98101.000			-11.876			-2.969
98200.000			-11.876			-2.969
98302.000			-11.876			-2.969
98401.000			-11.876			-2.969
98500.000			-11.876			-2.969
98601.000			-11.875			-2.969
98700.000			-11.874			-2.969
98800.000			-11.875			-2.969
98901.000			-11.875			-2.969
99000.000			-11.874			-2.968
99100.000			-11.873			-2.968
99202.000			-11.873			-2.968
99301.000			-11.873			-2.968
99400.000			-11.873			-2.968
99501.000			-11.874			-2.968
99600.000			-11.873			-2.968
99700.000			-11.873			-2.968
99801.000			-11.873			-2.968
99900.000			-11.872			-2.968
100001.000			-11.872			-2.968
100102.000			-11.872			-2.968
100200.000			-11.871			-2.968
100300.000			-11.871			-2.968
100401.000			-11.870			-2.968
100500.000			-11.869			-2.967
100600.000			-11.872			-2.968
100701.000			-11.871			-2.968
100801.000			-11.871			-2.968
100901.000			-11.871			-2.968
101002.000			-11.871			-2.968
101100.000			-11.869			-2.967
101200.000			-11.869			-2.967
101301.000			-11.869			-2.967
101400.000			-11.868			-2.967
101500.000			-11.869			-2.967
101600.000			-11.870			-2.967
101701.000			-11.869			-2.967
101802.000			-11.868			-2.967
101900.000			-11.867			-2.967
102000.000			-11.869			-2.967
102101.000			-11.868			-2.967
102200.000			-11.867			-2.967
102300.000			-11.866			-2.966
102401.000			-11.866			-2.967
102501.000			-11.866			-2.967
102601.000			-11.866			-2.966
102702.000			-11.866			-2.966
102800.000			-11.866			-2.967
102900.000			-11.866			-2.966
103001.000			-11.866			-2.966
103100.000			-11.865			-2.966
103200.000			-11.866			-2.966
103301.000			-11.866			-2.966
103401.000			-11.866			-2.966
103501.000			-11.865			-2.966
103601.000			-11.864			-2.966
103700.000			-11.865			-2.966
103800.000			-11.864			-2.966
103901.000			-11.864			-2.966
104000.000			-11.863			-2.966
104100.000			-11.863			-2.966
104202.000			-11.863			-2.966
104301.000			-11.863			-2.966
104401.000			-11.864			-2.966
104501.000			-11.864			-2.966
104600.000			-11.864			-2.966
104700.000			-11.862			-2.966
104800.000			-11.862			-2.965
104900.000			-11.862			-2.966
105001.000			-11.861			-2.965
105101.000			-11.861			-2.965
105201.000			-11.862			-2.965
105301.000			-11.861			-2.965
105400.000			-11.860			-2.965
105500.000			-11.860			-2.965
105601.000			-11.861			-2.965
105700.000			-11.860			-2.965
105800.000			-11.860			-2.965
105902.000			-11.860			-2.965
106001.000			-11.859			-2.965
106100.000			-11.858			-2.965
106201.000			-11.859			-2.965
106300.000			-11.859			-2.965
106400.000			-11.858			-2.965
106501.000			-11.858			-2.965
106600.000			-11.858			-2.965
106700.000			-11.858			-2.964
106802.000			-11.858			-2.964
106901.000			-11.857			-2.964
107000.000			-11.857			-2.964
107101.000			-11.858			-2.964
107200.000			-11.857			-2.964
107300.000			-11.858			-2.964
107401.000			-11.858			-2.965
107500.000			-11.858			-2.964
107600.000			-11.858			-2.964
107702.000			-11.857			-2.964
107801.000			-11.856			-2.964
107900.000			-11.856			-2.964
108000.000			-11.856			-2.964
108100.000			-11.856			-2.964
108201.000			-11.855			-2.964
108300.000			-11.855			-2.964
108400.000			-11.855			-2.964
108502.000			-11.855			-2.964
108601.000			-11.855			-2.964
108701.000			-11.854			-2.964
108801.000			-11.855			-2.964
108900.000			-11.855			-2.964
109000.000			-11.854			-2.963
109101.000			-11.854			-2.964
109200.000			-11.853			-2.963
109300.000			-11.853			-2.963
109402.000			-11.852			-2.963
109501.000			-11.852			-2.963
109600.000			-11.852			-2.963
109701.000			-11.853			-2.963
109800.000			-11.852			-2.963
109900.000			-11.852			-2.963
110001.000			-11.852			-2.963
110100.000			-11.852			-2.963
110201.000			-11.851			-2.963
110302.000			-11.851			-2.963
110401.000			-11.851			-2.963
110500.000			-11.850			-2.963
110601.000			-11.850			-2.963
110700.000			-11.850			-2.962
110800.000			-11.850			-2.963
110901.000			-11.850			-2.963
111000.000			-11.850			-2.962
111102.000			-11.849			-2.962
111201.000			-11.849			-2.962
111300.000			-11.849			-2.962
111401.000			-11.850			-2.962
111500.000			-11.849			-2.962
111600.000			-11.849			-2.962
111701.000			-11.849			-2.962
111800.000			-11.849			-2.962
111901.000			-11.848			-2.962
112002.000			-11.847			-2.962
112100.000			-11.847			-2.962
112200.000			-11.847			-2.962
112301.000			-11.847			-2.962
112400.000			-11.847			-2.962
112500.000			-11.847			-2.962
112601.000			-11.847			-2.962
112701.000			-11.846			-2.962
112801.000			-11.846			-2.961
112902.000			-11.847			-2.962
113000.000			-11.848			-2.962
113100.000			-11.848			-2.962
113201.000			-11.847			-2.962
113300.000			-11.846			-2.961
113400.000			-11.845			-2.961
113501.000			-11.846			-2.961
113601.000			-11.844			-2.961
113701.000			-11.845			-2.961
113801.000			-11.845			-2.961
113900.000			-11.845			-2.961
114000.000			-11.844			-2.961
114101.000			-11.845			-2.961
114200.000			-11.845			-2.961
114300.000			-11.844			-2.961
114402.000			-11.843			-2.961
114501.000			-11.843			-2.961
114601.000			-11.842			-2.961
114700.000			-11.842			-2.961
114800.000			-11.843			-2.961
114901.000			-11.843			-2.961
115000.000			-11.842			-2.961
115100.000			-11.842			-2.961
115201.000			-11.842			-2.961
115301.000			-11.843			-2.961
115401.000			-11.843			-2.961
115501.000			-11.841			-2.960
115600.000			-11.840			-2.960
115700.000			-11.841			-2.960
115801.000			-11.841			-2.960
115900.000			-11.841			-2.960
116000.000			-11.841			-2.960
116102.000			-11.841			-2.960
116201.000			-11.840			-2.960
116300.000			-11.840			-2.960
116401.000			-11.840			-2.960
116500.000			-11.840			-2.960
116600.000			-11.840			-2.960
116701.000			-11.840			-2.960
116800.000			-11.839			-2.960
116900.000			-11.838			-2.960
117002.000			-11.839			-2.960
117101.000			-11.839			-2.960
117200.000			-11.838			-2.960
117301.000			-11.838			-2.960
117400.000			-11.839			-2.960
117500.000			-11.838			-2.960
117600.000			-11.837			-2.959
117700.000			-11.838			-2.959
117802.000			-11.837			-2.959
117901.000			-11.837			-2.959
118001.000			-11.837			-2.959
118101.000			-11.837			-2.959
118200.000			-11.837			-2.959
118300.000			-11.836			-2.959
118401.000			-11.837			-2.959
118500.000			-11.837			-2.959
118600.000			-11.836			-2.959
118702.000			-11.835			-2.959
118801.000			-11.836			-2.959
118900.000			-11.836			-2.959
119001.000			-11.835			-2.959
119100.000			-11.835			-2.959
119200.000			-11.834			-2.958
119301.000			-11.835			-2.959
119400.000			-11.835			-2.959
119501.000			-11.834			-2.958
119602.000			-11.835			-2.959
119701.000			-11.834			-2.959
119800.000			-11.834			-2.959
119901.000			-11.835			-2.959
120000.000			-11.835			-2.959
120100.000			-11.833			-2.958
120201.000			-11.833			-2.958
120300.000			-11.834			-2.959
120401.000			-11.834			-2.958
120502.000			-11.833			-2.958
120600.000			-11.832			-2.958
120700.000			-11.833			-2.958
120800.000			-11.833			-2.958
120900.000			-11.832			-2.958
121001.000			-11.833			-2.958
121100.000			-11.832			-2.958
121201.000			-11.831			-2.958
121302.000			-11.832			-2.958
121400.000			-11.830			-2.957
121500.000			-11.830			-2.957
121601.000			-11.832			-2.958
121700.000			-11.831			-2.958
121800.000			-11.829			-2.957
121901.000			-11.829			-2.957
122001.000			-11.830			-2.958
122101.000			-11.830			-2.957
122202.000			-11.830			-2.957
122300.000			-11.831			-2.958
122400.000			-11.830			-2.958
122501.000			-11.829			-2.957
122600.000			-11.829			-2.957
122700.000			-11.828			-2.957
122801.000			-11.829			-2.957
122901.000			-11.829			-2.957
123001.000			-11.829			-2.957
123101.000			-11.828			-2.957
123200.000			-11.829			-2.957
123300.000			-11.829			-2.957
123401.000			-11.827			-2.957
123500.000			-11.827			-2.957
123600.000			-11.827			-2.957
123702.000			-11.827			-2.957
123801.000			-11.826			-2.957
123902.000			-11.827			-2.957
124000.000			-11.828			-2.957
124100.000			-11.827			-2.957
124201.000			-11.827			-2.957
124300.000			-11.827			-2.957
124400.000			-11.826			-2.957
124501.000			-11.826			-2.957
124601.000			-11.826			-2.957
124701.000			-11.827			-2.957
124801.000			-11.827			-2.957
124900.000			-11.826			-2.957
125000.000			-11.825			-2.956
125101.000			-11.825			-2.956
125200.000			-11.825			-2.956
125300.000			-11.825			-2.956
125402.000			-11.825			-2.956
125501.000			-11.825			-2.956
125600.000			-11.824			-2.956
125701.000			-11.824			-2.956
125800.000			-11.823			-2.956
125900.000			-11.823			-2.956
126001.000			-11.823			-2.956
126100.000			-11.825			-2.956
126200.000			-11.824			-2.956
126302.000			-11.824			-2.956
126401.000			-11.823			-2.956
126500.000			-11.824			-2.956
126601.000			-11.822			-2.955
126700.000			-11.821			-2.955
126800.000			-11.821			-2.955
126901.000			-11.821			-2.955
127000.000			-11.822			-2.956
127102.000			-11.822			-2.955
127201.000			-11.821			-2.955
127300.000			-11.821			-2.955
127401.000			-11.821			-2.955
127500.000			-11.821			-2.955
127600.000			-11.820			-2.955
127701.000			-11.820			-2.955
127800.000			-11.821			-2.955
127901.000			-11.820			-2.955
128002.000			-11.820			-2.955
128101.000			-11.821			-2.955
128200.000			-11.821			-2.955
128301.000			-11.820			-2.955
128400.000			-11.819			-2.955
128500.000			-11.819			-2.955
128601.000			-11.820			-2.955
128700.000			-11.820			-2.955
128801.000			-11.819			-2.955
128902.000			-11.818			-2.954
129000.000			-11.817			-2.954
129100.000			-11.818			-2.954
129201.000			-11.818			-2.955
129300.000			-11.818			-2.955
129400.000			-11.818			-2.955
129501.000			-11.818			-2.954
129601.000			-11.817			-2.954
129701.000			-11.817			-2.954
129802.000			-11.817			-2.954
129900.000			-11.816			-2.954
130000.000			-11.817			-2.954
130101.000			-11.817			-2.954
130200.000			-11.817			-2.954
130300.000			-11.816			-2.954
130400.000			-11.815			-2.954
130500.000			-11.815			-2.954
130602.000			-11.815			-2.954
130701.000			-11.816			-2.954
130800.000			-11.816			-2.954
130901.000			-11.816			-2.954
131000.000			-11.815			-2.954
131100.000			-11.814			-2.954
131201.000			-11.814			-2.954
131300.000			-11.815			-2.954
131401.000			-11.816			-2.954
131502.000			-11.814			-2.954
131600.000			-11.814			-2.954
131700.000			-11.814			-2.953
131801.000			-11.814			-2.954
131900.000			-11.814			-2.953
132000.000			-11.812			-2.953
132101.000			-11.812			-2.953
132200.000			-11.813			-2.953
132301.000			-11.813			-2.953
132402.000			-11.814			-2.953
132500.000			-11.813			-2.953
132600.000			-11.813			-2.953
132701.000			-11.812			-2.953
132800.000			-11.812			-2.953
132900.000			-11.813			-2.953
133001.000			-11.813			-2.953
133100.000			-11.812			-2.953
133201.000			-11.811			-2.953
133302.000			-11.810			-2.953
133400.000			-11.811			-2.953
133500.000			-11.811			-2.953
133600.000			-11.811			-2.953
133700.000			-11.810			-2.953
133801.000			-11.810			-2.953
133900.000			-11.811			-2.953
134000.000			-11.810			-2.953
134102.000			-11.810			-2.953
134201.000			-11.810			-2.953
134300.000			-11.809			-2.952
134401.000			-11.809			-2.952
134500.000			-11.809			-2.952
134600.000			-11.810			-2.952
134701.000			-11.810			-2.952
134800.000			-11.809			-2.952
134900.000			-11.809			-2.952
135002.000			-11.810			-2.952
135101.000			-11.809			-2.952
135200.000			-11.808			-2.952
135301.000			-11.810			-2.952
135400.000			-11.809			-2.952
135500.000			-11.808			-2.952
135601.000			-11.808			-2.952
135700.000			-11.808			-2.952
135800.000			-11.807			-2.952
135902.000			-11.807			-2.952
136001.000			-11.806			-2.952
136100.000			-11.806			-2.952
136201.000			-11.807			-2.952
136300.000			-11.807			-2.952
136400.000			-11.807			-2.952
136501.000			-11.807			-2.952
136600.000			-11.807			-2.952
136700.000			-11.806			-2.952
136802.000			-11.806			-2.952
136901.000			-11.807			-2.952
137002.000			-11.806			-2.952
137100.000			-11.806			-2.952
137200.000			-11.805			-2.951
137301.000			-11.805			-2.951
137400.000			-11.805			-2.951
137500.000			-11.804			-2.951
137601.000			-11.805			-2.951
137701.000			-11.806			-2.951
137801.000			-11.805			-2.951
137902.000			-11.804			-2.951
138000.000			-11.805			-2.951
138100.000			-11.806			-2.951
138201.000			-11.804			-2.951
138300.000			-11.805			-2.951
138400.000			-11.805			-2.951
138501.000			-11.804			-2.951
138600.000			-11.804			-2.951
138701.000			-11.804			-2.951
138802.000			-11.804			-2.951
138900.000			-11.803			-2.951
139000.000			-11.804			-2.951
139101.000			-11.803			-2.951
139200.000			-11.803			-2.951
139300.000			-11.803			-2.951
139401.000			-11.803			-2.951
139500.000			-11.803			-2.951
139601.000			-11.802			-2.951
139702.000			-11.802			-2.950
139800.000			-11.802			-2.950
139900.000			-11.801			-2.950
140000.000			-11.801			-2.950
140100.000			-11.801			-2.950
140201.000			-11.802			-2.950
140300.000			-11.801			-2.950
140400.000			-11.799			-2.950
140502.000			-11.799			-2.950
140601.000			-11.800			-2.950
140700.000			-11.801			-2.950
140801.000			-11.800			-2.950
140900.000			-11.800			-2.950
141000.000			-11.799			-2.950
141101.000			-11.799			-2.950
141200.000			-11.799			-2.950
141300.000			-11.799			-2.950
141402.000			-11.799			-2.950
141501.000			-11.798			-2.950
141601.000			-11.798			-2.949
141701.000			-11.798			-2.950
141800.000			-11.799			-2.950
141900.000			-11.798			-2.950
142001.000			-11.798			-2.950
142100.000			-11.798			-2.949
142200.000			-11.798			-2.950
142302.000			-11.798			-2.950
142401.000			-11.798			-2.950
142501.000			-11.798			-2.950
142601.000			-11.798			-2.950
142700.000			-11.798			-2.949
142800.000			-11.797			-2.949
142901.000			-11.796			-2.949
143000.000			-11.796			-2.949
143100.000			-11.797			-2.949
143200.000			-11.797			-2.949
143301.000			-11.796			-2.949
143402.000			-11.796			-2.949
143501.000			-11.795			-2.949
143600.000			-11.796			-2.949
143701.000			-11.796			-2.949
143800.000			-11.797			-2.949
143900.000			-11.796			-2.949
144001.000			-11.795			-2.949
144100.000			-11.795			-2.949
144200.000			-11.795			-2.949
144302.000			-11.796			-2.949
144401.000			-11.795			-2.949
144500.000			-11.794			-2.949
144601.000			-11.793			-2.948
144700.000			-11.794			-2.949
144800.000			-11.795			-2.949
144901.000			-11.794			-2.949
145000.000			-11.793			-2.948
145100.000			-11.792			-2.948
145202.000			-11.793			-2.948
145301.000			-11.793			-2.948
145401.000			-11.794			-2.948
145501.000			-11.794			-2.948
145600.000			-11.793			-2.948
145700.000			-11.792			-2.948
145801.000			-11.792			-2.948
145900.000			-11.792			-2.948
146000.000			-11.792			-2.948
146101.000			-11.792			-2.948
146201.000			-11.793			-2.948
146302.000			-11.793			-2.948
146400.000			-11.793			-2.948
146500.000			-11.793			-2.948
146601.000			-11.792			-2.948
146700.000			-11.792			-2.948
146800.000			-11.791			-2.948
146901.000			-11.791			-2.948
147000.000			-11.791			-2.948
147101.000			-11.790			-2.948
147202.000			-11.791			-2.948
147301.000			-11.791			-2.948
147400.000			-11.790			-2.948
147501.000			-11.790			-2.948
147600.000			-11.790			-2.947
147700.000			-11.791			-2.948
147801.000			-11.790			-2.948
147900.000			-11.789			-2.947
148000.000			-11.789			-2.947
148102.000			-11.789			-2.947
148201.000			-11.789			-2.947
148300.000			-11.788			-2.947
148401.000			-11.788			-2.947
148500.000			-11.788			-2.947
148600.000			-11.788			-2.947
148701.000			-11.788			-2.947
148800.000			-11.788			-2.947
148900.000			-11.788			-2.947
149001.000			-11.788			-2.947
149101.000			-11.788			-2.947
149201.000			-11.788			-2.947
149301.000			-11.788			-2.947
149400.000			-11.788			-2.947
149500.000			-11.788			-2.947
149600.000			-11.787			-2.947
149700.000			-11.787			-2.947
149801.000			-11.787			-2.947
149900.000			-11.787			-2.947
150000.000			-11.787			-2.947
150102.000			-11.786			-2.947
150201.000			-11.786			-2.947
150300.000			-11.787			-2.947
150401.000			-11.786			-2.947
150500.000			-11.785			-2.946
150600.000			-11.786			-2.946
150701.000			-11.785			-2.946
150800.000			-11.784			-2.946
150900.000			-11.784			-2.946
151002.000			-11.784			-2.946
151101.000			-11.785			-2.946
151201.000			-11.784			-2.946
151301.000			-11.784			-2.946
151400.000			-11.785			-2.946
151500.000			-11.785			-2.946
151601.000			-11.785			-2.946
151700.000			-11.785			-2.946
151800.000			-11.784			-2.946
151901.000			-11.785			-2.946
152001.000			-11.783			-2.946
152101.000			-11.783			-2.946
152201.000			-11.784			-2.946
152300.000			-11.784			-2.946
152400.000			-11.783			-2.946
152501.000			-11.783			-2.946
152600.000			-11.782			-2.946
152700.000			-11.783			-2.946
152800.000			-11.782			-2.946
152901.000			-11.782			-2.946
153002.000			-11.782			-2.945
153100.000			-11.782			-2.945
153200.000			-11.782			-2.946
153301.000			-11.782			-2.945
153400.000			-11.780			-2.945
153500.000			-11.781			-2.945
153601.000			-11.782			-2.945
153700.000			-11.781			-2.945
153801.000			-11.781			-2.945
153902.000			-11.782			-2.945
154001.000			-11.781			-2.945
154100.000			-11.780			-2.945
154201.000			-11.781			-2.945
154300.000			-11.782			-2.945
154400.000			-11.781			-2.945
154501.000			-11.780			-2.945
154600.000			-11.781			-2.945
154701.000			-11.780			-2.945
154802.000			-11.780			-2.945
154901.000			-11.780			-2.945
155000.000			-11.780			-2.945
155101.000			-11.780			-2.945
155200.000			-11.779			-2.945
155300.000			-11.778			-2.945
155401.000			-11.779			-2.945
155500.000			-11.779			-2.945
155600.000			-11.780			-2.945
155702.000			-11.780			-2.945
155801.000			-11.779			-2.945
155902.000			-11.778			-2.945
156000.000			-11.778			-2.945
156100.000			-11.779			-2.945
156201.000			-11.779			-2.945
156300.000			-11.777			-2.944
156400.000			-11.777			-2.944
156501.000			-11.777			-2.944
156600.000			-11.777			-2.944
156701.000			-11.777			-2.944
156802.000			-11.777			-2.944
156900.000			-11.777			-2.944
157000.000			-11.777			-2.944
157101.000			-11.776			-2.944
157200.000			-11.776			-2.944
157300.000			-11.776			-2.944
157401.000			-11.776			-2.944
157500.000			-11.776			-2.944
157601.000			-11.777			-2.944
157702.000			-11.776			-2.944
157801.000			-11.775			-2.944
157900.000			-11.775			-2.944
158001.000			-11.776			-2.944
158100.000			-11.776			-2.944
158200.000			-11.776			-2.944
158301.000			-11.775			-2.944
158400.000			-11.774			-2.944
158500.000			-11.775			-2.944
158602.000			-11.774			-2.944
158701.000			-11.773			-2.943
158800.000			-11.773			-2.943
158901.000			-11.774			-2.943
159000.000			-11.774			-2.944
159100.000			-11.773			-2.943
159200.000			-11.774			-2.944
159300.000			-11.774			-2.943
159401.000			-11.774			-2.943
159500.000			-11.773			-2.943
159601.000			-11.773			-2.943
159702.000			-11.773			-2.943
159800.000			-11.773			-2.943
159900.000			-11.773			-2.943
160001.000			-11.773			-2.943
160100.000			-11.772			-2.943
160200.000			-11.772			-2.943
160301.000			-11.773			-2.943
160400.000			-11.773			-2.943
160501.000			-11.773			-2.943
160602.000			-11.773			-2.943
160701.000			-11.772			-2.943
160800.000			-11.772			-2.943
160901.000			-11.772			-2.943
161000.000			-11.771			-2.943
161100.000			-11.771			-2.943
161201.000			-11.771			-2.943
161300.000			-11.771			-2.943
161401.000			-11.771			-2.943
161502.000			-11.771			-2.943
161601.000			-11.772			-2.943
161700.000			-11.771			-2.943
161801.000			-11.771			-2.943
161900.000			-11.770			-2.943
162000.000			-11.770			-2.942
162101.000			-11.770			-2.942
162200.000			-11.769			-2.942
162300.000			-11.768			-2.942
162402.000			-11.769			-2.942
162501.000			-11.770			-2.942
162601.000			-11.770			-2.942
162700.000			-11.769			-2.942
162800.000			-11.769			-2.942
162901.000			-11.768			-2.942
163000.000			-11.768			-2.942
163100.000			-11.768			-2.942
163201.000			-11.769			-2.942
163300.000			-11.768			-2.942
163401.000			-11.768			-2.942
163502.000			-11.768			-2.942
163600.000			-11.768			-2.942
163700.000			-11.768			-2.942
163801.000			-11.767			-2.942
163900.000			-11.767			-2.942
164000.000			-11.767			-2.942
164101.000			-11.768			-2.942
164200.000			-11.767			-2.942
164301.000			-11.767			-2.942
164402.000			-11.767			-2.942
164501.000			-11.767			-2.942
164600.000			-11.767			-2.942
164701.000			-11.766			-2.942
164800.000			-11.766			-2.941
164900.000			-11.765			-2.941
165001.000			-11.765			-2.941
165100.000			-11.765			-2.941
165200.000			-11.766			-2.941
165302.000			-11.766			-2.941
165401.000			-11.766			-2.941
165500.000			-11.765			-2.941
165600.000			-11.765			-2.941
165700.000			-11.764			-2.941
165801.000			-11.765			-2.941
165900.000			-11.765			-2.941
166000.000			-11.765			-2.941
166101.000			-11.765			-2.941
166201.000			-11.765			-2.941
166301.000			-11.764			-2.941
166402.000			-11.764			-2.941
166500.000			-11.764			-2.941
166600.000			-11.763			-2.941
166701.000			-11.763			-2.941
166800.000			-11.764			-2.941
166900.000			-11.764			-2.941
167001.000			-11.764			-2.941
167100.000			-11.763			-2.941
167201.000			-11.762			-2.941
167302.000			-11.763			-2.941
167400.000			-11.763			-2.941
167500.000			-11.762			-2.941
167601.000			-11.763			-2.941
167700.000			-11.763			-2.941
167800.000			-11.763			-2.941
167901.000			-11.762			-2.941
168000.000			-11.762			-2.941
168101.000			-11.762			-2.940
168202.000			-11.761			-2.940
168301.000			-11.761			-2.940
168400.000			-11.761			-2.940
168501.000			-11.761			-2.940
168600.000			-11.761			-2.940
168700.000			-11.761			-2.940
168800.000			-11.760			-2.940
168900.000			-11.759			-2.940
169001.000			-11.759			-2.940
169101.000			-11.759			-2.940
169201.000			-11.760			-2.940
169301.000			-11.760			-2.940
169400.000			-11.760			-2.940
169500.000			-11.760			-2.940
169601.000			-11.760			-2.940
169700.000			-11.760			-2.940
169800.000			-11.759			-2.940
169901.000			-11.760			-2.940
170000.000			-11.758			-2.940
170101.000			-11.759			-2.940
170202.000			-11.759			-2.940
170300.000			-11.759			-2.940
170400.000			-11.758			-2.940
170501.000			-11.758			-2.939
170600.000			-11.758			-2.940
170700.000			-11.759			-2.940
170801.000			-11.758			-2.940
170900.000			-11.759			-2.940
171001.000			-11.758			-2.940
171102.000			-11.758			-2.940
171201.000			-11.758			-2.939
171300.000			-11.757			-2.939
171401.000			-11.757			-2.939
171500.000			-11.757			-2.939
171600.000			-11.757			-2.939
171701.000			-11.757			-2.939
171800.000			-11.757			-2.939
171900.000			-11.757			-2.939
172002.000			-11.757			-2.939
172101.000			-11.756			-2.939
172201.000			-11.756			-2.939
172300.000			-11.756			-2.939
172400.000			-11.756			-2.939
172501.000			-11.757			-2.939
172600.000			-11.757			-2.939
172700.000			-11.756			-2.939
172801.000			-11.756			-2.939
172901.000			-11.755			-2.939
173001.000			-11.755			-2.939
173102.000			-11.755			-2.939
173200.000			-11.755			-2.939
173300.000			-11.755			-2.939
173401.000			-11.755			-2.939
173500.000			-11.754			-2.938
173600.000			-11.755			-2.939
173701.000			-11.755			-2.939
173800.000			-11.754			-2.939
173901.000			-11.755			-2.939
174002.000			-11.755			-2.939
174100.000			-11.754			-2.939
174200.000			-11.753			-2.938
174301.000			-11.753			-2.938
174400.000			-11.754			-2.939
174500.000			-11.754			-2.939
174601.000			-11.754			-2.938
174700.000			-11.753			-2.938
174801.000			-11.754			-2.938
174902.000			-11.754			-2.939
175001.000			-11.754			-2.939
175100.000			-11.754			-2.938
175200.000			-11.753			-2.938
175300.000			-11.753			-2.938
175401.000			-11.752			-2.938
175500.000			-11.752			-2.938
175600.000			-11.752			-2.938
175701.000			-11.753			-2.938
175801.000			-11.752			-2.938
175901.000			-11.752			-2.938
176001.000			-11.751			-2.938
176100.000			-11.751			-2.938
176200.000			-11.752			-2.938
176301.000			-11.752			-2.938
176400.000			-11.752			-2.938
176500.000			-11.751			-2.938
176601.000			-11.750			-2.937
176701.000			-11.751			-2.938
176801.000			-11.751			-2.938
176902.000			-11.751			-2.938
177000.000			-11.751			-2.938
177100.000			-11.750			-2.938
177201.000			-11.751			-2.938
177300.000			-11.750			-2.937
177400.000			-11.749			-2.937
177501.000			-11.749			-2.937
177600.000			-11.750			-2.938
177701.000			-11.750			-2.938
177802.000			-11.750			-2.937
177901.000			-11.749			-2.937
178000.000			-11.749			-2.937
178101.000			-11.749			-2.937
178200.000			-11.749			-2.937
178300.000			-11.748			-2.937
178400.000			-11.749			-2.937
178500.000			-11.750			-2.937
178601.000			-11.749			-2.937
178701.000			-11.748			-2.937
178801.000			-11.748			-2.937
178901.000			-11.748			-2.937
179000.000			-11.748			-2.937
179100.000			-11.748			-2.937
179201.000			-11.748			-2.937
179300.000			-11.749			-2.937
179400.000			-11.748			-2.937
179501.000			-11.749			-2.937
179601.000			-11.748			-2.937
179701.000			-11.747			-2.937
179802.000			-11.746			-2.937
179900.000			-11.746			-2.937
180000.000			-11.748			-2.937
180101.000			-11.747			-2.937
180200.000			-11.748			-2.937
180300.000			-11.747			-2.937
180401.000			-11.746			-2.937
180500.000			-11.746			-2.936
180601.000			-11.746			-2.936
180702.000			-11.746			-2.936
180801.000			-11.745			-2.936
180900.000			-11.747			-2.937
181001.000			-11.748			-2.937
181100.000			-11.746			-2.936
181200.000			-11.744			-2.936
181301.000			-11.745			-2.936
181400.000			-11.746			-2.937
181500.000			-11.746			-2.937
181602.000			-11.745			-2.936
181701.000			-11.745			-2.936
181801.000			-11.745			-2.936
181900.000			-11.744			-2.936
182000.000			-11.745			-2.936
182101.000			-11.746			-2.936
182200.000			-11.745			-2.936
182300.000			-11.745			-2.936
182401.000			-11.744			-2.936
182501.000			-11.745			-2.936
182601.000			-11.744			-2.936
182701.000			-11.743			-2.936
182800.000			-11.743			-2.936
182900.000			-11.743			-2.936
183001.000			-11.743			-2.936
183100.000			-11.743			-2.936
183200.000			-11.744			-2.936
183301.000			-11.743			-2.936
183401.000			-11.743			-2.936
183501.000			-11.743			-2.936
183602.000			-11.743			-2.936
183700.000			-11.744			-2.936
183800.000			-11.743			-2.936
183901.000			-11.743			-2.936
184000.000			-11.742			-2.936
184100.000			-11.742			-2.936
184201.000			-11.743			-2.936
184301.000			-11.743			-2.936
184401.000			-11.742			-2.935
184502.000			-11.742			-2.936
184600.000			-11.741			-2.935
184700.000			-11.740			-2.935
184800.000			-11.741			-2.935
184900.000			-11.741			-2.935
185001.000			-11.741			-2.935
185100.000			-11.740			-2.935
185200.000			-11.741			-2.935
185302.000			-11.740			-2.935
185401.000			-11.740			-2.935
185501.000			-11.740			-2.935
185601.000			-11.740			-2.935
185700.000			-11.740			-2.935
185800.000			-11.741			-2.935
185901.000			-11.740			-2.935
186000.000			-11.740			-2.935
186100.000			-11.740			-2.935
186201.000			-11.740			-2.935
186301.000			-11.740			-2.935
186401.000			-11.739			-2.935
186501.000			-11.739			-2.935
186600.000			-11.739			-2.935
186700.000			-11.739			-2.935
186801.000			-11.739			-2.935
186900.000			-11.739			-2.935
187000.000			-11.740			-2.935
187101.000			-11.740			-2.935
187201.000			-11.739			-2.935
187301.000			-11.738			-2.935
187402.000			-11.739			-2.935
187500.000			-11.739			-2.935
187600.000			-11.739			-2.935
187701.000			-11.739			-2.935
187800.000			-11.738			-2.935
187900.000			-11.737			-2.934
188000.000			-11.737			-2.934
188100.000			-11.738			-2.934
188202.000			-11.738			-2.934
188301.000			-11.737			-2.934
188401.000			-11.736			-2.934
188501.000			-11.737			-2.934
188600.000			-11.737			-2.934
188700.000			-11.736			-2.934
188801.000			-11.736			-2.934
188900.000			-11.737			-2.934
189000.000			-11.737			-2.934
189101.000			-11.737			-2.934
189201.000			-11.737			-2.934
189301.000			-11.737			-2.934
189401.000			-11.737			-2.934
189500.000			-11.736			-2.934
189600.000			-11.735			-2.934
189701.000			-11.735			-2.934
189800.000			-11.736			-2.934
189900.000			-11.735			-2.934
190001.000			-11.736			-2.934
190101.000			-11.736			-2.934
190201.000			-11.736			-2.934
190302.000			-11.735			-2.934
190400.000			-11.735			-2.934
190500.000			-11.734			-2.934
190601.000			-11.735			-2.934
190700.000			-11.735			-2.934
190800.000			-11.735			-2.934
190901.000			-11.735			-2.934
191000.000			-11.735			-2.934
191102.000			-11.734			-2.933
191201.000			-11.734			-2.934
191300.000			-11.734			-2.933
191401.000			-11.733			-2.933
191500.000			-11.734			-2.934
191600.000			-11.734			-2.934
191701.000			-11.733			-2.933
191800.000			-11.732			-2.933
191900.000			-11.733			-2.933
192002.000			-11.733			-2.933
192101.000			-11.733			-2.933
192201.000			-11.733			-2.933
192301.000			-11.733			-2.933
192400.000			-11.733			-2.933
192500.000			-11.733			-2.933
192601.000			-11.733			-2.933
192700.000			-11.733			-2.933
192800.000			-11.734			-2.933
192902.000			-11.734			-2.933
193001.000			-11.732			-2.933
193101.000			-11.731			-2.933
193201.000			-11.732			-2.933
193300.000			-11.733			-2.933
193400.000			-11.732			-2.933
193501.000			-11.731			-2.933
193600.000			-11.732			-2.933
193700.000			-11.732			-2.933
193801.000			-11.732			-2.933
193901.000			-11.731			-2.933
194001.000			-11.731			-2.933
194101.000			-11.732			-2.933
194200.000			-11.731			-2.933
194300.000			-11.732			-2.933
194400.000			-11.732			-2.933
194500.000			-11.731			-2.933
194601.000			-11.729			-2.932
194700.000			-11.729			-2.932
194801.000			-11.730			-2.932
194902.000			-11.729			-2.932
195001.000			-11.730			-2.932
195100.000			-11.730			-2.933
195201.000			-11.730			-2.933
195300.000			-11.729			-2.932
195400.000			-11.730			-2.932
195501.000			-11.730			-2.933
195600.000			-11.730			-2.933
195701.000			-11.730			-2.932
195802.000			-11.729			-2.932
195901.000			-11.729			-2.932
196000.000			-11.730			-2.932
196101.000			-11.729			-2.932
196200.000			-11.729			-2.932
196300.000			-11.729			-2.932
196401.000			-11.729			-2.932
196500.000			-11.729			-2.932
196600.000			-11.729			-2.932
196702.000			-11.729			-2.932
196801.000			-11.729			-2.932
196901.000			-11.728			-2.932
197001.000			-11.727			-2.932
197100.000			-11.727			-2.932
197200.000			-11.728			-2.932
197301.000			-11.727			-2.932
197400.000			-11.727			-2.932
197500.000			-11.727			-2.932
197600.000			-11.727			-2.932
197701.000			-11.727			-2.932
197802.000			-11.726			-2.932
197901.000			-11.726			-2.932
198000.000			-11.727			-2.932
198101.000			-11.727			-2.932
198200.000			-11.726			-2.931
198300.000			-11.727			-2.932
198401.000			-11.727			-2.932
198500.000			-11.726			-2.931
198600.000			-11.725			-2.931
198702.000			-11.726			-2.931
198801.000			-11.726			-2.931
198901.000			-11.726			-2.931
199001.000			-11.725			-2.931
199100.000			-11.725			-2.931
199200.000			-11.725			-2.931
199301.000			-11.725			-2.931
199400.000			-11.725			-2.931
199500.000			-11.725			-2.931
199601.000			-11.725			-2.931
199701.000			-11.724			-2.931
199801.000			-11.724			-2.931
199901.000			-11.725			-2.931
200000.000			-11.724			-2.931
200100.000			-11.724			-2.931
200201.000			-11.724			-2.931
200300.000			-11.724			-2.931
200400.000			-11.724			-2.931
200501.000			-11.724			-2.931
200601.000			-11.724			-2.931
200702.000			-11.723			-2.931
200800.000			-11.723			-2.931
200900.000			-11.722			-2.931
201001.000			-11.722			-2.930
201100.000			-11.722			-2.931
201200.000			-11.723			-2.931
201301.000			-11.722			-2.931
201400.000			-11.721			-2.930
201501.000			-11.722			-2.930
201602.000			-11.722			-2.931
201700.000			-11.722			-2.931
201800.000			-11.722			-2.931
201901.000			-11.722			-2.930
202000.000			-11.722			-2.930
202100.000			-11.721			-2.930
202201.000			-11.723			-2.931
202300.000			-11.722			-2.931
202401.000			-11.722			-2.930
202502.000			-11.722			-2.930
202600.000			-11.722			-2.930
202700.000			-11.722			-2.930
202801.000			-11.722			-2.930
202900.000			-11.721			-2.930
203000.000			-11.720			-2.930
203101.000			-11.721			-2.930
203201.000			-11.722			-2.930
203301.000			-11.720			-2.930
203402.000			-11.721			-2.930
203500.000			-11.721			-2.930
203600.000			-11.720			-2.930
203701.000			-11.719			-2.930
203800.000			-11.721			-2.930
203900.000			-11.721			-2.930
204000.000			-11.720			-2.930
204100.000			-11.719			-2.930
204202.000			-11.719			-2.930
204301.000			-11.720			-2.930
204400.000			-11.720			-2.930
204501.000			-11.720			-2.930
204600.000			-11.721			-2.930
204700.000			-11.720			-2.930
204801.000			-11.720			-2.930
204900.000			-11.719			-2.930
205000.000			-11.719			-2.930
205102.000			-11.718			-2.930
205201.000			-11.718			-2.929
205300.000			-11.718			-2.929
205401.000			-11.718			-2.929
205500.000			-11.719			-2.930
205600.000			-11.719			-2.930
205701.000			-11.719			-2.930
205800.000			-11.719			-2.930
205900.000			-11.719			-2.930
206002.000			-11.719			-2.930
206101.000			-11.718			-2.930
206201.000			-11.718			-2.930
206301.000			-11.718			-2.930
206400.000			-11.717			-2.929
206500.000			-11.718			-2.930
206601.000			-11.718			-2.930
206700.000			-11.718			-2.930
206800.000			-11.718			-2.930
206902.000			-11.716			-2.929
207001.000			-11.717			-2.929
207102.000			-11.717			-2.929
207200.000			-11.717			-2.929
207300.000			-11.717			-2.929
207401.000			-11.717			-2.929
207500.000			-11.717			-2.929
207600.000			-11.716			-2.929
207701.000			-11.716			-2.929
207801.000			-11.716			-2.929
207901.000			-11.716			-2.929
208002.000			-11.716			-2.929
208100.000			-11.715			-2.929
208200.000			-11.715			-2.929
208301.000			-11.715			-2.929
208400.000			-11.716			-2.929
208500.000			-11.716			-2.929
208601.000			-11.715			-2.929
208701.000			-11.715			-2.929
208801.000			-11.713			-2.928
208902.000			-11.714			-2.928
209000.000			-11.715			-2.929
209100.000			-11.717			-2.929
209201.000			-11.716			-2.929
209300.000			-11.715			-2.929
209400.000			-11.715			-2.929
209501.000			-11.714			-2.929
209600.000			-11.715			-2.929
209701.000			-11.715			-2.929
209802.000			-11.715			-2.929
209900.000			-11.714			-2.928
210000.000			-11.713			-2.928
210101.000			-11.714			-2.928
210200.000			-11.714			-2.928
210300.000			-11.714			-2.928
210400.000			-11.714			-2.928
210500.000			-11.714			-2.928
210602.000			-11.714			-2.928
210701.000			-11.713			-2.928
210800.000			-11.713			-2.928
210901.000			-11.712			-2.928
211000.000			-11.713			-2.928
211100.000			-11.713			-2.928
211201.000			-11.712			-2.928
211300.000			-11.712			-2.928
211400.000			-11.712			-2.928
211502.000			-11.712			-2.928
211601.000			-11.712			-2.928
211700.000			-11.712			-2.928
211801.000			-11.711			-2.928
211900.000			-11.711			-2.928
212000.000			-11.711			-2.928
212101.000			-11.711			-2.928
212200.000			-11.712			-2.928
212300.000			-11.712			-2.928
212402.000			-11.711			-2.928
212501.000			-11.712			-2.928
212600.000			-11.711			-2.928
212701.000			-11.711			-2.928
212800.000			-11.711			-2.928
212900.000			-11.711			-2.928
213001.000			-11.712			-2.928
213100.000			-11.712			-2.928
213201.000			-11.712			-2.928
213302.000			-11.712			-2.928
213400.000			-11.710			-2.928
213500.000			-11.711			-2.928
213600.000			-11.711			-2.928
213700.000			-11.710			-2.928
213801.000			-11.709			-2.927
213900.000			-11.709			-2.927
214000.000			-11.710			-2.928
214102.000			-11.710			-2.927
214201.000			-11.709			-2.927
214300.000			-11.709			-2.927
214401.000			-11.709			-2.927
214500.000			-11.708			-2.927
214600.000			-11.708			-2.927
214701.000			-11.709			-2.927
214800.000			-11.709			-2.927
214900.000			-11.709			-2.927
215002.000			-11.709			-2.927
215101.000			-11.708			-2.927
215201.000			-11.708			-2.927
215301.000			-11.709			-2.927
215400.000			-11.708			-2.927
215500.000			-11.708			-2.927
215601.000			-11.709			-2.927
215700.000			-11.709			-2.927
215800.000			-11.709			-2.927
215901.000			-11.708			-2.927
216001.000			-11.709			-2.927
216101.000			-11.708			-2.927
216201.000			-11.708			-2.927
216300.000			-11.708			-2.927
216400.000			-11.707			-2.927
216501.000			-11.706			-2.927
216600.000			-11.707			-2.927
216700.000			-11.707			-2.927
216800.000			-11.707			-2.927
216901.000			-11.706			-2.927
217002.000			-11.707			-2.927
217100.000			-11.707			-2.927
217200.000			-11.707			-2.927
217301.000			-11.706			-2.927
217400.000			-11.706			-2.926
217500.000			-11.706			-2.926
217601.000			-11.706			-2.927
217700.000			-11.706			-2.927
217801.000			-11.706			-2.927
217902.000			-11.706			-2.927
218001.000			-11.706			-2.926
218100.000			-11.704			-2.926
218201.000			-11.706			-2.927
218300.000			-11.706			-2.926
218400.000			-11.704			-2.926
218501.000			-11.705			-2.926
218600.000			-11.706			-2.926
218700.000			-11.706			-2.926
218802.000			-11.705			-2.926
218901.000			-11.705			-2.926
219000.000			-11.704			-2.926
219101.000			-11.705			-2.926
219200.000			-11.704			-2.926
219300.000			-11.704			-2.926
219401.000			-11.704			-2.926
219500.000			-11.704			-2.926
219600.000			-11.704			-2.926
219702.000			-11.704			-2.926
219801.000			-11.703			-2.926
219900.000			-11.703			-2.926
220000.000			-11.704			-2.926
220100.000			-11.702			-2.926
220201.000			-11.703			-2.926
220300.000			-11.704			-2.926
220400.000			-11.704			-2.926
220501.000			-11.703			-2.926
220601.000			-11.703			-2.926
220701.000			-11.703			-2.926
220801.000			-11.701			-2.925
220900.000			-11.702			-2.926
221000.000			-11.703			-2.926
221101.000			-11.702			-2.926
221200.000			-11.702			-2.926
221300.000			-11.702			-2.925
221402.000			-11.702			-2.926
221501.000			-11.703			-2.926
221601.000			-11.703			-2.926
221701.000			-11.702			-2.926
221800.000			-11.702			-2.925
221900.000			-11.700			-2.925
222001.000			-11.701			-2.925
222100.000			-11.701			-2.925
222200.000			-11.701			-2.925
222302.000			-11.700			-2.925
222401.000			-11.700			-2.925
222501.000			-11.700			-2.925
222601.000			-11.699			-2.925
222700.000			-11.700			-2.925
222800.000			-11.702			-2.925
222901.000			-11.702			-2.925
223000.000			-11.701			-2.925
223100.000			-11.699			-2.925
223202.000			-11.698			-2.925
223301.000			-11.699			-2.925
223402.000			-11.701			-2.925
223500.000			-11.700			-2.925
223600.000			-11.700			-2.925
223701.000			-11.700			-2.925
223800.000			-11.699			-2.925
223900.000			-11.700			-2.925
224001.000			-11.700			-2.925
224100.000			-11.700			-2.925
224201.000			-11.700			-2.925
224302.000			-11.698			-2.925
224400.000			-11.699			-2.925
224500.000			-11.699			-2.925
224601.000			-11.698			-2.925
224700.000			-11.698			-2.925
224800.000			-11.698			-2.925
224901.000			-11.698			-2.924
225000.000			-11.699			-2.925
225101.000			-11.698			-2.924
225202.000			-11.697			-2.924
225301.000			-11.698			-2.924
225400.000			-11.699			-2.925
225501.000			-11.699			-2.925
225600.000			-11.698			-2.925
225700.000			-11.698			-2.924
225801.000			-11.698			-2.924
225900.000			-11.697			-2.924
226000.000			-11.698			-2.924
226102.000			-11.697			-2.924
226201.000			-11.697			-2.924
226300.000			-11.697			-2.924
226400.000			-11.696			-2.924
226500.000			-11.697			-2.924
226601.000			-11.697			-2.924
226700.000			-11.696			-2.924
226800.000			-11.696			-2.924
226901.000			-11.697			-2.924
227001.000			-11.697			-2.924
227101.000			-11.697			-2.924
227202.000			-11.696			-2.924
227300.000			-11.696			-2.924
227400.000			-11.696			-2.924
227501.000			-11.696			-2.924
227600.000			-11.695			-2.924
227700.000			-11.695			-2.924
227801.000			-11.696			-2.924
227900.000			-11.695			-2.924
228001.000			-11.695			-2.924
228102.000			-11.695			-2.924
228201.000			-11.695			-2.924
228300.000			-11.695			-2.924
228401.000			-11.695			-2.924
228500.000			-11.695			-2.924
228600.000			-11.695			-2.924
228701.000			-11.695			-2.924
228800.000			-11.694			-2.924
228900.000			-11.694			-2.924
229002.000			-11.693			-2.923
229101.000			-11.693			-2.923
229200.000			-11.695			-2.924
229301.000			-11.694			-2.924
229400.000			-11.695			-2.924
229500.000			-11.694			-2.923
229600.000			-11.694			-2.924
229700.000			-11.694			-2.923
229801.000			-11.693			-2.923
229900.000			-11.694			-2.924
230001.000			-11.695			-2.924
230102.000			-11.693			-2.923
230200.000			-11.693			-2.923
230300.000			-11.693			-2.923
230401.000			-11.692			-2.923
230500.000			-11.692			-2.923
230600.000			-11.692			-2.923
230701.000			-11.692			-2.923
230800.000			-11.693			-2.923
230901.000			-11.694			-2.923
231002.000			-11.693			-2.923
231100.000			-11.692			-2.923
231200.000			-11.691			-2.923
231301.000			-11.692			-2.923
231400.000			-11.693			-2.923
231500.000			-11.692			-2.923
231601.000			-11.692			-2.923
231700.000			-11.691			-2.923
231801.000			-11.690			-2.923
231902.000			-11.691			-2.923
232000.000			-11.693			-2.923
232100.000			-11.693			-2.923
232201.000			-11.692			-2.923
232300.000			-11.690			-2.923
232400.000			-11.691			-2.923
232501.000			-11.691			-2.923
232600.000			-11.691			-2.923
232702.000			-11.691			-2.923
232801.000			-11.690			-2.923
232900.000			-11.692			-2.923
233001.000			-11.691			-2.923
233100.000			-11.689			-2.922
233200.000			-11.688			-2.922
233301.000			-11.690			-2.922
233400.000			-11.691			-2.923
233500.000			-11.692			-2.923
233602.000			-11.691			-2.923
233701.000			-11.690			-2.922
233801.000			-11.690			-2.923
233901.000			-11.690			-2.923
234000.000			-11.690			-2.923
234100.000			-11.690			-2.922
234201.000			-11.690			-2.922
234300.000			-11.690			-2.922
234400.000			-11.690			-2.922
234501.000			-11.690			-2.922
234601.000			-11.690			-2.922
234701.000			-11.690			-2.923
234801.000			-11.690			-2.922
234900.000			-11.689			-2.922
235000.000			-11.689			-2.922
235101.000			-11.689			-2.922
235200.000			-11.688			-2.922
235300.000			-11.688			-2.922
235401.000			-11.688			-2.922
235501.000			-11.688			-2.922
235601.000			-11.688			-2.922
235702.000			-11.688			-2.922
235800.000			-11.688			-2.922
235900.000			-11.689			-2.922
236000.000			-11.688			-2.922
236100.000			-11.687			-2.922
236201.000			-11.687			-2.922
236300.000			-11.686			-2.922
236400.000			-11.687			-2.922
236502.000			-11.688			-2.922
236601.000			-11.687			-2.922
236701.000			-11.687			-2.922
236801.000			-11.686			-2.921
236900.000			-11.686			-2.921
237000.000			-11.687			-2.922
237101.000			-11.687			-2.922
237200.000			-11.687			-2.922
237300.000			-11.687			-2.922
237401.000			-11.686			-2.922
237501.000			-11.686			-2.921
237601.000			-11.685			-2.921
237701.000			-11.686			-2.922
237800.000			-11.686			-2.922
237900.000			-11.686			-2.922
238001.000			-11.686			-2.922
238100.000			-11.687			-2.922
238200.000			-11.686			-2.922
238301.000			-11.686			-2.921
238401.000			-11.685			-2.921
238501.000			-11.685			-2.921
238602.000			-11.685			-2.921
238700.000			-11.686			-2.921
238800.000			-11.685			-2.921
238901.000			-11.685			-2.921
239000.000			-11.685			-2.921
239100.000			-11.684			-2.921
239200.000			-11.686			-2.921
239300.000			-11.685			-2.921
239402.000			-11.684			-2.921
239501.000			-11.684			-2.921
239600.000			-11.684			-2.921
239701.000			-11.684			-2.921
239800.000			-11.684			-2.921
239900.000			-11.685			-2.921
240001.000			-11.684			-2.921
240100.000			-11.684			-2.921
240200.000			-11.684			-2.921
240302.000			-11.684			-2.921
240401.000			-11.683			-2.921
240501.000			-11.684			-2.921
240601.000			-11.683			-2.921
240700.000			-11.683			-2.921
240800.000			-11.685			-2.921
240901.000			-11.683			-2.921
241000.000			-11.682			-2.921
241100.000			-11.682			-2.921
241202.000			-11.683			-2.921
241301.000			-11.683			-2.921
241401.000			-11.683			-2.921
241501.000			-11.684			-2.921
241600.000			-11.683			-2.921
241700.000			-11.683			-2.921
241801.000			-11.682			-2.921
241900.000			-11.682			-2.920
242000.000			-11.681			-2.920
242101.000			-11.681			-2.920
242201.000			-11.682			-2.921
242302.000			-11.683			-2.921
242400.000			-11.681			-2.920
242500.000			-11.680			-2.920
242601.000			-11.680			-2.920
242700.000			-11.682			-2.920
242800.000			-11.681			-2.920
242901.000			-11.681			-2.920
243000.000			-11.681			-2.920
243101.000			-11.680			-2.920
243202.000			-11.680			-2.920
243301.000			-11.680			-2.920
243400.000			-11.680			-2.920
243501.000			-11.682			-2.920
243600.000			-11.682			-2.920
243700.000			-11.680			-2.920
243801.000			-11.681			-2.920
243900.000			-11.680			-2.920
244000.000			-11.680			-2.920
244102.000			-11.680			-2.920
244201.000			-11.680			-2.920
244300.000			-11.681			-2.920
244401.000			-11.681			-2.920
244500.000			-11.680			-2.920
244600.000			-11.680			-2.920
244701.000			-11.680			-2.920
244800.000			-11.680			-2.920
244900.000			-11.680			-2.920
245002.000			-11.679			-2.920
245101.000			-11.679			-2.920
245201.000			-11.680			-2.920
245301.000			-11.677			-2.919
245400.000			-11.677			-2.919
245500.000			-11.678			-2.920
245600.000			-11.678			-2.920
245700.000			-11.679			-2.920
245801.000			-11.678			-2.920
245900.000			-11.679			-2.920
246001.000			-11.677			-2.919
246102.000			-11.678			-2.919
246201.000			-11.678			-2.919
246300.000			-11.679			-2.920
246401.000			-11.679			-2.920
246500.000			-11.679			-2.920
246600.000			-11.679			-2.920
246701.000			-11.678			-2.919
246800.000			-11.677			-2.919
246900.000			-11.677			-2.919
247002.000			-11.677			-2.919
247101.000			-11.679			-2.920
247200.000			-11.679			-2.920
247301.000			-11.679			-2.920
247400.000			-11.678			-2.920
247500.000			-11.678			-2.920
247601.000			-11.678			-2.919
247700.000			-11.677			-2.919
247800.000			-11.677			-2.919
247902.000			-11.677			-2.919
248001.000			-11.677			-2.919
248101.000			-11.677			-2.919
248201.000			-11.677			-2.919
248300.000			-11.677			-2.919
248400.000			-11.676			-2.919
248501.000			-11.676			-2.919
248600.000			-11.676			-2.919
248700.000			-11.676			-2.919
248800.000			-11.676			-2.919
248901.000			-11.677			-2.919
249002.000			-11.676			-2.919
249101.000			-11.676			-2.919
249200.000			-11.676			-2.919
249301.000			-11.676			-2.919
249400.000			-11.676			-2.919
249500.000			-11.676			-2.919
249601.000			-11.675			-2.919
249700.000			-11.675			-2.919
249800.000			-11.675			-2.919
249902.000			-11.676			-2.919
250001.000			-11.675			-2.919
250101.000			-11.674			-2.919
250201.000			-11.674			-2.919
250300.000			-11.675			-2.919
250400.000			-11.676			-2.919
250501.000			-11.676			-2.919
250600.000			-11.674			-2.918
250700.000			-11.673			-2.918
250801.000			-11.675			-2.919
250901.000			-11.675			-2.919
251001.000			-11.674			-2.919
251101.000			-11.674			-2.919
251200.000			-11.674			-2.919
251300.000			-11.674			-2.918
251401.000			-11.674			-2.918
251500.000			-11.674			-2.918
251600.000			-11.674			-2.918
251701.000			-11.674			-2.919
251801.000			-11.674			-2.918
251902.000			-11.673			-2.918
252001.000			-11.673			-2.918
252100.000			-11.674			-2.919
252201.000			-11.674			-2.918
252300.000			-11.674			-2.919
252400.000			-11.673			-2.918
252501.000			-11.673			-2.918
252600.000			-11.674			-2.918
252701.000			-11.674			-2.918
252802.000			-11.674			-2.918
252901.000			-11.672			-2.918
253000.000			-11.673			-2.918
253101.000			-11.674			-2.918
253200.000			-11.673			-2.918
253300.000			-11.673			-2.918
253401.000			-11.673			-2.918
253500.000			-11.672			-2.918
253601.000			-11.672			-2.918
253702.000			-11.672			-2.918
253801.000			-11.673			-2.918
253900.000			-11.673			-2.918
254001.000			-11.672			-2.918
254100.000			-11.673			-2.918
254200.000			-11.673			-2.918
254301.000			-11.671			-2.918
254400.000			-11.671			-2.918
254500.000			-11.672			-2.918
254602.000			-11.672			-2.918
254701.000			-11.671			-2.918
254800.000			-11.671			-2.918
254901.000			-11.671			-2.918
255000.000			-11.671			-2.918
255100.000			-11.670			-2.917
255200.000			-11.670			-2.917
255300.000			-11.671			-2.918
255401.000			-11.671			-2.918
255501.000			-11.670			-2.917
255601.000			-11.670			-2.918
255702.000			-11.671			-2.918
255800.000			-11.672			-2.918
255900.000			-11.671			-2.918
256001.000			-11.670			-2.918
256100.000			-11.670			-2.918
256200.000			-11.670			-2.917
256301.000			-11.670			-2.917
256400.000			-11.670			-2.917
256501.000			-11.669			-2.917
256602.000			-11.669			-2.917
256701.000			-11.669			-2.917
256800.000			-11.669			-2.917
256901.000			-11.669			-2.917
257000.000			-11.670			-2.917
257100.000			-11.669			-2.917
257201.000			-11.668			-2.917
257300.000			-11.669			-2.917
257400.000			-11.670			-2.917
257502.000			-11.669			-2.917
257601.000			-11.668			-2.917
257700.000			-11.668			-2.917
257801.000			-11.667			-2.917
257900.000			-11.668			-2.917
258000.000			-11.668			-2.917
258101.000			-11.668			-2.917
258200.000			-11.669			-2.917
258300.000			-11.669			-2.917
258402.000			-11.669			-2.917
258501.000			-11.669			-2.917
258602.000			-11.669			-2.917
258700.000			-11.667			-2.917
258800.000			-11.667			-2.917
258901.000			-11.668			-2.917
259000.000			-11.667			-2.917
259100.000			-11.666			-2.917
259201.000			-11.667			-2.917
259300.000			-11.667			-2.917
259401.000			-11.668			-2.917
259502.000			-11.667			-2.917
259601.000			-11.667			-2.917
259700.000			-11.667			-2.917
259801.000			-11.666			-2.917
259900.000			-11.666			-2.916
260000.000			-11.665			-2.916
260101.000			-11.666			-2.917
260200.000			-11.666			-2.917
260300.000			-11.666			-2.917
260402.000			-11.667			-2.917
260501.000			-11.666			-2.917
260601.000			-11.666			-2.917
260701.000			-11.666			-2.916
260800.000			-11.667			-2.917
260900.000			-11.666			-2.917
261001.000			-11.666			-2.916
261100.000			-11.665			-2.916
261200.000			-11.666			-2.917
261302.000			-11.665			-2.916
261401.000			-11.666			-2.916
261502.000			-11.666			-2.916
261600.000			-11.665			-2.916
261700.000			-11.664			-2.916
261801.000			-11.664			-2.916
261900.000			-11.665			-2.916
262000.000			-11.666			-2.917
262101.000			-11.666			-2.916
262200.000			-11.665			-2.916
262301.000			-11.665			-2.916
262402.000			-11.665			-2.916
262500.000			-11.665			-2.916
262600.000			-11.665			-2.916
262701.000			-11.664			-2.916
262800.000			-11.664			-2.916
262900.000			-11.664			-2.916
263001.000			-11.665			-2.916
263100.000			-11.665			-2.916
263201.000			-11.664			-2.916
263302.000			-11.665			-2.916
263401.000			-11.664			-2.916
263500.000			-11.663			-2.916
263601.000			-11.663			-2.916
263700.000			-11.663			-2.916
263800.000			-11.664			-2.916
263901.000			-11.663			-2.916
264000.000			-11.663			-2.916
264100.000			-11.663			-2.916
264202.000			-11.663			-2.916
264301.000			-11.663			-2.916
264400.000			-11.664			-2.916
264501.000			-11.662			-2.916
264600.000			-11.663			-2.916
264700.000			-11.663			-2.916
264800.000			-11.663			-2.916
264900.000			-11.662			-2.916
265001.000			-11.662			-2.916
265101.000			-11.661			-2.915
265201.000			-11.661			-2.915
265301.000			-11.663			-2.916
265400.000			-11.663			-2.916
265500.000			-11.663			-2.916
265601.000			-11.663			-2.916
265700.000			-11.662			-2.916
265800.000			-11.661			-2.915
265901.000			-11.661			-2.915
266001.000			-11.661			-2.915
266101.000			-11.661			-2.915
266201.000			-11.661			-2.915
266300.000			-11.662			-2.915
266400.000			-11.662			-2.915
266501.000			-11.661			-2.915
266600.000			-11.662			-2.915
266700.000			-11.661			-2.915
266801.000			-11.661			-2.915
266901.000			-11.660			-2.915
267001.000			-11.660			-2.915
267102.000			-11.661			-2.915
267200.000			-11.661			-2.915
267300.000			-11.660			-2.915
267401.000			-11.660			-2.915
267500.000			-11.661			-2.915
267600.000			-11.661			-2.915
267701.000			-11.660			-2.915
267800.000			-11.661			-2.915
267902.000			-11.661			-2.915
268001.000			-11.660			-2.915
268101.000			-11.659			-2.915
268201.000			-11.660			-2.915
268300.000			-11.660			-2.915
268400.000			-11.660			-2.915
268501.000			-11.661			-2.915
268600.000			-11.661			-2.915
268700.000			-11.660			-2.915
268802.000			-11.660			-2.915
268901.000			-11.659			-2.915
269001.000			-11.659			-2.915
269101.000			-11.660			-2.915
269200.000			-11.659			-2.915
269300.000			-11.659			-2.915
269401.000			-11.660			-2.915
269500.000			-11.659			-2.915
269600.000			-11.658			-2.914
269701.000			-11.659			-2.915
269801.000			-11.659			-2.915
269901.000			-11.658			-2.915
270002.000			-11.657			-2.914
270100.000			-11.658			-2.914
270200.000			-11.659			-2.915
270301.000			-11.660			-2.915
270400.000			-11.659			-2.915
270500.000			-11.658			-2.915
270601.000			-11.658			-2.914
270700.000			-11.658			-2.914
270801.000			-11.658			-2.915
270902.000			-11.657			-2.914
271000.000			-11.658			-2.914
271100.000			-11.659			-2.915
271200.000			-11.658			-2.914
271300.000			-11.658			-2.915
271401.000			-11.658			-2.914
271500.000			-11.657			-2.914
271600.000			-11.656			-2.914
271702.000			-11.657			-2.914
271801.000			-11.657			-2.914
271901.000			-11.657			-2.914
272001.000			-11.656			-2.914
272100.000			-11.657			-2.914
272200.000			-11.657			-2.914
272301.000			-11.657			-2.914
272400.000			-11.656			-2.914
272500.000			-11.656			-2.914
272602.000			-11.656			-2.914
272701.000			-11.657			-2.914
272801.000			-11.655			-2.914
272901.000			-11.656			-2.914
273000.000			-11.656			-2.914
273100.000			-11.656			-2.914
273201.000			-11.656			-2.914
273300.000			-11.655			-2.914
273400.000			-11.655			-2.914
273502.000			-11.656			-2.914
273601.000			-11.656			-2.914
273701.000			-11.655			-2.914
273801.000			-11.655			-2.914
273900.000			-11.656			-2.914
274000.000			-11.656			-2.914
274101.000			-11.656			-2.914
274200.000			-11.655			-2.914
274300.000			-11.655			-2.914
274400.000			-11.655			-2.914
274501.000			-11.656			-2.914
274602.000			-11.656			-2.914
274701.000			-11.655			-2.914
274800.000			-11.653			-2.913
274901.000			-11.654			-2.913
275000.000			-11.654			-2.913
275100.000			-11.654			-2.913
275201.000			-11.654			-2.914
275300.000			-11.654			-2.913
275400.000			-11.654			-2.914
275502.000			-11.654			-2.914
275601.000			-11.654			-2.913
275700.000			-11.654			-2.913
275801.000			-11.653			-2.913
275900.000			-11.653			-2.913
276000.000			-11.654			-2.913
276101.000			-11.654			-2.913
276200.000			-11.654			-2.913
276300.000			-11.653			-2.913
276402.000			-11.653			-2.913
276501.000			-11.652			-2.913
276600.000			-11.653			-2.913
276701.000			-11.654			-2.913
276800.000			-11.654			-2.913
276900.000			-11.653			-2.913
277001.000			-11.653			-2.913
277100.000			-11.652			-2.913
277200.000			-11.653			-2.913
277302.000			-11.653			-2.913
277401.000			-11.652			-2.913
277502.000			-11.652			-2.913
277600.000			-11.653			-2.913
277700.000			-11.653			-2.913
277801.000			-11.652			-2.913
277900.000			-11.652			-2.913
278000.000			-11.651			-2.913
278101.000			-11.651			-2.913
278200.000			-11.652			-2.913
278301.000			-11.653			-2.913
278402.000			-11.652			-2.913
278500.000			-11.652			-2.913
278600.000			-11.651			-2.913
278701.000			-11.652			-2.913
278800.000			-11.652			-2.913
278900.000			-11.650			-2.912
279001.000			-11.650			-2.913
279100.000			-11.651			-2.913
279201.000			-11.650			-2.913
279302.000			-11.651			-2.913
279401.000			-11.651			-2.913
279500.000			-11.651			-2.913
279601.000			-11.650			-2.913
279700.000			-11.650			-2.912
279800.000			-11.650			-2.912
279901.000			-11.650			-2.912
280000.000			-11.650			-2.912
280100.000			-11.651			-2.913
280202.000			-11.651			-2.913
280301.000			-11.650			-2.912
280400.000			-11.649			-2.912
280501.000			-11.650			-2.912
280600.000			-11.650			-2.912
280700.000			-11.649			-2.912
280800.000			-11.650			-2.913
280900.000			-11.650			-2.912
281001.000			-11.650			-2.912
281101.000			-11.649			-2.912
281201.000			-11.649			-2.912
281301.000			-11.648			-2.912
281400.000			-11.649			-2.912
281500.000			-11.648			-2.912
281601.000			-11.647			-2.912
281700.000			-11.648			-2.912
281800.000			-11.649			-2.912
281901.000			-11.648			-2.912
282001.000			-11.649			-2.912
282101.000			-11.649			-2.912
282202.000			-11.648			-2.912
282300.000			-11.648			-2.912
282400.000			-11.649			-2.912
282501.000			-11.648			-2.912
282600.000			-11.648			-2.912
282700.000			-11.648			-2.912
282801.000			-11.648			-2.912
282900.000			-11.648			-2.912
283001.000			-11.647			-2.912
283102.000			-11.647			-2.912
283201.000			-11.647			-2.912
283300.000			-11.647			-2.912
283401.000			-11.647			-2.912
283500.000			-11.647			-2.912
283600.000			-11.647			-2.912
283701.000			-11.647			-2.912
283800.000			-11.647			-2.912
283900.000			-11.647			-2.912
284002.000			-11.647			-2.912
284101.000			-11.647			-2.912
284201.000			-11.647			-2.912
284300.000			-11.646			-2.912
284400.000			-11.647			-2.912
284501.000			-11.647			-2.912
284600.000			-11.648			-2.912
284700.000			-11.647			-2.912
284801.000			-11.647			-2.912
284901.000			-11.646			-2.912
285001.000			-11.646			-2.911
285102.000			-11.648			-2.912
285200.000			-11.648			-2.912
285300.000			-11.647			-2.912
285401.000			-11.647			-2.912
285500.000			-11.647			-2.912
285600.000			-11.647			-2.912
285701.000			-11.646			-2.912
285800.000			-11.645			-2.911
285901.000			-11.645			-2.911
286002.000			-11.646			-2.911
286100.000			-11.646			-2.912
286200.000			-11.646			-2.912
286301.000			-11.645			-2.911
286400.000			-11.645			-2.911
286500.000			-11.645			-2.911
286601.000			-11.645			-2.911
286700.000			-11.646			-2.911
286801.000			-11.646			-2.912
286902.000			-11.645			-2.911
287001.000			-11.645			-2.911
287100.000			-11.645			-2.911
287200.000			-11.645			-2.911
287300.000			-11.645			-2.911
287401.000			-11.645			-2.911
287500.000			-11.645			-2.911
287600.000			-11.644			-2.911
287701.000			-11.644			-2.911
287801.000			-11.644			-2.911
287901.000			-11.643			-2.911
288001.000			-11.643			-2.911
288100.000			-11.643			-2.911
288200.000			-11.643			-2.911
288301.000			-11.643			-2.911
288400.000			-11.643			-2.911
288500.000			-11.643			-2.911
288601.000			-11.643			-2.911
288701.000			-11.643			-2.911
288801.000			-11.643			-2.911
288902.000			-11.643			-2.911
289000.000			-11.643			-2.911
289100.000			-11.643			-2.911
289201.000			-11.643			-2.911
289300.000			-11.643			-2.911
289400.000			-11.643			-2.911
289501.000			-11.642			-2.911
289600.000			-11.643			-2.911
289701.000			-11.643			-2.911
289802.000			-11.642			-2.910
289901.000			-11.642			-2.911
290000.000			-11.643			-2.911
290101.000			-11.642			-2.910
290200.000			-11.642			-2.910
290300.000			-11.642			-2.911
290400.000			-11.643			-2.911
290500.000			-11.643			-2.911
290602.000			-11.642			-2.910
290701.000			-11.642			-2.910
290801.000			-11.642			-2.911
290901.000			-11.641			-2.910
291000.000			-11.641			-2.910
291100.000			-11.641			-2.910
291201.000			-11.642			-2.910
291300.000			-11.641			-2.910
291400.000			-11.642			-2.910
291501.000			-11.642			-2.911
291601.000			-11.642			-2.910
291701.000			-11.641			-2.910
291801.000			-11.641			-2.910
291900.000			-11.641			-2.910
292000.000			-11.641			-2.910
292101.000			-11.641			-2.910
292200.000			-11.642			-2.911
292300.000			-11.640			-2.910
292401.000			-11.641			-2.910
292501.000			-11.641			-2.910
292601.000			-11.640			-2.910
292701.000			-11.640			-2.910
292800.000			-11.640			-2.910
292900.000			-11.640			-2.910
293001.000			-11.641			-2.910
293100.000			-11.640			-2.910
293200.000			-11.640			-2.910
293301.000			-11.640			-2.910
293401.000			-11.640			-2.910
293502.000			-11.640			-2.910
293601.000			-11.639			-2.910
293700.000			-11.640			-2.910
293801.000			-11.639			-2.910
293900.000			-11.640			-2.910
294000.000			-11.639			-2.910
294101.000			-11.640			-2.910
294200.000			-11.639			-2.910
294300.000			-11.640			-2.910
294402.000			-11.640			-2.910
294501.000			-11.640			-2.910
294600.000			-11.640			-2.910
294701.000			-11.639			-2.910
294800.000			-11.638			-2.910
294900.000			-11.639			-2.910
295001.000			-11.639			-2.910
295100.000			-11.639			-2.910
295200.000			-11.640			-2.910
295302.000			-11.640			-2.910
295401.000			-11.639			-2.910
295501.000			-11.638			-2.909
295601.000			-11.638			-2.910
295700.000			-11.639			-2.910
295800.000			-11.639			-2.910
295901.000			-11.639			-2.910
296000.000			-11.639			-2.910
296100.000			-11.638			-2.910
296201.000			-11.639			-2.910
296301.000			-11.638			-2.910
296401.000			-11.637			-2.909
296501.000			-11.638			-2.909
296600.000			-11.638			-2.909
296700.000			-11.638			-2.909
296800.000			-11.637			-2.909
296900.000			-11.638			-2.910
297001.000			-11.637			-2.909
297100.000			-11.636			-2.909
297200.000			-11.637			-2.909
297302.000			-11.637			-2.909
297401.000			-11.636			-2.909
297500.000			-11.636			-2.909
297601.000			-11.636			-2.909
297700.000			-11.636			-2.909
297800.000			-11.637			-2.909
297901.000			-11.636			-2.909
298000.000			-11.635			-2.909
298100.000			-11.636			-2.909
298202.000			-11.637			-2.909
298301.000			-11.637			-2.909
298401.000			-11.637			-2.909
298501.000			-11.636			-2.909
298600.000			-11.636			-2.909
298700.000			-11.637			-2.909
298801.000			-11.637			-2.909
298900.000			-11.637			-2.909
299000.000			-11.637			-2.909
299101.000			-11.636			-2.909
299201.000			-11.636			-2.909
299301.000			-11.636			-2.909
299402.000			-11.635			-2.909
299500.000			-11.636			-2.909
299600.000			-11.635			-2.909
299701.000			-11.635			-2.909
299800.000			-11.635			-2.909
299900.000			-11.635			-2.909
