# Acquired on 26/01/2024 11:53:59 
# SPIDER: Creep_8mm_GRPCNT1454A-3
# CREEP MEASUREMENT

# time [ms]		force [N]		stiffness [N/mm]
0.000			-35.899			-4.487
104.000			-36.633			-4.579
204.000			-36.694			-4.587
304.000			-36.107			-4.513
404.000			-35.880			-4.485
504.000			-35.690			-4.461
604.000			-35.526			-4.441
704.000			-35.384			-4.423
804.000			-35.258			-4.407
904.000			-35.144			-4.393
1004.000			-34.944			-4.368
1105.000			-34.857			-4.357
1204.000			-34.775			-4.347
1304.000			-34.700			-4.338
1405.000			-34.629			-4.329
1503.000			-34.561			-4.320
1604.000			-34.498			-4.312
1705.000			-34.382			-4.298
1804.000			-34.326			-4.291
1904.000			-34.275			-4.284
2005.000			-34.226			-4.278
2104.000			-34.178			-4.272
2203.000			-34.133			-4.267
2305.000			-34.090			-4.261
2404.000			-34.048			-4.256
2504.000			-33.969			-4.246
2605.000			-33.931			-4.241
2703.000			-33.896			-4.237
2804.000			-33.861			-4.233
2905.000			-33.826			-4.228
3004.000			-33.792			-4.224
3104.000			-33.761			-4.220
3205.000			-33.699			-4.212
3304.000			-33.671			-4.209
3403.000			-33.641			-4.205
3505.000			-33.614			-4.202
3604.000			-33.586			-4.198
3704.000			-33.559			-4.195
3805.000			-33.533			-4.192
3904.000			-33.483			-4.185
4005.000			-33.459			-4.182
4103.000			-33.436			-4.180
4204.000			-33.413			-4.177
4305.000			-33.391			-4.174
4404.000			-33.369			-4.171
4504.000			-33.347			-4.168
4604.000			-33.305			-4.163
4704.000			-33.284			-4.161
4804.000			-33.264			-4.158
4905.000			-33.245			-4.156
5004.000			-33.225			-4.153
5104.000			-33.207			-4.151
5205.000			-33.188			-4.149
5303.000			-33.169			-4.146
5404.000			-33.134			-4.142
5505.000			-33.116			-4.140
5604.000			-33.100			-4.137
5704.000			-33.083			-4.135
5804.000			-33.065			-4.133
5904.000			-33.049			-4.131
6004.000			-33.033			-4.129
6105.000			-33.001			-4.125
6204.000			-32.987			-4.123
6304.000			-32.971			-4.121
6405.000			-32.957			-4.120
6503.000			-32.942			-4.118
6604.000			-32.927			-4.116
6705.000			-32.913			-4.114
6804.000			-32.884			-4.110
6904.000			-32.871			-4.109
7003.000			-32.857			-4.107
7104.000			-32.843			-4.105
7205.000			-32.831			-4.104
7304.000			-32.818			-4.102
7404.000			-32.805			-4.101
7505.000			-32.779			-4.097
7604.000			-32.767			-4.096
7703.000			-32.755			-4.094
7805.000			-32.743			-4.093
7904.000			-32.731			-4.091
8004.000			-32.719			-4.090
8105.000			-32.708			-4.088
8204.000			-32.696			-4.087
8304.000			-32.673			-4.084
8404.000			-32.661			-4.083
8504.000			-32.650			-4.081
8604.000			-32.640			-4.080
8705.000			-32.629			-4.079
8804.000			-32.618			-4.077
8903.000			-32.608			-4.076
9005.000			-32.586			-4.073
9104.000			-32.575			-4.072
9204.000			-32.566			-4.071
9305.000			-32.556			-4.069
9404.000			-32.546			-4.068
9504.000			-32.536			-4.067
9604.000			-32.526			-4.066
9704.000			-32.507			-4.063
9804.000			-32.497			-4.062
9905.000			-32.488			-4.061
10004.000			-32.478			-4.060
10104.000			-32.468			-4.059
10205.000			-32.458			-4.057
10303.000			-32.449			-4.056
10405.000			-32.431			-4.054
10504.000			-32.422			-4.053
10604.000			-32.414			-4.052
10705.000			-32.405			-4.051
10803.000			-32.397			-4.050
10904.000			-32.389			-4.049
11005.000			-32.380			-4.047
11104.000			-32.371			-4.046
11204.000			-32.354			-4.044
11305.000			-32.346			-4.043
11404.000			-32.339			-4.042
11503.000			-32.330			-4.041
11605.000			-32.322			-4.040
11704.000			-32.314			-4.039
11804.000			-32.307			-4.038
11905.000			-32.291			-4.036
12004.000			-32.284			-4.035
12104.000			-32.275			-4.034
12204.000			-32.267			-4.033
12304.000			-32.261			-4.033
12404.000			-32.253			-4.032
12505.000			-32.245			-4.031
12604.000			-32.231			-4.029
12704.000			-32.222			-4.028
12805.000			-32.214			-4.027
12904.000			-32.208			-4.026
13004.000			-32.201			-4.025
13105.000			-32.193			-4.024
13204.000			-32.186			-4.023
13304.000			-32.173			-4.022
13403.000			-32.167			-4.021
13504.000			-32.160			-4.020
13605.000			-32.153			-4.019
13704.000			-32.147			-4.018
13804.000			-32.139			-4.017
13905.000			-32.133			-4.017
14004.000			-32.125			-4.016
14103.000			-32.113			-4.014
14205.000			-32.106			-4.013
14304.000			-32.100			-4.012
14404.000			-32.093			-4.012
14505.000			-32.088			-4.011
14603.000			-32.081			-4.010
14704.000			-32.074			-4.009
14805.000			-32.062			-4.008
14904.000			-32.056			-4.007
15004.000			-32.050			-4.006
15105.000			-32.043			-4.005
15204.000			-32.037			-4.005
15303.000			-32.030			-4.004
15405.000			-32.024			-4.003
15504.000			-32.012			-4.002
15604.000			-32.006			-4.001
15705.000			-32.000			-4.000
15804.000			-31.995			-3.999
15904.000			-31.990			-3.999
16004.000			-31.983			-3.998
16104.000			-31.977			-3.997
16204.000			-31.967			-3.996
16305.000			-31.961			-3.995
16404.000			-31.954			-3.994
16504.000			-31.950			-3.994
16605.000			-31.944			-3.993
16703.000			-31.938			-3.992
16805.000			-31.933			-3.992
16904.000			-31.922			-3.990
17004.000			-31.917			-3.990
17105.000			-31.911			-3.989
17204.000			-31.905			-3.988
17304.000			-31.900			-3.987
17404.000			-31.894			-3.987
17504.000			-31.890			-3.986
17604.000			-31.885			-3.986
17705.000			-31.875			-3.984
17804.000			-31.870			-3.984
17904.000			-31.865			-3.983
18005.000			-31.860			-3.982
18103.000			-31.854			-3.982
18204.000			-31.848			-3.981
18305.000			-31.843			-3.980
18404.000			-31.834			-3.979
18504.000			-31.829			-3.979
18605.000			-31.824			-3.978
18704.000			-31.819			-3.977
18803.000			-31.814			-3.977
18905.000			-31.810			-3.976
19004.000			-31.806			-3.976
19104.000			-31.795			-3.974
19205.000			-31.789			-3.974
19304.000			-31.785			-3.973
19404.000			-31.780			-3.972
19504.000			-31.775			-3.972
19604.000			-31.771			-3.971
19704.000			-31.766			-3.971
19804.000			-31.762			-3.970
19904.000			-31.753			-3.969
20005.000			-31.749			-3.969
20104.000			-31.744			-3.968
20203.000			-31.739			-3.967
20305.000			-31.735			-3.967
20404.000			-31.731			-3.966
20504.000			-31.727			-3.966
20605.000			-31.717			-3.965
20703.000			-31.712			-3.964
20804.000			-31.708			-3.963
20905.000			-31.704			-3.963
21004.000			-31.699			-3.962
21104.000			-31.695			-3.962
21205.000			-31.691			-3.961
21304.000			-31.681			-3.960
21403.000			-31.678			-3.960
21505.000			-31.673			-3.959
21604.000			-31.669			-3.959
21704.000			-31.665			-3.958
21805.000			-31.660			-3.958
21904.000			-31.656			-3.957
22004.000			-31.648			-3.956
22104.000			-31.645			-3.956
22204.000			-31.640			-3.955
22304.000			-31.635			-3.954
22405.000			-31.632			-3.954
22504.000			-31.628			-3.954
22604.000			-31.624			-3.953
22705.000			-31.616			-3.952
22803.000			-31.613			-3.952
22904.000			-31.609			-3.951
23005.000			-31.604			-3.950
23104.000			-31.600			-3.950
23205.000			-31.596			-3.950
23304.000			-31.593			-3.949
23404.000			-31.588			-3.948
23504.000			-31.581			-3.948
23604.000			-31.577			-3.947
23704.000			-31.573			-3.947
23805.000			-31.569			-3.946
23904.000			-31.566			-3.946
24004.000			-31.563			-3.945
24105.000			-31.559			-3.945
24203.000			-31.551			-3.944
24304.000			-31.547			-3.943
24405.000			-31.543			-3.943
24504.000			-31.539			-3.942
24604.000			-31.536			-3.942
24704.000			-31.531			-3.941
24804.000			-31.528			-3.941
24904.000			-31.520			-3.940
25005.000			-31.517			-3.940
25104.000			-31.514			-3.939
25204.000			-31.510			-3.939
25305.000			-31.507			-3.938
25403.000			-31.503			-3.938
25504.000			-31.500			-3.937
25605.000			-31.493			-3.937
25704.000			-31.490			-3.936
25804.000			-31.485			-3.936
25905.000			-31.482			-3.935
26004.000			-31.479			-3.935
26103.000			-31.475			-3.934
26205.000			-31.471			-3.934
26304.000			-31.467			-3.933
26405.000			-31.461			-3.933
26504.000			-31.458			-3.932
26604.000			-31.454			-3.932
26705.000			-31.450			-3.931
26803.000			-31.448			-3.931
26904.000			-31.444			-3.930
27005.000			-31.441			-3.930
27104.000			-31.434			-3.929
27204.000			-31.431			-3.929
27304.000			-31.428			-3.928
27404.000			-31.424			-3.928
27504.000			-31.421			-3.928
27605.000			-31.417			-3.927
27704.000			-31.413			-3.927
27804.000			-31.408			-3.926
27905.000			-31.404			-3.926
28003.000			-31.401			-3.925
28104.000			-31.398			-3.925
28205.000			-31.395			-3.924
28304.000			-31.392			-3.924
28404.000			-31.388			-3.924
28505.000			-31.382			-3.923
28604.000			-31.379			-3.922
28703.000			-31.375			-3.922
28805.000			-31.372			-3.921
28904.000			-31.369			-3.921
29004.000			-31.367			-3.921
29105.000			-31.364			-3.921
29204.000			-31.360			-3.920
29304.000			-31.353			-3.919
29403.000			-31.351			-3.919
29504.000			-31.348			-3.918
29605.000			-31.343			-3.918
29704.000			-31.340			-3.918
29804.000			-31.339			-3.917
29905.000			-31.336			-3.917
30004.000			-31.329			-3.916
30103.000			-31.327			-3.916
30205.000			-31.324			-3.915
30304.000			-31.320			-3.915
30404.000			-31.318			-3.915
30505.000			-31.314			-3.914
30603.000			-31.311			-3.914
30704.000			-31.305			-3.913
30805.000			-31.303			-3.913
30904.000			-31.300			-3.913
31004.000			-31.297			-3.912
31105.000			-31.294			-3.912
31204.000			-31.291			-3.911
31303.000			-31.287			-3.911
31405.000			-31.282			-3.910
31504.000			-31.279			-3.910
31604.000			-31.276			-3.910
31705.000			-31.274			-3.909
31804.000			-31.271			-3.909
31904.000			-31.268			-3.908
32004.000			-31.265			-3.908
32104.000			-31.262			-3.908
32204.000			-31.256			-3.907
32305.000			-31.253			-3.907
32404.000			-31.252			-3.906
32503.000			-31.248			-3.906
32605.000			-31.245			-3.906
32704.000			-31.243			-3.905
32805.000			-31.240			-3.905
32904.000			-31.235			-3.904
33004.000			-31.231			-3.904
33105.000			-31.228			-3.904
33203.000			-31.226			-3.903
33304.000			-31.224			-3.903
33405.000			-31.221			-3.903
33504.000			-31.218			-3.902
33604.000			-31.213			-3.902
33705.000			-31.211			-3.901
33804.000			-31.208			-3.901
33903.000			-31.205			-3.901
34005.000			-31.202			-3.900
34104.000			-31.200			-3.900
34204.000			-31.197			-3.900
34305.000			-31.192			-3.899
34403.000			-31.189			-3.899
34504.000			-31.185			-3.898
34605.000			-31.184			-3.898
34704.000			-31.182			-3.898
34804.000			-31.179			-3.897
34905.000			-31.176			-3.897
35004.000			-31.174			-3.897
35103.000			-31.169			-3.896
35205.000			-31.166			-3.896
35304.000			-31.163			-3.895
35404.000			-31.160			-3.895
35505.000			-31.158			-3.895
35604.000			-31.156			-3.894
35704.000			-31.153			-3.894
35803.000			-31.149			-3.894
35904.000			-31.145			-3.893
36005.000			-31.142			-3.893
36104.000			-31.140			-3.893
36204.000			-31.138			-3.892
36304.000			-31.135			-3.892
36404.000			-31.133			-3.892
36503.000			-31.128			-3.891
36605.000			-31.125			-3.891
36704.000			-31.123			-3.890
36804.000			-31.120			-3.890
36905.000			-31.118			-3.890
37003.000			-31.116			-3.890
37104.000			-31.113			-3.889
37205.000			-31.109			-3.889
37304.000			-31.108			-3.888
37404.000			-31.105			-3.888
37505.000			-31.102			-3.888
37604.000			-31.100			-3.887
37703.000			-31.097			-3.887
37805.000			-31.095			-3.887
37904.000			-31.093			-3.887
38004.000			-31.088			-3.886
38105.000			-31.085			-3.886
38204.000			-31.082			-3.885
38304.000			-31.080			-3.885
38404.000			-31.077			-3.885
38504.000			-31.076			-3.884
38604.000			-31.075			-3.884
38705.000			-31.069			-3.884
38804.000			-31.067			-3.883
38904.000			-31.065			-3.883
39005.000			-31.063			-3.883
39103.000			-31.060			-3.882
39205.000			-31.057			-3.882
39304.000			-31.055			-3.882
39404.000			-31.051			-3.881
39505.000			-31.049			-3.881
39604.000			-31.047			-3.881
39704.000			-31.045			-3.881
39804.000			-31.041			-3.880
39904.000			-31.038			-3.880
40004.000			-31.037			-3.880
40105.000			-31.032			-3.879
40204.000			-31.029			-3.879
40303.000			-31.028			-3.878
40405.000			-31.026			-3.878
40504.000			-31.024			-3.878
40604.000			-31.021			-3.878
40705.000			-31.019			-3.877
40804.000			-31.017			-3.877
40904.000			-31.013			-3.877
41004.000			-31.010			-3.876
41104.000			-31.008			-3.876
41204.000			-31.007			-3.876
41305.000			-31.005			-3.876
41404.000			-31.002			-3.875
41504.000			-31.000			-3.875
41605.000			-30.996			-3.874
41703.000			-30.993			-3.874
41804.000			-30.990			-3.874
41905.000			-30.988			-3.874
42004.000			-30.987			-3.873
42104.000			-30.984			-3.873
42204.000			-30.983			-3.873
42304.000			-30.979			-3.872
42404.000			-30.976			-3.872
42504.000			-30.973			-3.872
42604.000			-30.971			-3.871
42705.000			-30.969			-3.871
42804.000			-30.967			-3.871
42904.000			-30.965			-3.871
43005.000			-30.961			-3.870
43104.000			-30.960			-3.870
43204.000			-30.957			-3.870
43305.000			-30.956			-3.869
43404.000			-30.954			-3.869
43504.000			-30.950			-3.869
43604.000			-30.949			-3.869
43704.000			-30.947			-3.868
43803.000			-30.943			-3.868
43905.000			-30.939			-3.867
44004.000			-30.937			-3.867
44104.000			-30.936			-3.867
44205.000			-30.935			-3.867
44303.000			-30.933			-3.867
44404.000			-30.931			-3.866
44505.000			-30.928			-3.866
44604.000			-30.925			-3.866
44704.000			-30.923			-3.865
44805.000			-30.920			-3.865
44904.000			-30.918			-3.865
45003.000			-30.916			-3.865
45105.000			-30.914			-3.864
45204.000			-30.911			-3.864
45304.000			-30.908			-3.863
45405.000			-30.906			-3.863
45504.000			-30.905			-3.863
45605.000			-30.903			-3.863
45703.000			-30.900			-3.863
45804.000			-30.898			-3.862
45905.000			-30.895			-3.862
46004.000			-30.892			-3.862
46104.000			-30.891			-3.861
46205.000			-30.888			-3.861
46304.000			-30.886			-3.861
46403.000			-30.885			-3.861
46505.000			-30.883			-3.860
46604.000			-30.882			-3.860
46704.000			-30.877			-3.860
46805.000			-30.875			-3.859
46904.000			-30.873			-3.859
47004.000			-30.872			-3.859
47104.000			-30.869			-3.859
47204.000			-30.868			-3.858
47304.000			-30.866			-3.858
47405.000			-30.862			-3.858
47504.000			-30.860			-3.858
47604.000			-30.858			-3.857
47705.000			-30.856			-3.857
47803.000			-30.853			-3.857
47904.000			-30.852			-3.856
48005.000			-30.850			-3.856
48104.000			-30.848			-3.856
48204.000			-30.846			-3.856
48305.000			-30.843			-3.855
48404.000			-30.840			-3.855
48503.000			-30.838			-3.855
48605.000			-30.836			-3.855
48704.000			-30.836			-3.854
48805.000			-30.833			-3.854
48904.000			-30.830			-3.854
49004.000			-30.827			-3.853
49105.000			-30.826			-3.853
49203.000			-30.824			-3.853
49304.000			-30.822			-3.853
49405.000			-30.820			-3.853
49504.000			-30.818			-3.852
49604.000			-30.816			-3.852
49705.000			-30.813			-3.852
49804.000			-30.811			-3.851
49903.000			-30.808			-3.851
50005.000			-30.807			-3.851
50104.000			-30.806			-3.851
50204.000			-30.804			-3.851
50305.000			-30.800			-3.850
50403.000			-30.798			-3.850
50504.000			-30.796			-3.849
50604.000			-30.794			-3.849
50704.000			-30.793			-3.849
50804.000			-30.791			-3.849
50905.000			-30.788			-3.849
51004.000			-30.785			-3.848
51103.000			-30.784			-3.848
51205.000			-30.783			-3.848
51304.000			-30.781			-3.848
51404.000			-30.778			-3.847
51505.000			-30.777			-3.847
51604.000			-30.776			-3.847
51704.000			-30.772			-3.846
51803.000			-30.770			-3.846
51904.000			-30.768			-3.846
52005.000			-30.766			-3.846
52104.000			-30.764			-3.846
52204.000			-30.762			-3.845
52305.000			-30.761			-3.845
52404.000			-30.758			-3.845
52503.000			-30.755			-3.844
52605.000			-30.754			-3.844
52704.000			-30.752			-3.844
52804.000			-30.750			-3.844
52905.000			-30.748			-3.843
53004.000			-30.746			-3.843
53104.000			-30.744			-3.843
53204.000			-30.742			-3.843
53304.000			-30.740			-3.843
53404.000			-30.738			-3.842
53505.000			-30.737			-3.842
53604.000			-30.735			-3.842
53704.000			-30.733			-3.842
53805.000			-30.732			-3.841
53903.000			-30.728			-3.841
54004.000			-30.727			-3.841
54105.000			-30.726			-3.841
54204.000			-30.724			-3.841
54304.000			-30.722			-3.840
54404.000			-30.720			-3.840
54504.000			-30.719			-3.840
54604.000			-30.716			-3.840
54705.000			-30.715			-3.839
54804.000			-30.712			-3.839
54904.000			-30.711			-3.839
55005.000			-30.710			-3.839
55103.000			-30.709			-3.839
55205.000			-30.706			-3.838
55304.000			-30.704			-3.838
55404.000			-30.702			-3.838
55505.000			-30.700			-3.838
55604.000			-30.699			-3.837
55704.000			-30.697			-3.837
55804.000			-30.696			-3.837
55904.000			-30.695			-3.837
56004.000			-30.692			-3.837
56105.000			-30.689			-3.836
56204.000			-30.687			-3.836
56304.000			-30.686			-3.836
56405.000			-30.684			-3.836
56503.000			-30.683			-3.835
56604.000			-30.682			-3.835
56705.000			-30.681			-3.835
56804.000			-30.677			-3.835
56904.000			-30.676			-3.834
57005.000			-30.674			-3.834
57104.000			-30.673			-3.834
57203.000			-30.672			-3.834
57305.000			-30.670			-3.834
57404.000			-30.668			-3.833
57504.000			-30.665			-3.833
57605.000			-30.664			-3.833
57704.000			-30.662			-3.833
57804.000			-30.661			-3.833
57904.000			-30.659			-3.832
58004.000			-30.658			-3.832
58104.000			-30.657			-3.832
58204.000			-30.655			-3.832
58304.000			-30.651			-3.831
58405.000			-30.650			-3.831
58504.000			-30.648			-3.831
58603.000			-30.646			-3.831
58705.000			-30.645			-3.831
58804.000			-30.644			-3.831
58904.000			-30.643			-3.830
59005.000			-30.640			-3.830
59104.000			-30.638			-3.830
59204.000			-30.637			-3.830
59304.000			-30.636			-3.829
59404.000			-30.635			-3.829
59504.000			-30.633			-3.829
59605.000			-30.631			-3.829
59704.000			-30.627			-3.828
59804.000			-30.626			-3.828
59905.000			-30.625			-3.828
60003.000			-30.622			-3.828
60104.000			-30.620			-3.828
60205.000			-30.619			-3.827
60304.000			-30.618			-3.827
60404.000			-30.615			-3.827
60504.000			-30.613			-3.827
60604.000			-30.612			-3.826
60704.000			-30.610			-3.826
60805.000			-30.608			-3.826
60904.000			-30.606			-3.826
61004.000			-30.605			-3.826
61105.000			-30.604			-3.825
61203.000			-30.601			-3.825
61304.000			-30.600			-3.825
61405.000			-30.599			-3.825
61504.000			-30.598			-3.825
61605.000			-30.597			-3.825
61704.000			-30.595			-3.824
61804.000			-30.594			-3.824
61904.000			-30.591			-3.824
62004.000			-30.591			-3.824
62104.000			-30.590			-3.824
62205.000			-30.588			-3.823
62304.000			-30.585			-3.823
62404.000			-30.584			-3.823
62505.000			-30.582			-3.823
62603.000			-30.580			-3.822
62704.000			-30.579			-3.822
62805.000			-30.578			-3.822
62904.000			-30.575			-3.822
63004.000			-30.573			-3.822
63104.000			-30.573			-3.822
63204.000			-30.572			-3.821
63303.000			-30.568			-3.821
63405.000			-30.568			-3.821
63504.000			-30.566			-3.821
63604.000			-30.565			-3.821
63705.000			-30.565			-3.821
63804.000			-30.563			-3.820
63904.000			-30.561			-3.820
64004.000			-30.560			-3.820
64104.000			-30.558			-3.820
64204.000			-30.556			-3.819
64305.000			-30.555			-3.819
64404.000			-30.553			-3.819
64503.000			-30.552			-3.819
64605.000			-30.550			-3.819
64704.000			-30.549			-3.819
64805.000			-30.546			-3.818
64904.000			-30.543			-3.818
65004.000			-30.542			-3.818
65105.000			-30.542			-3.818
65204.000			-30.540			-3.818
65304.000			-30.538			-3.817
65404.000			-30.538			-3.817
65504.000			-30.535			-3.817
65604.000			-30.533			-3.817
65705.000			-30.532			-3.817
65804.000			-30.530			-3.816
65903.000			-30.530			-3.816
66005.000			-30.528			-3.816
66104.000			-30.526			-3.816
66204.000			-30.524			-3.816
66305.000			-30.522			-3.815
66404.000			-30.522			-3.815
66504.000			-30.520			-3.815
66604.000			-30.520			-3.815
66704.000			-30.519			-3.815
66804.000			-30.516			-3.815
66905.000			-30.515			-3.814
67004.000			-30.513			-3.814
67104.000			-30.510			-3.814
67205.000			-30.508			-3.814
67303.000			-30.508			-3.814
67404.000			-30.507			-3.813
67505.000			-30.506			-3.813
67604.000			-30.504			-3.813
67704.000			-30.501			-3.813
67804.000			-30.499			-3.812
67904.000			-30.498			-3.812
68004.000			-30.497			-3.812
68104.000			-30.496			-3.812
68204.000			-30.495			-3.812
68305.000			-30.493			-3.812
68404.000			-30.492			-3.811
68504.000			-30.491			-3.811
68605.000			-30.488			-3.811
68703.000			-30.487			-3.811
68804.000			-30.486			-3.811
68905.000			-30.485			-3.811
69004.000			-30.483			-3.810
69104.000			-30.481			-3.810
69205.000			-30.479			-3.810
69304.000			-30.478			-3.810
69403.000			-30.476			-3.810
69505.000			-30.476			-3.809
69603.000			-30.474			-3.809
69704.000			-30.472			-3.809
69805.000			-30.471			-3.809
69904.000			-30.470			-3.809
70004.000			-30.468			-3.808
70105.000			-30.466			-3.808
70204.000			-30.466			-3.808
70303.000			-30.465			-3.808
70405.000			-30.463			-3.808
70504.000			-30.461			-3.808
70604.000			-30.461			-3.808
70705.000			-30.459			-3.807
70803.000			-30.457			-3.807
70904.000			-30.455			-3.807
71005.000			-30.454			-3.807
71104.000			-30.452			-3.807
71205.000			-30.452			-3.807
71304.000			-30.449			-3.806
71404.000			-30.448			-3.806
71504.000			-30.448			-3.806
71604.000			-30.446			-3.806
71704.000			-30.444			-3.806
71805.000			-30.443			-3.805
71904.000			-30.441			-3.805
72004.000			-30.439			-3.805
72105.000			-30.438			-3.805
72203.000			-30.436			-3.805
72304.000			-30.435			-3.804
72405.000			-30.433			-3.804
72504.000			-30.434			-3.804
72604.000			-30.432			-3.804
72705.000			-30.431			-3.804
72804.000			-30.429			-3.804
72903.000			-30.427			-3.803
73005.000			-30.425			-3.803
73104.000			-30.424			-3.803
73204.000			-30.424			-3.803
73305.000			-30.422			-3.803
73404.000			-30.421			-3.803
73504.000			-30.418			-3.802
73604.000			-30.416			-3.802
73704.000			-30.416			-3.802
73804.000			-30.415			-3.802
73905.000			-30.414			-3.802
74004.000			-30.413			-3.802
74103.000			-30.412			-3.801
74205.000			-30.409			-3.801
74304.000			-30.408			-3.801
74405.000			-30.407			-3.801
74504.000			-30.405			-3.801
74604.000			-30.404			-3.800
74705.000			-30.403			-3.800
74803.000			-30.402			-3.800
74904.000			-30.400			-3.800
75005.000			-30.399			-3.800
75104.000			-30.397			-3.800
75204.000			-30.395			-3.799
75305.000			-30.395			-3.799
75404.000			-30.394			-3.799
75503.000			-30.392			-3.799
75605.000			-30.392			-3.799
75703.000			-30.388			-3.798
75804.000			-30.387			-3.798
75905.000			-30.387			-3.798
76004.000			-30.386			-3.798
76104.000			-30.384			-3.798
76205.000			-30.382			-3.798
76304.000			-30.381			-3.798
76403.000			-30.379			-3.797
76505.000			-30.379			-3.797
76604.000			-30.377			-3.797
76704.000			-30.376			-3.797
76805.000			-30.375			-3.797
76904.000			-30.373			-3.797
77004.000			-30.371			-3.796
77104.000			-30.368			-3.796
77204.000			-30.369			-3.796
77304.000			-30.367			-3.796
77404.000			-30.367			-3.796
77504.000			-30.367			-3.796
77605.000			-30.365			-3.796
77704.000			-30.364			-3.796
77803.000			-30.361			-3.795
77905.000			-30.360			-3.795
78004.000			-30.359			-3.795
78104.000			-30.357			-3.795
78205.000			-30.355			-3.794
78304.000			-30.356			-3.794
78404.000			-30.356			-3.794
78504.000			-30.354			-3.794
78604.000			-30.351			-3.794
78704.000			-30.350			-3.794
78805.000			-30.349			-3.794
78904.000			-30.348			-3.794
79004.000			-30.348			-3.793
79105.000			-30.346			-3.793
79203.000			-30.344			-3.793
79304.000			-30.342			-3.793
79405.000			-30.341			-3.793
79504.000			-30.340			-3.793
79604.000			-30.339			-3.792
79705.000			-30.338			-3.792
79804.000			-30.337			-3.792
79903.000			-30.335			-3.792
80005.000			-30.332			-3.792
80104.000			-30.332			-3.791
80204.000			-30.330			-3.791
80305.000			-30.330			-3.791
80404.000			-30.330			-3.791
80504.000			-30.329			-3.791
80603.000			-30.326			-3.791
80704.000			-30.325			-3.791
80805.000			-30.324			-3.790
80904.000			-30.322			-3.790
81004.000			-30.320			-3.790
81104.000			-30.318			-3.790
81204.000			-30.318			-3.790
81304.000			-30.318			-3.790
81405.000			-30.319			-3.790
81504.000			-30.314			-3.789
81604.000			-30.311			-3.789
81705.000			-30.311			-3.789
81803.000			-30.311			-3.789
81904.000			-30.310			-3.789
82005.000			-30.309			-3.789
82104.000			-30.308			-3.789
82204.000			-30.305			-3.788
82305.000			-30.305			-3.788
82404.000			-30.304			-3.788
82503.000			-30.302			-3.788
82605.000			-30.300			-3.788
82704.000			-30.299			-3.787
82804.000			-30.299			-3.787
82905.000			-30.296			-3.787
83004.000			-30.295			-3.787
83104.000			-30.294			-3.787
83204.000			-30.292			-3.787
83304.000			-30.291			-3.786
83404.000			-30.290			-3.786
83505.000			-30.290			-3.786
83604.000			-30.288			-3.786
83704.000			-30.286			-3.786
83805.000			-30.285			-3.786
83903.000			-30.284			-3.785
84005.000			-30.284			-3.785
84104.000			-30.283			-3.785
84204.000			-30.282			-3.785
84305.000			-30.281			-3.785
84404.000			-30.278			-3.785
84504.000			-30.278			-3.785
84604.000			-30.276			-3.785
84704.000			-30.276			-3.784
84804.000			-30.275			-3.784
84905.000			-30.273			-3.784
85004.000			-30.272			-3.784
85104.000			-30.269			-3.784
85205.000			-30.268			-3.783
85303.000			-30.269			-3.784
85404.000			-30.268			-3.783
85505.000			-30.266			-3.783
85604.000			-30.265			-3.783
85704.000			-30.263			-3.783
85805.000			-30.262			-3.783
85904.000			-30.261			-3.783
86003.000			-30.261			-3.783
86105.000			-30.259			-3.782
86204.000			-30.258			-3.782
86304.000			-30.257			-3.782
86405.000			-30.256			-3.782
86504.000			-30.255			-3.782
86604.000			-30.253			-3.782
86704.000			-30.252			-3.782
86804.000			-30.251			-3.781
86904.000			-30.250			-3.781
87004.000			-30.248			-3.781
87104.000			-30.247			-3.781
87205.000			-30.247			-3.781
87304.000			-30.245			-3.781
87403.000			-30.244			-3.780
87505.000			-30.242			-3.780
87604.000			-30.241			-3.780
87704.000			-30.241			-3.780
87805.000			-30.240			-3.780
87904.000			-30.238			-3.780
88004.000			-30.236			-3.780
88104.000			-30.235			-3.779
88204.000			-30.235			-3.779
88304.000			-30.234			-3.779
88405.000			-30.234			-3.779
88504.000			-30.233			-3.779
88604.000			-30.231			-3.779
88705.000			-30.228			-3.779
88803.000			-30.228			-3.778
88904.000			-30.226			-3.778
89005.000			-30.225			-3.778
89104.000			-30.224			-3.778
89204.000			-30.224			-3.778
89305.000			-30.223			-3.778
89404.000			-30.222			-3.778
89503.000			-30.219			-3.777
89605.000			-30.219			-3.777
89704.000			-30.218			-3.777
89804.000			-30.217			-3.777
89905.000			-30.216			-3.777
90004.000			-30.216			-3.777
90104.000			-30.215			-3.777
90203.000			-30.212			-3.777
90304.000			-30.211			-3.776
90405.000			-30.209			-3.776
90504.000			-30.209			-3.776
90604.000			-30.207			-3.776
90704.000			-30.206			-3.776
90804.000			-30.206			-3.776
90904.000			-30.204			-3.776
91005.000			-30.203			-3.775
91104.000			-30.202			-3.775
91204.000			-30.202			-3.775
91305.000			-30.202			-3.775
91403.000			-30.200			-3.775
91504.000			-30.199			-3.775
91605.000			-30.197			-3.775
91704.000			-30.195			-3.774
91804.000			-30.194			-3.774
91905.000			-30.194			-3.774
92004.000			-30.193			-3.774
92103.000			-30.192			-3.774
92205.000			-30.191			-3.774
92304.000			-30.190			-3.774
92404.000			-30.188			-3.774
92505.000			-30.187			-3.773
92604.000			-30.187			-3.773
92704.000			-30.186			-3.773
92804.000			-30.184			-3.773
92904.000			-30.184			-3.773
93004.000			-30.183			-3.773
93105.000			-30.181			-3.773
93204.000			-30.180			-3.773
93304.000			-30.178			-3.772
93405.000			-30.176			-3.772
93503.000			-30.176			-3.772
93605.000			-30.175			-3.772
93704.000			-30.175			-3.772
93804.000			-30.174			-3.772
93905.000			-30.174			-3.772
94004.000			-30.171			-3.771
94104.000			-30.169			-3.771
94204.000			-30.168			-3.771
94304.000			-30.168			-3.771
94404.000			-30.167			-3.771
94505.000			-30.166			-3.771
94604.000			-30.165			-3.771
94704.000			-30.164			-3.770
94805.000			-30.162			-3.770
94903.000			-30.161			-3.770
95004.000			-30.160			-3.770
95105.000			-30.160			-3.770
95204.000			-30.158			-3.770
95304.000			-30.156			-3.769
95405.000			-30.155			-3.769
95504.000			-30.155			-3.769
95603.000			-30.154			-3.769
95705.000			-30.154			-3.769
95804.000			-30.153			-3.769
95904.000			-30.151			-3.769
96005.000			-30.148			-3.769
96104.000			-30.147			-3.768
96204.000			-30.146			-3.768
96304.000			-30.145			-3.768
96404.000			-30.145			-3.768
96504.000			-30.145			-3.768
96604.000			-30.145			-3.768
96704.000			-30.142			-3.768
96805.000			-30.141			-3.768
96904.000			-30.139			-3.767
97003.000			-30.139			-3.767
97105.000			-30.138			-3.767
97204.000			-30.137			-3.767
97304.000			-30.137			-3.767
97405.000			-30.135			-3.767
97504.000			-30.134			-3.767
97604.000			-30.134			-3.767
97704.000			-30.133			-3.767
97804.000			-30.131			-3.766
97904.000			-30.129			-3.766
98005.000			-30.129			-3.766
98104.000			-30.128			-3.766
98204.000			-30.126			-3.766
98305.000			-30.125			-3.766
98403.000			-30.125			-3.766
98504.000			-30.123			-3.765
98605.000			-30.122			-3.765
98704.000			-30.122			-3.765
98804.000			-30.121			-3.765
98905.000			-30.119			-3.765
99004.000			-30.118			-3.765
99103.000			-30.117			-3.765
99205.000			-30.116			-3.764
99304.000			-30.114			-3.764
99404.000			-30.114			-3.764
99505.000			-30.114			-3.764
99604.000			-30.112			-3.764
99704.000			-30.111			-3.764
99803.000			-30.110			-3.764
99904.000			-30.109			-3.764
100005.000			-30.108			-3.764
100104.000			-30.107			-3.763
100204.000			-30.106			-3.763
100305.000			-30.105			-3.763
100404.000			-30.105			-3.763
100503.000			-30.105			-3.763
100605.000			-30.103			-3.763
100704.000			-30.102			-3.763
100804.000			-30.100			-3.763
100905.000			-30.098			-3.762
101003.000			-30.099			-3.762
101104.000			-30.097			-3.762
101205.000			-30.096			-3.762
101304.000			-30.096			-3.762
101404.000			-30.095			-3.762
101505.000			-30.095			-3.762
101604.000			-30.093			-3.762
101703.000			-30.092			-3.761
101805.000			-30.090			-3.761
101904.000			-30.090			-3.761
102004.000			-30.090			-3.761
102105.000			-30.088			-3.761
102204.000			-30.086			-3.761
102304.000			-30.086			-3.761
102404.000			-30.085			-3.761
102504.000			-30.084			-3.760
102603.000			-30.083			-3.760
102705.000			-30.083			-3.760
102804.000			-30.082			-3.760
102904.000			-30.081			-3.760
103005.000			-30.080			-3.760
103103.000			-30.078			-3.760
103205.000			-30.077			-3.760
103304.000			-30.076			-3.760
103404.000			-30.075			-3.759
103505.000			-30.074			-3.759
103604.000			-30.074			-3.759
103704.000			-30.072			-3.759
103804.000			-30.072			-3.759
103904.000			-30.069			-3.759
104003.000			-30.068			-3.758
104105.000			-30.068			-3.758
104204.000			-30.068			-3.758
104304.000			-30.067			-3.758
104405.000			-30.065			-3.758
104504.000			-30.066			-3.758
104604.000			-30.065			-3.758
104704.000			-30.063			-3.758
104804.000			-30.060			-3.758
104904.000			-30.059			-3.757
105005.000			-30.059			-3.757
105104.000			-30.059			-3.757
105204.000			-30.058			-3.757
105305.000			-30.056			-3.757
105403.000			-30.055			-3.757
105504.000			-30.055			-3.757
105605.000			-30.054			-3.757
105704.000			-30.052			-3.757
105804.000			-30.051			-3.756
105905.000			-30.051			-3.756
106004.000			-30.051			-3.756
106103.000			-30.049			-3.756
106205.000			-30.047			-3.756
106304.000			-30.046			-3.756
106405.000			-30.045			-3.756
106504.000			-30.045			-3.756
106604.000			-30.044			-3.756
106705.000			-30.044			-3.756
106803.000			-30.043			-3.755
106904.000			-30.042			-3.755
107005.000			-30.040			-3.755
107104.000			-30.039			-3.755
107204.000			-30.039			-3.755
107305.000			-30.037			-3.755
107404.000			-30.036			-3.754
107503.000			-30.037			-3.755
107605.000			-30.034			-3.754
107704.000			-30.033			-3.754
107804.000			-30.032			-3.754
107905.000			-30.032			-3.754
108004.000			-30.031			-3.754
108104.000			-30.030			-3.754
108204.000			-30.029			-3.754
108304.000			-30.027			-3.753
108404.000			-30.027			-3.753
108505.000			-30.026			-3.753
108604.000			-30.025			-3.753
108704.000			-30.024			-3.753
108805.000			-30.024			-3.753
108903.000			-30.023			-3.753
109004.000			-30.021			-3.753
109105.000			-30.022			-3.753
109204.000			-30.021			-3.753
109304.000			-30.019			-3.752
109404.000			-30.017			-3.752
109504.000			-30.017			-3.752
109604.000			-30.017			-3.752
109704.000			-30.016			-3.752
109804.000			-30.014			-3.752
109905.000			-30.013			-3.752
110004.000			-30.012			-3.752
110104.000			-30.012			-3.752
110205.000			-30.011			-3.751
110303.000			-30.010			-3.751
110404.000			-30.009			-3.751
110505.000			-30.008			-3.751
110604.000			-30.007			-3.751
110704.000			-30.006			-3.751
110804.000			-30.006			-3.751
110904.000			-30.005			-3.751
111004.000			-30.004			-3.751
111105.000			-30.004			-3.750
111204.000			-30.001			-3.750
111304.000			-30.001			-3.750
111405.000			-30.000			-3.750
111503.000			-29.999			-3.750
111604.000			-29.998			-3.750
111705.000			-29.997			-3.750
111804.000			-29.997			-3.750
111904.000			-29.996			-3.750
112005.000			-29.995			-3.749
112104.000			-29.994			-3.749
112204.000			-29.994			-3.749
112305.000			-29.993			-3.749
112403.000			-29.992			-3.749
112504.000			-29.991			-3.749
112605.000			-29.989			-3.749
112704.000			-29.988			-3.748
112805.000			-29.987			-3.748
112904.000			-29.987			-3.748
113004.000			-29.987			-3.748
113104.000			-29.986			-3.748
113204.000			-29.985			-3.748
113303.000			-29.984			-3.748
113405.000			-29.982			-3.748
113504.000			-29.981			-3.748
113604.000			-29.981			-3.748
113705.000			-29.980			-3.747
113804.000			-29.979			-3.747
113904.000			-29.978			-3.747
114004.000			-29.977			-3.747
114104.000			-29.976			-3.747
114204.000			-29.975			-3.747
114305.000			-29.975			-3.747
114404.000			-29.974			-3.747
114504.000			-29.973			-3.747
114605.000			-29.972			-3.746
114704.000			-29.971			-3.746
114804.000			-29.970			-3.746
114904.000			-29.969			-3.746
115004.000			-29.968			-3.746
115104.000			-29.967			-3.746
115205.000			-29.966			-3.746
115304.000			-29.965			-3.746
115404.000			-29.965			-3.746
115505.000			-29.962			-3.745
115603.000			-29.962			-3.745
115704.000			-29.961			-3.745
115805.000			-29.960			-3.745
115904.000			-29.959			-3.745
116005.000			-29.959			-3.745
116104.000			-29.958			-3.745
116204.000			-29.956			-3.745
116305.000			-29.957			-3.745
116404.000			-29.956			-3.744
116503.000			-29.954			-3.744
116605.000			-29.953			-3.744
116704.000			-29.953			-3.744
116804.000			-29.952			-3.744
116905.000			-29.950			-3.744
117004.000			-29.950			-3.744
117104.000			-29.949			-3.744
117205.000			-29.948			-3.744
117304.000			-29.948			-3.744
117403.000			-29.947			-3.743
117505.000			-29.946			-3.743
117604.000			-29.946			-3.743
117704.000			-29.944			-3.743
117805.000			-29.943			-3.743
117904.000			-29.943			-3.743
118004.000			-29.941			-3.743
118104.000			-29.941			-3.743
118204.000			-29.941			-3.743
118304.000			-29.941			-3.743
118405.000			-29.939			-3.742
118504.000			-29.937			-3.742
118604.000			-29.936			-3.742
118705.000			-29.936			-3.742
118804.000			-29.935			-3.742
118904.000			-29.934			-3.742
119003.000			-29.934			-3.742
119104.000			-29.933			-3.742
119205.000			-29.932			-3.742
119304.000			-29.931			-3.741
119404.000			-29.930			-3.741
119505.000			-29.929			-3.741
119604.000			-29.928			-3.741
119703.000			-29.927			-3.741
119805.000			-29.927			-3.741
119903.000			-29.926			-3.741
120004.000			-29.925			-3.741
120105.000			-29.924			-3.740
120204.000			-29.924			-3.740
120304.000			-29.922			-3.740
120405.000			-29.921			-3.740
120504.000			-29.921			-3.740
120603.000			-29.920			-3.740
120705.000			-29.919			-3.740
120804.000			-29.917			-3.740
120904.000			-29.917			-3.740
121005.000			-29.916			-3.740
121104.000			-29.915			-3.739
121204.000			-29.915			-3.739
121304.000			-29.914			-3.739
121404.000			-29.912			-3.739
121504.000			-29.911			-3.739
121605.000			-29.911			-3.739
121704.000			-29.911			-3.739
121804.000			-29.910			-3.739
121905.000			-29.909			-3.739
122004.000			-29.909			-3.739
122104.000			-29.908			-3.738
122203.000			-29.908			-3.738
122304.000			-29.907			-3.738
122405.000			-29.905			-3.738
122504.000			-29.905			-3.738
122604.000			-29.904			-3.738
122705.000			-29.903			-3.738
122804.000			-29.902			-3.738
122903.000			-29.901			-3.738
123005.000			-29.900			-3.738
123104.000			-29.900			-3.738
123204.000			-29.899			-3.737
123305.000			-29.898			-3.737
123404.000			-29.898			-3.737
123504.000			-29.897			-3.737
123604.000			-29.896			-3.737
123704.000			-29.895			-3.737
123803.000			-29.894			-3.737
123905.000			-29.893			-3.737
124004.000			-29.894			-3.737
124104.000			-29.893			-3.737
124205.000			-29.892			-3.736
124304.000			-29.891			-3.736
124404.000			-29.889			-3.736
124504.000			-29.888			-3.736
124604.000			-29.888			-3.736
124703.000			-29.887			-3.736
124805.000			-29.885			-3.736
124904.000			-29.886			-3.736
125004.000			-29.884			-3.735
125105.000			-29.884			-3.736
125204.000			-29.884			-3.735
125304.000			-29.882			-3.735
125403.000			-29.882			-3.735
125504.000			-29.882			-3.735
125605.000			-29.881			-3.735
125704.000			-29.879			-3.735
125804.000			-29.879			-3.735
125905.000			-29.878			-3.735
126004.000			-29.877			-3.735
126103.000			-29.876			-3.734
126205.000			-29.875			-3.734
126303.000			-29.875			-3.734
126404.000			-29.874			-3.734
126505.000			-29.873			-3.734
126604.000			-29.872			-3.734
126704.000			-29.872			-3.734
126805.000			-29.871			-3.734
126904.000			-29.871			-3.734
127003.000			-29.869			-3.734
127105.000			-29.869			-3.734
127204.000			-29.868			-3.734
127304.000			-29.867			-3.733
127405.000			-29.866			-3.733
127504.000			-29.865			-3.733
127604.000			-29.865			-3.733
127705.000			-29.864			-3.733
127804.000			-29.863			-3.733
127903.000			-29.862			-3.733
128005.000			-29.862			-3.733
128104.000			-29.861			-3.733
128204.000			-29.859			-3.732
128305.000			-29.859			-3.732
128404.000			-29.859			-3.732
128504.000			-29.857			-3.732
128604.000			-29.858			-3.732
128704.000			-29.856			-3.732
128804.000			-29.854			-3.732
128904.000			-29.854			-3.732
129004.000			-29.853			-3.732
129105.000			-29.853			-3.732
129204.000			-29.853			-3.732
129304.000			-29.851			-3.731
129405.000			-29.851			-3.731
129503.000			-29.851			-3.731
129604.000			-29.848			-3.731
129705.000			-29.847			-3.731
129804.000			-29.848			-3.731
129904.000			-29.848			-3.731
130005.000			-29.846			-3.731
130104.000			-29.845			-3.731
130204.000			-29.844			-3.731
130305.000			-29.844			-3.730
130403.000			-29.842			-3.730
130504.000			-29.843			-3.730
130605.000			-29.841			-3.730
130704.000			-29.840			-3.730
130804.000			-29.840			-3.730
130905.000			-29.839			-3.730
131004.000			-29.837			-3.730
131103.000			-29.837			-3.730
131205.000			-29.837			-3.730
131304.000			-29.837			-3.730
131404.000			-29.837			-3.730
131505.000			-29.834			-3.729
131604.000			-29.833			-3.729
131704.000			-29.833			-3.729
131804.000			-29.832			-3.729
131904.000			-29.831			-3.729
132004.000			-29.831			-3.729
132104.000			-29.831			-3.729
132204.000			-29.828			-3.729
132305.000			-29.828			-3.729
132404.000			-29.827			-3.728
132504.000			-29.826			-3.728
132605.000			-29.827			-3.728
132704.000			-29.827			-3.728
132804.000			-29.824			-3.728
132904.000			-29.822			-3.728
133004.000			-29.823			-3.728
133103.000			-29.822			-3.728
133205.000			-29.822			-3.728
133304.000			-29.821			-3.728
133404.000			-29.821			-3.728
133505.000			-29.820			-3.728
133604.000			-29.819			-3.727
133704.000			-29.817			-3.727
133804.000			-29.816			-3.727
133904.000			-29.816			-3.727
134003.000			-29.816			-3.727
134105.000			-29.815			-3.727
134204.000			-29.814			-3.727
134304.000			-29.813			-3.727
134405.000			-29.812			-3.726
134504.000			-29.811			-3.726
134604.000			-29.811			-3.726
134704.000			-29.810			-3.726
134804.000			-29.809			-3.726
134903.000			-29.808			-3.726
135005.000			-29.808			-3.726
135104.000			-29.807			-3.726
135205.000			-29.806			-3.726
135304.000			-29.805			-3.726
135404.000			-29.805			-3.726
135505.000			-29.805			-3.726
135603.000			-29.803			-3.725
135704.000			-29.802			-3.725
135804.000			-29.802			-3.725
135904.000			-29.801			-3.725
136004.000			-29.799			-3.725
136105.000			-29.799			-3.725
136204.000			-29.798			-3.725
136304.000			-29.798			-3.725
136405.000			-29.797			-3.725
136504.000			-29.797			-3.725
136604.000			-29.796			-3.725
136704.000			-29.796			-3.724
136804.000			-29.794			-3.724
136903.000			-29.793			-3.724
137005.000			-29.793			-3.724
137104.000			-29.792			-3.724
137204.000			-29.792			-3.724
137305.000			-29.790			-3.724
137404.000			-29.790			-3.724
137504.000			-29.790			-3.724
137604.000			-29.789			-3.724
137704.000			-29.788			-3.724
137803.000			-29.787			-3.723
137905.000			-29.787			-3.723
138004.000			-29.785			-3.723
138104.000			-29.785			-3.723
138205.000			-29.785			-3.723
138304.000			-29.784			-3.723
138405.000			-29.783			-3.723
138504.000			-29.782			-3.723
138604.000			-29.781			-3.723
138704.000			-29.781			-3.723
138804.000			-29.780			-3.722
138904.000			-29.779			-3.722
139005.000			-29.780			-3.722
139104.000			-29.778			-3.722
139204.000			-29.776			-3.722
139305.000			-29.776			-3.722
139404.000			-29.776			-3.722
139504.000			-29.776			-3.722
139604.000			-29.775			-3.722
139704.000			-29.774			-3.722
139803.000			-29.773			-3.722
139905.000			-29.772			-3.722
140004.000			-29.772			-3.722
140104.000			-29.771			-3.721
140205.000			-29.771			-3.721
140304.000			-29.770			-3.721
140404.000			-29.768			-3.721
140505.000			-29.768			-3.721
140604.000			-29.768			-3.721
140703.000			-29.767			-3.721
140805.000			-29.767			-3.721
140904.000			-29.765			-3.721
141004.000			-29.765			-3.721
141105.000			-29.763			-3.720
141204.000			-29.763			-3.720
141304.000			-29.762			-3.720
141404.000			-29.761			-3.720
141504.000			-29.761			-3.720
141604.000			-29.762			-3.720
141704.000			-29.759			-3.720
141803.000			-29.759			-3.720
141905.000			-29.758			-3.720
142004.000			-29.757			-3.720
142104.000			-29.757			-3.720
142205.000			-29.756			-3.720
142304.000			-29.756			-3.719
142404.000			-29.755			-3.719
142504.000			-29.754			-3.719
142604.000			-29.752			-3.719
142703.000			-29.752			-3.719
142805.000			-29.751			-3.719
142904.000			-29.751			-3.719
143004.000			-29.751			-3.719
143105.000			-29.750			-3.719
143204.000			-29.749			-3.719
143304.000			-29.748			-3.719
143404.000			-29.748			-3.718
143504.000			-29.747			-3.718
143603.000			-29.747			-3.718
143705.000			-29.746			-3.718
143804.000			-29.744			-3.718
143904.000			-29.744			-3.718
144005.000			-29.743			-3.718
144104.000			-29.743			-3.718
144204.000			-29.742			-3.718
144304.000			-29.742			-3.718
144404.000			-29.742			-3.718
144503.000			-29.741			-3.718
144605.000			-29.740			-3.717
144704.000			-29.738			-3.717
144805.000			-29.738			-3.717
144904.000			-29.737			-3.717
145004.000			-29.736			-3.717
145105.000			-29.736			-3.717
145204.000			-29.735			-3.717
145304.000			-29.732			-3.716
145404.000			-29.731			-3.716
145504.000			-29.732			-3.716
145604.000			-29.733			-3.717
145705.000			-29.733			-3.717
145804.000			-29.732			-3.716
145904.000			-29.731			-3.716
146005.000			-29.729			-3.716
146104.000			-29.729			-3.716
146204.000			-29.728			-3.716
146304.000			-29.728			-3.716
146404.000			-29.727			-3.716
146503.000			-29.726			-3.716
146605.000			-29.725			-3.716
146704.000			-29.725			-3.716
146804.000			-29.723			-3.715
146905.000			-29.723			-3.715
147004.000			-29.722			-3.715
147104.000			-29.722			-3.715
147205.000			-29.721			-3.715
147304.000			-29.721			-3.715
147403.000			-29.721			-3.715
147505.000			-29.720			-3.715
147604.000			-29.719			-3.715
147704.000			-29.717			-3.715
147805.000			-29.717			-3.715
147904.000			-29.717			-3.715
148005.000			-29.715			-3.714
148104.000			-29.715			-3.714
148204.000			-29.714			-3.714
148304.000			-29.714			-3.714
148404.000			-29.713			-3.714
148503.000			-29.711			-3.714
148605.000			-29.711			-3.714
148704.000			-29.712			-3.714
148804.000			-29.712			-3.714
148905.000			-29.710			-3.714
149004.000			-29.709			-3.714
149104.000			-29.708			-3.713
149204.000			-29.707			-3.713
149304.000			-29.706			-3.713
149403.000			-29.706			-3.713
149505.000			-29.706			-3.713
149604.000			-29.705			-3.713
149704.000			-29.705			-3.713
149805.000			-29.704			-3.713
149904.000			-29.703			-3.713
150004.000			-29.702			-3.713
150105.000			-29.701			-3.713
150204.000			-29.702			-3.713
150303.000			-29.701			-3.713
150405.000			-29.700			-3.713
150504.000			-29.699			-3.712
150604.000			-29.698			-3.712
150705.000			-29.698			-3.712
150804.000			-29.697			-3.712
150904.000			-29.697			-3.712
151004.000			-29.696			-3.712
151104.000			-29.694			-3.712
151204.000			-29.694			-3.712
151304.000			-29.694			-3.712
151404.000			-29.693			-3.712
151505.000			-29.693			-3.712
151604.000			-29.693			-3.712
151704.000			-29.692			-3.712
151805.000			-29.690			-3.711
151904.000			-29.690			-3.711
152004.000			-29.689			-3.711
152104.000			-29.689			-3.711
152204.000			-29.688			-3.711
152304.000			-29.688			-3.711
152405.000			-29.687			-3.711
152504.000			-29.686			-3.711
152604.000			-29.685			-3.711
152705.000			-29.684			-3.711
152804.000			-29.684			-3.710
152904.000			-29.683			-3.710
153004.000			-29.683			-3.710
153104.000			-29.683			-3.710
153203.000			-29.681			-3.710
153305.000			-29.681			-3.710
153404.000			-29.680			-3.710
153504.000			-29.679			-3.710
153605.000			-29.678			-3.710
153704.000			-29.677			-3.710
153804.000			-29.678			-3.710
153904.000			-29.678			-3.710
154004.000			-29.677			-3.710
154103.000			-29.676			-3.710
154205.000			-29.676			-3.709
154304.000			-29.675			-3.709
154405.000			-29.673			-3.709
154504.000			-29.673			-3.709
154604.000			-29.673			-3.709
154705.000			-29.672			-3.709
154804.000			-29.671			-3.709
154904.000			-29.670			-3.709
155004.000			-29.669			-3.709
155104.000			-29.670			-3.709
155204.000			-29.671			-3.709
155305.000			-29.669			-3.709
155404.000			-29.667			-3.708
155504.000			-29.667			-3.708
155605.000			-29.666			-3.708
155704.000			-29.665			-3.708
155804.000			-29.665			-3.708
155904.000			-29.665			-3.708
156004.000			-29.665			-3.708
156103.000			-29.665			-3.708
156205.000			-29.662			-3.708
156304.000			-29.661			-3.708
156404.000			-29.661			-3.708
156505.000			-29.661			-3.708
156604.000			-29.660			-3.707
156704.000			-29.659			-3.707
156804.000			-29.659			-3.707
156904.000			-29.658			-3.707
157003.000			-29.657			-3.707
157105.000			-29.658			-3.707
157204.000			-29.658			-3.707
157304.000			-29.656			-3.707
157405.000			-29.656			-3.707
157504.000			-29.655			-3.707
157605.000			-29.654			-3.707
157704.000			-29.652			-3.707
157804.000			-29.651			-3.706
157904.000			-29.651			-3.706
158004.000			-29.651			-3.706
158103.000			-29.651			-3.706
158205.000			-29.650			-3.706
158304.000			-29.650			-3.706
158404.000			-29.649			-3.706
158505.000			-29.648			-3.706
158604.000			-29.647			-3.706
158704.000			-29.646			-3.706
158805.000			-29.646			-3.706
158904.000			-29.645			-3.706
159003.000			-29.644			-3.706
159105.000			-29.644			-3.706
159204.000			-29.643			-3.705
159304.000			-29.643			-3.705
159405.000			-29.642			-3.705
159504.000			-29.642			-3.705
159604.000			-29.641			-3.705
159705.000			-29.641			-3.705
159804.000			-29.641			-3.705
159903.000			-29.639			-3.705
160005.000			-29.638			-3.705
160103.000			-29.638			-3.705
160204.000			-29.638			-3.705
160305.000			-29.637			-3.705
160404.000			-29.636			-3.705
160504.000			-29.633			-3.704
160604.000			-29.634			-3.704
160704.000			-29.635			-3.704
160804.000			-29.633			-3.704
160904.000			-29.632			-3.704
161003.000			-29.633			-3.704
161105.000			-29.633			-3.704
161204.000			-29.632			-3.704
161304.000			-29.630			-3.704
161405.000			-29.630			-3.704
161504.000			-29.629			-3.704
161604.000			-29.628			-3.704
161704.000			-29.628			-3.704
161804.000			-29.628			-3.704
161903.000			-29.627			-3.703
162005.000			-29.626			-3.703
162104.000			-29.625			-3.703
162204.000			-29.625			-3.703
162305.000			-29.625			-3.703
162404.000			-29.624			-3.703
162504.000			-29.623			-3.703
162604.000			-29.622			-3.703
162704.000			-29.621			-3.703
162803.000			-29.620			-3.703
162905.000			-29.620			-3.703
163004.000			-29.620			-3.702
163104.000			-29.620			-3.702
163205.000			-29.619			-3.702
163304.000			-29.618			-3.702
163404.000			-29.617			-3.702
163504.000			-29.617			-3.702
163604.000			-29.617			-3.702
163703.000			-29.616			-3.702
163805.000			-29.615			-3.702
163904.000			-29.615			-3.702
164005.000			-29.615			-3.702
164104.000			-29.614			-3.702
164204.000			-29.614			-3.702
164305.000			-29.613			-3.702
164404.000			-29.612			-3.701
164504.000			-29.611			-3.701
164604.000			-29.610			-3.701
164704.000			-29.610			-3.701
164804.000			-29.610			-3.701
164905.000			-29.607			-3.701
165004.000			-29.607			-3.701
165104.000			-29.607			-3.701
165205.000			-29.606			-3.701
165304.000			-29.606			-3.701
165404.000			-29.606			-3.701
165504.000			-29.605			-3.701
165604.000			-29.604			-3.701
165704.000			-29.603			-3.700
165805.000			-29.603			-3.700
165904.000			-29.603			-3.700
166004.000			-29.602			-3.700
166105.000			-29.601			-3.700
166204.000			-29.600			-3.700
166304.000			-29.600			-3.700
166404.000			-29.599			-3.700
166504.000			-29.599			-3.700
166603.000			-29.599			-3.700
166705.000			-29.598			-3.700
166804.000			-29.596			-3.700
166904.000			-29.595			-3.699
167005.000			-29.595			-3.699
167104.000			-29.595			-3.699
167205.000			-29.595			-3.699
167304.000			-29.595			-3.699
167404.000			-29.593			-3.699
167504.000			-29.591			-3.699
167604.000			-29.592			-3.699
167704.000			-29.592			-3.699
167805.000			-29.590			-3.699
167904.000			-29.589			-3.699
168004.000			-29.589			-3.699
168105.000			-29.588			-3.699
168204.000			-29.589			-3.699
168304.000			-29.588			-3.699
168405.000			-29.587			-3.698
168504.000			-29.587			-3.698
168603.000			-29.586			-3.698
168705.000			-29.585			-3.698
168804.000			-29.584			-3.698
168904.000			-29.584			-3.698
169005.000			-29.584			-3.698
169104.000			-29.584			-3.698
169204.000			-29.584			-3.698
169305.000			-29.582			-3.698
169404.000			-29.581			-3.698
169504.000			-29.581			-3.698
169605.000			-29.581			-3.698
169703.000			-29.580			-3.698
169804.000			-29.580			-3.697
169905.000			-29.579			-3.697
170004.000			-29.577			-3.697
170104.000			-29.577			-3.697
170204.000			-29.578			-3.697
170304.000			-29.576			-3.697
170405.000			-29.575			-3.697
170504.000			-29.575			-3.697
170603.000			-29.575			-3.697
170705.000			-29.575			-3.697
170803.000			-29.574			-3.697
170904.000			-29.573			-3.697
171005.000			-29.573			-3.697
171104.000			-29.573			-3.697
171204.000			-29.572			-3.697
171305.000			-29.570			-3.696
171404.000			-29.569			-3.696
171504.000			-29.571			-3.696
171605.000			-29.570			-3.696
171703.000			-29.568			-3.696
171804.000			-29.567			-3.696
171905.000			-29.567			-3.696
172004.000			-29.568			-3.696
172104.000			-29.566			-3.696
172205.000			-29.566			-3.696
172304.000			-29.566			-3.696
172404.000			-29.565			-3.696
172505.000			-29.564			-3.696
172603.000			-29.563			-3.695
172704.000			-29.562			-3.695
172805.000			-29.563			-3.695
172904.000			-29.562			-3.695
173004.000			-29.561			-3.695
173105.000			-29.561			-3.695
173204.000			-29.560			-3.695
173304.000			-29.559			-3.695
173405.000			-29.558			-3.695
173503.000			-29.558			-3.695
173605.000			-29.558			-3.695
173703.000			-29.557			-3.695
173804.000			-29.556			-3.695
173905.000			-29.556			-3.695
174004.000			-29.556			-3.695
174104.000			-29.556			-3.695
174205.000			-29.556			-3.694
174304.000			-29.554			-3.694
174404.000			-29.553			-3.694
174505.000			-29.553			-3.694
174603.000			-29.552			-3.694
174704.000			-29.551			-3.694
174805.000			-29.550			-3.694
174904.000			-29.550			-3.694
175004.000			-29.549			-3.694
175105.000			-29.549			-3.694
175204.000			-29.549			-3.694
175304.000			-29.547			-3.693
175405.000			-29.547			-3.693
175503.000			-29.546			-3.693
175604.000			-29.546			-3.693
175704.000			-29.546			-3.693
175804.000			-29.544			-3.693
175904.000			-29.543			-3.693
176005.000			-29.543			-3.693
176104.000			-29.543			-3.693
176204.000			-29.542			-3.693
176305.000			-29.542			-3.693
176404.000			-29.541			-3.693
176504.000			-29.541			-3.693
176603.000			-29.540			-3.693
176704.000			-29.538			-3.692
176805.000			-29.538			-3.692
176904.000			-29.539			-3.692
177004.000			-29.538			-3.692
177105.000			-29.539			-3.692
177204.000			-29.537			-3.692
177304.000			-29.536			-3.692
177405.000			-29.536			-3.692
177503.000			-29.534			-3.692
177604.000			-29.533			-3.692
177704.000			-29.533			-3.692
177804.000			-29.533			-3.692
177904.000			-29.533			-3.692
178005.000			-29.532			-3.692
178104.000			-29.532			-3.691
178204.000			-29.530			-3.691
178305.000			-29.531			-3.691
178403.000			-29.531			-3.691
178504.000			-29.530			-3.691
178604.000			-29.530			-3.691
178704.000			-29.529			-3.691
178804.000			-29.528			-3.691
178905.000			-29.527			-3.691
179004.000			-29.526			-3.691
179104.000			-29.526			-3.691
179205.000			-29.525			-3.691
179304.000			-29.524			-3.691
179404.000			-29.525			-3.691
179504.000			-29.524			-3.691
179604.000			-29.523			-3.690
179704.000			-29.522			-3.690
179804.000			-29.523			-3.690
179904.000			-29.522			-3.690
180005.000			-29.521			-3.690
180104.000			-29.521			-3.690
180204.000			-29.521			-3.690
180305.000			-29.520			-3.690
180403.000			-29.520			-3.690
180504.000			-29.518			-3.690
180604.000			-29.518			-3.690
180704.000			-29.518			-3.690
180804.000			-29.518			-3.690
180905.000			-29.517			-3.690
181004.000			-29.516			-3.690
181104.000			-29.516			-3.689
181205.000			-29.516			-3.689
181303.000			-29.515			-3.689
181404.000			-29.514			-3.689
181504.000			-29.513			-3.689
181604.000			-29.512			-3.689
181704.000			-29.512			-3.689
181805.000			-29.511			-3.689
181904.000			-29.511			-3.689
182004.000			-29.510			-3.689
182105.000			-29.509			-3.689
182203.000			-29.509			-3.689
182304.000			-29.509			-3.689
182405.000			-29.508			-3.689
182504.000			-29.508			-3.689
182604.000			-29.508			-3.688
182705.000			-29.507			-3.688
182804.000			-29.507			-3.688
182904.000			-29.506			-3.688
183005.000			-29.505			-3.688
183103.000			-29.505			-3.688
183205.000			-29.504			-3.688
183303.000			-29.502			-3.688
183404.000			-29.502			-3.688
183505.000			-29.502			-3.688
183604.000			-29.502			-3.688
183704.000			-29.502			-3.688
183805.000			-29.502			-3.688
183904.000			-29.502			-3.688
184004.000			-29.500			-3.687
184105.000			-29.498			-3.687
184203.000			-29.499			-3.687
184304.000			-29.499			-3.687
184405.000			-29.498			-3.687
184504.000			-29.497			-3.687
184604.000			-29.496			-3.687
184705.000			-29.495			-3.687
184804.000			-29.495			-3.687
184904.000			-29.494			-3.687
185005.000			-29.494			-3.687
185103.000			-29.494			-3.687
185204.000			-29.492			-3.687
185304.000			-29.492			-3.686
185404.000			-29.492			-3.686
185504.000			-29.492			-3.686
185605.000			-29.492			-3.686
185704.000			-29.491			-3.686
185804.000			-29.491			-3.686
185905.000			-29.491			-3.686
186004.000			-29.490			-3.686
186104.000			-29.489			-3.686
186203.000			-29.488			-3.686
186304.000			-29.486			-3.686
186404.000			-29.487			-3.686
186504.000			-29.487			-3.686
186604.000			-29.486			-3.686
186705.000			-29.485			-3.686
186804.000			-29.485			-3.686
186904.000			-29.484			-3.686
187005.000			-29.484			-3.685
187104.000			-29.483			-3.685
187204.000			-29.482			-3.685
187304.000			-29.483			-3.685
187404.000			-29.481			-3.685
187503.000			-29.480			-3.685
187605.000			-29.480			-3.685
187704.000			-29.480			-3.685
187804.000			-29.479			-3.685
187905.000			-29.478			-3.685
188004.000			-29.478			-3.685
188104.000			-29.478			-3.685
188205.000			-29.477			-3.685
188304.000			-29.476			-3.685
188403.000			-29.476			-3.684
188505.000			-29.475			-3.684
188604.000			-29.475			-3.684
188704.000			-29.475			-3.684
188805.000			-29.474			-3.684
188904.000			-29.474			-3.684
189004.000			-29.473			-3.684
189105.000			-29.472			-3.684
189204.000			-29.472			-3.684
189304.000			-29.472			-3.684
189405.000			-29.471			-3.684
189503.000			-29.469			-3.684
189605.000			-29.471			-3.684
189704.000			-29.470			-3.684
189804.000			-29.469			-3.684
189905.000			-29.467			-3.683
190004.000			-29.467			-3.683
190104.000			-29.467			-3.683
190205.000			-29.467			-3.683
190304.000			-29.466			-3.683
190404.000			-29.466			-3.683
190505.000			-29.465			-3.683
190603.000			-29.464			-3.683
190704.000			-29.463			-3.683
190805.000			-29.462			-3.683
190904.000			-29.462			-3.683
191004.000			-29.462			-3.683
191105.000			-29.461			-3.683
191204.000			-29.460			-3.683
191304.000			-29.460			-3.682
191405.000			-29.460			-3.683
191503.000			-29.460			-3.682
191604.000			-29.460			-3.682
191705.000			-29.459			-3.682
191804.000			-29.458			-3.682
191904.000			-29.458			-3.682
192005.000			-29.457			-3.682
192104.000			-29.457			-3.682
192204.000			-29.456			-3.682
192305.000			-29.456			-3.682
192403.000			-29.455			-3.682
192504.000			-29.454			-3.682
192603.000			-29.454			-3.682
192704.000			-29.453			-3.682
192805.000			-29.453			-3.682
192904.000			-29.452			-3.682
193004.000			-29.451			-3.681
193105.000			-29.451			-3.681
193204.000			-29.451			-3.681
193304.000			-29.452			-3.681
193405.000			-29.451			-3.681
193503.000			-29.449			-3.681
193604.000			-29.448			-3.681
193705.000			-29.448			-3.681
193804.000			-29.447			-3.681
193904.000			-29.448			-3.681
194005.000			-29.447			-3.681
194104.000			-29.446			-3.681
194204.000			-29.445			-3.681
194305.000			-29.444			-3.681
194403.000			-29.445			-3.681
194504.000			-29.444			-3.681
194604.000			-29.444			-3.681
194704.000			-29.442			-3.680
194804.000			-29.442			-3.680
194905.000			-29.443			-3.680
195004.000			-29.442			-3.680
195104.000			-29.443			-3.680
195205.000			-29.441			-3.680
195303.000			-29.439			-3.680
195404.000			-29.439			-3.680
195504.000			-29.439			-3.680
195604.000			-29.438			-3.680
195704.000			-29.438			-3.680
195804.000			-29.437			-3.680
195904.000			-29.437			-3.680
196005.000			-29.437			-3.680
196104.000			-29.436			-3.679
196204.000			-29.435			-3.679
196305.000			-29.435			-3.679
196403.000			-29.434			-3.679
196504.000			-29.434			-3.679
196605.000			-29.433			-3.679
196704.000			-29.433			-3.679
196804.000			-29.434			-3.679
196905.000			-29.432			-3.679
197004.000			-29.432			-3.679
197104.000			-29.432			-3.679
197205.000			-29.430			-3.679
197303.000			-29.430			-3.679
197404.000			-29.430			-3.679
197505.000			-29.429			-3.679
197604.000			-29.428			-3.678
197704.000			-29.428			-3.678
197805.000			-29.427			-3.678
197904.000			-29.426			-3.678
198004.000			-29.426			-3.678
198105.000			-29.426			-3.678
198204.000			-29.424			-3.678
198304.000			-29.425			-3.678
198404.000			-29.425			-3.678
198504.000			-29.423			-3.678
198604.000			-29.423			-3.678
198705.000			-29.423			-3.678
198804.000			-29.422			-3.678
198904.000			-29.420			-3.678
199005.000			-29.420			-3.677
199104.000			-29.419			-3.677
199205.000			-29.419			-3.677
199303.000			-29.419			-3.677
199404.000			-29.420			-3.677
199504.000			-29.419			-3.677
199604.000			-29.418			-3.677
199704.000			-29.417			-3.677
199805.000			-29.417			-3.677
199904.000			-29.416			-3.677
200004.000			-29.416			-3.677
200105.000			-29.415			-3.677
200204.000			-29.414			-3.677
200304.000			-29.413			-3.677
200404.000			-29.413			-3.677
200504.000			-29.413			-3.677
200604.000			-29.412			-3.677
200705.000			-29.413			-3.677
200804.000			-29.411			-3.676
200904.000			-29.411			-3.676
201005.000			-29.411			-3.676
201104.000			-29.410			-3.676
201204.000			-29.409			-3.676
201304.000			-29.410			-3.676
201404.000			-29.410			-3.676
201504.000			-29.409			-3.676
201605.000			-29.408			-3.676
201704.000			-29.408			-3.676
201804.000			-29.408			-3.676
201905.000			-29.407			-3.676
202004.000			-29.406			-3.676
202104.000			-29.406			-3.676
202203.000			-29.406			-3.676
202304.000			-29.405			-3.676
202405.000			-29.404			-3.676
202504.000			-29.403			-3.675
202604.000			-29.404			-3.676
202705.000			-29.403			-3.675
202804.000			-29.402			-3.675
202903.000			-29.401			-3.675
203005.000			-29.401			-3.675
203103.000			-29.401			-3.675
203204.000			-29.400			-3.675
203305.000			-29.400			-3.675
203404.000			-29.398			-3.675
203504.000			-29.399			-3.675
203605.000			-29.398			-3.675
203704.000			-29.398			-3.675
203803.000			-29.397			-3.675
203905.000			-29.397			-3.675
204003.000			-29.396			-3.674
204104.000			-29.397			-3.675
204205.000			-29.397			-3.675
204304.000			-29.396			-3.675
204404.000			-29.395			-3.674
204505.000			-29.394			-3.674
204604.000			-29.394			-3.674
204703.000			-29.394			-3.674
204805.000			-29.393			-3.674
204903.000			-29.393			-3.674
205004.000			-29.393			-3.674
205105.000			-29.392			-3.674
205204.000			-29.391			-3.674
205304.000			-29.389			-3.674
205404.000			-29.389			-3.674
205504.000			-29.391			-3.674
205605.000			-29.388			-3.674
205704.000			-29.388			-3.674
205803.000			-29.389			-3.674
205905.000			-29.387			-3.673
206004.000			-29.386			-3.673
206104.000			-29.386			-3.673
206205.000			-29.385			-3.673
206304.000			-29.385			-3.673
206404.000			-29.385			-3.673
206505.000			-29.386			-3.673
206604.000			-29.385			-3.673
206703.000			-29.385			-3.673
206805.000			-29.384			-3.673
206904.000			-29.383			-3.673
207004.000			-29.382			-3.673
207105.000			-29.381			-3.673
207204.000			-29.381			-3.673
207304.000			-29.380			-3.673
207405.000			-29.380			-3.673
207504.000			-29.380			-3.673
207603.000			-29.381			-3.673
207705.000			-29.378			-3.672
207804.000			-29.378			-3.672
207904.000			-29.378			-3.672
208005.000			-29.378			-3.672
208104.000			-29.378			-3.672
208204.000			-29.378			-3.672
208305.000			-29.376			-3.672
208404.000			-29.376			-3.672
208503.000			-29.375			-3.672
208605.000			-29.375			-3.672
208703.000			-29.374			-3.672
208805.000			-29.374			-3.672
208904.000			-29.373			-3.672
209004.000			-29.373			-3.672
209105.000			-29.373			-3.672
209204.000			-29.371			-3.671
209304.000			-29.371			-3.671
209404.000			-29.371			-3.671
209504.000			-29.372			-3.671
209603.000			-29.371			-3.671
209705.000			-29.370			-3.671
209804.000			-29.369			-3.671
209904.000			-29.370			-3.671
210005.000			-29.369			-3.671
210104.000			-29.367			-3.671
210204.000			-29.367			-3.671
210305.000			-29.367			-3.671
210404.000			-29.366			-3.671
210503.000			-29.366			-3.671
210605.000			-29.365			-3.671
210704.000			-29.365			-3.671
210804.000			-29.364			-3.670
210905.000			-29.362			-3.670
211004.000			-29.363			-3.670
211104.000			-29.363			-3.670
211204.000			-29.363			-3.670
211304.000			-29.362			-3.670
211403.000			-29.361			-3.670
211505.000			-29.362			-3.670
211604.000			-29.361			-3.670
211704.000			-29.359			-3.670
211805.000			-29.360			-3.670
211904.000			-29.359			-3.670
212005.000			-29.359			-3.670
212104.000			-29.359			-3.670
212204.000			-29.357			-3.670
212304.000			-29.357			-3.670
212404.000			-29.358			-3.670
212504.000			-29.357			-3.670
212605.000			-29.356			-3.669
212704.000			-29.355			-3.669
212804.000			-29.356			-3.670
212905.000			-29.355			-3.669
213004.000			-29.354			-3.669
213104.000			-29.354			-3.669
213204.000			-29.353			-3.669
213304.000			-29.352			-3.669
213404.000			-29.352			-3.669
213505.000			-29.351			-3.669
213604.000			-29.350			-3.669
213704.000			-29.349			-3.669
213805.000			-29.349			-3.669
213903.000			-29.350			-3.669
214004.000			-29.350			-3.669
214104.000			-29.350			-3.669
214204.000			-29.349			-3.669
214304.000			-29.349			-3.669
214405.000			-29.347			-3.668
214504.000			-29.347			-3.668
214604.000			-29.347			-3.668
214705.000			-29.346			-3.668
214803.000			-29.346			-3.668
214904.000			-29.346			-3.668
215003.000			-29.344			-3.668
215104.000			-29.343			-3.668
215205.000			-29.343			-3.668
215304.000			-29.343			-3.668
215404.000			-29.342			-3.668
215505.000			-29.342			-3.668
215604.000			-29.342			-3.668
215703.000			-29.341			-3.668
215805.000			-29.341			-3.668
215903.000			-29.341			-3.668
216004.000			-29.340			-3.667
216105.000			-29.339			-3.667
216204.000			-29.339			-3.667
216304.000			-29.339			-3.667
216405.000			-29.339			-3.667
216504.000			-29.338			-3.667
216603.000			-29.336			-3.667
216705.000			-29.336			-3.667
216803.000			-29.336			-3.667
216904.000			-29.336			-3.667
217005.000			-29.335			-3.667
217104.000			-29.336			-3.667
217204.000			-29.335			-3.667
217305.000			-29.334			-3.667
217404.000			-29.332			-3.667
217503.000			-29.332			-3.666
217605.000			-29.332			-3.667
217703.000			-29.333			-3.667
217804.000			-29.332			-3.667
217905.000			-29.331			-3.666
218004.000			-29.330			-3.666
218104.000			-29.330			-3.666
218204.000			-29.330			-3.666
218304.000			-29.329			-3.666
218404.000			-29.329			-3.666
218504.000			-29.328			-3.666
218603.000			-29.328			-3.666
218705.000			-29.328			-3.666
218804.000			-29.327			-3.666
218904.000			-29.327			-3.666
219005.000			-29.327			-3.666
219104.000			-29.326			-3.666
219204.000			-29.325			-3.666
219305.000			-29.324			-3.666
219404.000			-29.324			-3.665
219503.000			-29.324			-3.666
219605.000			-29.323			-3.665
219704.000			-29.322			-3.665
219804.000			-29.321			-3.665
219905.000			-29.322			-3.665
220004.000			-29.321			-3.665
220104.000			-29.321			-3.665
220204.000			-29.320			-3.665
220304.000			-29.320			-3.665
220403.000			-29.320			-3.665
220505.000			-29.320			-3.665
220604.000			-29.320			-3.665
220704.000			-29.319			-3.665
220805.000			-29.317			-3.665
220904.000			-29.317			-3.665
221004.000			-29.317			-3.665
221104.000			-29.318			-3.665
221204.000			-29.316			-3.665
221303.000			-29.315			-3.664
221405.000			-29.316			-3.664
221504.000			-29.314			-3.664
221605.000			-29.314			-3.664
221704.000			-29.314			-3.664
221804.000			-29.313			-3.664
221905.000			-29.313			-3.664
222003.000			-29.313			-3.664
222104.000			-29.312			-3.664
222205.000			-29.311			-3.664
222304.000			-29.310			-3.664
222404.000			-29.311			-3.664
222505.000			-29.311			-3.664
222604.000			-29.310			-3.664
222704.000			-29.309			-3.664
222805.000			-29.309			-3.664
222903.000			-29.309			-3.664
223004.000			-29.309			-3.664
223105.000			-29.308			-3.663
223204.000			-29.308			-3.663
223304.000			-29.307			-3.663
223405.000			-29.306			-3.663
223504.000			-29.306			-3.663
223604.000			-29.306			-3.663
223705.000			-29.305			-3.663
223803.000			-29.305			-3.663
223904.000			-29.304			-3.663
224005.000			-29.303			-3.663
224104.000			-29.303			-3.663
224204.000			-29.303			-3.663
224305.000			-29.303			-3.663
224404.000			-29.302			-3.663
224504.000			-29.301			-3.663
224605.000			-29.300			-3.663
224703.000			-29.301			-3.663
224805.000			-29.300			-3.663
224904.000			-29.299			-3.662
225004.000			-29.299			-3.662
225105.000			-29.299			-3.662
225204.000			-29.299			-3.662
225304.000			-29.299			-3.662
225405.000			-29.298			-3.662
225504.000			-29.296			-3.662
225603.000			-29.296			-3.662
225705.000			-29.297			-3.662
225804.000			-29.296			-3.662
225904.000			-29.295			-3.662
226005.000			-29.295			-3.662
226104.000			-29.294			-3.662
226204.000			-29.294			-3.662
226305.000			-29.294			-3.662
226404.000			-29.293			-3.662
226503.000			-29.293			-3.662
226605.000			-29.293			-3.662
226704.000			-29.290			-3.661
226804.000			-29.290			-3.661
226905.000			-29.291			-3.661
227004.000			-29.291			-3.661
227104.000			-29.290			-3.661
227205.000			-29.289			-3.661
227304.000			-29.288			-3.661
227403.000			-29.288			-3.661
227505.000			-29.287			-3.661
227603.000			-29.288			-3.661
227704.000			-29.287			-3.661
227805.000			-29.286			-3.661
227904.000			-29.286			-3.661
228005.000			-29.286			-3.661
228104.000			-29.285			-3.661
228204.000			-29.284			-3.661
228305.000			-29.284			-3.661
228404.000			-29.284			-3.660
228503.000			-29.283			-3.660
228605.000			-29.283			-3.660
228704.000			-29.283			-3.660
228804.000			-29.282			-3.660
228905.000			-29.281			-3.660
229004.000			-29.282			-3.660
229104.000			-29.281			-3.660
229205.000			-29.280			-3.660
229304.000			-29.280			-3.660
229403.000			-29.280			-3.660
229505.000			-29.280			-3.660
229604.000			-29.279			-3.660
229704.000			-29.279			-3.660
229805.000			-29.278			-3.660
229904.000			-29.277			-3.660
230004.000			-29.277			-3.660
230105.000			-29.278			-3.660
230204.000			-29.277			-3.660
230303.000			-29.277			-3.660
230405.000			-29.276			-3.660
230503.000			-29.275			-3.659
230604.000			-29.275			-3.659
230705.000			-29.274			-3.659
230804.000			-29.274			-3.659
230904.000			-29.274			-3.659
231004.000			-29.272			-3.659
231104.000			-29.272			-3.659
231204.000			-29.272			-3.659
231304.000			-29.272			-3.659
231403.000			-29.273			-3.659
231505.000			-29.271			-3.659
231604.000			-29.270			-3.659
231704.000			-29.270			-3.659
231805.000			-29.270			-3.659
231904.000			-29.270			-3.659
232004.000			-29.269			-3.659
232104.000			-29.268			-3.658
232204.000			-29.267			-3.658
232303.000			-29.268			-3.658
232405.000			-29.268			-3.659
232504.000			-29.267			-3.658
232604.000			-29.266			-3.658
232705.000			-29.266			-3.658
232804.000			-29.266			-3.658
232904.000			-29.264			-3.658
233004.000			-29.264			-3.658
233104.000			-29.264			-3.658
233203.000			-29.263			-3.658
233305.000			-29.263			-3.658
233404.000			-29.262			-3.658
233504.000			-29.262			-3.658
233605.000			-29.261			-3.658
233704.000			-29.262			-3.658
233804.000			-29.261			-3.658
233904.000			-29.261			-3.658
234004.000			-29.260			-3.657
234103.000			-29.259			-3.657
234205.000			-29.259			-3.657
234304.000			-29.259			-3.657
234405.000			-29.259			-3.657
234504.000			-29.259			-3.657
234604.000			-29.257			-3.657
234705.000			-29.257			-3.657
234804.000			-29.256			-3.657
234904.000			-29.256			-3.657
235004.000			-29.256			-3.657
235104.000			-29.255			-3.657
235204.000			-29.255			-3.657
235305.000			-29.255			-3.657
235404.000			-29.254			-3.657
235504.000			-29.254			-3.657
235605.000			-29.253			-3.657
235704.000			-29.253			-3.657
235804.000			-29.252			-3.657
235904.000			-29.251			-3.656
236004.000			-29.251			-3.656
236104.000			-29.251			-3.656
236205.000			-29.252			-3.656
236304.000			-29.251			-3.656
236404.000			-29.250			-3.656
236505.000			-29.250			-3.656
236604.000			-29.250			-3.656
236704.000			-29.250			-3.656
236804.000			-29.248			-3.656
236904.000			-29.247			-3.656
237003.000			-29.247			-3.656
237105.000			-29.247			-3.656
237204.000			-29.247			-3.656
237304.000			-29.246			-3.656
237405.000			-29.245			-3.656
237504.000			-29.245			-3.656
237605.000			-29.245			-3.656
237703.000			-29.244			-3.656
237804.000			-29.244			-3.655
237904.000			-29.244			-3.655
238004.000			-29.244			-3.655
238104.000			-29.244			-3.655
238205.000			-29.243			-3.655
238304.000			-29.241			-3.655
238404.000			-29.241			-3.655
238505.000			-29.241			-3.655
238603.000			-29.241			-3.655
238704.000			-29.242			-3.655
238804.000			-29.241			-3.655
238904.000			-29.239			-3.655
239004.000			-29.239			-3.655
239105.000			-29.239			-3.655
239204.000			-29.238			-3.655
239304.000			-29.239			-3.655
239405.000			-29.238			-3.655
239504.000			-29.238			-3.655
239604.000			-29.236			-3.655
239704.000			-29.235			-3.654
239804.000			-29.236			-3.654
239904.000			-29.236			-3.655
240005.000			-29.236			-3.654
240104.000			-29.234			-3.654
240204.000			-29.234			-3.654
240305.000			-29.234			-3.654
240404.000			-29.234			-3.654
240504.000			-29.233			-3.654
240603.000			-29.234			-3.654
240704.000			-29.233			-3.654
240805.000			-29.232			-3.654
240904.000			-29.233			-3.654
241004.000			-29.233			-3.654
241105.000			-29.231			-3.654
241204.000			-29.230			-3.654
241304.000			-29.230			-3.654
241405.000			-29.230			-3.654
241503.000			-29.229			-3.654
241604.000			-29.228			-3.654
241705.000			-29.229			-3.654
241804.000			-29.228			-3.654
241904.000			-29.228			-3.653
242005.000			-29.228			-3.654
242104.000			-29.226			-3.653
242204.000			-29.225			-3.653
242305.000			-29.226			-3.653
242403.000			-29.225			-3.653
242504.000			-29.225			-3.653
242605.000			-29.224			-3.653
242704.000			-29.224			-3.653
242804.000			-29.224			-3.653
242905.000			-29.222			-3.653
243004.000			-29.222			-3.653
243104.000			-29.222			-3.653
243205.000			-29.222			-3.653
243303.000			-29.220			-3.653
243404.000			-29.222			-3.653
243505.000			-29.221			-3.653
243604.000			-29.221			-3.653
243704.000			-29.220			-3.653
243804.000			-29.219			-3.652
243904.000			-29.219			-3.652
244004.000			-29.219			-3.652
244104.000			-29.218			-3.652
244203.000			-29.217			-3.652
244305.000			-29.216			-3.652
244404.000			-29.216			-3.652
244504.000			-29.217			-3.652
244605.000			-29.216			-3.652
244704.000			-29.216			-3.652
244804.000			-29.215			-3.652
244904.000			-29.215			-3.652
245004.000			-29.214			-3.652
245103.000			-29.214			-3.652
245205.000			-29.214			-3.652
245304.000			-29.214			-3.652
245404.000			-29.212			-3.651
245505.000			-29.213			-3.652
245604.000			-29.212			-3.652
245704.000			-29.211			-3.651
245804.000			-29.210			-3.651
245904.000			-29.210			-3.651
246004.000			-29.210			-3.651
246105.000			-29.210			-3.651
246204.000			-29.209			-3.651
246304.000			-29.210			-3.651
246405.000			-29.210			-3.651
246504.000			-29.209			-3.651
246604.000			-29.207			-3.651
246704.000			-29.207			-3.651
246804.000			-29.207			-3.651
246904.000			-29.207			-3.651
247004.000			-29.206			-3.651
247104.000			-29.206			-3.651
247205.000			-29.206			-3.651
247304.000			-29.205			-3.651
247404.000			-29.205			-3.651
247505.000			-29.205			-3.651
247603.000			-29.204			-3.651
247704.000			-29.203			-3.650
247805.000			-29.203			-3.650
247904.000			-29.203			-3.650
248004.000			-29.203			-3.650
248105.000			-29.203			-3.650
248204.000			-29.202			-3.650
248304.000			-29.202			-3.650
248405.000			-29.201			-3.650
248503.000			-29.201			-3.650
248604.000			-29.200			-3.650
248705.000			-29.199			-3.650
248804.000			-29.199			-3.650
248904.000			-29.199			-3.650
249005.000			-29.198			-3.650
249104.000			-29.197			-3.650
249204.000			-29.198			-3.650
249305.000			-29.198			-3.650
249403.000			-29.197			-3.650
249504.000			-29.196			-3.650
249604.000			-29.196			-3.649
249704.000			-29.196			-3.649
249804.000			-29.195			-3.649
249905.000			-29.195			-3.649
250004.000			-29.195			-3.649
250104.000			-29.194			-3.649
250205.000			-29.194			-3.649
250304.000			-29.193			-3.649
250405.000			-29.193			-3.649
250503.000			-29.193			-3.649
250604.000			-29.192			-3.649
250705.000			-29.193			-3.649
250804.000			-29.192			-3.649
250904.000			-29.191			-3.649
251005.000			-29.190			-3.649
251104.000			-29.190			-3.649
251204.000			-29.190			-3.649
251305.000			-29.190			-3.649
251403.000			-29.189			-3.649
251504.000			-29.188			-3.648
251605.000			-29.187			-3.648
251704.000			-29.187			-3.648
251804.000			-29.186			-3.648
251905.000			-29.187			-3.648
252004.000			-29.186			-3.648
252104.000			-29.186			-3.648
252205.000			-29.186			-3.648
252303.000			-29.186			-3.648
252404.000			-29.185			-3.648
252504.000			-29.185			-3.648
252604.000			-29.185			-3.648
252704.000			-29.184			-3.648
252805.000			-29.183			-3.648
252904.000			-29.182			-3.648
253004.000			-29.182			-3.648
253105.000			-29.182			-3.648
253204.000			-29.181			-3.648
253304.000			-29.181			-3.648
253403.000			-29.181			-3.648
253504.000			-29.181			-3.648
253605.000			-29.180			-3.648
253704.000			-29.180			-3.647
253804.000			-29.180			-3.647
253905.000			-29.179			-3.647
254004.000			-29.178			-3.647
254104.000			-29.178			-3.647
254205.000			-29.178			-3.647
254303.000			-29.177			-3.647
254404.000			-29.177			-3.647
254505.000			-29.176			-3.647
254604.000			-29.176			-3.647
254704.000			-29.176			-3.647
254805.000			-29.175			-3.647
254904.000			-29.175			-3.647
255004.000			-29.175			-3.647
255105.000			-29.174			-3.647
255203.000			-29.174			-3.647
255304.000			-29.174			-3.647
255404.000			-29.173			-3.647
255504.000			-29.172			-3.647
255604.000			-29.171			-3.646
255705.000			-29.171			-3.646
255804.000			-29.170			-3.646
255904.000			-29.170			-3.646
256005.000			-29.170			-3.646
256104.000			-29.170			-3.646
256204.000			-29.170			-3.646
256304.000			-29.169			-3.646
256404.000			-29.169			-3.646
256504.000			-29.168			-3.646
256604.000			-29.168			-3.646
256704.000			-29.168			-3.646
256805.000			-29.167			-3.646
256904.000			-29.167			-3.646
257004.000			-29.167			-3.646
257105.000			-29.167			-3.646
257203.000			-29.167			-3.646
257304.000			-29.167			-3.646
257404.000			-29.165			-3.646
257504.000			-29.164			-3.646
257604.000			-29.165			-3.646
257705.000			-29.165			-3.646
257804.000			-29.164			-3.645
257904.000			-29.164			-3.645
258005.000			-29.164			-3.645
258103.000			-29.163			-3.645
258204.000			-29.164			-3.645
258304.000			-29.163			-3.645
258404.000			-29.162			-3.645
258504.000			-29.161			-3.645
258605.000			-29.160			-3.645
258704.000			-29.160			-3.645
258804.000			-29.161			-3.645
258905.000			-29.160			-3.645
259004.000			-29.160			-3.645
259104.000			-29.159			-3.645
259204.000			-29.159			-3.645
259304.000			-29.159			-3.645
259404.000			-29.158			-3.645
259505.000			-29.158			-3.645
259604.000			-29.158			-3.645
259704.000			-29.157			-3.645
259805.000			-29.157			-3.645
259904.000			-29.156			-3.644
260005.000			-29.154			-3.644
260103.000			-29.155			-3.644
260204.000			-29.155			-3.644
260305.000			-29.154			-3.644
260404.000			-29.155			-3.644
260504.000			-29.154			-3.644
260605.000			-29.152			-3.644
260704.000			-29.152			-3.644
260804.000			-29.152			-3.644
260905.000			-29.151			-3.644
261003.000			-29.151			-3.644
261104.000			-29.152			-3.644
261205.000			-29.152			-3.644
261304.000			-29.151			-3.644
261404.000			-29.151			-3.644
261505.000			-29.150			-3.644
261604.000			-29.149			-3.644
261704.000			-29.149			-3.644
261805.000			-29.150			-3.644
261903.000			-29.148			-3.644
262004.000			-29.148			-3.644
262105.000			-29.149			-3.644
262204.000			-29.146			-3.643
262304.000			-29.146			-3.643
262405.000			-29.145			-3.643
262504.000			-29.145			-3.643
262604.000			-29.145			-3.643
262705.000			-29.144			-3.643
262803.000			-29.144			-3.643
262904.000			-29.144			-3.643
263005.000			-29.144			-3.643
263104.000			-29.143			-3.643
263205.000			-29.142			-3.643
263304.000			-29.143			-3.643
263404.000			-29.143			-3.643
263505.000			-29.142			-3.643
263604.000			-29.141			-3.643
263703.000			-29.142			-3.643
263805.000			-29.141			-3.643
263904.000			-29.140			-3.643
264004.000			-29.140			-3.643
264105.000			-29.139			-3.642
264204.000			-29.139			-3.642
264304.000			-29.138			-3.642
264405.000			-29.139			-3.642
264504.000			-29.138			-3.642
264603.000			-29.137			-3.642
264705.000			-29.137			-3.642
264804.000			-29.138			-3.642
264904.000			-29.137			-3.642
265005.000			-29.136			-3.642
265104.000			-29.136			-3.642
265204.000			-29.136			-3.642
265305.000			-29.136			-3.642
265404.000			-29.137			-3.642
265503.000			-29.136			-3.642
265605.000			-29.135			-3.642
265704.000			-29.133			-3.642
265804.000			-29.133			-3.642
265905.000			-29.133			-3.642
266004.000			-29.133			-3.642
266104.000			-29.132			-3.642
266204.000			-29.131			-3.641
266304.000			-29.130			-3.641
266404.000			-29.130			-3.641
266504.000			-29.131			-3.641
266604.000			-29.131			-3.641
266705.000			-29.129			-3.641
266804.000			-29.130			-3.641
266904.000			-29.129			-3.641
267005.000			-29.128			-3.641
267104.000			-29.128			-3.641
267204.000			-29.128			-3.641
267304.000			-29.127			-3.641
267404.000			-29.127			-3.641
267503.000			-29.127			-3.641
267605.000			-29.126			-3.641
267704.000			-29.126			-3.641
267804.000			-29.125			-3.641
267905.000			-29.125			-3.641
268004.000			-29.125			-3.641
268104.000			-29.125			-3.641
268204.000			-29.125			-3.641
268304.000			-29.123			-3.640
268403.000			-29.123			-3.640
268505.000			-29.123			-3.640
268604.000			-29.124			-3.640
268704.000			-29.122			-3.640
268805.000			-29.122			-3.640
268904.000			-29.122			-3.640
269004.000			-29.122			-3.640
269104.000			-29.122			-3.640
269204.000			-29.121			-3.640
269303.000			-29.121			-3.640
269405.000			-29.121			-3.640
269504.000			-29.119			-3.640
269605.000			-29.119			-3.640
269704.000			-29.119			-3.640
269804.000			-29.117			-3.640
269905.000			-29.117			-3.640
270004.000			-29.117			-3.640
270104.000			-29.118			-3.640
270204.000			-29.116			-3.640
270304.000			-29.116			-3.639
270404.000			-29.116			-3.640
270505.000			-29.116			-3.640
270604.000			-29.115			-3.639
270704.000			-29.114			-3.639
270805.000			-29.114			-3.639
270903.000			-29.114			-3.639
271004.000			-29.114			-3.639
271104.000			-29.114			-3.639
271204.000			-29.114			-3.639
271304.000			-29.113			-3.639
271405.000			-29.112			-3.639
271504.000			-29.113			-3.639
271604.000			-29.113			-3.639
271705.000			-29.111			-3.639
271803.000			-29.111			-3.639
271904.000			-29.111			-3.639
272005.000			-29.111			-3.639
272104.000			-29.110			-3.639
272204.000			-29.109			-3.639
272305.000			-29.110			-3.639
272404.000			-29.109			-3.639
272504.000			-29.109			-3.639
272605.000			-29.108			-3.639
272703.000			-29.107			-3.638
272805.000			-29.106			-3.638
272904.000			-29.107			-3.638
273004.000			-29.106			-3.638
273105.000			-29.106			-3.638
273204.000			-29.106			-3.638
273304.000			-29.106			-3.638
273405.000			-29.105			-3.638
273504.000			-29.104			-3.638
273603.000			-29.104			-3.638
273705.000			-29.104			-3.638
273804.000			-29.104			-3.638
273904.000			-29.103			-3.638
274005.000			-29.102			-3.638
274104.000			-29.102			-3.638
274204.000			-29.103			-3.638
274305.000			-29.102			-3.638
274404.000			-29.101			-3.638
274503.000			-29.101			-3.638
274605.000			-29.100			-3.638
274704.000			-29.100			-3.637
274804.000			-29.099			-3.637
274905.000			-29.099			-3.637
275004.000			-29.099			-3.637
275104.000			-29.099			-3.637
275205.000			-29.098			-3.637
275304.000			-29.097			-3.637
275403.000			-29.098			-3.637
275505.000			-29.097			-3.637
275604.000			-29.097			-3.637
275704.000			-29.098			-3.637
275805.000			-29.098			-3.637
275904.000			-29.097			-3.637
276005.000			-29.095			-3.637
276104.000			-29.094			-3.637
276204.000			-29.095			-3.637
276305.000			-29.095			-3.637
276404.000			-29.095			-3.637
276503.000			-29.094			-3.637
276605.000			-29.093			-3.637
276704.000			-29.093			-3.637
276804.000			-29.093			-3.637
276905.000			-29.092			-3.637
277004.000			-29.092			-3.637
277104.000			-29.092			-3.636
277205.000			-29.091			-3.636
277304.000			-29.091			-3.636
277403.000			-29.091			-3.636
277505.000			-29.089			-3.636
277604.000			-29.088			-3.636
277704.000			-29.089			-3.636
277805.000			-29.089			-3.636
277904.000			-29.089			-3.636
278004.000			-29.088			-3.636
278105.000			-29.088			-3.636
278204.000			-29.087			-3.636
278303.000			-29.087			-3.636
278405.000			-29.087			-3.636
278503.000			-29.087			-3.636
278604.000			-29.086			-3.636
278705.000			-29.084			-3.636
278804.000			-29.085			-3.636
278904.000			-29.085			-3.636
279004.000			-29.085			-3.636
279104.000			-29.085			-3.636
279205.000			-29.085			-3.636
279304.000			-29.084			-3.635
279403.000			-29.083			-3.635
279505.000			-29.084			-3.635
279604.000			-29.082			-3.635
279704.000			-29.082			-3.635
279805.000			-29.081			-3.635
279904.000			-29.081			-3.635
280004.000			-29.080			-3.635
280105.000			-29.081			-3.635
280204.000			-29.081			-3.635
280303.000			-29.080			-3.635
280405.000			-29.081			-3.635
280503.000			-29.080			-3.635
280604.000			-29.079			-3.635
280705.000			-29.079			-3.635
280804.000			-29.078			-3.635
280904.000			-29.077			-3.635
281005.000			-29.078			-3.635
281104.000			-29.077			-3.635
281203.000			-29.077			-3.635
281305.000			-29.076			-3.635
281403.000			-29.076			-3.634
281504.000			-29.075			-3.634
281605.000			-29.075			-3.634
281704.000			-29.076			-3.635
281804.000			-29.073			-3.634
281905.000			-29.073			-3.634
282004.000			-29.073			-3.634
282103.000			-29.073			-3.634
282205.000			-29.074			-3.634
282303.000			-29.073			-3.634
282405.000			-29.072			-3.634
282504.000			-29.073			-3.634
282604.000			-29.072			-3.634
282705.000			-29.070			-3.634
282804.000			-29.070			-3.634
282904.000			-29.071			-3.634
283004.000			-29.069			-3.634
283104.000			-29.070			-3.634
283203.000			-29.070			-3.634
283305.000			-29.069			-3.634
283404.000			-29.069			-3.634
283504.000			-29.069			-3.634
283605.000			-29.068			-3.633
283704.000			-29.068			-3.633
283804.000			-29.067			-3.633
283905.000			-29.067			-3.633
284004.000			-29.065			-3.633
284103.000			-29.066			-3.633
284205.000			-29.066			-3.633
284304.000			-29.066			-3.633
284404.000			-29.065			-3.633
284505.000			-29.064			-3.633
284604.000			-29.065			-3.633
284704.000			-29.066			-3.633
284805.000			-29.065			-3.633
284904.000			-29.064			-3.633
285003.000			-29.063			-3.633
285105.000			-29.064			-3.633
285204.000			-29.063			-3.633
285304.000			-29.062			-3.633
285405.000			-29.061			-3.633
285504.000			-29.060			-3.633
285605.000			-29.061			-3.633
285704.000			-29.061			-3.633
285804.000			-29.060			-3.633
285904.000			-29.061			-3.633
286004.000			-29.061			-3.633
286103.000			-29.060			-3.633
286205.000			-29.057			-3.632
286304.000			-29.057			-3.632
286404.000			-29.058			-3.632
286505.000			-29.058			-3.632
286604.000			-29.057			-3.632
286704.000			-29.058			-3.632
286804.000			-29.057			-3.632
286904.000			-29.056			-3.632
287003.000			-29.056			-3.632
287105.000			-29.056			-3.632
287204.000			-29.055			-3.632
287304.000			-29.055			-3.632
287405.000			-29.054			-3.632
287504.000			-29.053			-3.632
287604.000			-29.053			-3.632
287705.000			-29.054			-3.632
287804.000			-29.054			-3.632
287903.000			-29.053			-3.632
288005.000			-29.053			-3.632
288104.000			-29.052			-3.632
288204.000			-29.052			-3.632
288305.000			-29.052			-3.631
288404.000			-29.051			-3.631
288504.000			-29.051			-3.631
288604.000			-29.051			-3.631
288704.000			-29.050			-3.631
288804.000			-29.050			-3.631
288904.000			-29.050			-3.631
289003.000			-29.049			-3.631
289105.000			-29.048			-3.631
289204.000			-29.049			-3.631
289304.000			-29.048			-3.631
289405.000			-29.048			-3.631
289504.000			-29.048			-3.631
289604.000			-29.047			-3.631
289705.000			-29.047			-3.631
289804.000			-29.047			-3.631
289903.000			-29.046			-3.631
290005.000			-29.046			-3.631
290104.000			-29.046			-3.631
290204.000			-29.045			-3.631
290305.000			-29.044			-3.631
290404.000			-29.045			-3.631
290504.000			-29.044			-3.631
290605.000			-29.045			-3.631
290704.000			-29.044			-3.631
290803.000			-29.044			-3.630
290905.000			-29.043			-3.630
291004.000			-29.043			-3.630
291104.000			-29.042			-3.630
291205.000			-29.042			-3.630
291304.000			-29.041			-3.630
291404.000			-29.041			-3.630
291504.000			-29.040			-3.630
291604.000			-29.040			-3.630
291703.000			-29.039			-3.630
291805.000			-29.039			-3.630
291904.000			-29.039			-3.630
292005.000			-29.038			-3.630
292104.000			-29.039			-3.630
292204.000			-29.039			-3.630
292305.000			-29.038			-3.630
292404.000			-29.037			-3.630
292504.000			-29.037			-3.630
292604.000			-29.036			-3.630
292704.000			-29.036			-3.630
292804.000			-29.036			-3.629
292905.000			-29.036			-3.630
293004.000			-29.036			-3.629
293104.000			-29.036			-3.629
293205.000			-29.036			-3.629
293304.000			-29.035			-3.629
293404.000			-29.034			-3.629
293504.000			-29.033			-3.629
293604.000			-29.033			-3.629
293704.000			-29.033			-3.629
293805.000			-29.032			-3.629
293904.000			-29.032			-3.629
294004.000			-29.033			-3.629
294105.000			-29.031			-3.629
294204.000			-29.030			-3.629
294304.000			-29.030			-3.629
294404.000			-29.031			-3.629
294504.000			-29.031			-3.629
294604.000			-29.030			-3.629
294705.000			-29.030			-3.629
294804.000			-29.030			-3.629
294904.000			-29.029			-3.629
295005.000			-29.030			-3.629
295104.000			-29.029			-3.629
295205.000			-29.028			-3.629
295303.000			-29.029			-3.629
295404.000			-29.029			-3.629
295505.000			-29.029			-3.629
295604.000			-29.027			-3.628
295704.000			-29.027			-3.628
295805.000			-29.027			-3.628
295904.000			-29.026			-3.628
296004.000			-29.025			-3.628
296105.000			-29.026			-3.628
296203.000			-29.025			-3.628
296304.000			-29.024			-3.628
296405.000			-29.024			-3.628
296504.000			-29.025			-3.628
296604.000			-29.025			-3.628
296705.000			-29.024			-3.628
296804.000			-29.024			-3.628
296904.000			-29.024			-3.628
297005.000			-29.022			-3.628
297103.000			-29.022			-3.628
297204.000			-29.022			-3.628
297304.000			-29.021			-3.628
297404.000			-29.021			-3.628
297504.000			-29.021			-3.628
297605.000			-29.020			-3.628
297704.000			-29.021			-3.628
297804.000			-29.019			-3.627
297905.000			-29.020			-3.627
298004.000			-29.020			-3.628
298104.000			-29.019			-3.627
298203.000			-29.019			-3.627
298304.000			-29.019			-3.627
298405.000			-29.019			-3.627
298504.000			-29.017			-3.627
298604.000			-29.017			-3.627
298705.000			-29.018			-3.627
298804.000			-29.018			-3.627
298904.000			-29.017			-3.627
299005.000			-29.016			-3.627
299103.000			-29.016			-3.627
299204.000			-29.015			-3.627
299305.000			-29.015			-3.627
299404.000			-29.014			-3.627
299504.000			-29.013			-3.627
299605.000			-29.013			-3.627
299704.000			-29.013			-3.627
299804.000			-29.014			-3.627
299905.000			-29.012			-3.627
