# Acquired on 19/12/2023 17:01:16 
# SPIDER: Creep_1mm_0771453C
# CREEP MEASUREMENT

# time [ms]		force [N]		stiffness [N/mm]
0.000			-2.305			-2.305
100.000			-3.423			-3.423
200.000			-3.855			-3.855
302.000			-3.910			-3.910
401.000			-3.899			-3.899
500.000			-3.889			-3.889
601.000			-3.882			-3.882
700.000			-3.876			-3.876
800.000			-3.866			-3.866
901.000			-3.861			-3.861
1001.000			-3.859			-3.859
1101.000			-3.855			-3.855
1201.000			-3.851			-3.851
1300.000			-3.849			-3.849
1400.000			-3.848			-3.848
1501.000			-3.841			-3.841
1600.000			-3.840			-3.840
1700.000			-3.838			-3.838
1802.000			-3.835			-3.835
1901.000			-3.833			-3.833
2000.000			-3.832			-3.832
2101.000			-3.829			-3.829
2200.000			-3.827			-3.827
2300.000			-3.824			-3.824
2401.000			-3.822			-3.822
2501.000			-3.821			-3.821
2601.000			-3.820			-3.820
2701.000			-3.818			-3.818
2800.000			-3.817			-3.817
2900.000			-3.817			-3.817
3000.000			-3.814			-3.814
3100.000			-3.812			-3.812
3201.000			-3.811			-3.811
3301.000			-3.810			-3.810
3401.000			-3.808			-3.808
3501.000			-3.807			-3.807
3600.000			-3.806			-3.806
3700.000			-3.805			-3.805
3801.000			-3.804			-3.804
3900.000			-3.803			-3.803
4000.000			-3.802			-3.802
4102.000			-3.801			-3.801
4200.000			-3.799			-3.799
4300.000			-3.799			-3.799
4401.000			-3.798			-3.798
4500.000			-3.797			-3.797
4600.000			-3.796			-3.796
4701.000			-3.795			-3.795
4801.000			-3.794			-3.794
4901.000			-3.794			-3.794
5001.000			-3.793			-3.793
5100.000			-3.792			-3.792
5200.000			-3.790			-3.790
5301.000			-3.790			-3.790
5400.000			-3.788			-3.788
5500.000			-3.788			-3.788
5602.000			-3.788			-3.788
5701.000			-3.786			-3.786
5800.000			-3.786			-3.786
5901.000			-3.784			-3.784
6000.000			-3.784			-3.784
6100.000			-3.784			-3.784
6200.000			-3.783			-3.783
6300.000			-3.783			-3.783
6402.000			-3.781			-3.781
6501.000			-3.780			-3.780
6600.000			-3.781			-3.781
6701.000			-3.781			-3.781
6800.000			-3.779			-3.779
6900.000			-3.778			-3.778
7001.000			-3.778			-3.778
7100.000			-3.777			-3.777
7201.000			-3.776			-3.776
7302.000			-3.775			-3.775
7400.000			-3.775			-3.775
7500.000			-3.775			-3.775
7601.000			-3.775			-3.775
7700.000			-3.774			-3.774
7800.000			-3.774			-3.774
7901.000			-3.774			-3.774
8001.000			-3.773			-3.773
8101.000			-3.770			-3.770
8201.000			-3.770			-3.770
8300.000			-3.770			-3.770
8400.000			-3.770			-3.770
8501.000			-3.770			-3.770
8600.000			-3.769			-3.769
8701.000			-3.768			-3.768
8802.000			-3.767			-3.767
8900.000			-3.767			-3.767
9000.000			-3.767			-3.767
9101.000			-3.766			-3.766
9200.000			-3.766			-3.766
9300.000			-3.766			-3.766
9400.000			-3.765			-3.765
9501.000			-3.765			-3.765
9602.000			-3.763			-3.763
9700.000			-3.763			-3.763
9800.000			-3.763			-3.763
9901.000			-3.763			-3.763
10000.000			-3.762			-3.762
10100.000			-3.763			-3.763
10201.000			-3.762			-3.762
10301.000			-3.761			-3.761
10401.000			-3.760			-3.760
10501.000			-3.759			-3.759
10600.000			-3.759			-3.759
10700.000			-3.759			-3.759
10801.000			-3.757			-3.757
10900.000			-3.758			-3.758
11000.000			-3.758			-3.758
11102.000			-3.757			-3.757
11201.000			-3.757			-3.757
11300.000			-3.756			-3.756
11401.000			-3.756			-3.756
11500.000			-3.756			-3.756
11600.000			-3.755			-3.755
11701.000			-3.755			-3.755
11800.000			-3.754			-3.754
11901.000			-3.754			-3.754
12002.000			-3.753			-3.753
12100.000			-3.752			-3.752
12200.000			-3.753			-3.753
12301.000			-3.753			-3.753
12400.000			-3.752			-3.752
12500.000			-3.752			-3.752
12602.000			-3.752			-3.752
12701.000			-3.752			-3.752
12802.000			-3.752			-3.752
12900.000			-3.750			-3.750
13000.000			-3.750			-3.750
13101.000			-3.750			-3.750
13200.000			-3.748			-3.748
13300.000			-3.748			-3.748
13402.000			-3.748			-3.748
13501.000			-3.748			-3.748
13601.000			-3.747			-3.747
13701.000			-3.747			-3.747
13800.000			-3.748			-3.748
13900.000			-3.746			-3.746
14001.000			-3.746			-3.746
14100.000			-3.746			-3.746
14200.000			-3.747			-3.747
14302.000			-3.746			-3.746
14401.000			-3.745			-3.745
14500.000			-3.745			-3.745
14601.000			-3.745			-3.745
14700.000			-3.744			-3.744
14800.000			-3.743			-3.743
14901.000			-3.742			-3.742
15000.000			-3.742			-3.742
15101.000			-3.743			-3.743
15202.000			-3.743			-3.743
15300.000			-3.742			-3.742
15400.000			-3.741			-3.741
15501.000			-3.741			-3.741
15600.000			-3.740			-3.740
15700.000			-3.741			-3.741
15802.000			-3.741			-3.741
15901.000			-3.740			-3.740
16002.000			-3.740			-3.740
16100.000			-3.740			-3.740
16200.000			-3.739			-3.739
16301.000			-3.739			-3.739
16400.000			-3.739			-3.739
16500.000			-3.739			-3.739
16601.000			-3.739			-3.739
16701.000			-3.738			-3.738
16801.000			-3.738			-3.738
16901.000			-3.737			-3.737
17000.000			-3.738			-3.738
17100.000			-3.738			-3.738
17201.000			-3.736			-3.736
17300.000			-3.737			-3.737
17400.000			-3.738			-3.738
17502.000			-3.737			-3.737
17601.000			-3.736			-3.736
17700.000			-3.736			-3.736
17801.000			-3.736			-3.736
17900.000			-3.736			-3.736
18000.000			-3.736			-3.736
18101.000			-3.736			-3.736
18200.000			-3.735			-3.735
18301.000			-3.734			-3.734
18402.000			-3.735			-3.735
18500.000			-3.735			-3.735
18600.000			-3.734			-3.734
18701.000			-3.733			-3.733
18800.000			-3.733			-3.733
18900.000			-3.734			-3.734
19000.000			-3.733			-3.733
19101.000			-3.733			-3.733
19202.000			-3.733			-3.733
19300.000			-3.733			-3.733
19400.000			-3.734			-3.734
19501.000			-3.733			-3.733
19600.000			-3.733			-3.733
19700.000			-3.732			-3.732
19801.000			-3.731			-3.731
19901.000			-3.731			-3.731
20001.000			-3.730			-3.730
20101.000			-3.731			-3.731
20200.000			-3.731			-3.731
20300.000			-3.731			-3.731
20401.000			-3.730			-3.730
20500.000			-3.730			-3.730
20600.000			-3.730			-3.730
20702.000			-3.730			-3.730
20801.000			-3.729			-3.729
20900.000			-3.730			-3.730
21001.000			-3.730			-3.730
21100.000			-3.730			-3.730
21200.000			-3.730			-3.730
21301.000			-3.731			-3.731
21401.000			-3.730			-3.730
21501.000			-3.730			-3.730
21601.000			-3.728			-3.728
21700.000			-3.728			-3.728
21800.000			-3.728			-3.728
21901.000			-3.728			-3.728
22000.000			-3.728			-3.728
22100.000			-3.728			-3.728
22202.000			-3.729			-3.729
22301.000			-3.729			-3.729
22401.000			-3.728			-3.728
22500.000			-3.728			-3.728
22600.000			-3.728			-3.728
22701.000			-3.728			-3.728
22800.000			-3.727			-3.727
22900.000			-3.727			-3.727
23002.000			-3.727			-3.727
23101.000			-3.727			-3.727
23200.000			-3.726			-3.726
23301.000			-3.726			-3.726
23400.000			-3.725			-3.725
23500.000			-3.726			-3.726
23601.000			-3.726			-3.726
23700.000			-3.726			-3.726
23801.000			-3.726			-3.726
23902.000			-3.725			-3.725
24000.000			-3.725			-3.725
24100.000			-3.726			-3.726
24201.000			-3.725			-3.725
24300.000			-3.724			-3.724
24400.000			-3.724			-3.724
24502.000			-3.724			-3.724
24601.000			-3.723			-3.723
24700.000			-3.723			-3.723
24801.000			-3.723			-3.723
24900.000			-3.723			-3.723
25000.000			-3.723			-3.723
25101.000			-3.723			-3.723
25200.000			-3.723			-3.723
25302.000			-3.722			-3.722
25401.000			-3.722			-3.722
25500.000			-3.721			-3.721
25601.000			-3.722			-3.722
25700.000			-3.721			-3.721
25800.000			-3.721			-3.721
25901.000			-3.721			-3.721
26000.000			-3.721			-3.721
26101.000			-3.720			-3.720
26202.000			-3.721			-3.721
26300.000			-3.721			-3.721
26400.000			-3.719			-3.719
26501.000			-3.720			-3.720
26600.000			-3.720			-3.720
26700.000			-3.720			-3.720
26801.000			-3.720			-3.720
26901.000			-3.720			-3.720
27001.000			-3.720			-3.720
27101.000			-3.720			-3.720
27200.000			-3.719			-3.719
27300.000			-3.718			-3.718
27401.000			-3.719			-3.719
27500.000			-3.720			-3.720
27600.000			-3.718			-3.718
27702.000			-3.718			-3.718
27801.000			-3.719			-3.719
27900.000			-3.717			-3.717
28001.000			-3.717			-3.717
28100.000			-3.718			-3.718
28200.000			-3.718			-3.718
28301.000			-3.718			-3.718
28400.000			-3.718			-3.718
28502.000			-3.718			-3.718
28601.000			-3.716			-3.716
28700.000			-3.716			-3.716
28801.000			-3.716			-3.716
28900.000			-3.717			-3.717
29000.000			-3.717			-3.717
29101.000			-3.717			-3.717
29200.000			-3.716			-3.716
29301.000			-3.714			-3.714
29402.000			-3.715			-3.715
29500.000			-3.716			-3.716
29600.000			-3.716			-3.716
29701.000			-3.715			-3.715
29800.000			-3.714			-3.714
29900.000			-3.713			-3.713
30001.000			-3.713			-3.713
30101.000			-3.713			-3.713
30201.000			-3.712			-3.712
30301.000			-3.712			-3.712
30400.000			-3.712			-3.712
30500.000			-3.713			-3.713
30601.000			-3.713			-3.713
30700.000			-3.712			-3.712
30800.000			-3.712			-3.712
30902.000			-3.711			-3.711
31001.000			-3.711			-3.711
31100.000			-3.712			-3.712
31201.000			-3.711			-3.711
31300.000			-3.710			-3.710
31400.000			-3.711			-3.711
31501.000			-3.711			-3.711
31601.000			-3.710			-3.710
31702.000			-3.711			-3.711
31800.000			-3.710			-3.710
31900.000			-3.710			-3.710
32001.000			-3.710			-3.710
32100.000			-3.709			-3.709
32200.000			-3.710			-3.710
32301.000			-3.709			-3.709
32401.000			-3.709			-3.709
32501.000			-3.710			-3.710
32601.000			-3.709			-3.709
32700.000			-3.708			-3.708
32800.000			-3.708			-3.708
32901.000			-3.709			-3.709
33000.000			-3.708			-3.708
33100.000			-3.708			-3.708
33202.000			-3.708			-3.708
33301.000			-3.708			-3.708
33400.000			-3.709			-3.709
33501.000			-3.709			-3.709
33600.000			-3.709			-3.709
33700.000			-3.708			-3.708
33801.000			-3.708			-3.708
33900.000			-3.708			-3.708
34001.000			-3.708			-3.708
34102.000			-3.707			-3.707
34200.000			-3.706			-3.706
34300.000			-3.707			-3.707
34401.000			-3.706			-3.706
34500.000			-3.707			-3.707
34600.000			-3.707			-3.707
34701.000			-3.706			-3.706
34801.000			-3.706			-3.706
34902.000			-3.705			-3.705
35000.000			-3.705			-3.705
35100.000			-3.705			-3.705
35201.000			-3.705			-3.705
35300.000			-3.705			-3.705
35400.000			-3.705			-3.705
35502.000			-3.706			-3.706
35601.000			-3.706			-3.706
35701.000			-3.705			-3.705
35801.000			-3.705			-3.705
35900.000			-3.705			-3.705
36000.000			-3.704			-3.704
36101.000			-3.703			-3.703
36200.000			-3.703			-3.703
36301.000			-3.704			-3.704
36402.000			-3.703			-3.703
36500.000			-3.703			-3.703
36600.000			-3.704			-3.704
36701.000			-3.703			-3.703
36800.000			-3.703			-3.703
36900.000			-3.703			-3.703
37001.000			-3.703			-3.703
37101.000			-3.703			-3.703
37201.000			-3.702			-3.702
37301.000			-3.703			-3.703
37400.000			-3.702			-3.702
37500.000			-3.702			-3.702
37601.000			-3.702			-3.702
37700.000			-3.703			-3.703
37800.000			-3.701			-3.701
37902.000			-3.701			-3.701
38001.000			-3.702			-3.702
38100.000			-3.701			-3.701
38200.000			-3.701			-3.701
38300.000			-3.701			-3.701
38401.000			-3.702			-3.702
38500.000			-3.702			-3.702
38600.000			-3.701			-3.701
38702.000			-3.700			-3.700
38801.000			-3.701			-3.701
38900.000			-3.701			-3.701
39001.000			-3.701			-3.701
39100.000			-3.701			-3.701
39200.000			-3.700			-3.700
39301.000			-3.700			-3.700
39401.000			-3.700			-3.700
39501.000			-3.700			-3.700
39601.000			-3.700			-3.700
39700.000			-3.700			-3.700
39800.000			-3.701			-3.701
39901.000			-3.700			-3.700
40000.000			-3.700			-3.700
40100.000			-3.700			-3.700
40201.000			-3.699			-3.699
40301.000			-3.699			-3.699
40401.000			-3.699			-3.699
40501.000			-3.700			-3.700
40600.000			-3.699			-3.699
40700.000			-3.699			-3.699
40801.000			-3.698			-3.698
40900.000			-3.698			-3.698
41000.000			-3.699			-3.699
41102.000			-3.698			-3.698
41201.000			-3.698			-3.698
41300.000			-3.699			-3.699
41400.000			-3.699			-3.699
41500.000			-3.698			-3.698
41601.000			-3.697			-3.697
41700.000			-3.697			-3.697
41800.000			-3.697			-3.697
41902.000			-3.698			-3.698
42001.000			-3.697			-3.697
42100.000			-3.698			-3.698
42201.000			-3.697			-3.697
42300.000			-3.697			-3.697
42400.000			-3.697			-3.697
42501.000			-3.697			-3.697
42600.000			-3.697			-3.697
42701.000			-3.696			-3.696
42802.000			-3.697			-3.697
42900.000			-3.696			-3.696
43000.000			-3.696			-3.696
43101.000			-3.696			-3.696
43200.000			-3.695			-3.695
43300.000			-3.696			-3.696
43401.000			-3.695			-3.695
43501.000			-3.695			-3.695
43601.000			-3.695			-3.695
43701.000			-3.695			-3.695
43800.000			-3.696			-3.696
43900.000			-3.696			-3.696
44001.000			-3.695			-3.695
44100.000			-3.694			-3.694
44200.000			-3.694			-3.694
44302.000			-3.694			-3.694
44401.000			-3.694			-3.694
44500.000			-3.694			-3.694
44600.000			-3.694			-3.694
44700.000			-3.695			-3.695
44801.000			-3.693			-3.693
44900.000			-3.694			-3.694
45000.000			-3.694			-3.694
45102.000			-3.694			-3.694
45201.000			-3.694			-3.694
45300.000			-3.694			-3.694
45401.000			-3.694			-3.694
45500.000			-3.693			-3.693
45600.000			-3.693			-3.693
45701.000			-3.694			-3.694
45800.000			-3.694			-3.694
45901.000			-3.693			-3.693
46002.000			-3.692			-3.692
46100.000			-3.692			-3.692
46200.000			-3.692			-3.692
46301.000			-3.692			-3.692
46400.000			-3.692			-3.692
46500.000			-3.693			-3.693
46601.000			-3.692			-3.692
46701.000			-3.691			-3.691
46801.000			-3.692			-3.692
46901.000			-3.692			-3.692
47000.000			-3.691			-3.691
47100.000			-3.691			-3.691
47201.000			-3.691			-3.691
47300.000			-3.691			-3.691
47400.000			-3.691			-3.691
47502.000			-3.692			-3.692
47601.000			-3.691			-3.691
47700.000			-3.691			-3.691
47800.000			-3.690			-3.690
47900.000			-3.690			-3.690
48001.000			-3.690			-3.690
48100.000			-3.691			-3.691
48200.000			-3.691			-3.691
48302.000			-3.690			-3.690
48401.000			-3.690			-3.690
48500.000			-3.690			-3.690
48601.000			-3.690			-3.690
48700.000			-3.691			-3.691
48800.000			-3.689			-3.689
48901.000			-3.689			-3.689
49000.000			-3.689			-3.689
49100.000			-3.690			-3.690
49202.000			-3.690			-3.690
49301.000			-3.690			-3.690
49400.000			-3.689			-3.689
49501.000			-3.689			-3.689
49600.000			-3.690			-3.690
49700.000			-3.690			-3.690
49801.000			-3.689			-3.689
49900.000			-3.689			-3.689
50001.000			-3.688			-3.688
50102.000			-3.689			-3.689
50200.000			-3.689			-3.689
50300.000			-3.688			-3.688
50401.000			-3.688			-3.688
50500.000			-3.688			-3.688
50600.000			-3.688			-3.688
50701.000			-3.688			-3.688
50801.000			-3.688			-3.688
50902.000			-3.688			-3.688
51000.000			-3.688			-3.688
51100.000			-3.688			-3.688
51201.000			-3.687			-3.687
51300.000			-3.687			-3.687
51400.000			-3.687			-3.687
51501.000			-3.686			-3.686
51601.000			-3.686			-3.686
51701.000			-3.687			-3.687
51801.000			-3.686			-3.686
51900.000			-3.687			-3.687
52000.000			-3.687			-3.687
52101.000			-3.686			-3.686
52200.000			-3.685			-3.685
52300.000			-3.686			-3.686
52402.000			-3.685			-3.685
52501.000			-3.685			-3.685
52600.000			-3.684			-3.684
52701.000			-3.685			-3.685
52800.000			-3.686			-3.686
52900.000			-3.685			-3.685
53001.000			-3.685			-3.685
53100.000			-3.685			-3.685
53201.000			-3.685			-3.685
53302.000			-3.685			-3.685
53400.000			-3.684			-3.684
53500.000			-3.685			-3.685
53601.000			-3.684			-3.684
53700.000			-3.683			-3.683
53800.000			-3.683			-3.683
53901.000			-3.683			-3.683
54001.000			-3.683			-3.683
54102.000			-3.682			-3.682
54200.000			-3.683			-3.683
54300.000			-3.685			-3.685
54401.000			-3.684			-3.684
54500.000			-3.684			-3.684
54600.000			-3.684			-3.684
54701.000			-3.684			-3.684
54801.000			-3.683			-3.683
54901.000			-3.683			-3.683
55001.000			-3.683			-3.683
55100.000			-3.683			-3.683
55200.000			-3.683			-3.683
55301.000			-3.683			-3.683
55400.000			-3.682			-3.682
55500.000			-3.682			-3.682
55602.000			-3.683			-3.683
55701.000			-3.683			-3.683
55800.000			-3.683			-3.683
55901.000			-3.681			-3.681
56000.000			-3.682			-3.682
56100.000			-3.682			-3.682
56201.000			-3.682			-3.682
56300.000			-3.682			-3.682
56401.000			-3.682			-3.682
56502.000			-3.682			-3.682
56601.000			-3.682			-3.682
56700.000			-3.682			-3.682
56801.000			-3.682			-3.682
56900.000			-3.682			-3.682
57000.000			-3.681			-3.681
57101.000			-3.681			-3.681
57201.000			-3.682			-3.682
57302.000			-3.682			-3.682
57401.000			-3.681			-3.681
57500.000			-3.681			-3.681
57601.000			-3.681			-3.681
57700.000			-3.681			-3.681
57800.000			-3.682			-3.682
57901.000			-3.681			-3.681
58001.000			-3.681			-3.681
58101.000			-3.681			-3.681
58202.000			-3.681			-3.681
58300.000			-3.681			-3.681
58400.000			-3.680			-3.680
58501.000			-3.681			-3.681
58600.000			-3.680			-3.680
58700.000			-3.680			-3.680
58801.000			-3.680			-3.680
58901.000			-3.680			-3.680
59001.000			-3.680			-3.680
59101.000			-3.680			-3.680
59200.000			-3.680			-3.680
59300.000			-3.680			-3.680
59401.000			-3.678			-3.678
59500.000			-3.678			-3.678
59600.000			-3.679			-3.679
59702.000			-3.679			-3.679
59801.000			-3.679			-3.679
59900.000			-3.678			-3.678
60001.000			-3.678			-3.678
60100.000			-3.679			-3.679
60200.000			-3.679			-3.679
60301.000			-3.679			-3.679
60400.000			-3.679			-3.679
60502.000			-3.679			-3.679
60601.000			-3.678			-3.678
60700.000			-3.678			-3.678
60801.000			-3.678			-3.678
60900.000			-3.679			-3.679
61000.000			-3.679			-3.679
61101.000			-3.678			-3.678
61200.000			-3.678			-3.678
61301.000			-3.679			-3.679
61402.000			-3.679			-3.679
61500.000			-3.677			-3.677
61600.000			-3.678			-3.678
61701.000			-3.679			-3.679
61800.000			-3.678			-3.678
61900.000			-3.678			-3.678
62001.000			-3.678			-3.678
62101.000			-3.678			-3.678
62201.000			-3.678			-3.678
62301.000			-3.677			-3.677
62400.000			-3.677			-3.677
62500.000			-3.678			-3.678
62601.000			-3.679			-3.679
62700.000			-3.677			-3.677
62800.000			-3.676			-3.676
62902.000			-3.676			-3.676
63001.000			-3.676			-3.676
63101.000			-3.678			-3.678
63201.000			-3.677			-3.677
63300.000			-3.677			-3.677
63400.000			-3.676			-3.676
63501.000			-3.676			-3.676
63600.000			-3.676			-3.676
63700.000			-3.677			-3.677
63802.000			-3.675			-3.675
63901.000			-3.675			-3.675
64001.000			-3.676			-3.676
64100.000			-3.676			-3.676
64200.000			-3.675			-3.675
64301.000			-3.676			-3.676
64400.000			-3.677			-3.677
64500.000			-3.675			-3.675
64602.000			-3.675			-3.675
64701.000			-3.676			-3.676
64800.000			-3.675			-3.675
64901.000			-3.674			-3.674
65000.000			-3.674			-3.674
65100.000			-3.674			-3.674
65201.000			-3.675			-3.675
65300.000			-3.675			-3.675
65401.000			-3.674			-3.674
65502.000			-3.674			-3.674
65600.000			-3.674			-3.674
65700.000			-3.674			-3.674
65801.000			-3.673			-3.673
65900.000			-3.673			-3.673
66000.000			-3.674			-3.674
66101.000			-3.675			-3.675
66201.000			-3.674			-3.674
66301.000			-3.673			-3.673
66401.000			-3.674			-3.674
66500.000			-3.674			-3.674
66600.000			-3.675			-3.675
66701.000			-3.674			-3.674
66800.000			-3.673			-3.673
66900.000			-3.673			-3.673
67002.000			-3.673			-3.673
67101.000			-3.674			-3.674
67202.000			-3.674			-3.674
67300.000			-3.674			-3.674
67400.000			-3.674			-3.674
67501.000			-3.674			-3.674
67600.000			-3.673			-3.673
67700.000			-3.674			-3.674
67801.000			-3.673			-3.673
67901.000			-3.673			-3.673
68001.000			-3.673			-3.673
68101.000			-3.673			-3.673
68200.000			-3.673			-3.673
68300.000			-3.673			-3.673
68401.000			-3.673			-3.673
68500.000			-3.673			-3.673
68600.000			-3.673			-3.673
68702.000			-3.672			-3.672
68801.000			-3.672			-3.672
68900.000			-3.672			-3.672
69001.000			-3.673			-3.673
69100.000			-3.673			-3.673
69200.000			-3.672			-3.672
69301.000			-3.673			-3.673
69400.000			-3.673			-3.673
69501.000			-3.672			-3.672
69602.000			-3.671			-3.671
69701.000			-3.672			-3.672
69800.000			-3.672			-3.672
69901.000			-3.672			-3.672
70000.000			-3.672			-3.672
70100.000			-3.672			-3.672
70200.000			-3.673			-3.673
70300.000			-3.673			-3.673
70402.000			-3.672			-3.672
70501.000			-3.673			-3.673
70600.000			-3.673			-3.673
70701.000			-3.672			-3.672
70800.000			-3.672			-3.672
70900.000			-3.672			-3.672
71001.000			-3.672			-3.672
71100.000			-3.673			-3.673
71201.000			-3.672			-3.672
71302.000			-3.672			-3.672
71400.000			-3.672			-3.672
71500.000			-3.672			-3.672
71601.000			-3.671			-3.671
71700.000			-3.672			-3.672
71800.000			-3.671			-3.671
71901.000			-3.671			-3.671
72001.000			-3.671			-3.671
72101.000			-3.671			-3.671
72201.000			-3.671			-3.671
72300.000			-3.671			-3.671
72400.000			-3.671			-3.671
72501.000			-3.671			-3.671
72600.000			-3.671			-3.671
72700.000			-3.671			-3.671
72802.000			-3.670			-3.670
72901.000			-3.671			-3.671
73000.000			-3.672			-3.672
73101.000			-3.672			-3.672
73200.000			-3.671			-3.671
73300.000			-3.672			-3.672
73400.000			-3.671			-3.671
73500.000			-3.671			-3.671
73602.000			-3.671			-3.671
73701.000			-3.670			-3.670
73800.000			-3.670			-3.670
73901.000			-3.670			-3.670
74000.000			-3.670			-3.670
74100.000			-3.671			-3.671
74201.000			-3.671			-3.671
74300.000			-3.670			-3.670
74401.000			-3.669			-3.669
74502.000			-3.670			-3.670
74600.000			-3.670			-3.670
74700.000			-3.670			-3.670
74801.000			-3.670			-3.670
74900.000			-3.669			-3.669
75000.000			-3.669			-3.669
75101.000			-3.670			-3.670
75201.000			-3.669			-3.669
75301.000			-3.670			-3.670
75402.000			-3.671			-3.671
75500.000			-3.670			-3.670
75600.000			-3.669			-3.669
75701.000			-3.669			-3.669
75800.000			-3.668			-3.668
75900.000			-3.668			-3.668
76001.000			-3.669			-3.669
76101.000			-3.669			-3.669
76201.000			-3.668			-3.668
76301.000			-3.667			-3.667
76400.000			-3.668			-3.668
76500.000			-3.668			-3.668
76600.000			-3.667			-3.667
76700.000			-3.667			-3.667
76801.000			-3.668			-3.668
76901.000			-3.668			-3.668
77001.000			-3.668			-3.668
77101.000			-3.669			-3.669
77200.000			-3.669			-3.669
77300.000			-3.668			-3.668
77401.000			-3.668			-3.668
77500.000			-3.669			-3.669
77600.000			-3.669			-3.669
77701.000			-3.668			-3.668
77801.000			-3.668			-3.668
77901.000			-3.668			-3.668
78001.000			-3.668			-3.668
78100.000			-3.669			-3.669
78200.000			-3.667			-3.667
78301.000			-3.667			-3.667
78400.000			-3.667			-3.667
78500.000			-3.667			-3.667
78602.000			-3.667			-3.667
78701.000			-3.667			-3.667
78801.000			-3.667			-3.667
78901.000			-3.666			-3.666
79000.000			-3.666			-3.666
79100.000			-3.666			-3.666
79201.000			-3.668			-3.668
79300.000			-3.667			-3.667
79400.000			-3.667			-3.667
79502.000			-3.667			-3.667
79601.000			-3.667			-3.667
79700.000			-3.667			-3.667
79800.000			-3.667			-3.667
79900.000			-3.667			-3.667
80001.000			-3.667			-3.667
80100.000			-3.668			-3.668
80200.000			-3.669			-3.669
80302.000			-3.668			-3.668
80401.000			-3.667			-3.667
80500.000			-3.667			-3.667
80601.000			-3.667			-3.667
80700.000			-3.666			-3.666
80800.000			-3.666			-3.666
80901.000			-3.666			-3.666
81000.000			-3.667			-3.667
81100.000			-3.667			-3.667
81202.000			-3.666			-3.666
81301.000			-3.666			-3.666
81400.000			-3.665			-3.665
81501.000			-3.666			-3.666
81600.000			-3.665			-3.665
81700.000			-3.666			-3.666
81801.000			-3.666			-3.666
81900.000			-3.664			-3.664
82001.000			-3.664			-3.664
82102.000			-3.664			-3.664
82200.000			-3.664			-3.664
82300.000			-3.665			-3.665
82401.000			-3.665			-3.665
82500.000			-3.664			-3.664
82600.000			-3.664			-3.664
82701.000			-3.664			-3.664
82801.000			-3.664			-3.664
82902.000			-3.664			-3.664
83000.000			-3.665			-3.665
83100.000			-3.665			-3.665
83201.000			-3.664			-3.664
83300.000			-3.664			-3.664
83400.000			-3.663			-3.663
83501.000			-3.663			-3.663
83601.000			-3.662			-3.662
83701.000			-3.662			-3.662
83801.000			-3.664			-3.664
83900.000			-3.663			-3.663
84000.000			-3.663			-3.663
84101.000			-3.663			-3.663
84200.000			-3.663			-3.663
84300.000			-3.662			-3.662
84402.000			-3.661			-3.661
84501.000			-3.660			-3.660
84600.000			-3.662			-3.662
84701.000			-3.662			-3.662
84800.000			-3.661			-3.661
84900.000			-3.661			-3.661
85001.000			-3.661			-3.661
85100.000			-3.660			-3.660
85201.000			-3.661			-3.661
85302.000			-3.662			-3.662
85400.000			-3.661			-3.661
85500.000			-3.661			-3.661
85601.000			-3.659			-3.659
85700.000			-3.660			-3.660
85800.000			-3.660			-3.660
85901.000			-3.659			-3.659
86001.000			-3.660			-3.660
86102.000			-3.661			-3.661
86201.000			-3.661			-3.661
86300.000			-3.661			-3.661
86401.000			-3.662			-3.662
86500.000			-3.662			-3.662
86600.000			-3.662			-3.662
86701.000			-3.662			-3.662
86800.000			-3.662			-3.662
86901.000			-3.661			-3.661
87002.000			-3.661			-3.661
87100.000			-3.661			-3.661
87200.000			-3.661			-3.661
87301.000			-3.662			-3.662
87400.000			-3.661			-3.661
87500.000			-3.661			-3.661
87601.000			-3.662			-3.662
87701.000			-3.662			-3.662
87801.000			-3.662			-3.662
87901.000			-3.663			-3.663
88000.000			-3.661			-3.661
88100.000			-3.662			-3.662
88201.000			-3.663			-3.663
88300.000			-3.662			-3.662
88400.000			-3.662			-3.662
88502.000			-3.662			-3.662
88601.000			-3.662			-3.662
88701.000			-3.662			-3.662
88801.000			-3.662			-3.662
88900.000			-3.661			-3.661
89000.000			-3.661			-3.661
89101.000			-3.661			-3.661
89200.000			-3.661			-3.661
89300.000			-3.661			-3.661
89402.000			-3.662			-3.662
89501.000			-3.662			-3.662
89601.000			-3.661			-3.661
89700.000			-3.660			-3.660
89800.000			-3.661			-3.661
89901.000			-3.661			-3.661
90000.000			-3.661			-3.661
90100.000			-3.661			-3.661
90202.000			-3.660			-3.660
90301.000			-3.659			-3.659
90400.000			-3.660			-3.660
90501.000			-3.660			-3.660
90600.000			-3.661			-3.661
90700.000			-3.660			-3.660
90801.000			-3.660			-3.660
90900.000			-3.659			-3.659
91001.000			-3.660			-3.660
91102.000			-3.659			-3.659
91200.000			-3.658			-3.658
91300.000			-3.658			-3.658
91401.000			-3.658			-3.658
91500.000			-3.659			-3.659
91600.000			-3.659			-3.659
91701.000			-3.659			-3.659
91801.000			-3.658			-3.658
91901.000			-3.657			-3.657
92001.000			-3.657			-3.657
92100.000			-3.657			-3.657
92200.000			-3.658			-3.658
92301.000			-3.657			-3.657
92400.000			-3.657			-3.657
92500.000			-3.656			-3.656
92600.000			-3.656			-3.656
92701.000			-3.657			-3.657
92802.000			-3.656			-3.656
92900.000			-3.657			-3.657
93000.000			-3.656			-3.656
93101.000			-3.656			-3.656
93200.000			-3.657			-3.657
93300.000			-3.657			-3.657
93401.000			-3.656			-3.656
93501.000			-3.656			-3.656
93601.000			-3.656			-3.656
93701.000			-3.656			-3.656
93800.000			-3.656			-3.656
93900.000			-3.656			-3.656
94001.000			-3.657			-3.657
94100.000			-3.656			-3.656
94200.000			-3.655			-3.655
94302.000			-3.655			-3.655
94401.000			-3.655			-3.655
94500.000			-3.655			-3.655
94601.000			-3.656			-3.656
94700.000			-3.656			-3.656
94800.000			-3.655			-3.655
94901.000			-3.656			-3.656
95000.000			-3.655			-3.655
95101.000			-3.655			-3.655
95202.000			-3.655			-3.655
95301.000			-3.655			-3.655
95400.000			-3.656			-3.656
95501.000			-3.655			-3.655
95600.000			-3.655			-3.655
95700.000			-3.655			-3.655
95800.000			-3.655			-3.655
95900.000			-3.656			-3.656
96002.000			-3.655			-3.655
96101.000			-3.656			-3.656
96200.000			-3.657			-3.657
96301.000			-3.655			-3.655
96400.000			-3.655			-3.655
96500.000			-3.656			-3.656
96601.000			-3.656			-3.656
96700.000			-3.655			-3.655
96801.000			-3.655			-3.655
96902.000			-3.655			-3.655
97000.000			-3.655			-3.655
97100.000			-3.654			-3.654
97201.000			-3.655			-3.655
97300.000			-3.654			-3.654
97400.000			-3.654			-3.654
97501.000			-3.653			-3.653
97601.000			-3.654			-3.654
97701.000			-3.655			-3.655
97802.000			-3.655			-3.655
97900.000			-3.654			-3.654
98000.000			-3.654			-3.654
98101.000			-3.653			-3.653
98200.000			-3.654			-3.654
98300.000			-3.654			-3.654
98401.000			-3.653			-3.653
98501.000			-3.654			-3.654
98601.000			-3.653			-3.653
98701.000			-3.654			-3.654
98800.000			-3.654			-3.654
98900.000			-3.654			-3.654
99000.000			-3.652			-3.652
99100.000			-3.653			-3.653
99201.000			-3.653			-3.653
99301.000			-3.653			-3.653
99401.000			-3.653			-3.653
99501.000			-3.653			-3.653
99600.000			-3.654			-3.654
99700.000			-3.654			-3.654
99801.000			-3.654			-3.654
99900.000			-3.653			-3.653
100000.000			-3.653			-3.653
100101.000			-3.653			-3.653
100201.000			-3.653			-3.653
100301.000			-3.653			-3.653
100401.000			-3.653			-3.653
100500.000			-3.654			-3.654
100600.000			-3.653			-3.653
100701.000			-3.653			-3.653
100800.000			-3.654			-3.654
100900.000			-3.654			-3.654
101002.000			-3.653			-3.653
101101.000			-3.653			-3.653
101200.000			-3.653			-3.653
101301.000			-3.653			-3.653
101400.000			-3.653			-3.653
101500.000			-3.653			-3.653
101601.000			-3.653			-3.653
101700.000			-3.652			-3.652
101801.000			-3.652			-3.652
101902.000			-3.653			-3.653
102000.000			-3.652			-3.652
102100.000			-3.652			-3.652
102200.000			-3.652			-3.652
102300.000			-3.653			-3.653
102401.000			-3.653			-3.653
102500.000			-3.652			-3.652
102600.000			-3.652			-3.652
102702.000			-3.652			-3.652
102801.000			-3.652			-3.652
102900.000			-3.652			-3.652
103001.000			-3.651			-3.651
103100.000			-3.652			-3.652
103200.000			-3.652			-3.652
103301.000			-3.652			-3.652
103400.000			-3.651			-3.651
103501.000			-3.651			-3.651
103602.000			-3.651			-3.651
103700.000			-3.651			-3.651
103800.000			-3.651			-3.651
103901.000			-3.651			-3.651
104000.000			-3.651			-3.651
104100.000			-3.651			-3.651
104201.000			-3.651			-3.651
104301.000			-3.651			-3.651
104401.000			-3.650			-3.650
104501.000			-3.649			-3.649
104600.000			-3.650			-3.650
104700.000			-3.650			-3.650
104801.000			-3.651			-3.651
104900.000			-3.650			-3.650
105000.000			-3.650			-3.650
105102.000			-3.650			-3.650
105201.000			-3.650			-3.650
105300.000			-3.650			-3.650
105400.000			-3.650			-3.650
105500.000			-3.651			-3.651
105601.000			-3.649			-3.649
105700.000			-3.649			-3.649
105800.000			-3.649			-3.649
105901.000			-3.649			-3.649
106001.000			-3.649			-3.649
106101.000			-3.649			-3.649
106201.000			-3.649			-3.649
106300.000			-3.650			-3.650
106400.000			-3.650			-3.650
106501.000			-3.649			-3.649
106600.000			-3.650			-3.650
106700.000			-3.649			-3.649
106802.000			-3.649			-3.649
106901.000			-3.648			-3.648
107000.000			-3.648			-3.648
107101.000			-3.650			-3.650
107200.000			-3.650			-3.650
107300.000			-3.648			-3.648
107401.000			-3.648			-3.648
107500.000			-3.648			-3.648
107600.000			-3.649			-3.649
107702.000			-3.648			-3.648
107801.000			-3.648			-3.648
107900.000			-3.649			-3.649
108001.000			-3.649			-3.649
108100.000			-3.649			-3.649
108200.000			-3.649			-3.649
108301.000			-3.650			-3.650
108400.000			-3.649			-3.649
108502.000			-3.650			-3.650
108601.000			-3.649			-3.649
108701.000			-3.649			-3.649
108801.000			-3.650			-3.650
108900.000			-3.651			-3.651
109000.000			-3.650			-3.650
109101.000			-3.649			-3.649
109200.000			-3.649			-3.649
109300.000			-3.649			-3.649
109402.000			-3.650			-3.650
109501.000			-3.650			-3.650
109600.000			-3.650			-3.650
109701.000			-3.651			-3.651
109800.000			-3.651			-3.651
109900.000			-3.650			-3.650
110001.000			-3.649			-3.649
110100.000			-3.649			-3.649
110200.000			-3.648			-3.648
110302.000			-3.648			-3.648
110401.000			-3.649			-3.649
110500.000			-3.649			-3.649
110601.000			-3.649			-3.649
110700.000			-3.647			-3.647
110800.000			-3.648			-3.648
110901.000			-3.647			-3.647
111000.000			-3.647			-3.647
111101.000			-3.647			-3.647
111202.000			-3.648			-3.648
111300.000			-3.648			-3.648
111400.000			-3.648			-3.648
111501.000			-3.647			-3.647
111600.000			-3.649			-3.649
111700.000			-3.649			-3.649
111800.000			-3.649			-3.649
111901.000			-3.648			-3.648
112002.000			-3.648			-3.648
112101.000			-3.648			-3.648
112200.000			-3.647			-3.647
112301.000			-3.648			-3.648
112400.000			-3.649			-3.649
112500.000			-3.648			-3.648
112601.000			-3.648			-3.648
112700.000			-3.649			-3.649
112801.000			-3.648			-3.648
112902.000			-3.648			-3.648
113000.000			-3.648			-3.648
113100.000			-3.647			-3.647
113201.000			-3.647			-3.647
113300.000			-3.647			-3.647
113400.000			-3.647			-3.647
113501.000			-3.647			-3.647
113601.000			-3.646			-3.646
113701.000			-3.646			-3.646
113802.000			-3.645			-3.645
113900.000			-3.646			-3.646
114000.000			-3.646			-3.646
114101.000			-3.646			-3.646
114200.000			-3.646			-3.646
114300.000			-3.646			-3.646
114401.000			-3.646			-3.646
114501.000			-3.646			-3.646
114601.000			-3.645			-3.645
114701.000			-3.645			-3.645
114800.000			-3.645			-3.645
114900.000			-3.645			-3.645
115000.000			-3.645			-3.645
115100.000			-3.644			-3.644
115201.000			-3.643			-3.643
115301.000			-3.644			-3.644
115401.000			-3.644			-3.644
115501.000			-3.644			-3.644
115600.000			-3.644			-3.644
115700.000			-3.644			-3.644
115801.000			-3.645			-3.645
115900.000			-3.644			-3.644
116000.000			-3.644			-3.644
116101.000			-3.644			-3.644
116201.000			-3.644			-3.644
116301.000			-3.643			-3.643
116401.000			-3.644			-3.644
116500.000			-3.644			-3.644
116600.000			-3.643			-3.643
116701.000			-3.644			-3.644
116800.000			-3.643			-3.643
116900.000			-3.644			-3.644
117002.000			-3.644			-3.644
117101.000			-3.644			-3.644
117200.000			-3.644			-3.644
117301.000			-3.643			-3.643
117400.000			-3.644			-3.644
117500.000			-3.643			-3.643
117601.000			-3.643			-3.643
117700.000			-3.644			-3.644
117800.000			-3.644			-3.644
117902.000			-3.644			-3.644
118001.000			-3.644			-3.644
118100.000			-3.644			-3.644
118200.000			-3.645			-3.645
118300.000			-3.645			-3.645
118401.000			-3.645			-3.645
118500.000			-3.645			-3.645
118600.000			-3.645			-3.645
118702.000			-3.644			-3.644
118801.000			-3.644			-3.644
118900.000			-3.643			-3.643
119001.000			-3.644			-3.644
119100.000			-3.644			-3.644
119200.000			-3.645			-3.645
119301.000			-3.646			-3.646
119400.000			-3.646			-3.646
119500.000			-3.645			-3.645
119602.000			-3.644			-3.644
119701.000			-3.643			-3.643
119800.000			-3.643			-3.643
119901.000			-3.644			-3.644
120000.000			-3.645			-3.645
120100.000			-3.645			-3.645
120201.000			-3.644			-3.644
120300.000			-3.644			-3.644
120401.000			-3.644			-3.644
120502.000			-3.645			-3.645
120600.000			-3.645			-3.645
120700.000			-3.645			-3.645
120801.000			-3.644			-3.644
120900.000			-3.644			-3.644
121000.000			-3.645			-3.645
121101.000			-3.645			-3.645
121201.000			-3.644			-3.644
121302.000			-3.643			-3.643
121401.000			-3.644			-3.644
121500.000			-3.644			-3.644
121601.000			-3.644			-3.644
121700.000			-3.643			-3.643
121800.000			-3.644			-3.644
121901.000			-3.643			-3.643
122000.000			-3.643			-3.643
122101.000			-3.644			-3.644
122202.000			-3.644			-3.644
122300.000			-3.643			-3.643
122400.000			-3.644			-3.644
122501.000			-3.643			-3.643
122600.000			-3.644			-3.644
122700.000			-3.644			-3.644
122801.000			-3.644			-3.644
122901.000			-3.643			-3.643
123001.000			-3.643			-3.643
123101.000			-3.644			-3.644
123200.000			-3.643			-3.643
123300.000			-3.643			-3.643
123401.000			-3.645			-3.645
123500.000			-3.644			-3.644
123600.000			-3.644			-3.644
123702.000			-3.643			-3.643
123801.000			-3.643			-3.643
123900.000			-3.642			-3.642
124001.000			-3.642			-3.642
124100.000			-3.643			-3.643
124200.000			-3.642			-3.642
124301.000			-3.642			-3.642
124400.000			-3.641			-3.641
124502.000			-3.641			-3.641
124601.000			-3.641			-3.641
124701.000			-3.642			-3.642
124801.000			-3.641			-3.641
124900.000			-3.641			-3.641
125000.000			-3.640			-3.640
125101.000			-3.640			-3.640
125200.000			-3.641			-3.641
125300.000			-3.640			-3.640
125402.000			-3.639			-3.639
125501.000			-3.639			-3.639
125600.000			-3.639			-3.639
125701.000			-3.639			-3.639
125800.000			-3.640			-3.640
125900.000			-3.640			-3.640
126001.000			-3.640			-3.640
126100.000			-3.640			-3.640
126201.000			-3.640			-3.640
126302.000			-3.639			-3.639
126401.000			-3.639			-3.639
126500.000			-3.639			-3.639
126601.000			-3.639			-3.639
126700.000			-3.639			-3.639
126800.000			-3.639			-3.639
126901.000			-3.639			-3.639
127000.000			-3.639			-3.639
127101.000			-3.639			-3.639
127202.000			-3.638			-3.638
127300.000			-3.637			-3.637
127400.000			-3.638			-3.638
127501.000			-3.639			-3.639
127600.000			-3.638			-3.638
127700.000			-3.638			-3.638
127800.000			-3.638			-3.638
127900.000			-3.638			-3.638
128002.000			-3.638			-3.638
128101.000			-3.638			-3.638
128200.000			-3.638			-3.638
128301.000			-3.637			-3.637
128400.000			-3.637			-3.637
128500.000			-3.637			-3.637
128601.000			-3.637			-3.637
128700.000			-3.637			-3.637
128800.000			-3.638			-3.638
128902.000			-3.638			-3.638
129001.000			-3.638			-3.638
129100.000			-3.637			-3.637
129201.000			-3.637			-3.637
129300.000			-3.638			-3.638
129400.000			-3.638			-3.638
129501.000			-3.637			-3.637
129600.000			-3.637			-3.637
129701.000			-3.638			-3.638
129802.000			-3.638			-3.638
129901.000			-3.638			-3.638
130000.000			-3.638			-3.638
130101.000			-3.638			-3.638
130200.000			-3.638			-3.638
130300.000			-3.638			-3.638
130401.000			-3.638			-3.638
130500.000			-3.637			-3.637
130601.000			-3.638			-3.638
130702.000			-3.639			-3.639
130800.000			-3.638			-3.638
130900.000			-3.638			-3.638
131000.000			-3.638			-3.638
131100.000			-3.638			-3.638
131201.000			-3.638			-3.638
131300.000			-3.639			-3.639
131400.000			-3.639			-3.639
131502.000			-3.639			-3.639
131601.000			-3.639			-3.639
131700.000			-3.639			-3.639
131801.000			-3.639			-3.639
131900.000			-3.639			-3.639
132000.000			-3.639			-3.639
132101.000			-3.639			-3.639
132200.000			-3.639			-3.639
132300.000			-3.638			-3.638
132402.000			-3.638			-3.638
132501.000			-3.639			-3.639
132600.000			-3.639			-3.639
132701.000			-3.639			-3.639
132800.000			-3.638			-3.638
132900.000			-3.638			-3.638
133001.000			-3.640			-3.640
133100.000			-3.639			-3.639
133200.000			-3.638			-3.638
133301.000			-3.638			-3.638
133401.000			-3.638			-3.638
133501.000			-3.639			-3.639
133601.000			-3.639			-3.639
133700.000			-3.639			-3.639
133800.000			-3.639			-3.639
133901.000			-3.639			-3.639
134000.000			-3.638			-3.638
134100.000			-3.638			-3.638
134200.000			-3.638			-3.638
134301.000			-3.638			-3.638
134402.000			-3.638			-3.638
134500.000			-3.638			-3.638
134600.000			-3.639			-3.639
134701.000			-3.639			-3.639
134800.000			-3.639			-3.639
134900.000			-3.638			-3.638
135001.000			-3.639			-3.639
135100.000			-3.638			-3.638
135200.000			-3.638			-3.638
135302.000			-3.638			-3.638
135401.000			-3.638			-3.638
135500.000			-3.637			-3.637
135601.000			-3.638			-3.638
135700.000			-3.637			-3.637
135800.000			-3.637			-3.637
135901.000			-3.638			-3.638
136000.000			-3.638			-3.638
136100.000			-3.637			-3.637
136202.000			-3.637			-3.637
136301.000			-3.637			-3.637
136400.000			-3.637			-3.637
136501.000			-3.636			-3.636
136600.000			-3.637			-3.637
136700.000			-3.637			-3.637
136801.000			-3.636			-3.636
136900.000			-3.637			-3.637
137000.000			-3.637			-3.637
137102.000			-3.636			-3.636
137201.000			-3.636			-3.636
137300.000			-3.636			-3.636
137400.000			-3.636			-3.636
137500.000			-3.636			-3.636
137601.000			-3.636			-3.636
137700.000			-3.636			-3.636
137800.000			-3.637			-3.637
137901.000			-3.637			-3.637
138000.000			-3.636			-3.636
138101.000			-3.636			-3.636
138202.000			-3.635			-3.635
138300.000			-3.635			-3.635
138400.000			-3.635			-3.635
138501.000			-3.635			-3.635
138600.000			-3.636			-3.636
138700.000			-3.636			-3.636
138801.000			-3.636			-3.636
138900.000			-3.636			-3.636
139001.000			-3.636			-3.636
139102.000			-3.636			-3.636
139200.000			-3.635			-3.635
139300.000			-3.636			-3.636
139401.000			-3.635			-3.635
139500.000			-3.636			-3.636
139600.000			-3.635			-3.635
139701.000			-3.636			-3.636
139800.000			-3.636			-3.636
139901.000			-3.636			-3.636
140002.000			-3.635			-3.635
140101.000			-3.636			-3.636
140200.000			-3.635			-3.635
140301.000			-3.634			-3.634
140400.000			-3.635			-3.635
140500.000			-3.636			-3.636
140600.000			-3.635			-3.635
140700.000			-3.636			-3.636
140802.000			-3.636			-3.636
140901.000			-3.635			-3.635
141001.000			-3.634			-3.634
141101.000			-3.634			-3.634
141200.000			-3.634			-3.634
141300.000			-3.634			-3.634
141401.000			-3.634			-3.634
141500.000			-3.634			-3.634
141600.000			-3.635			-3.635
141702.000			-3.636			-3.636
141801.000			-3.635			-3.635
141901.000			-3.635			-3.635
142001.000			-3.634			-3.634
142100.000			-3.634			-3.634
142200.000			-3.634			-3.634
142301.000			-3.633			-3.633
142400.000			-3.634			-3.634
142500.000			-3.634			-3.634
142602.000			-3.635			-3.635
142701.000			-3.634			-3.634
142801.000			-3.635			-3.635
142901.000			-3.635			-3.635
143000.000			-3.634			-3.634
143100.000			-3.634			-3.634
143201.000			-3.634			-3.634
143300.000			-3.634			-3.634
143400.000			-3.635			-3.635
143501.000			-3.635			-3.635
143601.000			-3.634			-3.634
143702.000			-3.634			-3.634
143800.000			-3.633			-3.633
143900.000			-3.634			-3.634
144001.000			-3.634			-3.634
144100.000			-3.634			-3.634
144200.000			-3.634			-3.634
144301.000			-3.633			-3.633
144400.000			-3.633			-3.633
144501.000			-3.633			-3.633
144602.000			-3.634			-3.634
144700.000			-3.633			-3.633
144800.000			-3.633			-3.633
144901.000			-3.634			-3.634
145000.000			-3.634			-3.634
145100.000			-3.634			-3.634
145201.000			-3.632			-3.632
145300.000			-3.633			-3.633
145401.000			-3.633			-3.633
145502.000			-3.633			-3.633
145600.000			-3.632			-3.632
145700.000			-3.632			-3.632
145801.000			-3.632			-3.632
145900.000			-3.632			-3.632
146000.000			-3.632			-3.632
146101.000			-3.632			-3.632
146200.000			-3.633			-3.633
146301.000			-3.632			-3.632
146402.000			-3.632			-3.632
146501.000			-3.633			-3.633
146600.000			-3.632			-3.632
146701.000			-3.633			-3.633
146800.000			-3.633			-3.633
146900.000			-3.633			-3.633
147000.000			-3.632			-3.632
147100.000			-3.632			-3.632
147201.000			-3.631			-3.631
147301.000			-3.631			-3.631
147401.000			-3.631			-3.631
147501.000			-3.631			-3.631
147600.000			-3.632			-3.632
147700.000			-3.633			-3.633
147801.000			-3.632			-3.632
147900.000			-3.632			-3.632
148000.000			-3.632			-3.632
148101.000			-3.632			-3.632
148201.000			-3.631			-3.631
148301.000			-3.632			-3.632
148401.000			-3.632			-3.632
148500.000			-3.631			-3.631
148600.000			-3.632			-3.632
148701.000			-3.632			-3.632
148800.000			-3.631			-3.631
148900.000			-3.631			-3.631
149001.000			-3.632			-3.632
149101.000			-3.632			-3.632
149201.000			-3.631			-3.631
149301.000			-3.632			-3.632
149400.000			-3.632			-3.632
149500.000			-3.632			-3.632
149601.000			-3.632			-3.632
149700.000			-3.631			-3.631
149800.000			-3.631			-3.631
149901.000			-3.631			-3.631
150001.000			-3.632			-3.632
150102.000			-3.632			-3.632
150201.000			-3.632			-3.632
150300.000			-3.631			-3.631
150401.000			-3.630			-3.630
150500.000			-3.631			-3.631
150600.000			-3.632			-3.632
150701.000			-3.632			-3.632
150800.000			-3.632			-3.632
150900.000			-3.631			-3.631
151002.000			-3.631			-3.631
151101.000			-3.631			-3.631
151200.000			-3.631			-3.631
151301.000			-3.631			-3.631
151400.000			-3.632			-3.632
151500.000			-3.631			-3.631
151601.000			-3.631			-3.631
151700.000			-3.631			-3.631
151801.000			-3.632			-3.632
151902.000			-3.630			-3.630
152001.000			-3.630			-3.630
152100.000			-3.631			-3.631
152201.000			-3.630			-3.630
152300.000			-3.630			-3.630
152400.000			-3.630			-3.630
152501.000			-3.631			-3.631
152600.000			-3.631			-3.631
152701.000			-3.630			-3.630
152802.000			-3.630			-3.630
152901.000			-3.630			-3.630
153000.000			-3.630			-3.630
153101.000			-3.630			-3.630
153200.000			-3.630			-3.630
153300.000			-3.631			-3.631
153400.000			-3.631			-3.631
153500.000			-3.630			-3.630
153601.000			-3.629			-3.629
153701.000			-3.630			-3.630
153801.000			-3.629			-3.629
153901.000			-3.630			-3.630
154000.000			-3.629			-3.629
154100.000			-3.630			-3.630
154201.000			-3.630			-3.630
154300.000			-3.631			-3.631
154400.000			-3.630			-3.630
154501.000			-3.630			-3.630
154601.000			-3.630			-3.630
154701.000			-3.630			-3.630
154801.000			-3.630			-3.630
154900.000			-3.630			-3.630
155000.000			-3.631			-3.631
155101.000			-3.631			-3.631
155200.000			-3.630			-3.630
155300.000			-3.630			-3.630
155401.000			-3.629			-3.629
155501.000			-3.629			-3.629
155601.000			-3.630			-3.630
155701.000			-3.631			-3.631
155800.000			-3.630			-3.630
155900.000			-3.630			-3.630
156001.000			-3.630			-3.630
156100.000			-3.630			-3.630
156200.000			-3.628			-3.628
156301.000			-3.629			-3.629
156401.000			-3.631			-3.631
156502.000			-3.630			-3.630
156601.000			-3.629			-3.629
156700.000			-3.629			-3.629
156801.000			-3.629			-3.629
156900.000			-3.629			-3.629
157000.000			-3.629			-3.629
157101.000			-3.629			-3.629
157200.000			-3.630			-3.630
157300.000			-3.629			-3.629
157402.000			-3.629			-3.629
157501.000			-3.629			-3.629
157600.000			-3.628			-3.628
157701.000			-3.629			-3.629
157800.000			-3.629			-3.629
157900.000			-3.629			-3.629
158001.000			-3.630			-3.630
158100.000			-3.629			-3.629
158200.000			-3.628			-3.628
158302.000			-3.627			-3.627
158401.000			-3.628			-3.628
158501.000			-3.627			-3.627
158601.000			-3.627			-3.627
158700.000			-3.627			-3.627
158800.000			-3.626			-3.626
158901.000			-3.625			-3.625
159000.000			-3.626			-3.626
159100.000			-3.626			-3.626
159201.000			-3.626			-3.626
159301.000			-3.627			-3.627
159401.000			-3.626			-3.626
159501.000			-3.626			-3.626
159600.000			-3.627			-3.627
159700.000			-3.627			-3.627
159800.000			-3.626			-3.626
159900.000			-3.625			-3.625
160001.000			-3.624			-3.624
160100.000			-3.625			-3.625
160200.000			-3.625			-3.625
160302.000			-3.626			-3.626
160401.000			-3.626			-3.626
160500.000			-3.626			-3.626
160601.000			-3.625			-3.625
160700.000			-3.625			-3.625
160800.000			-3.625			-3.625
160901.000			-3.625			-3.625
161000.000			-3.624			-3.624
161100.000			-3.625			-3.625
161202.000			-3.625			-3.625
161301.000			-3.624			-3.624
161400.000			-3.624			-3.624
161501.000			-3.624			-3.624
161600.000			-3.625			-3.625
161700.000			-3.625			-3.625
161801.000			-3.625			-3.625
161900.000			-3.625			-3.625
162000.000			-3.624			-3.624
162102.000			-3.624			-3.624
162201.000			-3.624			-3.624
162300.000			-3.625			-3.625
162401.000			-3.624			-3.624
162500.000			-3.624			-3.624
162600.000			-3.624			-3.624
162701.000			-3.625			-3.625
162800.000			-3.622			-3.622
162900.000			-3.623			-3.623
163002.000			-3.625			-3.625
163101.000			-3.624			-3.624
163201.000			-3.625			-3.625
163300.000			-3.624			-3.624
163400.000			-3.624			-3.624
163501.000			-3.624			-3.624
163600.000			-3.624			-3.624
163700.000			-3.625			-3.625
163801.000			-3.625			-3.625
163901.000			-3.625			-3.625
164001.000			-3.625			-3.625
164102.000			-3.624			-3.624
164200.000			-3.623			-3.623
164300.000			-3.625			-3.625
164401.000			-3.624			-3.624
164500.000			-3.624			-3.624
164600.000			-3.624			-3.624
164701.000			-3.624			-3.624
164801.000			-3.624			-3.624
164901.000			-3.623			-3.623
165002.000			-3.624			-3.624
165100.000			-3.623			-3.623
165200.000			-3.624			-3.624
165301.000			-3.624			-3.624
165400.000			-3.624			-3.624
165500.000			-3.624			-3.624
165601.000			-3.624			-3.624
165701.000			-3.624			-3.624
165801.000			-3.624			-3.624
165902.000			-3.624			-3.624
166000.000			-3.623			-3.623
166100.000			-3.623			-3.623
166200.000			-3.623			-3.623
166300.000			-3.623			-3.623
166401.000			-3.624			-3.624
166500.000			-3.624			-3.624
166600.000			-3.623			-3.623
166702.000			-3.623			-3.623
166801.000			-3.623			-3.623
166900.000			-3.623			-3.623
167001.000			-3.623			-3.623
167100.000			-3.622			-3.622
167200.000			-3.623			-3.623
167301.000			-3.624			-3.624
167400.000			-3.624			-3.624
167500.000			-3.623			-3.623
167602.000			-3.622			-3.622
167701.000			-3.622			-3.622
167801.000			-3.623			-3.623
167901.000			-3.623			-3.623
168000.000			-3.623			-3.623
168100.000			-3.623			-3.623
168201.000			-3.622			-3.622
168300.000			-3.622			-3.622
168400.000			-3.623			-3.623
168501.000			-3.623			-3.623
168601.000			-3.622			-3.622
168701.000			-3.623			-3.623
168802.000			-3.622			-3.622
168900.000			-3.622			-3.622
169000.000			-3.622			-3.622
169101.000			-3.622			-3.622
169200.000			-3.622			-3.622
169300.000			-3.622			-3.622
169400.000			-3.623			-3.623
169500.000			-3.622			-3.622
169602.000			-3.621			-3.621
169701.000			-3.622			-3.622
169800.000			-3.622			-3.622
169901.000			-3.622			-3.622
170000.000			-3.622			-3.622
170100.000			-3.622			-3.622
170201.000			-3.622			-3.622
170300.000			-3.622			-3.622
170400.000			-3.623			-3.623
170502.000			-3.622			-3.622
170601.000			-3.622			-3.622
170700.000			-3.622			-3.622
170801.000			-3.622			-3.622
170900.000			-3.621			-3.621
171000.000			-3.621			-3.621
171101.000			-3.622			-3.622
171200.000			-3.622			-3.622
171300.000			-3.622			-3.622
171402.000			-3.622			-3.622
171501.000			-3.622			-3.622
171600.000			-3.622			-3.622
171701.000			-3.621			-3.621
171800.000			-3.622			-3.622
171900.000			-3.622			-3.622
172001.000			-3.622			-3.622
172100.000			-3.621			-3.621
172200.000			-3.621			-3.621
172302.000			-3.621			-3.621
172401.000			-3.621			-3.621
172500.000			-3.622			-3.622
172600.000			-3.622			-3.622
172700.000			-3.621			-3.621
172801.000			-3.622			-3.622
172900.000			-3.621			-3.621
173000.000			-3.621			-3.621
173101.000			-3.622			-3.622
173201.000			-3.622			-3.622
173301.000			-3.622			-3.622
173401.000			-3.622			-3.622
173500.000			-3.620			-3.620
173600.000			-3.620			-3.620
173701.000			-3.620			-3.620
173800.000			-3.620			-3.620
173900.000			-3.621			-3.621
174001.000			-3.622			-3.622
174101.000			-3.622			-3.622
174201.000			-3.622			-3.622
174301.000			-3.622			-3.622
174400.000			-3.621			-3.621
174500.000			-3.620			-3.620
174601.000			-3.622			-3.622
174700.000			-3.622			-3.622
174800.000			-3.622			-3.622
174901.000			-3.621			-3.621
175001.000			-3.621			-3.621
175101.000			-3.621			-3.621
175201.000			-3.619			-3.619
175300.000			-3.621			-3.621
175400.000			-3.621			-3.621
175501.000			-3.621			-3.621
175600.000			-3.621			-3.621
175700.000			-3.621			-3.621
175800.000			-3.621			-3.621
175901.000			-3.623			-3.623
176002.000			-3.621			-3.621
176101.000			-3.620			-3.620
176200.000			-3.620			-3.620
176301.000			-3.620			-3.620
176400.000			-3.620			-3.620
176500.000			-3.621			-3.621
176601.000			-3.622			-3.622
176700.000			-3.621			-3.621
176801.000			-3.621			-3.621
176902.000			-3.621			-3.621
177001.000			-3.621			-3.621
177100.000			-3.620			-3.620
177201.000			-3.620			-3.620
177300.000			-3.621			-3.621
177400.000			-3.622			-3.622
177501.000			-3.622			-3.622
177600.000			-3.621			-3.621
177700.000			-3.621			-3.621
177802.000			-3.621			-3.621
177901.000			-3.621			-3.621
178000.000			-3.620			-3.620
178101.000			-3.620			-3.620
178200.000			-3.621			-3.621
178300.000			-3.621			-3.621
178401.000			-3.621			-3.621
178500.000			-3.620			-3.620
178600.000			-3.621			-3.621
178702.000			-3.621			-3.621
178801.000			-3.622			-3.622
178900.000			-3.622			-3.622
179000.000			-3.621			-3.621
179100.000			-3.621			-3.621
179201.000			-3.621			-3.621
179300.000			-3.621			-3.621
179400.000			-3.621			-3.621
179501.000			-3.620			-3.620
179601.000			-3.619			-3.619
179701.000			-3.620			-3.620
179802.000			-3.622			-3.622
179900.000			-3.622			-3.622
180000.000			-3.622			-3.622
180101.000			-3.621			-3.621
180200.000			-3.621			-3.621
180300.000			-3.621			-3.621
180401.000			-3.620			-3.620
180501.000			-3.620			-3.620
180601.000			-3.620			-3.620
180702.000			-3.621			-3.621
180800.000			-3.620			-3.620
180900.000			-3.620			-3.620
181001.000			-3.619			-3.619
181100.000			-3.620			-3.620
181200.000			-3.620			-3.620
181301.000			-3.620			-3.620
181400.000			-3.619			-3.619
181501.000			-3.619			-3.619
181602.000			-3.620			-3.620
181700.000			-3.621			-3.621
181800.000			-3.620			-3.620
181901.000			-3.621			-3.621
182000.000			-3.620			-3.620
182100.000			-3.619			-3.619
182200.000			-3.620			-3.620
182300.000			-3.619			-3.619
182402.000			-3.620			-3.620
182501.000			-3.621			-3.621
182600.000			-3.621			-3.621
182701.000			-3.621			-3.621
182800.000			-3.620			-3.620
182900.000			-3.621			-3.621
183001.000			-3.620			-3.620
183100.000			-3.620			-3.620
183200.000			-3.621			-3.621
183302.000			-3.620			-3.620
183401.000			-3.621			-3.621
183501.000			-3.622			-3.622
183601.000			-3.621			-3.621
183700.000			-3.621			-3.621
183800.000			-3.621			-3.621
183901.000			-3.621			-3.621
184000.000			-3.622			-3.622
184100.000			-3.621			-3.621
184202.000			-3.621			-3.621
184301.000			-3.621			-3.621
184401.000			-3.622			-3.622
184501.000			-3.622			-3.622
184600.000			-3.620			-3.620
184700.000			-3.620			-3.620
184801.000			-3.620			-3.620
184900.000			-3.621			-3.621
185000.000			-3.620			-3.620
185102.000			-3.620			-3.620
185201.000			-3.621			-3.621
185302.000			-3.621			-3.621
185400.000			-3.620			-3.620
185500.000			-3.621			-3.621
185601.000			-3.620			-3.620
185700.000			-3.620			-3.620
185800.000			-3.620			-3.620
185901.000			-3.621			-3.621
186000.000			-3.620			-3.620
186101.000			-3.619			-3.619
186202.000			-3.621			-3.621
186300.000			-3.620			-3.620
186400.000			-3.620			-3.620
186501.000			-3.620			-3.620
186600.000			-3.620			-3.620
186700.000			-3.621			-3.621
186801.000			-3.621			-3.621
186900.000			-3.620			-3.620
187001.000			-3.620			-3.620
187102.000			-3.620			-3.620
187201.000			-3.620			-3.620
187300.000			-3.620			-3.620
187401.000			-3.621			-3.621
187500.000			-3.621			-3.621
187600.000			-3.621			-3.621
187701.000			-3.620			-3.620
187800.000			-3.621			-3.621
187901.000			-3.622			-3.622
188002.000			-3.621			-3.621
188101.000			-3.621			-3.621
188200.000			-3.620			-3.620
188301.000			-3.621			-3.621
188400.000			-3.621			-3.621
188500.000			-3.621			-3.621
188600.000			-3.620			-3.620
188700.000			-3.620			-3.620
188801.000			-3.621			-3.621
188901.000			-3.620			-3.620
189001.000			-3.620			-3.620
189101.000			-3.621			-3.621
189200.000			-3.620			-3.620
189300.000			-3.619			-3.619
189401.000			-3.620			-3.620
189500.000			-3.621			-3.621
189600.000			-3.620			-3.620
189701.000			-3.620			-3.620
189801.000			-3.620			-3.620
189901.000			-3.620			-3.620
190002.000			-3.620			-3.620
190100.000			-3.620			-3.620
190200.000			-3.619			-3.619
190301.000			-3.619			-3.619
190400.000			-3.620			-3.620
190500.000			-3.620			-3.620
190601.000			-3.620			-3.620
190700.000			-3.620			-3.620
190801.000			-3.620			-3.620
190902.000			-3.620			-3.620
191000.000			-3.620			-3.620
191100.000			-3.620			-3.620
191201.000			-3.619			-3.619
191300.000			-3.620			-3.620
191400.000			-3.620			-3.620
191501.000			-3.620			-3.620
191600.000			-3.620			-3.620
191702.000			-3.620			-3.620
191801.000			-3.620			-3.620
191900.000			-3.620			-3.620
192001.000			-3.620			-3.620
192100.000			-3.620			-3.620
192200.000			-3.620			-3.620
192301.000			-3.618			-3.618
192400.000			-3.619			-3.619
192500.000			-3.619			-3.619
192602.000			-3.619			-3.619
192701.000			-3.619			-3.619
192801.000			-3.619			-3.619
192901.000			-3.620			-3.620
193000.000			-3.619			-3.619
193100.000			-3.619			-3.619
193201.000			-3.619			-3.619
193300.000			-3.618			-3.618
193400.000			-3.618			-3.618
193501.000			-3.619			-3.619
193601.000			-3.619			-3.619
193701.000			-3.618			-3.618
193801.000			-3.618			-3.618
193900.000			-3.619			-3.619
194000.000			-3.618			-3.618
194101.000			-3.619			-3.619
194200.000			-3.618			-3.618
194300.000			-3.618			-3.618
194401.000			-3.619			-3.619
194501.000			-3.619			-3.619
194601.000			-3.618			-3.618
194701.000			-3.618			-3.618
194800.000			-3.617			-3.617
194900.000			-3.619			-3.619
195000.000			-3.619			-3.619
195100.000			-3.618			-3.618
195201.000			-3.618			-3.618
195300.000			-3.619			-3.619
195400.000			-3.619			-3.619
195502.000			-3.618			-3.618
195601.000			-3.617			-3.617
195700.000			-3.618			-3.618
195801.000			-3.619			-3.619
195900.000			-3.618			-3.618
196000.000			-3.618			-3.618
196101.000			-3.617			-3.617
196200.000			-3.618			-3.618
196300.000			-3.618			-3.618
196402.000			-3.618			-3.618
196501.000			-3.618			-3.618
196601.000			-3.618			-3.618
196701.000			-3.619			-3.619
196800.000			-3.618			-3.618
196900.000			-3.618			-3.618
197001.000			-3.619			-3.619
197100.000			-3.617			-3.617
197200.000			-3.617			-3.617
197301.000			-3.618			-3.618
197401.000			-3.619			-3.619
197501.000			-3.618			-3.618
197601.000			-3.617			-3.617
197700.000			-3.618			-3.618
197800.000			-3.618			-3.618
197901.000			-3.617			-3.617
198000.000			-3.618			-3.618
198100.000			-3.618			-3.618
198200.000			-3.618			-3.618
198300.000			-3.618			-3.618
198402.000			-3.617			-3.617
198501.000			-3.617			-3.617
198600.000			-3.617			-3.617
198701.000			-3.617			-3.617
198800.000			-3.616			-3.616
198900.000			-3.616			-3.616
199001.000			-3.616			-3.616
199100.000			-3.616			-3.616
199200.000			-3.616			-3.616
199302.000			-3.616			-3.616
199401.000			-3.616			-3.616
199501.000			-3.617			-3.617
199601.000			-3.617			-3.617
199700.000			-3.616			-3.616
199800.000			-3.616			-3.616
199901.000			-3.616			-3.616
200000.000			-3.617			-3.617
200100.000			-3.616			-3.616
200201.000			-3.617			-3.617
200301.000			-3.616			-3.616
200401.000			-3.617			-3.617
200501.000			-3.616			-3.616
200600.000			-3.615			-3.615
200700.000			-3.616			-3.616
200801.000			-3.616			-3.616
200900.000			-3.615			-3.615
201000.000			-3.617			-3.617
201101.000			-3.615			-3.615
201201.000			-3.614			-3.614
201302.000			-3.615			-3.615
201400.000			-3.614			-3.614
201500.000			-3.613			-3.613
201601.000			-3.614			-3.614
201700.000			-3.614			-3.614
201800.000			-3.614			-3.614
201901.000			-3.614			-3.614
202001.000			-3.614			-3.614
202101.000			-3.615			-3.615
202202.000			-3.614			-3.614
202300.000			-3.614			-3.614
202400.000			-3.614			-3.614
202501.000			-3.614			-3.614
202600.000			-3.613			-3.613
202700.000			-3.613			-3.613
202801.000			-3.613			-3.613
202901.000			-3.613			-3.613
203001.000			-3.614			-3.614
203102.000			-3.613			-3.613
203200.000			-3.613			-3.613
203300.000			-3.613			-3.613
203401.000			-3.615			-3.615
203500.000			-3.615			-3.615
203600.000			-3.614			-3.614
203701.000			-3.614			-3.614
203801.000			-3.613			-3.613
203901.000			-3.613			-3.613
204002.000			-3.614			-3.614
204100.000			-3.614			-3.614
204200.000			-3.614			-3.614
204301.000			-3.613			-3.613
204400.000			-3.613			-3.613
204500.000			-3.613			-3.613
204600.000			-3.613			-3.613
204701.000			-3.614			-3.614
204802.000			-3.613			-3.613
204901.000			-3.613			-3.613
205000.000			-3.614			-3.614
205101.000			-3.613			-3.613
205200.000			-3.613			-3.613
205300.000			-3.612			-3.612
205401.000			-3.612			-3.612
205500.000			-3.612			-3.612
205601.000			-3.613			-3.613
205702.000			-3.613			-3.613
205801.000			-3.613			-3.613
205900.000			-3.612			-3.612
206001.000			-3.612			-3.612
206100.000			-3.612			-3.612
206200.000			-3.612			-3.612
206301.000			-3.612			-3.612
206400.000			-3.613			-3.613
206501.000			-3.612			-3.612
206602.000			-3.612			-3.612
206700.000			-3.611			-3.611
206800.000			-3.613			-3.613
206901.000			-3.612			-3.612
207000.000			-3.612			-3.612
207100.000			-3.612			-3.612
207201.000			-3.613			-3.613
207300.000			-3.612			-3.612
207401.000			-3.612			-3.612
207502.000			-3.612			-3.612
207600.000			-3.612			-3.612
207700.000			-3.611			-3.611
207800.000			-3.612			-3.612
207900.000			-3.612			-3.612
208001.000			-3.612			-3.612
208100.000			-3.612			-3.612
208200.000			-3.612			-3.612
208302.000			-3.611			-3.611
208401.000			-3.610			-3.610
208500.000			-3.611			-3.611
208601.000			-3.612			-3.612
208700.000			-3.612			-3.612
208800.000			-3.611			-3.611
208901.000			-3.611			-3.611
209000.000			-3.612			-3.612
209100.000			-3.611			-3.611
209202.000			-3.611			-3.611
209301.000			-3.611			-3.611
209400.000			-3.611			-3.611
209501.000			-3.611			-3.611
209600.000			-3.611			-3.611
209700.000			-3.611			-3.611
209801.000			-3.612			-3.612
209900.000			-3.612			-3.612
210000.000			-3.611			-3.611
210102.000			-3.611			-3.611
210201.000			-3.611			-3.611
210300.000			-3.611			-3.611
210401.000			-3.611			-3.611
210500.000			-3.610			-3.610
210600.000			-3.610			-3.610
210701.000			-3.611			-3.611
210800.000			-3.611			-3.611
210902.000			-3.611			-3.611
211001.000			-3.610			-3.610
211101.000			-3.610			-3.610
211201.000			-3.611			-3.611
211300.000			-3.610			-3.610
211400.000			-3.610			-3.610
211501.000			-3.611			-3.611
211600.000			-3.611			-3.611
211700.000			-3.611			-3.611
211802.000			-3.611			-3.611
211901.000			-3.611			-3.611
212000.000			-3.611			-3.611
212101.000			-3.612			-3.612
212200.000			-3.613			-3.613
212300.000			-3.612			-3.612
212401.000			-3.611			-3.611
212500.000			-3.611			-3.611
212600.000			-3.612			-3.612
212702.000			-3.612			-3.612
212801.000			-3.612			-3.612
212900.000			-3.613			-3.613
213001.000			-3.612			-3.612
213100.000			-3.613			-3.613
213200.000			-3.613			-3.613
213301.000			-3.612			-3.612
213400.000			-3.611			-3.611
213500.000			-3.612			-3.612
213602.000			-3.611			-3.611
213701.000			-3.612			-3.612
213800.000			-3.613			-3.613
213901.000			-3.613			-3.613
214000.000			-3.613			-3.613
214100.000			-3.612			-3.612
214200.000			-3.610			-3.610
214300.000			-3.611			-3.611
214402.000			-3.612			-3.612
214501.000			-3.611			-3.611
214601.000			-3.612			-3.612
214701.000			-3.613			-3.613
214800.000			-3.612			-3.612
214900.000			-3.612			-3.612
215001.000			-3.612			-3.612
215100.000			-3.613			-3.613
215200.000			-3.612			-3.612
215302.000			-3.612			-3.612
215401.000			-3.611			-3.611
215501.000			-3.610			-3.610
215601.000			-3.612			-3.612
215700.000			-3.612			-3.612
215800.000			-3.611			-3.611
215901.000			-3.610			-3.610
216000.000			-3.610			-3.610
216100.000			-3.611			-3.611
216202.000			-3.610			-3.610
216301.000			-3.610			-3.610
216401.000			-3.610			-3.610
216501.000			-3.611			-3.611
216600.000			-3.610			-3.610
216700.000			-3.610			-3.610
216801.000			-3.610			-3.610
216900.000			-3.610			-3.610
217000.000			-3.610			-3.610
217101.000			-3.610			-3.610
217201.000			-3.610			-3.610
217302.000			-3.609			-3.609
217400.000			-3.608			-3.608
217500.000			-3.609			-3.609
217601.000			-3.610			-3.610
217700.000			-3.610			-3.610
217800.000			-3.610			-3.610
217901.000			-3.609			-3.609
218000.000			-3.609			-3.609
218101.000			-3.609			-3.609
218202.000			-3.609			-3.609
218300.000			-3.609			-3.609
218400.000			-3.609			-3.609
218501.000			-3.608			-3.608
218600.000			-3.609			-3.609
218700.000			-3.609			-3.609
218801.000			-3.609			-3.609
218900.000			-3.609			-3.609
219001.000			-3.609			-3.609
219102.000			-3.609			-3.609
219201.000			-3.609			-3.609
219300.000			-3.608			-3.608
219401.000			-3.608			-3.608
219500.000			-3.608			-3.608
219600.000			-3.608			-3.608
219701.000			-3.609			-3.609
219800.000			-3.610			-3.610
219900.000			-3.610			-3.610
220002.000			-3.609			-3.609
220101.000			-3.609			-3.609
220200.000			-3.609			-3.609
220301.000			-3.609			-3.609
220400.000			-3.610			-3.610
220500.000			-3.610			-3.610
220600.000			-3.609			-3.609
220700.000			-3.609			-3.609
220801.000			-3.610			-3.610
220901.000			-3.609			-3.609
221001.000			-3.609			-3.609
221101.000			-3.610			-3.610
221200.000			-3.610			-3.610
221300.000			-3.609			-3.609
221401.000			-3.609			-3.609
221500.000			-3.609			-3.609
221600.000			-3.609			-3.609
221701.000			-3.610			-3.610
221801.000			-3.610			-3.610
221901.000			-3.609			-3.609
222001.000			-3.609			-3.609
222100.000			-3.609			-3.609
222200.000			-3.609			-3.609
222301.000			-3.609			-3.609
222400.000			-3.608			-3.608
222500.000			-3.608			-3.608
222601.000			-3.608			-3.608
222701.000			-3.608			-3.608
222801.000			-3.609			-3.609
222901.000			-3.609			-3.609
223000.000			-3.609			-3.609
223100.000			-3.609			-3.609
223201.000			-3.609			-3.609
223300.000			-3.608			-3.608
223400.000			-3.609			-3.609
223501.000			-3.609			-3.609
223601.000			-3.609			-3.609
223702.000			-3.608			-3.608
223800.000			-3.609			-3.609
223900.000			-3.609			-3.609
224001.000			-3.609			-3.609
224100.000			-3.608			-3.608
224200.000			-3.608			-3.608
224301.000			-3.608			-3.608
224400.000			-3.608			-3.608
224501.000			-3.609			-3.609
224602.000			-3.609			-3.609
224700.000			-3.608			-3.608
224800.000			-3.609			-3.609
224901.000			-3.609			-3.609
225000.000			-3.608			-3.608
225100.000			-3.607			-3.607
225201.000			-3.609			-3.609
225300.000			-3.608			-3.608
225401.000			-3.608			-3.608
225502.000			-3.609			-3.609
225601.000			-3.609			-3.609
225700.000			-3.609			-3.609
225801.000			-3.608			-3.608
225900.000			-3.608			-3.608
226000.000			-3.608			-3.608
226101.000			-3.608			-3.608
226200.000			-3.608			-3.608
226301.000			-3.608			-3.608
226402.000			-3.608			-3.608
226501.000			-3.609			-3.609
226600.000			-3.608			-3.608
226701.000			-3.607			-3.607
226800.000			-3.607			-3.607
226900.000			-3.607			-3.607
227000.000			-3.607			-3.607
227100.000			-3.608			-3.608
227202.000			-3.608			-3.608
227301.000			-3.608			-3.608
227401.000			-3.608			-3.608
227501.000			-3.608			-3.608
227600.000			-3.607			-3.607
227700.000			-3.607			-3.607
227801.000			-3.607			-3.607
227900.000			-3.608			-3.608
228000.000			-3.608			-3.608
228101.000			-3.607			-3.607
228201.000			-3.609			-3.609
228301.000			-3.608			-3.608
228401.000			-3.607			-3.607
228500.000			-3.606			-3.606
228600.000			-3.606			-3.606
228701.000			-3.607			-3.607
228800.000			-3.607			-3.607
228900.000			-3.608			-3.608
229001.000			-3.607			-3.607
229101.000			-3.607			-3.607
229201.000			-3.607			-3.607
229301.000			-3.607			-3.607
229400.000			-3.607			-3.607
229500.000			-3.606			-3.606
229601.000			-3.606			-3.606
229700.000			-3.606			-3.606
229800.000			-3.607			-3.607
229901.000			-3.606			-3.606
230001.000			-3.606			-3.606
230102.000			-3.607			-3.607
230201.000			-3.608			-3.608
230300.000			-3.607			-3.607
230401.000			-3.608			-3.608
230500.000			-3.608			-3.608
230600.000			-3.608			-3.608
230701.000			-3.608			-3.608
230800.000			-3.607			-3.607
230901.000			-3.605			-3.605
231002.000			-3.606			-3.606
231101.000			-3.605			-3.605
231200.000			-3.606			-3.606
231301.000			-3.607			-3.607
231400.000			-3.607			-3.607
231500.000			-3.606			-3.606
231601.000			-3.606			-3.606
231700.000			-3.606			-3.606
231801.000			-3.605			-3.605
231902.000			-3.606			-3.606
232001.000			-3.606			-3.606
232100.000			-3.606			-3.606
232201.000			-3.606			-3.606
232300.000			-3.606			-3.606
232400.000			-3.606			-3.606
232501.000			-3.605			-3.605
232600.000			-3.605			-3.605
232701.000			-3.606			-3.606
232802.000			-3.606			-3.606
232901.000			-3.606			-3.606
233000.000			-3.606			-3.606
233101.000			-3.606			-3.606
233200.000			-3.606			-3.606
233300.000			-3.605			-3.605
233400.000			-3.605			-3.605
233500.000			-3.606			-3.606
233602.000			-3.606			-3.606
233701.000			-3.606			-3.606
233801.000			-3.605			-3.605
233901.000			-3.605			-3.605
234000.000			-3.606			-3.606
234100.000			-3.606			-3.606
234201.000			-3.605			-3.605
234300.000			-3.605			-3.605
234400.000			-3.605			-3.605
234502.000			-3.606			-3.606
234601.000			-3.607			-3.607
234701.000			-3.606			-3.606
234801.000			-3.606			-3.606
234900.000			-3.606			-3.606
235000.000			-3.606			-3.606
235101.000			-3.606			-3.606
235200.000			-3.605			-3.605
235300.000			-3.605			-3.605
235402.000			-3.605			-3.605
235501.000			-3.606			-3.606
235601.000			-3.605			-3.605
235701.000			-3.605			-3.605
235800.000			-3.606			-3.606
235900.000			-3.605			-3.605
236001.000			-3.605			-3.605
236100.000			-3.605			-3.605
236200.000			-3.605			-3.605
236301.000			-3.605			-3.605
236401.000			-3.606			-3.606
236502.000			-3.606			-3.606
236600.000			-3.605			-3.605
236700.000			-3.605			-3.605
236801.000			-3.605			-3.605
236900.000			-3.604			-3.604
237000.000			-3.606			-3.606
237101.000			-3.605			-3.605
237200.000			-3.604			-3.604
237301.000			-3.605			-3.605
237402.000			-3.604			-3.604
237500.000			-3.604			-3.604
237600.000			-3.604			-3.604
237701.000			-3.604			-3.604
237800.000			-3.605			-3.605
237900.000			-3.605			-3.605
238001.000			-3.605			-3.605
238100.000			-3.604			-3.604
238201.000			-3.604			-3.604
238302.000			-3.604			-3.604
238401.000			-3.604			-3.604
238500.000			-3.604			-3.604
238601.000			-3.604			-3.604
238700.000			-3.604			-3.604
238800.000			-3.604			-3.604
238901.000			-3.604			-3.604
239000.000			-3.604			-3.604
239101.000			-3.605			-3.605
239202.000			-3.604			-3.604
239301.000			-3.604			-3.604
239400.000			-3.604			-3.604
239501.000			-3.604			-3.604
239600.000			-3.604			-3.604
239700.000			-3.603			-3.603
239800.000			-3.605			-3.605
239900.000			-3.604			-3.604
240002.000			-3.603			-3.603
240101.000			-3.604			-3.604
240201.000			-3.604			-3.604
240301.000			-3.604			-3.604
240400.000			-3.604			-3.604
240500.000			-3.605			-3.605
240601.000			-3.605			-3.605
240700.000			-3.605			-3.605
240800.000			-3.604			-3.604
240902.000			-3.604			-3.604
241001.000			-3.604			-3.604
241101.000			-3.604			-3.604
241201.000			-3.605			-3.605
241300.000			-3.604			-3.604
241400.000			-3.604			-3.604
241501.000			-3.604			-3.604
241600.000			-3.604			-3.604
241700.000			-3.603			-3.603
241802.000			-3.603			-3.603
241901.000			-3.604			-3.604
242001.000			-3.604			-3.604
242101.000			-3.604			-3.604
242200.000			-3.605			-3.605
242300.000			-3.604			-3.604
242401.000			-3.604			-3.604
242500.000			-3.604			-3.604
242600.000			-3.604			-3.604
242702.000			-3.604			-3.604
242801.000			-3.604			-3.604
242902.000			-3.604			-3.604
243000.000			-3.604			-3.604
243100.000			-3.604			-3.604
243201.000			-3.604			-3.604
243300.000			-3.603			-3.603
243400.000			-3.603			-3.603
243501.000			-3.603			-3.603
243600.000			-3.603			-3.603
243701.000			-3.604			-3.604
243802.000			-3.604			-3.604
243900.000			-3.604			-3.604
244000.000			-3.604			-3.604
244101.000			-3.603			-3.603
244200.000			-3.603			-3.603
244300.000			-3.604			-3.604
244401.000			-3.604			-3.604
244500.000			-3.603			-3.603
244601.000			-3.603			-3.603
244702.000			-3.603			-3.603
244800.000			-3.604			-3.604
244900.000			-3.604			-3.604
245001.000			-3.603			-3.603
245100.000			-3.604			-3.604
245200.000			-3.603			-3.603
245301.000			-3.603			-3.603
245401.000			-3.603			-3.603
245501.000			-3.604			-3.604
245602.000			-3.604			-3.604
245700.000			-3.603			-3.603
245800.000			-3.604			-3.604
245901.000			-3.603			-3.603
246000.000			-3.602			-3.602
246100.000			-3.602			-3.602
246200.000			-3.602			-3.602
246300.000			-3.602			-3.602
246402.000			-3.602			-3.602
246501.000			-3.603			-3.603
246600.000			-3.603			-3.603
246701.000			-3.603			-3.603
246800.000			-3.602			-3.602
246900.000			-3.601			-3.601
247001.000			-3.601			-3.601
247100.000			-3.602			-3.602
247200.000			-3.602			-3.602
247302.000			-3.602			-3.602
247401.000			-3.602			-3.602
247500.000			-3.601			-3.601
247601.000			-3.602			-3.602
247700.000			-3.602			-3.602
247800.000			-3.602			-3.602
247901.000			-3.602			-3.602
248000.000			-3.602			-3.602
248100.000			-3.603			-3.603
248202.000			-3.603			-3.603
248301.000			-3.602			-3.602
248400.000			-3.602			-3.602
248501.000			-3.603			-3.603
248600.000			-3.602			-3.602
248700.000			-3.602			-3.602
248801.000			-3.602			-3.602
248900.000			-3.602			-3.602
249000.000			-3.602			-3.602
249102.000			-3.602			-3.602
249201.000			-3.602			-3.602
249300.000			-3.603			-3.603
249400.000			-3.602			-3.602
249500.000			-3.602			-3.602
249601.000			-3.602			-3.602
249700.000			-3.602			-3.602
249800.000			-3.602			-3.602
249901.000			-3.602			-3.602
250001.000			-3.602			-3.602
250101.000			-3.602			-3.602
250202.000			-3.602			-3.602
250300.000			-3.602			-3.602
250400.000			-3.602			-3.602
250501.000			-3.602			-3.602
250600.000			-3.602			-3.602
250700.000			-3.602			-3.602
250801.000			-3.602			-3.602
250901.000			-3.603			-3.603
251001.000			-3.603			-3.603
251101.000			-3.603			-3.603
251200.000			-3.602			-3.602
251300.000			-3.603			-3.603
251401.000			-3.602			-3.602
251500.000			-3.602			-3.602
251600.000			-3.602			-3.602
251701.000			-3.602			-3.602
251801.000			-3.603			-3.603
251901.000			-3.603			-3.603
252001.000			-3.603			-3.603
252100.000			-3.604			-3.604
252200.000			-3.604			-3.604
252301.000			-3.603			-3.603
252400.000			-3.603			-3.603
252500.000			-3.602			-3.602
252600.000			-3.602			-3.602
252701.000			-3.603			-3.603
252802.000			-3.603			-3.603
252900.000			-3.603			-3.603
253000.000			-3.603			-3.603
253101.000			-3.603			-3.603
253200.000			-3.603			-3.603
253300.000			-3.601			-3.601
253401.000			-3.603			-3.603
253501.000			-3.604			-3.604
253601.000			-3.604			-3.604
253702.000			-3.603			-3.603
253800.000			-3.603			-3.603
253900.000			-3.603			-3.603
254001.000			-3.603			-3.603
254100.000			-3.603			-3.603
254200.000			-3.603			-3.603
254301.000			-3.603			-3.603
254401.000			-3.603			-3.603
254501.000			-3.604			-3.604
254602.000			-3.603			-3.603
254700.000			-3.603			-3.603
254800.000			-3.604			-3.604
254901.000			-3.604			-3.604
255000.000			-3.603			-3.603
255100.000			-3.602			-3.602
255201.000			-3.602			-3.602
255301.000			-3.603			-3.603
255401.000			-3.603			-3.603
255502.000			-3.603			-3.603
255600.000			-3.602			-3.602
255700.000			-3.602			-3.602
255800.000			-3.603			-3.603
255900.000			-3.603			-3.603
256001.000			-3.602			-3.602
256100.000			-3.602			-3.602
256200.000			-3.603			-3.603
256302.000			-3.602			-3.602
256401.000			-3.602			-3.602
256500.000			-3.603			-3.603
256601.000			-3.602			-3.602
256700.000			-3.603			-3.603
256800.000			-3.603			-3.603
256901.000			-3.603			-3.603
257000.000			-3.603			-3.603
257100.000			-3.604			-3.604
257202.000			-3.602			-3.602
257301.000			-3.602			-3.602
257400.000			-3.602			-3.602
257501.000			-3.603			-3.603
257600.000			-3.603			-3.603
257700.000			-3.602			-3.602
257801.000			-3.601			-3.601
257900.000			-3.603			-3.603
258000.000			-3.603			-3.603
258102.000			-3.602			-3.602
258201.000			-3.602			-3.602
258300.000			-3.602			-3.602
258401.000			-3.602			-3.602
258500.000			-3.602			-3.602
258600.000			-3.603			-3.603
258701.000			-3.602			-3.602
258800.000			-3.601			-3.601
258900.000			-3.603			-3.603
259002.000			-3.604			-3.604
259101.000			-3.603			-3.603
259201.000			-3.602			-3.602
259300.000			-3.601			-3.601
259400.000			-3.602			-3.602
259501.000			-3.602			-3.602
259600.000			-3.602			-3.602
259700.000			-3.601			-3.601
259801.000			-3.601			-3.601
259901.000			-3.601			-3.601
260001.000			-3.602			-3.602
260102.000			-3.602			-3.602
260200.000			-3.603			-3.603
260300.000			-3.603			-3.603
260401.000			-3.603			-3.603
260500.000			-3.603			-3.603
260600.000			-3.603			-3.603
260701.000			-3.602			-3.602
260801.000			-3.601			-3.601
260901.000			-3.602			-3.602
261001.000			-3.602			-3.602
261100.000			-3.602			-3.602
261200.000			-3.602			-3.602
261301.000			-3.601			-3.601
261400.000			-3.601			-3.601
261500.000			-3.602			-3.602
261601.000			-3.602			-3.602
261701.000			-3.601			-3.601
261801.000			-3.602			-3.602
261902.000			-3.602			-3.602
262000.000			-3.602			-3.602
262100.000			-3.602			-3.602
262200.000			-3.602			-3.602
262300.000			-3.602			-3.602
262401.000			-3.601			-3.601
262500.000			-3.601			-3.601
262600.000			-3.601			-3.601
262702.000			-3.601			-3.601
262801.000			-3.601			-3.601
262900.000			-3.601			-3.601
263001.000			-3.600			-3.600
263100.000			-3.600			-3.600
263200.000			-3.600			-3.600
263301.000			-3.601			-3.601
263400.000			-3.601			-3.601
263501.000			-3.601			-3.601
263602.000			-3.601			-3.601
263701.000			-3.600			-3.600
263800.000			-3.600			-3.600
263901.000			-3.602			-3.602
264000.000			-3.602			-3.602
264100.000			-3.600			-3.600
264201.000			-3.601			-3.601
264300.000			-3.601			-3.601
264401.000			-3.601			-3.601
264502.000			-3.601			-3.601
264601.000			-3.600			-3.600
264700.000			-3.601			-3.601
264801.000			-3.600			-3.600
264900.000			-3.600			-3.600
265000.000			-3.600			-3.600
265101.000			-3.600			-3.600
265200.000			-3.601			-3.601
265302.000			-3.600			-3.600
265401.000			-3.600			-3.600
265501.000			-3.600			-3.600
265601.000			-3.600			-3.600
265700.000			-3.600			-3.600
265800.000			-3.600			-3.600
265901.000			-3.601			-3.601
266000.000			-3.602			-3.602
266100.000			-3.601			-3.601
266201.000			-3.600			-3.600
266301.000			-3.601			-3.601
266401.000			-3.600			-3.600
266501.000			-3.600			-3.600
266600.000			-3.600			-3.600
266700.000			-3.600			-3.600
266801.000			-3.600			-3.600
266900.000			-3.599			-3.599
267000.000			-3.600			-3.600
267101.000			-3.600			-3.600
267201.000			-3.601			-3.601
267301.000			-3.601			-3.601
267402.000			-3.600			-3.600
267500.000			-3.600			-3.600
267600.000			-3.601			-3.601
267701.000			-3.600			-3.600
267800.000			-3.599			-3.599
267900.000			-3.600			-3.600
268001.000			-3.601			-3.601
268101.000			-3.600			-3.600
268201.000			-3.599			-3.599
268302.000			-3.599			-3.599
268400.000			-3.600			-3.600
268500.000			-3.600			-3.600
268600.000			-3.600			-3.600
268700.000			-3.601			-3.601
268801.000			-3.601			-3.601
268900.000			-3.600			-3.600
269000.000			-3.600			-3.600
269102.000			-3.601			-3.601
269201.000			-3.601			-3.601
269301.000			-3.600			-3.600
269401.000			-3.600			-3.600
269500.000			-3.601			-3.601
269600.000			-3.600			-3.600
269701.000			-3.599			-3.599
269800.000			-3.600			-3.600
269900.000			-3.600			-3.600
270001.000			-3.600			-3.600
270101.000			-3.599			-3.599
270201.000			-3.598			-3.598
270301.000			-3.598			-3.598
270400.000			-3.599			-3.599
270500.000			-3.599			-3.599
270601.000			-3.599			-3.599
270700.000			-3.599			-3.599
270800.000			-3.599			-3.599
270901.000			-3.599			-3.599
271001.000			-3.600			-3.600
271101.000			-3.599			-3.599
271201.000			-3.598			-3.598
271300.000			-3.598			-3.598
271400.000			-3.598			-3.598
271501.000			-3.599			-3.599
271600.000			-3.598			-3.598
271700.000			-3.599			-3.599
271800.000			-3.598			-3.598
271900.000			-3.598			-3.598
272002.000			-3.598			-3.598
272101.000			-3.600			-3.600
272200.000			-3.598			-3.598
272301.000			-3.598			-3.598
272400.000			-3.598			-3.598
272500.000			-3.598			-3.598
272601.000			-3.598			-3.598
272700.000			-3.598			-3.598
272800.000			-3.599			-3.599
272902.000			-3.599			-3.599
273001.000			-3.599			-3.599
273101.000			-3.598			-3.598
273201.000			-3.597			-3.597
273300.000			-3.598			-3.598
273400.000			-3.599			-3.599
273501.000			-3.598			-3.598
273600.000			-3.597			-3.597
273700.000			-3.597			-3.597
273801.000			-3.598			-3.598
273901.000			-3.597			-3.597
274001.000			-3.597			-3.597
274101.000			-3.598			-3.598
274200.000			-3.598			-3.598
274300.000			-3.597			-3.597
274401.000			-3.598			-3.598
274500.000			-3.598			-3.598
274600.000			-3.597			-3.597
274701.000			-3.597			-3.597
274800.000			-3.598			-3.598
274902.000			-3.597			-3.597
275001.000			-3.597			-3.597
275100.000			-3.597			-3.597
275201.000			-3.597			-3.597
275300.000			-3.598			-3.598
275400.000			-3.597			-3.597
275501.000			-3.598			-3.598
275600.000			-3.598			-3.598
275700.000			-3.599			-3.599
275801.000			-3.597			-3.597
275901.000			-3.597			-3.597
276001.000			-3.597			-3.597
276101.000			-3.598			-3.598
276200.000			-3.597			-3.597
276300.000			-3.598			-3.598
276401.000			-3.598			-3.598
276500.000			-3.597			-3.597
276600.000			-3.598			-3.598
276701.000			-3.598			-3.598
276801.000			-3.598			-3.598
276901.000			-3.598			-3.598
277002.000			-3.597			-3.597
277100.000			-3.597			-3.597
277200.000			-3.596			-3.596
277301.000			-3.597			-3.597
277400.000			-3.597			-3.597
277500.000			-3.596			-3.596
277601.000			-3.596			-3.596
277700.000			-3.597			-3.597
277801.000			-3.597			-3.597
277902.000			-3.598			-3.598
278001.000			-3.597			-3.597
278100.000			-3.596			-3.596
278200.000			-3.597			-3.597
278300.000			-3.598			-3.598
278401.000			-3.597			-3.597
278500.000			-3.597			-3.597
278600.000			-3.597			-3.597
278701.000			-3.597			-3.597
278801.000			-3.597			-3.597
278901.000			-3.597			-3.597
279002.000			-3.598			-3.598
279100.000			-3.597			-3.597
279200.000			-3.597			-3.597
279301.000			-3.597			-3.597
279400.000			-3.596			-3.596
279500.000			-3.597			-3.597
279601.000			-3.597			-3.597
279700.000			-3.596			-3.596
279801.000			-3.597			-3.597
279902.000			-3.598			-3.598
280001.000			-3.597			-3.597
280100.000			-3.597			-3.597
280201.000			-3.596			-3.596
280300.000			-3.597			-3.597
280400.000			-3.596			-3.596
280501.000			-3.597			-3.597
280600.000			-3.596			-3.596
280700.000			-3.597			-3.597
280802.000			-3.597			-3.597
280901.000			-3.596			-3.596
281001.000			-3.596			-3.596
281101.000			-3.597			-3.597
281200.000			-3.596			-3.596
281300.000			-3.597			-3.597
281400.000			-3.597			-3.597
281500.000			-3.597			-3.597
281601.000			-3.597			-3.597
281700.000			-3.596			-3.596
281801.000			-3.597			-3.597
281902.000			-3.597			-3.597
282000.000			-3.597			-3.597
282100.000			-3.597			-3.597
282201.000			-3.597			-3.597
282300.000			-3.597			-3.597
282400.000			-3.598			-3.598
282501.000			-3.598			-3.598
282600.000			-3.598			-3.598
282701.000			-3.598			-3.598
282802.000			-3.597			-3.597
282901.000			-3.598			-3.598
283000.000			-3.598			-3.598
283101.000			-3.596			-3.596
283200.000			-3.597			-3.597
283300.000			-3.597			-3.597
283401.000			-3.597			-3.597
283500.000			-3.597			-3.597
283600.000			-3.596			-3.596
283702.000			-3.598			-3.598
283801.000			-3.597			-3.597
283901.000			-3.596			-3.596
284001.000			-3.596			-3.596
284100.000			-3.597			-3.597
284200.000			-3.597			-3.597
284301.000			-3.597			-3.597
284400.000			-3.597			-3.597
284500.000			-3.596			-3.596
284600.000			-3.596			-3.596
284701.000			-3.596			-3.596
284802.000			-3.595			-3.595
284901.000			-3.595			-3.595
285000.000			-3.596			-3.596
285101.000			-3.596			-3.596
285200.000			-3.595			-3.595
285300.000			-3.595			-3.595
285401.000			-3.595			-3.595
285500.000			-3.595			-3.595
285600.000			-3.595			-3.595
285702.000			-3.595			-3.595
285801.000			-3.596			-3.596
285901.000			-3.596			-3.596
286001.000			-3.596			-3.596
286100.000			-3.595			-3.595
286200.000			-3.596			-3.596
286301.000			-3.596			-3.596
286400.000			-3.596			-3.596
286500.000			-3.595			-3.595
286601.000			-3.595			-3.595
286701.000			-3.596			-3.596
286801.000			-3.596			-3.596
286901.000			-3.596			-3.596
287000.000			-3.596			-3.596
287100.000			-3.596			-3.596
287201.000			-3.597			-3.597
287300.000			-3.596			-3.596
287400.000			-3.596			-3.596
287501.000			-3.594			-3.594
287600.000			-3.596			-3.596
287702.000			-3.597			-3.597
287801.000			-3.597			-3.597
287900.000			-3.596			-3.596
288001.000			-3.596			-3.596
288100.000			-3.596			-3.596
288200.000			-3.596			-3.596
288301.000			-3.595			-3.595
288400.000			-3.595			-3.595
288500.000			-3.595			-3.595
288602.000			-3.596			-3.596
288701.000			-3.596			-3.596
288801.000			-3.596			-3.596
288901.000			-3.596			-3.596
289000.000			-3.596			-3.596
289100.000			-3.596			-3.596
289201.000			-3.596			-3.596
289300.000			-3.595			-3.595
289400.000			-3.595			-3.595
289501.000			-3.595			-3.595
289601.000			-3.596			-3.596
289701.000			-3.594			-3.594
289802.000			-3.594			-3.594
289900.000			-3.594			-3.594
290000.000			-3.594			-3.594
290101.000			-3.594			-3.594
290200.000			-3.593			-3.593
290300.000			-3.594			-3.594
290401.000			-3.595			-3.595
290500.000			-3.593			-3.593
290601.000			-3.593			-3.593
290702.000			-3.593			-3.593
290800.000			-3.593			-3.593
290900.000			-3.593			-3.593
291000.000			-3.594			-3.594
291100.000			-3.593			-3.593
291201.000			-3.593			-3.593
291300.000			-3.593			-3.593
291400.000			-3.593			-3.593
291502.000			-3.593			-3.593
291601.000			-3.593			-3.593
291701.000			-3.593			-3.593
291801.000			-3.592			-3.592
291900.000			-3.591			-3.591
292000.000			-3.591			-3.591
292101.000			-3.592			-3.592
292200.000			-3.593			-3.593
292300.000			-3.593			-3.593
292402.000			-3.592			-3.592
292501.000			-3.592			-3.592
292601.000			-3.592			-3.592
292701.000			-3.591			-3.591
292800.000			-3.591			-3.591
292900.000			-3.591			-3.591
293001.000			-3.591			-3.591
293100.000			-3.592			-3.592
293200.000			-3.593			-3.593
293301.000			-3.593			-3.593
293401.000			-3.593			-3.593
293501.000			-3.593			-3.593
293601.000			-3.593			-3.593
293700.000			-3.592			-3.592
293800.000			-3.592			-3.592
293901.000			-3.593			-3.593
294000.000			-3.593			-3.593
294100.000			-3.593			-3.593
294200.000			-3.593			-3.593
294300.000			-3.594			-3.594
294402.000			-3.594			-3.594
294501.000			-3.593			-3.593
294600.000			-3.593			-3.593
294701.000			-3.593			-3.593
294800.000			-3.592			-3.592
294900.000			-3.592			-3.592
295001.000			-3.592			-3.592
295100.000			-3.593			-3.593
295200.000			-3.593			-3.593
295302.000			-3.592			-3.592
295401.000			-3.592			-3.592
295501.000			-3.594			-3.594
295601.000			-3.593			-3.593
295700.000			-3.592			-3.592
295800.000			-3.592			-3.592
295901.000			-3.592			-3.592
296000.000			-3.593			-3.593
296100.000			-3.594			-3.594
296201.000			-3.593			-3.593
296301.000			-3.592			-3.592
296401.000			-3.592			-3.592
296501.000			-3.593			-3.593
296600.000			-3.593			-3.593
296700.000			-3.593			-3.593
296801.000			-3.593			-3.593
296900.000			-3.592			-3.592
297000.000			-3.592			-3.592
297101.000			-3.593			-3.593
297200.000			-3.593			-3.593
297302.000			-3.593			-3.593
297401.000			-3.593			-3.593
297500.000			-3.592			-3.592
297601.000			-3.593			-3.593
297700.000			-3.594			-3.594
297800.000			-3.593			-3.593
297901.000			-3.593			-3.593
298000.000			-3.594			-3.594
298100.000			-3.594			-3.594
298201.000			-3.594			-3.594
298301.000			-3.594			-3.594
298401.000			-3.593			-3.593
298501.000			-3.593			-3.593
298600.000			-3.594			-3.594
298700.000			-3.593			-3.593
298801.000			-3.594			-3.594
298900.000			-3.593			-3.593
299000.000			-3.591			-3.591
299101.000			-3.592			-3.592
299201.000			-3.594			-3.594
299301.000			-3.592			-3.592
299402.000			-3.592			-3.592
299500.000			-3.593			-3.593
299600.000			-3.592			-3.592
299701.000			-3.593			-3.593
299800.000			-3.593			-3.593
299900.000			-3.594			-3.594
