# Acquired on 10/01/2024 11:55:10 
# SPIDER: Creep_-3mm_07714532B-1
# CREEP MEASUREMENT

# time [ms]		force [N]		stiffness [N/mm]
1.000			7.252			-2.417
100.000			8.032			-2.677
200.000			8.343			-2.781
301.000			8.368			-2.789
400.000			8.329			-2.776
500.000			8.298			-2.766
602.000			8.250			-2.750
701.000			8.231			-2.744
800.000			8.215			-2.738
901.000			8.201			-2.734
1000.000			8.189			-2.730
1100.000			8.177			-2.726
1201.000			8.166			-2.722
1301.000			8.146			-2.715
1401.000			8.137			-2.712
1501.000			8.129			-2.710
1600.000			8.121			-2.707
1700.000			8.114			-2.705
1801.000			8.107			-2.702
1900.000			8.101			-2.700
2000.000			8.090			-2.697
2102.000			8.084			-2.695
2201.000			8.079			-2.693
2300.000			8.073			-2.691
2401.000			8.068			-2.689
2500.000			8.063			-2.688
2600.000			8.059			-2.686
2700.000			8.053			-2.684
2801.000			8.046			-2.682
2902.000			8.042			-2.681
3001.000			8.037			-2.679
3100.000			8.034			-2.678
3201.000			8.031			-2.677
3300.000			8.027			-2.676
3400.000			8.023			-2.674
3501.000			8.016			-2.672
3601.000			8.013			-2.671
3701.000			8.010			-2.670
3801.000			8.007			-2.669
3900.000			8.004			-2.668
4000.000			8.001			-2.667
4101.000			7.999			-2.666
4200.000			7.993			-2.664
4301.000			7.991			-2.664
4402.000			7.988			-2.663
4500.000			7.986			-2.662
4600.000			7.983			-2.661
4701.000			7.980			-2.660
4800.000			7.979			-2.660
4900.000			7.974			-2.658
5001.000			7.971			-2.657
5101.000			7.969			-2.656
5201.000			7.967			-2.656
5301.000			7.966			-2.655
5400.000			7.962			-2.654
5500.000			7.960			-2.653
5601.000			7.958			-2.653
5700.000			7.954			-2.651
5800.000			7.952			-2.651
5902.000			7.951			-2.650
6001.000			7.949			-2.650
6101.000			7.945			-2.648
6200.000			7.944			-2.648
6300.000			7.942			-2.647
6401.000			7.938			-2.646
6500.000			7.938			-2.646
6600.000			7.935			-2.645
6702.000			7.933			-2.644
6801.000			7.932			-2.644
6900.000			7.930			-2.643
7001.000			7.927			-2.642
7100.000			7.925			-2.642
7200.000			7.923			-2.641
7301.000			7.921			-2.640
7400.000			7.920			-2.640
7501.000			7.919			-2.640
7602.000			7.917			-2.639
7700.000			7.916			-2.639
7800.000			7.913			-2.638
7901.000			7.912			-2.637
8000.000			7.910			-2.637
8100.000			7.908			-2.636
8201.000			7.906			-2.635
8301.000			7.904			-2.635
8401.000			7.904			-2.635
8501.000			7.904			-2.635
8600.000			7.901			-2.634
8700.000			7.900			-2.633
8801.000			7.899			-2.633
8900.000			7.898			-2.633
9000.000			7.897			-2.632
9102.000			7.895			-2.632
9201.000			7.894			-2.631
9301.000			7.892			-2.631
9400.000			7.891			-2.630
9500.000			7.889			-2.630
9601.000			7.888			-2.629
9700.000			7.887			-2.629
9800.000			7.886			-2.629
9902.000			7.885			-2.628
10001.000			7.883			-2.628
10100.000			7.882			-2.627
10201.000			7.881			-2.627
10300.000			7.880			-2.627
10400.000			7.880			-2.627
10501.000			7.879			-2.626
10600.000			7.878			-2.626
10701.000			7.877			-2.626
10802.000			7.874			-2.625
10900.000			7.874			-2.625
11000.000			7.873			-2.624
11101.000			7.871			-2.624
11200.000			7.870			-2.623
11300.000			7.869			-2.623
11401.000			7.869			-2.623
11501.000			7.867			-2.622
11601.000			7.865			-2.622
11701.000			7.865			-2.622
11800.000			7.865			-2.622
11900.000			7.862			-2.621
12001.000			7.861			-2.620
12100.000			7.862			-2.621
12200.000			7.859			-2.620
12302.000			7.858			-2.619
12401.000			7.858			-2.619
12501.000			7.856			-2.619
12600.000			7.857			-2.619
12700.000			7.856			-2.619
12801.000			7.854			-2.618
12900.000			7.853			-2.618
13000.000			7.851			-2.617
13102.000			7.850			-2.617
13201.000			7.849			-2.616
13300.000			7.848			-2.616
13401.000			7.848			-2.616
13500.000			7.846			-2.615
13600.000			7.846			-2.615
13701.000			7.844			-2.615
13800.000			7.843			-2.614
13901.000			7.843			-2.614
14002.000			7.843			-2.614
14100.000			7.843			-2.614
14200.000			7.841			-2.614
14301.000			7.839			-2.613
14400.000			7.837			-2.612
14500.000			7.836			-2.612
14601.000			7.836			-2.612
14701.000			7.836			-2.612
14801.000			7.836			-2.612
14901.000			7.834			-2.611
15000.000			7.833			-2.611
15100.000			7.832			-2.611
15201.000			7.831			-2.610
15300.000			7.830			-2.610
15400.000			7.830			-2.610
15502.000			7.829			-2.610
15601.000			7.829			-2.610
15701.000			7.828			-2.609
15800.000			7.827			-2.609
15900.000			7.826			-2.609
16001.000			7.825			-2.608
16100.000			7.824			-2.608
16200.000			7.824			-2.608
16301.000			7.822			-2.607
16401.000			7.822			-2.607
16501.000			7.822			-2.607
16601.000			7.820			-2.607
16700.000			7.819			-2.606
16800.000			7.818			-2.606
16901.000			7.818			-2.606
17000.000			7.818			-2.606
17100.000			7.817			-2.606
17202.000			7.816			-2.605
17301.000			7.816			-2.605
17400.000			7.815			-2.605
17501.000			7.814			-2.605
17600.000			7.814			-2.605
17700.000			7.813			-2.604
17801.000			7.813			-2.604
17900.000			7.813			-2.604
18001.000			7.812			-2.604
18102.000			7.810			-2.603
18200.000			7.809			-2.603
18300.000			7.809			-2.603
18401.000			7.809			-2.603
18500.000			7.807			-2.602
18600.000			7.807			-2.602
18700.000			7.807			-2.602
18801.000			7.807			-2.602
18902.000			7.806			-2.602
19000.000			7.804			-2.601
19100.000			7.804			-2.601
19201.000			7.803			-2.601
19300.000			7.803			-2.601
19400.000			7.802			-2.601
19501.000			7.801			-2.600
19601.000			7.801			-2.600
19701.000			7.801			-2.600
19801.000			7.800			-2.600
19900.000			7.799			-2.600
20000.000			7.799			-2.600
20101.000			7.798			-2.599
20200.000			7.798			-2.599
20300.000			7.797			-2.599
20402.000			7.796			-2.599
20501.000			7.796			-2.599
20601.000			7.795			-2.598
20701.000			7.795			-2.598
20800.000			7.795			-2.598
20900.000			7.794			-2.598
21001.000			7.793			-2.598
21100.000			7.792			-2.597
21200.000			7.791			-2.597
21302.000			7.791			-2.597
21401.000			7.789			-2.596
21500.000			7.789			-2.596
21601.000			7.789			-2.596
21700.000			7.789			-2.596
21800.000			7.789			-2.596
21900.000			7.788			-2.596
22000.000			7.788			-2.596
22102.000			7.788			-2.596
22201.000			7.786			-2.595
22300.000			7.785			-2.595
22401.000			7.785			-2.595
22500.000			7.784			-2.595
22600.000			7.783			-2.594
22701.000			7.782			-2.594
22800.000			7.783			-2.594
22901.000			7.783			-2.594
23002.000			7.783			-2.594
23100.000			7.783			-2.594
23200.000			7.780			-2.593
23301.000			7.779			-2.593
23400.000			7.779			-2.593
23500.000			7.779			-2.593
23601.000			7.779			-2.593
23701.000			7.778			-2.593
23801.000			7.778			-2.593
23902.000			7.777			-2.592
24000.000			7.776			-2.592
24100.000			7.776			-2.592
24201.000			7.776			-2.592
24300.000			7.775			-2.592
24400.000			7.775			-2.592
24501.000			7.774			-2.591
24601.000			7.773			-2.591
24701.000			7.773			-2.591
24801.000			7.771			-2.590
24900.000			7.771			-2.590
25000.000			7.772			-2.591
25100.000			7.772			-2.591
25200.000			7.772			-2.591
25301.000			7.771			-2.590
25401.000			7.770			-2.590
25501.000			7.768			-2.589
25601.000			7.769			-2.590
25700.000			7.769			-2.590
25800.000			7.769			-2.590
25901.000			7.767			-2.589
26000.000			7.767			-2.589
26100.000			7.767			-2.589
26202.000			7.766			-2.589
26301.000			7.765			-2.588
26400.000			7.764			-2.588
26501.000			7.764			-2.588
26600.000			7.765			-2.588
26700.000			7.764			-2.588
26801.000			7.764			-2.588
26900.000			7.763			-2.588
27001.000			7.763			-2.588
27102.000			7.763			-2.588
27201.000			7.762			-2.587
27300.000			7.761			-2.587
27401.000			7.761			-2.587
27500.000			7.761			-2.587
27600.000			7.761			-2.587
27701.000			7.759			-2.586
27800.000			7.759			-2.586
27901.000			7.759			-2.586
28002.000			7.759			-2.586
28100.000			7.758			-2.586
28200.000			7.758			-2.586
28300.000			7.757			-2.586
28400.000			7.756			-2.585
28501.000			7.756			-2.585
28600.000			7.756			-2.585
28701.000			7.755			-2.585
28802.000			7.755			-2.585
28900.000			7.756			-2.585
29000.000			7.755			-2.585
29101.000			7.754			-2.585
29200.000			7.753			-2.584
29300.000			7.753			-2.584
29401.000			7.752			-2.584
29501.000			7.753			-2.584
29601.000			7.753			-2.584
29701.000			7.751			-2.584
29800.000			7.750			-2.583
29900.000			7.751			-2.584
30001.000			7.750			-2.583
30100.000			7.750			-2.583
30200.000			7.751			-2.584
30302.000			7.750			-2.583
30401.000			7.750			-2.583
30500.000			7.749			-2.583
30601.000			7.748			-2.583
30700.000			7.748			-2.583
30800.000			7.747			-2.582
30901.000			7.746			-2.582
31000.000			7.746			-2.582
31101.000			7.746			-2.582
31202.000			7.745			-2.582
31300.000			7.745			-2.582
31400.000			7.746			-2.582
31500.000			7.744			-2.581
31600.000			7.744			-2.581
31701.000			7.744			-2.581
31800.000			7.743			-2.581
31901.000			7.743			-2.581
32002.000			7.743			-2.581
32100.000			7.741			-2.580
32200.000			7.742			-2.581
32301.000			7.742			-2.581
32400.000			7.741			-2.580
32500.000			7.740			-2.580
32601.000			7.741			-2.580
32701.000			7.741			-2.580
32801.000			7.740			-2.580
32901.000			7.739			-2.580
33000.000			7.739			-2.580
33100.000			7.739			-2.580
33201.000			7.738			-2.579
33300.000			7.738			-2.579
33400.000			7.736			-2.579
33502.000			7.735			-2.578
33601.000			7.735			-2.578
33700.000			7.736			-2.579
33801.000			7.736			-2.579
33900.000			7.736			-2.579
34000.000			7.736			-2.579
34101.000			7.735			-2.578
34200.000			7.735			-2.578
34301.000			7.735			-2.578
34402.000			7.734			-2.578
34500.000			7.733			-2.578
34600.000			7.733			-2.578
34700.000			7.733			-2.578
34800.000			7.731			-2.577
34901.000			7.732			-2.577
35000.000			7.732			-2.577
35101.000			7.731			-2.577
35202.000			7.730			-2.577
35300.000			7.731			-2.577
35400.000			7.731			-2.577
35501.000			7.730			-2.577
35600.000			7.728			-2.576
35700.000			7.728			-2.576
35801.000			7.729			-2.576
35901.000			7.729			-2.576
36001.000			7.728			-2.576
36101.000			7.727			-2.576
36200.000			7.727			-2.576
36300.000			7.726			-2.575
36401.000			7.727			-2.576
36500.000			7.727			-2.576
36600.000			7.726			-2.575
36702.000			7.725			-2.575
36801.000			7.724			-2.575
36900.000			7.724			-2.575
37001.000			7.724			-2.575
37100.000			7.724			-2.575
37200.000			7.723			-2.574
37301.000			7.723			-2.574
37400.000			7.722			-2.574
37501.000			7.722			-2.574
37602.000			7.722			-2.574
37700.000			7.721			-2.574
37800.000			7.721			-2.574
37900.000			7.721			-2.574
38000.000			7.722			-2.574
38101.000			7.721			-2.574
38200.000			7.721			-2.574
38301.000			7.720			-2.573
38402.000			7.719			-2.573
38500.000			7.719			-2.573
38600.000			7.719			-2.573
38701.000			7.718			-2.573
38800.000			7.717			-2.572
38900.000			7.718			-2.573
39001.000			7.718			-2.573
39101.000			7.716			-2.572
39201.000			7.717			-2.572
39301.000			7.717			-2.572
39400.000			7.717			-2.572
39500.000			7.716			-2.572
39601.000			7.716			-2.572
39700.000			7.716			-2.572
39800.000			7.714			-2.571
39902.000			7.715			-2.572
40001.000			7.715			-2.572
40100.000			7.714			-2.571
40201.000			7.714			-2.571
40300.000			7.713			-2.571
40400.000			7.714			-2.571
40501.000			7.713			-2.571
40600.000			7.712			-2.571
40701.000			7.712			-2.571
40802.000			7.713			-2.571
40900.000			7.712			-2.571
41000.000			7.713			-2.571
41100.000			7.712			-2.571
41200.000			7.711			-2.570
41301.000			7.712			-2.571
41400.000			7.710			-2.570
41501.000			7.710			-2.570
41602.000			7.710			-2.570
41700.000			7.709			-2.570
41800.000			7.709			-2.570
41901.000			7.709			-2.570
42000.000			7.709			-2.570
42100.000			7.709			-2.570
42201.000			7.709			-2.570
42301.000			7.709			-2.570
42401.000			7.708			-2.569
42501.000			7.707			-2.569
42600.000			7.707			-2.569
42700.000			7.707			-2.569
42801.000			7.706			-2.569
42900.000			7.706			-2.569
43000.000			7.706			-2.569
43102.000			7.707			-2.569
43201.000			7.706			-2.569
43300.000			7.706			-2.569
43401.000			7.706			-2.569
43500.000			7.706			-2.569
43600.000			7.705			-2.568
43701.000			7.704			-2.568
43800.000			7.705			-2.568
43901.000			7.706			-2.569
44002.000			7.706			-2.569
44100.000			7.705			-2.568
44200.000			7.703			-2.568
44300.000			7.703			-2.568
44400.000			7.704			-2.568
44501.000			7.704			-2.568
44600.000			7.703			-2.568
44701.000			7.702			-2.567
44802.000			7.702			-2.567
44900.000			7.703			-2.568
45000.000			7.702			-2.567
45101.000			7.703			-2.568
45200.000			7.701			-2.567
45300.000			7.701			-2.567
45401.000			7.701			-2.567
45501.000			7.701			-2.567
45601.000			7.700			-2.567
45701.000			7.701			-2.567
45800.000			7.701			-2.567
45900.000			7.700			-2.567
46001.000			7.699			-2.566
46100.000			7.699			-2.566
46200.000			7.700			-2.567
46302.000			7.700			-2.567
46401.000			7.699			-2.566
46500.000			7.699			-2.566
46601.000			7.699			-2.566
46700.000			7.698			-2.566
46800.000			7.698			-2.566
46901.000			7.697			-2.566
47000.000			7.697			-2.566
47101.000			7.698			-2.566
47202.000			7.697			-2.566
47300.000			7.697			-2.566
47400.000			7.697			-2.566
47500.000			7.696			-2.565
47600.000			7.696			-2.565
47701.000			7.696			-2.565
47800.000			7.696			-2.565
47900.000			7.695			-2.565
48002.000			7.695			-2.565
48101.000			7.695			-2.565
48200.000			7.695			-2.565
48301.000			7.694			-2.565
48400.000			7.695			-2.565
48500.000			7.696			-2.565
48601.000			7.694			-2.565
48700.000			7.694			-2.565
48801.000			7.694			-2.565
48902.000			7.693			-2.564
49001.000			7.691			-2.564
49100.000			7.692			-2.564
49201.000			7.691			-2.564
49300.000			7.690			-2.563
49400.000			7.690			-2.563
49501.000			7.690			-2.563
49601.000			7.690			-2.563
49701.000			7.690			-2.563
49802.000			7.689			-2.563
49900.000			7.690			-2.563
50000.000			7.690			-2.563
50101.000			7.689			-2.563
50200.000			7.689			-2.563
50300.000			7.688			-2.563
50401.000			7.687			-2.562
50501.000			7.687			-2.562
50602.000			7.686			-2.562
50700.000			7.687			-2.562
50800.000			7.687			-2.562
50901.000			7.685			-2.562
51000.000			7.686			-2.562
51100.000			7.686			-2.562
51201.000			7.685			-2.562
51301.000			7.685			-2.562
51401.000			7.685			-2.562
51501.000			7.685			-2.562
51600.000			7.684			-2.561
51700.000			7.684			-2.561
51801.000			7.684			-2.561
51900.000			7.684			-2.561
52000.000			7.682			-2.561
52101.000			7.681			-2.560
52201.000			7.682			-2.561
52301.000			7.682			-2.561
52401.000			7.683			-2.561
52500.000			7.682			-2.561
52600.000			7.680			-2.560
52701.000			7.681			-2.560
52800.000			7.683			-2.561
52900.000			7.682			-2.561
53002.000			7.680			-2.560
53101.000			7.681			-2.560
53200.000			7.681			-2.560
53301.000			7.681			-2.560
53400.000			7.681			-2.560
53500.000			7.681			-2.560
53601.000			7.681			-2.560
53701.000			7.680			-2.560
53802.000			7.680			-2.560
53901.000			7.681			-2.560
54000.000			7.681			-2.560
54101.000			7.680			-2.560
54200.000			7.680			-2.560
54300.000			7.681			-2.560
54401.000			7.678			-2.559
54500.000			7.678			-2.559
54601.000			7.678			-2.559
54702.000			7.679			-2.560
54800.000			7.679			-2.560
54900.000			7.678			-2.559
55001.000			7.678			-2.559
55100.000			7.677			-2.559
55200.000			7.678			-2.559
55301.000			7.677			-2.559
55401.000			7.676			-2.559
55501.000			7.677			-2.559
55601.000			7.677			-2.559
55700.000			7.677			-2.559
55800.000			7.677			-2.559
55901.000			7.676			-2.559
56000.000			7.676			-2.559
56100.000			7.678			-2.559
56202.000			7.678			-2.559
56301.000			7.677			-2.559
56400.000			7.676			-2.559
56501.000			7.676			-2.559
56600.000			7.676			-2.559
56700.000			7.675			-2.558
56801.000			7.675			-2.558
56900.000			7.675			-2.558
57000.000			7.675			-2.558
57102.000			7.675			-2.558
57201.000			7.675			-2.558
57301.000			7.675			-2.558
57400.000			7.674			-2.558
57500.000			7.674			-2.558
57601.000			7.674			-2.558
57700.000			7.673			-2.558
57800.000			7.671			-2.557
57902.000			7.673			-2.558
58001.000			7.674			-2.558
58100.000			7.672			-2.557
58201.000			7.672			-2.557
58300.000			7.672			-2.557
58400.000			7.672			-2.557
58501.000			7.672			-2.557
58600.000			7.671			-2.557
58701.000			7.671			-2.557
58802.000			7.670			-2.557
58900.000			7.671			-2.557
59000.000			7.672			-2.557
59101.000			7.671			-2.557
59200.000			7.670			-2.557
59300.000			7.669			-2.556
59401.000			7.669			-2.556
59501.000			7.669			-2.556
59601.000			7.669			-2.556
59701.000			7.669			-2.556
59800.000			7.668			-2.556
59900.000			7.670			-2.557
60001.000			7.669			-2.556
60100.000			7.668			-2.556
60200.000			7.668			-2.556
60300.000			7.668			-2.556
60401.000			7.667			-2.556
60502.000			7.666			-2.555
60600.000			7.667			-2.556
60700.000			7.668			-2.556
60801.000			7.667			-2.556
60900.000			7.665			-2.555
61000.000			7.664			-2.555
61101.000			7.664			-2.555
61201.000			7.665			-2.555
61301.000			7.666			-2.555
61401.000			7.665			-2.555
61500.000			7.665			-2.555
61600.000			7.664			-2.555
61701.000			7.664			-2.555
61800.000			7.664			-2.555
61900.000			7.664			-2.555
62002.000			7.664			-2.555
62101.000			7.664			-2.555
62200.000			7.664			-2.555
62301.000			7.663			-2.554
62400.000			7.662			-2.554
62500.000			7.664			-2.555
62601.000			7.663			-2.554
62700.000			7.663			-2.554
62801.000			7.663			-2.554
62902.000			7.662			-2.554
63000.000			7.662			-2.554
63100.000			7.662			-2.554
63201.000			7.662			-2.554
63300.000			7.662			-2.554
63400.000			7.661			-2.554
63500.000			7.661			-2.554
63601.000			7.661			-2.554
63702.000			7.660			-2.553
63800.000			7.660			-2.553
63900.000			7.660			-2.553
64001.000			7.660			-2.553
64100.000			7.660			-2.553
64200.000			7.660			-2.553
64301.000			7.660			-2.553
64401.000			7.659			-2.553
64501.000			7.659			-2.553
64601.000			7.659			-2.553
64700.000			7.658			-2.553
64800.000			7.658			-2.553
64901.000			7.658			-2.553
65000.000			7.657			-2.552
65100.000			7.657			-2.552
65202.000			7.657			-2.552
65301.000			7.657			-2.552
65400.000			7.657			-2.552
65501.000			7.657			-2.552
65600.000			7.657			-2.552
65700.000			7.656			-2.552
65801.000			7.656			-2.552
65900.000			7.656			-2.552
66000.000			7.657			-2.552
66102.000			7.656			-2.552
66201.000			7.656			-2.552
66300.000			7.656			-2.552
66401.000			7.655			-2.552
66500.000			7.655			-2.552
66600.000			7.655			-2.552
66700.000			7.655			-2.552
66800.000			7.656			-2.552
66902.000			7.654			-2.551
67001.000			7.654			-2.551
67100.000			7.654			-2.551
67201.000			7.654			-2.551
67300.000			7.653			-2.551
67400.000			7.653			-2.551
67501.000			7.654			-2.551
67600.000			7.653			-2.551
67700.000			7.653			-2.551
67802.000			7.652			-2.551
67901.000			7.652			-2.551
68000.000			7.652			-2.551
68101.000			7.652			-2.551
68200.000			7.652			-2.551
68300.000			7.651			-2.550
68401.000			7.651			-2.550
68500.000			7.651			-2.550
68601.000			7.651			-2.550
68702.000			7.651			-2.550
68800.000			7.651			-2.550
68900.000			7.650			-2.550
69001.000			7.650			-2.550
69100.000			7.650			-2.550
69200.000			7.651			-2.550
69301.000			7.650			-2.550
69401.000			7.649			-2.550
69501.000			7.649			-2.550
69601.000			7.649			-2.550
69700.000			7.649			-2.550
69800.000			7.649			-2.550
69900.000			7.649			-2.550
70000.000			7.648			-2.549
70101.000			7.648			-2.549
70200.000			7.648			-2.549
70301.000			7.648			-2.549
70402.000			7.648			-2.549
70500.000			7.648			-2.549
70600.000			7.648			-2.549
70701.000			7.647			-2.549
70800.000			7.648			-2.549
70900.000			7.647			-2.549
71001.000			7.647			-2.549
71101.000			7.646			-2.549
71201.000			7.646			-2.549
71301.000			7.646			-2.549
71400.000			7.645			-2.548
71500.000			7.646			-2.549
71601.000			7.645			-2.548
71700.000			7.645			-2.548
71800.000			7.646			-2.549
71902.000			7.647			-2.549
72001.000			7.645			-2.548
72100.000			7.645			-2.548
72201.000			7.646			-2.549
72300.000			7.646			-2.549
72400.000			7.645			-2.548
72501.000			7.643			-2.548
72600.000			7.644			-2.548
72701.000			7.644			-2.548
72802.000			7.644			-2.548
72901.000			7.643			-2.548
73000.000			7.643			-2.548
73100.000			7.643			-2.548
73200.000			7.643			-2.548
73301.000			7.644			-2.548
73400.000			7.644			-2.548
73500.000			7.643			-2.548
73602.000			7.643			-2.548
73701.000			7.643			-2.548
73800.000			7.644			-2.548
73901.000			7.643			-2.548
74000.000			7.642			-2.547
74100.000			7.641			-2.547
74201.000			7.642			-2.547
74300.000			7.642			-2.547
74401.000			7.642			-2.547
74502.000			7.642			-2.547
74600.000			7.641			-2.547
74700.000			7.642			-2.547
74801.000			7.642			-2.547
74900.000			7.641			-2.547
75000.000			7.641			-2.547
75101.000			7.641			-2.547
75201.000			7.640			-2.547
75301.000			7.640			-2.547
75401.000			7.640			-2.547
75500.000			7.639			-2.546
75600.000			7.640			-2.547
75701.000			7.639			-2.546
75800.000			7.639			-2.546
75900.000			7.639			-2.546
76002.000			7.639			-2.546
76101.000			7.638			-2.546
76200.000			7.639			-2.546
76300.000			7.639			-2.546
76400.000			7.639			-2.546
76501.000			7.638			-2.546
76600.000			7.638			-2.546
76700.000			7.639			-2.546
76802.000			7.639			-2.546
76901.000			7.639			-2.546
77001.000			7.639			-2.546
77101.000			7.638			-2.546
77200.000			7.638			-2.546
77300.000			7.638			-2.546
77401.000			7.638			-2.546
77500.000			7.637			-2.546
77600.000			7.637			-2.546
77702.000			7.637			-2.546
77801.000			7.638			-2.546
77900.000			7.637			-2.546
78001.000			7.636			-2.545
78100.000			7.636			-2.545
78200.000			7.636			-2.545
78301.000			7.635			-2.545
78400.000			7.635			-2.545
78501.000			7.636			-2.545
78602.000			7.638			-2.546
78701.000			7.636			-2.545
78800.000			7.636			-2.545
78901.000			7.636			-2.545
79000.000			7.636			-2.545
79100.000			7.636			-2.545
79201.000			7.637			-2.546
79300.000			7.635			-2.545
79402.000			7.635			-2.545
79501.000			7.635			-2.545
79600.000			7.637			-2.546
79701.000			7.636			-2.545
79800.000			7.635			-2.545
79900.000			7.635			-2.545
80001.000			7.635			-2.545
80100.000			7.634			-2.545
80201.000			7.634			-2.545
80302.000			7.633			-2.544
80400.000			7.634			-2.545
80500.000			7.634			-2.545
80601.000			7.633			-2.544
80700.000			7.634			-2.545
80800.000			7.635			-2.545
80901.000			7.635			-2.545
81001.000			7.635			-2.545
81101.000			7.634			-2.545
81201.000			7.634			-2.545
81300.000			7.633			-2.544
81400.000			7.633			-2.544
81501.000			7.633			-2.544
81600.000			7.633			-2.544
81700.000			7.633			-2.544
81802.000			7.633			-2.544
81901.000			7.632			-2.544
82001.000			7.631			-2.544
82101.000			7.632			-2.544
82200.000			7.633			-2.544
82300.000			7.632			-2.544
82401.000			7.632			-2.544
82500.000			7.631			-2.544
82600.000			7.632			-2.544
82702.000			7.633			-2.544
82801.000			7.631			-2.544
82901.000			7.631			-2.544
83000.000			7.631			-2.544
83100.000			7.631			-2.544
83201.000			7.632			-2.544
83300.000			7.631			-2.544
83400.000			7.631			-2.544
83502.000			7.630			-2.543
83601.000			7.631			-2.544
83700.000			7.630			-2.543
83801.000			7.631			-2.544
83900.000			7.630			-2.543
84000.000			7.629			-2.543
84101.000			7.630			-2.543
84200.000			7.629			-2.543
84301.000			7.628			-2.543
84402.000			7.629			-2.543
84500.000			7.629			-2.543
84600.000			7.629			-2.543
84701.000			7.628			-2.543
84800.000			7.628			-2.543
84900.000			7.627			-2.542
85001.000			7.628			-2.543
85101.000			7.628			-2.543
85201.000			7.629			-2.543
85301.000			7.628			-2.543
85400.000			7.628			-2.543
85500.000			7.628			-2.543
85601.000			7.627			-2.542
85700.000			7.627			-2.542
85800.000			7.626			-2.542
85900.000			7.625			-2.542
86001.000			7.625			-2.542
86102.000			7.626			-2.542
86200.000			7.626			-2.542
86300.000			7.627			-2.542
86401.000			7.627			-2.542
86500.000			7.626			-2.542
86600.000			7.625			-2.542
86701.000			7.626			-2.542
86801.000			7.625			-2.542
86901.000			7.625			-2.542
87002.000			7.625			-2.542
87100.000			7.624			-2.541
87200.000			7.624			-2.541
87301.000			7.624			-2.541
87400.000			7.623			-2.541
87500.000			7.624			-2.541
87601.000			7.624			-2.541
87701.000			7.624			-2.541
87801.000			7.624			-2.541
87901.000			7.623			-2.541
88000.000			7.622			-2.541
88100.000			7.622			-2.541
88201.000			7.622			-2.541
88300.000			7.621			-2.540
88400.000			7.623			-2.541
88502.000			7.622			-2.541
88601.000			7.621			-2.540
88700.000			7.621			-2.540
88801.000			7.621			-2.540
88900.000			7.622			-2.541
89000.000			7.622			-2.541
89100.000			7.621			-2.540
89200.000			7.619			-2.540
89302.000			7.619			-2.540
89401.000			7.620			-2.540
89501.000			7.620			-2.540
89601.000			7.620			-2.540
89700.000			7.620			-2.540
89800.000			7.620			-2.540
89901.000			7.620			-2.540
90000.000			7.619			-2.540
90100.000			7.618			-2.539
90202.000			7.618			-2.539
90301.000			7.618			-2.539
90400.000			7.618			-2.539
90501.000			7.617			-2.539
90600.000			7.617			-2.539
90700.000			7.617			-2.539
90801.000			7.618			-2.539
90900.000			7.618			-2.539
91001.000			7.618			-2.539
91102.000			7.618			-2.539
91200.000			7.617			-2.539
91300.000			7.617			-2.539
91401.000			7.617			-2.539
91500.000			7.617			-2.539
91600.000			7.616			-2.539
91701.000			7.617			-2.539
91801.000			7.616			-2.539
91901.000			7.616			-2.539
92002.000			7.616			-2.539
92100.000			7.616			-2.539
92200.000			7.616			-2.539
92300.000			7.617			-2.539
92400.000			7.616			-2.539
92501.000			7.615			-2.538
92600.000			7.615			-2.538
92701.000			7.615			-2.538
92802.000			7.615			-2.538
92900.000			7.615			-2.538
93000.000			7.615			-2.538
93101.000			7.615			-2.538
93200.000			7.614			-2.538
93300.000			7.614			-2.538
93401.000			7.613			-2.538
93501.000			7.615			-2.538
93601.000			7.614			-2.538
93701.000			7.613			-2.538
93800.000			7.613			-2.538
93900.000			7.613			-2.538
94001.000			7.613			-2.538
94100.000			7.613			-2.538
94200.000			7.613			-2.538
94302.000			7.613			-2.538
94401.000			7.613			-2.538
94500.000			7.613			-2.538
94601.000			7.613			-2.538
94700.000			7.613			-2.538
94800.000			7.613			-2.538
94901.000			7.613			-2.538
95000.000			7.612			-2.537
95101.000			7.612			-2.537
95202.000			7.612			-2.537
95300.000			7.611			-2.537
95400.000			7.611			-2.537
95500.000			7.611			-2.537
95600.000			7.610			-2.537
95701.000			7.610			-2.537
95800.000			7.611			-2.537
95901.000			7.611			-2.537
96002.000			7.611			-2.537
96101.000			7.609			-2.536
96200.000			7.610			-2.537
96301.000			7.611			-2.537
96400.000			7.611			-2.537
96500.000			7.611			-2.537
96601.000			7.611			-2.537
96700.000			7.610			-2.537
96801.000			7.611			-2.537
96902.000			7.610			-2.537
97000.000			7.610			-2.537
97100.000			7.610			-2.537
97201.000			7.609			-2.536
97300.000			7.610			-2.537
97400.000			7.609			-2.536
97501.000			7.610			-2.537
97601.000			7.610			-2.537
97701.000			7.609			-2.536
97801.000			7.610			-2.537
97900.000			7.610			-2.537
98000.000			7.609			-2.536
98101.000			7.609			-2.536
98200.000			7.609			-2.536
98300.000			7.610			-2.537
98401.000			7.608			-2.536
98501.000			7.607			-2.536
98602.000			7.607			-2.536
98700.000			7.608			-2.536
98800.000			7.607			-2.536
98901.000			7.607			-2.536
99000.000			7.607			-2.536
99100.000			7.608			-2.536
99201.000			7.608			-2.536
99301.000			7.607			-2.536
99401.000			7.606			-2.535
99501.000			7.607			-2.536
99600.000			7.607			-2.536
99700.000			7.605			-2.535
99801.000			7.605			-2.535
99900.000			7.606			-2.535
100000.000			7.606			-2.535
100101.000			7.606			-2.535
100201.000			7.605			-2.535
100301.000			7.605			-2.535
100401.000			7.605			-2.535
100500.000			7.604			-2.535
100600.000			7.604			-2.535
100701.000			7.605			-2.535
100800.000			7.605			-2.535
100900.000			7.604			-2.535
101002.000			7.604			-2.535
101101.000			7.604			-2.535
101200.000			7.604			-2.535
101301.000			7.604			-2.535
101400.000			7.603			-2.534
101500.000			7.604			-2.535
101601.000			7.603			-2.534
101700.000			7.603			-2.534
101802.000			7.604			-2.535
101901.000			7.604			-2.535
102000.000			7.603			-2.534
102101.000			7.604			-2.535
102200.000			7.603			-2.534
102300.000			7.602			-2.534
102401.000			7.603			-2.534
102500.000			7.604			-2.535
102601.000			7.603			-2.534
102702.000			7.603			-2.534
102801.000			7.603			-2.534
102900.000			7.603			-2.534
103001.000			7.603			-2.534
103100.000			7.603			-2.534
103200.000			7.603			-2.534
103301.000			7.602			-2.534
103400.000			7.602			-2.534
103501.000			7.603			-2.534
103602.000			7.603			-2.534
103700.000			7.601			-2.534
103800.000			7.600			-2.533
103901.000			7.601			-2.534
104000.000			7.601			-2.534
104100.000			7.600			-2.533
104201.000			7.601			-2.534
104301.000			7.600			-2.533
104401.000			7.599			-2.533
104501.000			7.600			-2.533
104600.000			7.601			-2.534
104700.000			7.601			-2.534
104801.000			7.600			-2.533
104900.000			7.599			-2.533
105000.000			7.598			-2.533
105102.000			7.599			-2.533
105201.000			7.599			-2.533
105301.000			7.599			-2.533
105400.000			7.599			-2.533
105500.000			7.600			-2.533
105601.000			7.600			-2.533
105700.000			7.599			-2.533
105800.000			7.598			-2.533
105901.000			7.598			-2.533
106001.000			7.598			-2.533
106101.000			7.598			-2.533
106201.000			7.598			-2.533
106300.000			7.598			-2.533
106400.000			7.599			-2.533
106501.000			7.599			-2.533
106600.000			7.598			-2.533
106700.000			7.598			-2.533
106801.000			7.598			-2.533
106901.000			7.597			-2.532
107001.000			7.598			-2.533
107101.000			7.597			-2.532
107200.000			7.597			-2.532
107300.000			7.597			-2.532
107401.000			7.597			-2.532
107500.000			7.597			-2.532
107600.000			7.597			-2.532
107701.000			7.597			-2.532
107801.000			7.598			-2.533
107901.000			7.596			-2.532
108001.000			7.595			-2.532
108100.000			7.595			-2.532
108200.000			7.597			-2.532
108300.000			7.596			-2.532
108400.000			7.596			-2.532
108501.000			7.595			-2.532
108600.000			7.596			-2.532
108701.000			7.596			-2.532
108802.000			7.595			-2.532
108900.000			7.596			-2.532
109000.000			7.596			-2.532
109101.000			7.596			-2.532
109200.000			7.595			-2.532
109300.000			7.595			-2.532
109401.000			7.594			-2.531
109501.000			7.594			-2.531
109601.000			7.595			-2.532
109702.000			7.595			-2.532
109800.000			7.595			-2.532
109900.000			7.595			-2.532
110001.000			7.594			-2.531
110100.000			7.594			-2.531
110200.000			7.594			-2.531
110301.000			7.594			-2.531
110401.000			7.594			-2.531
110501.000			7.594			-2.531
110601.000			7.594			-2.531
110700.000			7.594			-2.531
110800.000			7.593			-2.531
110901.000			7.593			-2.531
111000.000			7.593			-2.531
111100.000			7.593			-2.531
111201.000			7.593			-2.531
111301.000			7.593			-2.531
111402.000			7.593			-2.531
111500.000			7.593			-2.531
111600.000			7.593			-2.531
111701.000			7.592			-2.531
111800.000			7.592			-2.531
111900.000			7.593			-2.531
112001.000			7.592			-2.531
112101.000			7.590			-2.530
112201.000			7.592			-2.531
112301.000			7.592			-2.531
112400.000			7.592			-2.531
112500.000			7.591			-2.530
112601.000			7.591			-2.530
112700.000			7.590			-2.530
112800.000			7.590			-2.530
112901.000			7.590			-2.530
113001.000			7.591			-2.530
113101.000			7.591			-2.530
113201.000			7.592			-2.531
113300.000			7.591			-2.530
113400.000			7.590			-2.530
113501.000			7.590			-2.530
113600.000			7.590			-2.530
113700.000			7.590			-2.530
113802.000			7.590			-2.530
113901.000			7.590			-2.530
114000.000			7.590			-2.530
114101.000			7.590			-2.530
114200.000			7.590			-2.530
114300.000			7.589			-2.530
114401.000			7.589			-2.530
114500.000			7.589			-2.530
114600.000			7.589			-2.530
114702.000			7.590			-2.530
114801.000			7.590			-2.530
114901.000			7.590			-2.530
115000.000			7.590			-2.530
115100.000			7.589			-2.530
115201.000			7.589			-2.530
115300.000			7.589			-2.530
115400.000			7.590			-2.530
115501.000			7.589			-2.530
115601.000			7.589			-2.530
115701.000			7.589			-2.530
115801.000			7.589			-2.530
115900.000			7.589			-2.530
116000.000			7.588			-2.529
116101.000			7.588			-2.529
116200.000			7.588			-2.529
116300.000			7.588			-2.529
116401.000			7.587			-2.529
116501.000			7.589			-2.530
116601.000			7.588			-2.529
116701.000			7.587			-2.529
116800.000			7.587			-2.529
116900.000			7.587			-2.529
117001.000			7.587			-2.529
117100.000			7.587			-2.529
117200.000			7.587			-2.529
117301.000			7.587			-2.529
117401.000			7.586			-2.529
117501.000			7.586			-2.529
117601.000			7.586			-2.529
117700.000			7.587			-2.529
117800.000			7.587			-2.529
117900.000			7.586			-2.529
118000.000			7.586			-2.529
118101.000			7.586			-2.529
118201.000			7.586			-2.529
118301.000			7.587			-2.529
118402.000			7.586			-2.529
118500.000			7.586			-2.529
118600.000			7.585			-2.528
118701.000			7.585			-2.528
118800.000			7.585			-2.528
118900.000			7.585			-2.528
119001.000			7.585			-2.528
119101.000			7.585			-2.528
119201.000			7.586			-2.529
119301.000			7.585			-2.528
119400.000			7.585			-2.528
119500.000			7.585			-2.528
119601.000			7.584			-2.528
119700.000			7.584			-2.528
119800.000			7.584			-2.528
119901.000			7.584			-2.528
120001.000			7.585			-2.528
120101.000			7.584			-2.528
120201.000			7.584			-2.528
120300.000			7.584			-2.528
120400.000			7.584			-2.528
120501.000			7.584			-2.528
120600.000			7.584			-2.528
120700.000			7.584			-2.528
120802.000			7.583			-2.528
120901.000			7.583			-2.528
121002.000			7.584			-2.528
121100.000			7.583			-2.528
121200.000			7.584			-2.528
121301.000			7.584			-2.528
121400.000			7.583			-2.528
121500.000			7.583			-2.528
121601.000			7.582			-2.527
121701.000			7.582			-2.527
121801.000			7.583			-2.528
121901.000			7.582			-2.527
122000.000			7.581			-2.527
122100.000			7.581			-2.527
122201.000			7.581			-2.527
122300.000			7.582			-2.527
122400.000			7.582			-2.527
122502.000			7.583			-2.528
122601.000			7.583			-2.528
122701.000			7.582			-2.527
122801.000			7.582			-2.527
122900.000			7.582			-2.527
123000.000			7.582			-2.527
123101.000			7.582			-2.527
123200.000			7.581			-2.527
123300.000			7.581			-2.527
123402.000			7.580			-2.527
123501.000			7.580			-2.527
123600.000			7.580			-2.527
123701.000			7.581			-2.527
123800.000			7.580			-2.527
123900.000			7.580			-2.527
124001.000			7.580			-2.527
124100.000			7.580			-2.527
124200.000			7.579			-2.526
124302.000			7.579			-2.526
124401.000			7.580			-2.527
124501.000			7.580			-2.527
124600.000			7.580			-2.527
124700.000			7.579			-2.526
124801.000			7.579			-2.526
124900.000			7.579			-2.526
125000.000			7.579			-2.526
125102.000			7.579			-2.526
125201.000			7.579			-2.526
125301.000			7.579			-2.526
125401.000			7.578			-2.526
125500.000			7.578			-2.526
125600.000			7.579			-2.526
125701.000			7.578			-2.526
125800.000			7.578			-2.526
125900.000			7.579			-2.526
126002.000			7.579			-2.526
126101.000			7.579			-2.526
126200.000			7.579			-2.526
126301.000			7.579			-2.526
126400.000			7.579			-2.526
126500.000			7.579			-2.526
126601.000			7.577			-2.526
126700.000			7.577			-2.526
126800.000			7.577			-2.526
126902.000			7.577			-2.526
127001.000			7.577			-2.526
127100.000			7.577			-2.526
127201.000			7.577			-2.526
127300.000			7.577			-2.526
127400.000			7.577			-2.526
127500.000			7.576			-2.525
127600.000			7.576			-2.525
127701.000			7.576			-2.525
127801.000			7.577			-2.526
127901.000			7.577			-2.526
128001.000			7.577			-2.526
128100.000			7.576			-2.525
128200.000			7.576			-2.525
128301.000			7.575			-2.525
128400.000			7.575			-2.525
128500.000			7.576			-2.525
128601.000			7.575			-2.525
128701.000			7.576			-2.525
128801.000			7.575			-2.525
128901.000			7.575			-2.525
129000.000			7.575			-2.525
129100.000			7.576			-2.525
129201.000			7.575			-2.525
129300.000			7.575			-2.525
129400.000			7.576			-2.525
129501.000			7.574			-2.525
129601.000			7.574			-2.525
129701.000			7.574			-2.525
129801.000			7.574			-2.525
129900.000			7.574			-2.525
130000.000			7.575			-2.525
130101.000			7.575			-2.525
130200.000			7.576			-2.525
130300.000			7.573			-2.524
130402.000			7.574			-2.525
130501.000			7.574			-2.525
130602.000			7.574			-2.525
130700.000			7.574			-2.525
130800.000			7.573			-2.524
130901.000			7.573			-2.524
131000.000			7.574			-2.525
131100.000			7.573			-2.524
131201.000			7.573			-2.524
131301.000			7.574			-2.525
131401.000			7.573			-2.524
131501.000			7.573			-2.524
131600.000			7.573			-2.524
131700.000			7.573			-2.524
131801.000			7.572			-2.524
131900.000			7.572			-2.524
132000.000			7.572			-2.524
132101.000			7.572			-2.524
132201.000			7.572			-2.524
132301.000			7.572			-2.524
132401.000			7.572			-2.524
132500.000			7.572			-2.524
132600.000			7.572			-2.524
132701.000			7.571			-2.524
132800.000			7.571			-2.524
132900.000			7.571			-2.524
133001.000			7.572			-2.524
133101.000			7.571			-2.524
133201.000			7.572			-2.524
133302.000			7.572			-2.524
133400.000			7.571			-2.524
133500.000			7.571			-2.524
133601.000			7.572			-2.524
133700.000			7.571			-2.524
133800.000			7.571			-2.524
133900.000			7.571			-2.524
134000.000			7.570			-2.523
134102.000			7.570			-2.523
134201.000			7.571			-2.524
134300.000			7.571			-2.524
134401.000			7.572			-2.524
134500.000			7.572			-2.524
134600.000			7.570			-2.523
134701.000			7.570			-2.523
134800.000			7.570			-2.523
134900.000			7.570			-2.523
135002.000			7.570			-2.523
135101.000			7.570			-2.523
135201.000			7.570			-2.523
135301.000			7.570			-2.523
135400.000			7.570			-2.523
135500.000			7.569			-2.523
135601.000			7.570			-2.523
135700.000			7.570			-2.523
135800.000			7.570			-2.523
135901.000			7.570			-2.523
136001.000			7.570			-2.523
136101.000			7.571			-2.524
136201.000			7.571			-2.524
136300.000			7.570			-2.523
136400.000			7.571			-2.524
136501.000			7.571			-2.524
136600.000			7.571			-2.524
136700.000			7.570			-2.523
136801.000			7.570			-2.523
136901.000			7.570			-2.523
137002.000			7.569			-2.523
137101.000			7.569			-2.523
137200.000			7.570			-2.523
137301.000			7.569			-2.523
137400.000			7.569			-2.523
137500.000			7.570			-2.523
137601.000			7.569			-2.523
137700.000			7.569			-2.523
137800.000			7.569			-2.523
137902.000			7.569			-2.523
138001.000			7.569			-2.523
138101.000			7.569			-2.523
138201.000			7.569			-2.523
138300.000			7.569			-2.523
138400.000			7.569			-2.523
138501.000			7.568			-2.523
138600.000			7.567			-2.522
138700.000			7.568			-2.523
138801.000			7.568			-2.523
138901.000			7.568			-2.523
139001.000			7.568			-2.523
139102.000			7.568			-2.523
139200.000			7.569			-2.523
139300.000			7.569			-2.523
139401.000			7.568			-2.523
139500.000			7.568			-2.523
139600.000			7.567			-2.522
139701.000			7.569			-2.523
139800.000			7.569			-2.523
139901.000			7.568			-2.523
140002.000			7.567			-2.522
140101.000			7.568			-2.523
140200.000			7.567			-2.522
140300.000			7.567			-2.522
140400.000			7.568			-2.523
140501.000			7.567			-2.522
140600.000			7.567			-2.522
140700.000			7.567			-2.522
140801.000			7.566			-2.522
140901.000			7.567			-2.522
141001.000			7.566			-2.522
141101.000			7.565			-2.522
141200.000			7.567			-2.522
141300.000			7.567			-2.522
141401.000			7.566			-2.522
141500.000			7.566			-2.522
141600.000			7.566			-2.522
141701.000			7.565			-2.522
141801.000			7.565			-2.522
141901.000			7.566			-2.522
142002.000			7.566			-2.522
142100.000			7.565			-2.522
142200.000			7.565			-2.522
142301.000			7.565			-2.522
142400.000			7.566			-2.522
142500.000			7.565			-2.522
142601.000			7.564			-2.521
142701.000			7.565			-2.522
142801.000			7.565			-2.522
142902.000			7.565			-2.522
143000.000			7.564			-2.521
143100.000			7.564			-2.521
143201.000			7.564			-2.521
143300.000			7.565			-2.522
143400.000			7.564			-2.521
143500.000			7.564			-2.521
143600.000			7.565			-2.522
143702.000			7.565			-2.522
143801.000			7.563			-2.521
143900.000			7.563			-2.521
144001.000			7.563			-2.521
144100.000			7.562			-2.521
144200.000			7.563			-2.521
144301.000			7.563			-2.521
144400.000			7.563			-2.521
144500.000			7.562			-2.521
144602.000			7.562			-2.521
144701.000			7.562			-2.521
144801.000			7.563			-2.521
144901.000			7.563			-2.521
145000.000			7.562			-2.521
145100.000			7.561			-2.520
145201.000			7.561			-2.520
145300.000			7.562			-2.521
145400.000			7.562			-2.521
145501.000			7.560			-2.520
145601.000			7.560			-2.520
145701.000			7.561			-2.520
145801.000			7.561			-2.520
145900.000			7.561			-2.520
146000.000			7.561			-2.520
146101.000			7.560			-2.520
146200.000			7.560			-2.520
146300.000			7.561			-2.520
146401.000			7.561			-2.520
146501.000			7.561			-2.520
146602.000			7.561			-2.520
146701.000			7.561			-2.520
146800.000			7.561			-2.520
146901.000			7.560			-2.520
147000.000			7.560			-2.520
147100.000			7.560			-2.520
147201.000			7.561			-2.520
147300.000			7.560			-2.520
147400.000			7.560			-2.520
147502.000			7.560			-2.520
147601.000			7.559			-2.520
147700.000			7.560			-2.520
147801.000			7.560			-2.520
147900.000			7.559			-2.520
148000.000			7.559			-2.520
148101.000			7.559			-2.520
148200.000			7.559			-2.520
148300.000			7.559			-2.520
148402.000			7.559			-2.520
148501.000			7.558			-2.519
148601.000			7.559			-2.520
148701.000			7.559			-2.520
148800.000			7.559			-2.520
148900.000			7.558			-2.519
149001.000			7.558			-2.519
149100.000			7.557			-2.519
149200.000			7.558			-2.519
149301.000			7.558			-2.519
149401.000			7.558			-2.519
149501.000			7.558			-2.519
149602.000			7.557			-2.519
149700.000			7.559			-2.520
149800.000			7.558			-2.519
149900.000			7.557			-2.519
150000.000			7.558			-2.519
150101.000			7.557			-2.519
150200.000			7.557			-2.519
150300.000			7.557			-2.519
150402.000			7.557			-2.519
150501.000			7.557			-2.519
150601.000			7.556			-2.519
150701.000			7.557			-2.519
150800.000			7.557			-2.519
150900.000			7.556			-2.519
151001.000			7.556			-2.519
151100.000			7.557			-2.519
151200.000			7.557			-2.519
151301.000			7.556			-2.519
151401.000			7.556			-2.519
151501.000			7.555			-2.518
151601.000			7.556			-2.519
151700.000			7.555			-2.518
151800.000			7.556			-2.519
151901.000			7.556			-2.519
152000.000			7.556			-2.519
152100.000			7.556			-2.519
152201.000			7.555			-2.518
152301.000			7.556			-2.519
152401.000			7.556			-2.519
152502.000			7.555			-2.518
152600.000			7.555			-2.518
152700.000			7.554			-2.518
152801.000			7.554			-2.518
152900.000			7.554			-2.518
153000.000			7.555			-2.518
153100.000			7.555			-2.518
153200.000			7.554			-2.518
153302.000			7.555			-2.518
153401.000			7.554			-2.518
153500.000			7.554			-2.518
153601.000			7.553			-2.518
153700.000			7.553			-2.518
153800.000			7.553			-2.518
153901.000			7.553			-2.518
154000.000			7.554			-2.518
154100.000			7.554			-2.518
154202.000			7.554			-2.518
154301.000			7.554			-2.518
154401.000			7.554			-2.518
154501.000			7.554			-2.518
154600.000			7.553			-2.518
154700.000			7.553			-2.518
154801.000			7.552			-2.517
154900.000			7.552			-2.517
155000.000			7.553			-2.518
155101.000			7.553			-2.518
155201.000			7.553			-2.518
155301.000			7.554			-2.518
155401.000			7.553			-2.518
155500.000			7.552			-2.517
155600.000			7.552			-2.517
155701.000			7.552			-2.517
155800.000			7.553			-2.518
155900.000			7.553			-2.518
156001.000			7.553			-2.518
156101.000			7.551			-2.517
156202.000			7.552			-2.517
156301.000			7.552			-2.517
156400.000			7.552			-2.517
156501.000			7.552			-2.517
156600.000			7.553			-2.518
156700.000			7.552			-2.517
156801.000			7.551			-2.517
156900.000			7.551			-2.517
157000.000			7.551			-2.517
157102.000			7.553			-2.518
157201.000			7.552			-2.517
157300.000			7.552			-2.517
157401.000			7.552			-2.517
157500.000			7.551			-2.517
157600.000			7.551			-2.517
157701.000			7.552			-2.517
157800.000			7.551			-2.517
157900.000			7.551			-2.517
158002.000			7.551			-2.517
158101.000			7.551			-2.517
158201.000			7.550			-2.517
158301.000			7.550			-2.517
158400.000			7.549			-2.516
158500.000			7.549			-2.516
158601.000			7.550			-2.517
158700.000			7.550			-2.517
158800.000			7.549			-2.516
158901.000			7.549			-2.516
159001.000			7.549			-2.516
159101.000			7.549			-2.516
159201.000			7.549			-2.516
159300.000			7.549			-2.516
159400.000			7.550			-2.517
159500.000			7.550			-2.517
159600.000			7.549			-2.516
159701.000			7.548			-2.516
159800.000			7.548			-2.516
159900.000			7.549			-2.516
160002.000			7.550			-2.517
160101.000			7.549			-2.516
160200.000			7.549			-2.516
160301.000			7.548			-2.516
160400.000			7.549			-2.516
160500.000			7.549			-2.516
160601.000			7.549			-2.516
160700.000			7.549			-2.516
160800.000			7.548			-2.516
160902.000			7.549			-2.516
161001.000			7.549			-2.516
161101.000			7.549			-2.516
161201.000			7.548			-2.516
161300.000			7.548			-2.516
161400.000			7.548			-2.516
161501.000			7.548			-2.516
161600.000			7.548			-2.516
161700.000			7.549			-2.516
161801.000			7.547			-2.516
161901.000			7.547			-2.516
162001.000			7.547			-2.516
162102.000			7.548			-2.516
162200.000			7.549			-2.516
162300.000			7.547			-2.516
162401.000			7.548			-2.516
162500.000			7.547			-2.516
162600.000			7.548			-2.516
162700.000			7.548			-2.516
162800.000			7.548			-2.516
162902.000			7.548			-2.516
163001.000			7.547			-2.516
163100.000			7.547			-2.516
163201.000			7.547			-2.516
163300.000			7.547			-2.516
163400.000			7.547			-2.516
163501.000			7.546			-2.515
163600.000			7.547			-2.516
163700.000			7.547			-2.516
163802.000			7.547			-2.516
163901.000			7.547			-2.516
164001.000			7.547			-2.516
164101.000			7.546			-2.515
164200.000			7.546			-2.515
164300.000			7.547			-2.516
164401.000			7.546			-2.515
164500.000			7.547			-2.516
164600.000			7.546			-2.515
164701.000			7.546			-2.515
164801.000			7.546			-2.515
164901.000			7.546			-2.515
165001.000			7.545			-2.515
165100.000			7.545			-2.515
165200.000			7.546			-2.515
165301.000			7.545			-2.515
165400.000			7.545			-2.515
165500.000			7.545			-2.515
165601.000			7.546			-2.515
165701.000			7.545			-2.515
165802.000			7.545			-2.515
165901.000			7.544			-2.515
166000.000			7.544			-2.515
166101.000			7.544			-2.515
166200.000			7.544			-2.515
166300.000			7.545			-2.515
166401.000			7.545			-2.515
166500.000			7.546			-2.515
166600.000			7.544			-2.515
166702.000			7.544			-2.515
166801.000			7.544			-2.515
166900.000			7.544			-2.515
167001.000			7.544			-2.515
167100.000			7.544			-2.515
167200.000			7.544			-2.515
167301.000			7.544			-2.515
167400.000			7.543			-2.514
167500.000			7.544			-2.515
167602.000			7.545			-2.515
167701.000			7.544			-2.515
167801.000			7.543			-2.514
167901.000			7.543			-2.514
168000.000			7.543			-2.514
168100.000			7.544			-2.515
168201.000			7.544			-2.515
168300.000			7.543			-2.514
168400.000			7.542			-2.514
168501.000			7.544			-2.515
168601.000			7.544			-2.515
168701.000			7.543			-2.514
168801.000			7.543			-2.514
168900.000			7.544			-2.515
169000.000			7.543			-2.514
169100.000			7.543			-2.514
169200.000			7.544			-2.515
169301.000			7.543			-2.514
169400.000			7.544			-2.515
169500.000			7.543			-2.514
169602.000			7.543			-2.514
169701.000			7.543			-2.514
169800.000			7.543			-2.514
169901.000			7.543			-2.514
170000.000			7.544			-2.515
170100.000			7.543			-2.514
170201.000			7.543			-2.514
170300.000			7.544			-2.515
170400.000			7.544			-2.515
170502.000			7.543			-2.514
170601.000			7.542			-2.514
170700.000			7.542			-2.514
170801.000			7.542			-2.514
170900.000			7.542			-2.514
171000.000			7.543			-2.514
171101.000			7.543			-2.514
171200.000			7.543			-2.514
171300.000			7.543			-2.514
171402.000			7.542			-2.514
171501.000			7.542			-2.514
171601.000			7.542			-2.514
171701.000			7.541			-2.514
171800.000			7.542			-2.514
171900.000			7.542			-2.514
172001.000			7.541			-2.514
172100.000			7.541			-2.514
172200.000			7.541			-2.514
172302.000			7.542			-2.514
172401.000			7.542			-2.514
172502.000			7.541			-2.514
172600.000			7.541			-2.514
172700.000			7.541			-2.514
172801.000			7.542			-2.514
172900.000			7.541			-2.514
173000.000			7.540			-2.513
173101.000			7.541			-2.514
173200.000			7.540			-2.513
173301.000			7.541			-2.514
173402.000			7.540			-2.513
173500.000			7.541			-2.514
173600.000			7.540			-2.513
173701.000			7.539			-2.513
173800.000			7.541			-2.514
173900.000			7.541			-2.514
174001.000			7.541			-2.514
174100.000			7.540			-2.513
174201.000			7.539			-2.513
174302.000			7.540			-2.513
174401.000			7.541			-2.514
174500.000			7.540			-2.513
174601.000			7.539			-2.513
174700.000			7.540			-2.513
174800.000			7.539			-2.513
174901.000			7.540			-2.513
175000.000			7.540			-2.513
175100.000			7.539			-2.513
175202.000			7.538			-2.513
175301.000			7.538			-2.513
175400.000			7.539			-2.513
175500.000			7.538			-2.513
175600.000			7.539			-2.513
175701.000			7.539			-2.513
175800.000			7.538			-2.513
175900.000			7.539			-2.513
176001.000			7.539			-2.513
176101.000			7.539			-2.513
176201.000			7.539			-2.513
176302.000			7.538			-2.513
176400.000			7.537			-2.512
176500.000			7.537			-2.512
176601.000			7.538			-2.513
176700.000			7.537			-2.512
176800.000			7.539			-2.513
176901.000			7.538			-2.513
177000.000			7.538			-2.513
177101.000			7.537			-2.512
177202.000			7.537			-2.512
177301.000			7.537			-2.512
177400.000			7.537			-2.512
177501.000			7.538			-2.513
177600.000			7.537			-2.512
177700.000			7.537			-2.512
177801.000			7.537			-2.512
177900.000			7.537			-2.512
178000.000			7.537			-2.512
178102.000			7.537			-2.512
178201.000			7.536			-2.512
178300.000			7.536			-2.512
178401.000			7.536			-2.512
178500.000			7.536			-2.512
178600.000			7.535			-2.512
178700.000			7.535			-2.512
178800.000			7.536			-2.512
178901.000			7.536			-2.512
179001.000			7.536			-2.512
179101.000			7.536			-2.512
179202.000			7.535			-2.512
179300.000			7.535			-2.512
179400.000			7.535			-2.512
179501.000			7.535			-2.512
179600.000			7.535			-2.512
179700.000			7.536			-2.512
179801.000			7.536			-2.512
179900.000			7.535			-2.512
180001.000			7.535			-2.512
180102.000			7.535			-2.512
180201.000			7.534			-2.511
180300.000			7.534			-2.511
180401.000			7.534			-2.511
180500.000			7.533			-2.511
180600.000			7.534			-2.511
180701.000			7.534			-2.511
180800.000			7.534			-2.511
180901.000			7.534			-2.511
181002.000			7.534			-2.511
181101.000			7.534			-2.511
181200.000			7.533			-2.511
181301.000			7.533			-2.511
181400.000			7.534			-2.511
181500.000			7.533			-2.511
181601.000			7.533			-2.511
181700.000			7.535			-2.512
181800.000			7.534			-2.511
181902.000			7.534			-2.511
182001.000			7.534			-2.511
182101.000			7.535			-2.512
182200.000			7.534			-2.511
182300.000			7.533			-2.511
182401.000			7.533			-2.511
182500.000			7.533			-2.511
182600.000			7.534			-2.511
182701.000			7.532			-2.511
182801.000			7.532			-2.511
182901.000			7.532			-2.511
183001.000			7.533			-2.511
183100.000			7.533			-2.511
183200.000			7.532			-2.511
183301.000			7.532			-2.511
183400.000			7.532			-2.511
183500.000			7.532			-2.511
183601.000			7.531			-2.510
183701.000			7.531			-2.510
183801.000			7.531			-2.510
183902.000			7.532			-2.511
184000.000			7.532			-2.511
184100.000			7.533			-2.511
184201.000			7.532			-2.511
184300.000			7.531			-2.510
184400.000			7.532			-2.511
184501.000			7.531			-2.510
184600.000			7.531			-2.510
184701.000			7.531			-2.510
184802.000			7.531			-2.510
184901.000			7.531			-2.510
185000.000			7.530			-2.510
185100.000			7.530			-2.510
185200.000			7.530			-2.510
185301.000			7.531			-2.510
185400.000			7.531			-2.510
185500.000			7.530			-2.510
185602.000			7.529			-2.510
185701.000			7.530			-2.510
185801.000			7.529			-2.510
185901.000			7.530			-2.510
186000.000			7.530			-2.510
186100.000			7.530			-2.510
186201.000			7.530			-2.510
186300.000			7.529			-2.510
186400.000			7.529			-2.510
186501.000			7.530			-2.510
186601.000			7.530			-2.510
186701.000			7.530			-2.510
186802.000			7.530			-2.510
186900.000			7.530			-2.510
187000.000			7.530			-2.510
187101.000			7.531			-2.510
187200.000			7.530			-2.510
187300.000			7.529			-2.510
187401.000			7.529			-2.510
187500.000			7.530			-2.510
187601.000			7.530			-2.510
187702.000			7.530			-2.510
187801.000			7.530			-2.510
187900.000			7.531			-2.510
188001.000			7.531			-2.510
188100.000			7.531			-2.510
188200.000			7.530			-2.510
188300.000			7.530			-2.510
188400.000			7.530			-2.510
188501.000			7.530			-2.510
188601.000			7.530			-2.510
188701.000			7.531			-2.510
188802.000			7.531			-2.510
188900.000			7.530			-2.510
189000.000			7.531			-2.510
189101.000			7.531			-2.510
189200.000			7.531			-2.510
189300.000			7.530			-2.510
189401.000			7.529			-2.510
189500.000			7.531			-2.510
189601.000			7.530			-2.510
189702.000			7.530			-2.510
189800.000			7.529			-2.510
189900.000			7.530			-2.510
190001.000			7.530			-2.510
190100.000			7.530			-2.510
190200.000			7.529			-2.510
190301.000			7.529			-2.510
190400.000			7.529			-2.510
190501.000			7.529			-2.510
190602.000			7.528			-2.509
190701.000			7.528			-2.509
190800.000			7.529			-2.510
190901.000			7.530			-2.510
191000.000			7.529			-2.510
191100.000			7.529			-2.510
191201.000			7.528			-2.509
191300.000			7.527			-2.509
191400.000			7.528			-2.509
191502.000			7.528			-2.509
191601.000			7.527			-2.509
191701.000			7.528			-2.509
191800.000			7.528			-2.509
191900.000			7.529			-2.510
192001.000			7.527			-2.509
192100.000			7.527			-2.509
192200.000			7.527			-2.509
192301.000			7.527			-2.509
192401.000			7.526			-2.509
192501.000			7.526			-2.509
192602.000			7.527			-2.509
192700.000			7.527			-2.509
192800.000			7.527			-2.509
192901.000			7.526			-2.509
193000.000			7.526			-2.509
193100.000			7.527			-2.509
193201.000			7.526			-2.509
193300.000			7.526			-2.509
193401.000			7.526			-2.509
193502.000			7.526			-2.509
193600.000			7.526			-2.509
193700.000			7.525			-2.508
193801.000			7.525			-2.508
193900.000			7.525			-2.508
194000.000			7.524			-2.508
194101.000			7.525			-2.508
194200.000			7.526			-2.509
194301.000			7.525			-2.508
194402.000			7.525			-2.508
194501.000			7.524			-2.508
194600.000			7.524			-2.508
194700.000			7.524			-2.508
194800.000			7.525			-2.508
194901.000			7.526			-2.509
195000.000			7.525			-2.508
195100.000			7.524			-2.508
195201.000			7.524			-2.508
195301.000			7.524			-2.508
195401.000			7.524			-2.508
195502.000			7.524			-2.508
195600.000			7.524			-2.508
195700.000			7.524			-2.508
195801.000			7.523			-2.508
195900.000			7.523			-2.508
196000.000			7.524			-2.508
196101.000			7.524			-2.508
196200.000			7.525			-2.508
196301.000			7.525			-2.508
196402.000			7.523			-2.508
196500.000			7.524			-2.508
196600.000			7.524			-2.508
196701.000			7.523			-2.508
196800.000			7.522			-2.507
196900.000			7.522			-2.507
197001.000			7.522			-2.507
197100.000			7.523			-2.508
197201.000			7.522			-2.507
197302.000			7.523			-2.508
197401.000			7.523			-2.508
197500.000			7.524			-2.508
197601.000			7.522			-2.507
197700.000			7.522			-2.507
197800.000			7.523			-2.508
197900.000			7.523			-2.508
198000.000			7.522			-2.507
198101.000			7.523			-2.508
198201.000			7.523			-2.508
198301.000			7.522			-2.507
198401.000			7.522			-2.507
198500.000			7.522			-2.507
198600.000			7.523			-2.508
198701.000			7.522			-2.507
198800.000			7.523			-2.508
198900.000			7.522			-2.507
199001.000			7.522			-2.507
199101.000			7.522			-2.507
199201.000			7.522			-2.507
199302.000			7.522			-2.507
199400.000			7.521			-2.507
199500.000			7.521			-2.507
199601.000			7.522			-2.507
199700.000			7.521			-2.507
199800.000			7.520			-2.507
199901.000			7.520			-2.507
200000.000			7.521			-2.507
200101.000			7.520			-2.507
200202.000			7.520			-2.507
200300.000			7.521			-2.507
200400.000			7.521			-2.507
200501.000			7.521			-2.507
200600.000			7.521			-2.507
200700.000			7.521			-2.507
200801.000			7.520			-2.507
200901.000			7.519			-2.506
201002.000			7.520			-2.507
201101.000			7.520			-2.507
201200.000			7.519			-2.506
201301.000			7.520			-2.507
201400.000			7.520			-2.507
201500.000			7.519			-2.506
201601.000			7.520			-2.507
201700.000			7.520			-2.507
201801.000			7.520			-2.507
201902.000			7.521			-2.507
202001.000			7.520			-2.507
202100.000			7.520			-2.507
202201.000			7.519			-2.506
202300.000			7.519			-2.506
202400.000			7.519			-2.506
202501.000			7.519			-2.506
202600.000			7.519			-2.506
202701.000			7.519			-2.506
202802.000			7.519			-2.506
202901.000			7.519			-2.506
203000.000			7.518			-2.506
203101.000			7.518			-2.506
203200.000			7.518			-2.506
203300.000			7.519			-2.506
203401.000			7.519			-2.506
203500.000			7.517			-2.506
203600.000			7.518			-2.506
203702.000			7.519			-2.506
203801.000			7.518			-2.506
203900.000			7.517			-2.506
204001.000			7.518			-2.506
204100.000			7.518			-2.506
204200.000			7.518			-2.506
204300.000			7.518			-2.506
204400.000			7.518			-2.506
204501.000			7.518			-2.506
204601.000			7.518			-2.506
204701.000			7.517			-2.506
204802.000			7.518			-2.506
204900.000			7.519			-2.506
205000.000			7.518			-2.506
205101.000			7.517			-2.506
205200.000			7.518			-2.506
205300.000			7.518			-2.506
205401.000			7.518			-2.506
205501.000			7.518			-2.506
205601.000			7.517			-2.506
205702.000			7.518			-2.506
205800.000			7.517			-2.506
205900.000			7.517			-2.506
206001.000			7.518			-2.506
206100.000			7.517			-2.506
206200.000			7.518			-2.506
206301.000			7.517			-2.506
206400.000			7.517			-2.506
206501.000			7.517			-2.506
206602.000			7.517			-2.506
206700.000			7.517			-2.506
206800.000			7.517			-2.506
206901.000			7.517			-2.506
207000.000			7.517			-2.506
207100.000			7.516			-2.505
207201.000			7.516			-2.505
207300.000			7.516			-2.505
207402.000			7.515			-2.505
207501.000			7.517			-2.506
207600.000			7.516			-2.505
207701.000			7.515			-2.505
207800.000			7.515			-2.505
207900.000			7.515			-2.505
208001.000			7.516			-2.505
208100.000			7.516			-2.505
208200.000			7.516			-2.505
208302.000			7.515			-2.505
208401.000			7.516			-2.505
208501.000			7.515			-2.505
208601.000			7.515			-2.505
208700.000			7.515			-2.505
208800.000			7.515			-2.505
208901.000			7.515			-2.505
209000.000			7.515			-2.505
209100.000			7.515			-2.505
209202.000			7.515			-2.505
209301.000			7.514			-2.505
209401.000			7.514			-2.505
209501.000			7.515			-2.505
209600.000			7.515			-2.505
209700.000			7.515			-2.505
209801.000			7.514			-2.505
209900.000			7.514			-2.505
210000.000			7.514			-2.505
210101.000			7.514			-2.505
210201.000			7.515			-2.505
210301.000			7.516			-2.505
210401.000			7.515			-2.505
210500.000			7.514			-2.505
210600.000			7.513			-2.504
210700.000			7.513			-2.504
210800.000			7.514			-2.505
210901.000			7.513			-2.504
211000.000			7.514			-2.505
211101.000			7.513			-2.504
211202.000			7.514			-2.505
211300.000			7.513			-2.504
211400.000			7.513			-2.504
211501.000			7.513			-2.504
211600.000			7.513			-2.504
211700.000			7.514			-2.505
211801.000			7.516			-2.505
211900.000			7.515			-2.505
212001.000			7.515			-2.505
212102.000			7.515			-2.505
212200.000			7.514			-2.505
212300.000			7.514			-2.505
212401.000			7.513			-2.504
212500.000			7.515			-2.505
212600.000			7.514			-2.505
212701.000			7.514			-2.505
212801.000			7.514			-2.505
212901.000			7.513			-2.504
213002.000			7.514			-2.505
213100.000			7.514			-2.505
213200.000			7.513			-2.504
213301.000			7.514			-2.505
213400.000			7.513			-2.504
213500.000			7.513			-2.504
213601.000			7.513			-2.504
213701.000			7.513			-2.504
213802.000			7.513			-2.504
213901.000			7.513			-2.504
214000.000			7.514			-2.505
214101.000			7.514			-2.505
214200.000			7.514			-2.505
214300.000			7.513			-2.504
214401.000			7.513			-2.504
214500.000			7.513			-2.504
214601.000			7.512			-2.504
214702.000			7.513			-2.504
214801.000			7.512			-2.504
214900.000			7.512			-2.504
215001.000			7.513			-2.504
215100.000			7.512			-2.504
215200.000			7.513			-2.504
215301.000			7.513			-2.504
215400.000			7.513			-2.504
215501.000			7.512			-2.504
215602.000			7.513			-2.504
215701.000			7.512			-2.504
215800.000			7.513			-2.504
215901.000			7.512			-2.504
216000.000			7.511			-2.504
216100.000			7.513			-2.504
216201.000			7.513			-2.504
216300.000			7.513			-2.504
216401.000			7.513			-2.504
216502.000			7.512			-2.504
216601.000			7.513			-2.504
216700.000			7.512			-2.504
216801.000			7.512			-2.504
216900.000			7.512			-2.504
217000.000			7.513			-2.504
217100.000			7.512			-2.504
217200.000			7.512			-2.504
217302.000			7.511			-2.504
217401.000			7.512			-2.504
217501.000			7.512			-2.504
217601.000			7.512			-2.504
217700.000			7.513			-2.504
217800.000			7.513			-2.504
217901.000			7.512			-2.504
218000.000			7.512			-2.504
218100.000			7.512			-2.504
218202.000			7.512			-2.504
218301.000			7.512			-2.504
218400.000			7.511			-2.504
218501.000			7.511			-2.504
218600.000			7.511			-2.504
218700.000			7.512			-2.504
218801.000			7.511			-2.504
218900.000			7.511			-2.504
219000.000			7.511			-2.504
219102.000			7.512			-2.504
219201.000			7.513			-2.504
219301.000			7.512			-2.504
219401.000			7.512			-2.504
219500.000			7.512			-2.504
219600.000			7.511			-2.504
219701.000			7.510			-2.503
219800.000			7.511			-2.504
219900.000			7.511			-2.504
220002.000			7.511			-2.504
220101.000			7.511			-2.504
220202.000			7.511			-2.504
220300.000			7.511			-2.504
220400.000			7.511			-2.504
220501.000			7.511			-2.504
220600.000			7.511			-2.504
220700.000			7.510			-2.503
220801.000			7.511			-2.504
220901.000			7.511			-2.504
221001.000			7.511			-2.504
221102.000			7.509			-2.503
221200.000			7.511			-2.504
221300.000			7.510			-2.503
221401.000			7.511			-2.504
221500.000			7.510			-2.503
221600.000			7.511			-2.504
221701.000			7.510			-2.503
221801.000			7.511			-2.504
221901.000			7.511			-2.504
222002.000			7.510			-2.503
222100.000			7.510			-2.503
222200.000			7.510			-2.503
222301.000			7.511			-2.504
222400.000			7.511			-2.504
222500.000			7.510			-2.503
222601.000			7.510			-2.503
222701.000			7.510			-2.503
222801.000			7.511			-2.504
222902.000			7.509			-2.503
223000.000			7.509			-2.503
223100.000			7.509			-2.503
223201.000			7.510			-2.503
223300.000			7.511			-2.504
223400.000			7.510			-2.503
223500.000			7.510			-2.503
223601.000			7.510			-2.503
223702.000			7.510			-2.503
223801.000			7.509			-2.503
223900.000			7.510			-2.503
224001.000			7.509			-2.503
224100.000			7.508			-2.503
224200.000			7.510			-2.503
224301.000			7.509			-2.503
224400.000			7.508			-2.503
224501.000			7.507			-2.502
224602.000			7.508			-2.503
224701.000			7.509			-2.503
224800.000			7.509			-2.503
224901.000			7.508			-2.503
225000.000			7.508			-2.503
225100.000			7.508			-2.503
225201.000			7.509			-2.503
225300.000			7.509			-2.503
225400.000			7.507			-2.502
225502.000			7.507			-2.502
225601.000			7.507			-2.502
225700.000			7.507			-2.502
225801.000			7.508			-2.503
225900.000			7.508			-2.503
226000.000			7.508			-2.503
226101.000			7.507			-2.502
226200.000			7.507			-2.502
226300.000			7.507			-2.502
226402.000			7.506			-2.502
226501.000			7.506			-2.502
226600.000			7.506			-2.502
226700.000			7.506			-2.502
226800.000			7.506			-2.502
226901.000			7.506			-2.502
227000.000			7.505			-2.502
227100.000			7.506			-2.502
227201.000			7.506			-2.502
227301.000			7.506			-2.502
227401.000			7.505			-2.502
227502.000			7.505			-2.502
227600.000			7.506			-2.502
227700.000			7.506			-2.502
227801.000			7.506			-2.502
227900.000			7.506			-2.502
228000.000			7.505			-2.502
228101.000			7.504			-2.501
228201.000			7.506			-2.502
228301.000			7.507			-2.502
228402.000			7.507			-2.502
228500.000			7.506			-2.502
228600.000			7.505			-2.502
228701.000			7.506			-2.502
228800.000			7.506			-2.502
228900.000			7.506			-2.502
229001.000			7.506			-2.502
229100.000			7.505			-2.502
229201.000			7.506			-2.502
229302.000			7.506			-2.502
229400.000			7.506			-2.502
229500.000			7.506			-2.502
229601.000			7.506			-2.502
229700.000			7.506			-2.502
229800.000			7.505			-2.502
229900.000			7.504			-2.501
230000.000			7.504			-2.501
230102.000			7.503			-2.501
230201.000			7.503			-2.501
230301.000			7.504			-2.501
230401.000			7.503			-2.501
230500.000			7.504			-2.501
230600.000			7.505			-2.502
230701.000			7.504			-2.501
230800.000			7.503			-2.501
230900.000			7.503			-2.501
231002.000			7.503			-2.501
231101.000			7.503			-2.501
231200.000			7.503			-2.501
231301.000			7.503			-2.501
231400.000			7.504			-2.501
231500.000			7.503			-2.501
231601.000			7.503			-2.501
231700.000			7.503			-2.501
231800.000			7.503			-2.501
231902.000			7.502			-2.501
232001.000			7.502			-2.501
232100.000			7.503			-2.501
232201.000			7.504			-2.501
232300.000			7.503			-2.501
232400.000			7.502			-2.501
232501.000			7.502			-2.501
232600.000			7.502			-2.501
232700.000			7.502			-2.501
232802.000			7.503			-2.501
232901.000			7.502			-2.501
233000.000			7.501			-2.500
233100.000			7.501			-2.500
233200.000			7.501			-2.500
233301.000			7.502			-2.501
233400.000			7.501			-2.500
233500.000			7.501			-2.500
233601.000			7.502			-2.501
233701.000			7.501			-2.500
233801.000			7.501			-2.500
233901.000			7.500			-2.500
234000.000			7.500			-2.500
234100.000			7.501			-2.500
234201.000			7.502			-2.501
234300.000			7.501			-2.500
234400.000			7.501			-2.500
234501.000			7.501			-2.500
234601.000			7.501			-2.500
234701.000			7.501			-2.500
234801.000			7.501			-2.500
234900.000			7.500			-2.500
235000.000			7.500			-2.500
235101.000			7.500			-2.500
235200.000			7.500			-2.500
235300.000			7.501			-2.500
235401.000			7.500			-2.500
235501.000			7.501			-2.500
235601.000			7.500			-2.500
235701.000			7.499			-2.500
235800.000			7.498			-2.499
235900.000			7.499			-2.500
236001.000			7.499			-2.500
236100.000			7.499			-2.500
236200.000			7.499			-2.500
236300.000			7.499			-2.500
236400.000			7.500			-2.500
236502.000			7.498			-2.499
236601.000			7.498			-2.499
236700.000			7.499			-2.500
236801.000			7.499			-2.500
236900.000			7.499			-2.500
237000.000			7.499			-2.500
237101.000			7.499			-2.500
237200.000			7.499			-2.500
237300.000			7.499			-2.500
237401.000			7.498			-2.499
237501.000			7.498			-2.499
237601.000			7.499			-2.500
237701.000			7.499			-2.500
237800.000			7.499			-2.500
237900.000			7.498			-2.499
238001.000			7.499			-2.500
238100.000			7.498			-2.499
238200.000			7.499			-2.500
238301.000			7.498			-2.499
238401.000			7.497			-2.499
238501.000			7.497			-2.499
238602.000			7.498			-2.499
238700.000			7.498			-2.499
238800.000			7.498			-2.499
238901.000			7.498			-2.499
239000.000			7.497			-2.499
239100.000			7.497			-2.499
239201.000			7.497			-2.499
239300.000			7.497			-2.499
239402.000			7.497			-2.499
239501.000			7.497			-2.499
239601.000			7.498			-2.499
239701.000			7.497			-2.499
239800.000			7.497			-2.499
239900.000			7.497			-2.499
240001.000			7.498			-2.499
240100.000			7.498			-2.499
240200.000			7.497			-2.499
240301.000			7.497			-2.499
240401.000			7.498			-2.499
240501.000			7.497			-2.499
240602.000			7.497			-2.499
240700.000			7.496			-2.499
240800.000			7.496			-2.499
240901.000			7.497			-2.499
241000.000			7.496			-2.499
241100.000			7.496			-2.499
241201.000			7.496			-2.499
241300.000			7.496			-2.499
241401.000			7.496			-2.499
241502.000			7.496			-2.499
241600.000			7.496			-2.499
241700.000			7.495			-2.498
241801.000			7.495			-2.498
241900.000			7.496			-2.499
242000.000			7.497			-2.499
242101.000			7.497			-2.499
242200.000			7.497			-2.499
242300.000			7.497			-2.499
242402.000			7.497			-2.499
242501.000			7.496			-2.499
242600.000			7.496			-2.499
242700.000			7.496			-2.499
242800.000			7.496			-2.499
242901.000			7.495			-2.498
243000.000			7.495			-2.498
243100.000			7.495			-2.498
243201.000			7.496			-2.499
243301.000			7.495			-2.498
243401.000			7.495			-2.498
243502.000			7.495			-2.498
243600.000			7.495			-2.498
243700.000			7.496			-2.499
243801.000			7.496			-2.499
243900.000			7.495			-2.498
244000.000			7.495			-2.498
244101.000			7.494			-2.498
244200.000			7.494			-2.498
244301.000			7.495			-2.498
244402.000			7.495			-2.498
244501.000			7.495			-2.498
244600.000			7.495			-2.498
244701.000			7.496			-2.499
244800.000			7.495			-2.498
244900.000			7.495			-2.498
245001.000			7.495			-2.498
245100.000			7.495			-2.498
245200.000			7.494			-2.498
245302.000			7.495			-2.498
245401.000			7.495			-2.498
245500.000			7.496			-2.499
245601.000			7.496			-2.499
245700.000			7.496			-2.499
245800.000			7.496			-2.499
245900.000			7.496			-2.499
246000.000			7.495			-2.498
246101.000			7.496			-2.499
246201.000			7.496			-2.499
246301.000			7.496			-2.499
246402.000			7.497			-2.499
246500.000			7.497			-2.499
246600.000			7.498			-2.499
246701.000			7.497			-2.499
246800.000			7.496			-2.499
246900.000			7.495			-2.498
247001.000			7.496			-2.499
247100.000			7.495			-2.498
247201.000			7.495			-2.498
247302.000			7.495			-2.498
247401.000			7.495			-2.498
247500.000			7.495			-2.498
247601.000			7.495			-2.498
247700.000			7.496			-2.499
247800.000			7.496			-2.499
247901.000			7.495			-2.498
248000.000			7.495			-2.498
248100.000			7.495			-2.498
248202.000			7.495			-2.498
248301.000			7.494			-2.498
248401.000			7.495			-2.498
248501.000			7.495			-2.498
248600.000			7.494			-2.498
248700.000			7.495			-2.498
248801.000			7.494			-2.498
248900.000			7.493			-2.498
249000.000			7.494			-2.498
249100.000			7.494			-2.498
249200.000			7.494			-2.498
249302.000			7.494			-2.498
249401.000			7.494			-2.498
249500.000			7.495			-2.498
249601.000			7.494			-2.498
249700.000			7.493			-2.498
249800.000			7.494			-2.498
249901.000			7.494			-2.498
250000.000			7.493			-2.498
250100.000			7.493			-2.498
250202.000			7.495			-2.498
250301.000			7.494			-2.498
250401.000			7.496			-2.499
250501.000			7.495			-2.498
250600.000			7.495			-2.498
250700.000			7.495			-2.498
250801.000			7.496			-2.499
250900.000			7.496			-2.499
251000.000			7.496			-2.499
251101.000			7.495			-2.498
251201.000			7.494			-2.498
251301.000			7.495			-2.498
251401.000			7.495			-2.498
251500.000			7.495			-2.498
251600.000			7.495			-2.498
251701.000			7.494			-2.498
251800.000			7.494			-2.498
251900.000			7.495			-2.498
252001.000			7.495			-2.498
252101.000			7.495			-2.498
252202.000			7.495			-2.498
252301.000			7.495			-2.498
252400.000			7.494			-2.498
252501.000			7.494			-2.498
252600.000			7.496			-2.499
252700.000			7.495			-2.498
252801.000			7.495			-2.498
252900.000			7.495			-2.498
253001.000			7.494			-2.498
253102.000			7.495			-2.498
253201.000			7.495			-2.498
253300.000			7.495			-2.498
253401.000			7.495			-2.498
253500.000			7.495			-2.498
253600.000			7.495			-2.498
253701.000			7.495			-2.498
253800.000			7.495			-2.498
253900.000			7.494			-2.498
254002.000			7.493			-2.498
254101.000			7.496			-2.499
254200.000			7.496			-2.499
254301.000			7.494			-2.498
254400.000			7.494			-2.498
254500.000			7.495			-2.498
254601.000			7.496			-2.499
254700.000			7.496			-2.499
254800.000			7.494			-2.498
254902.000			7.494			-2.498
255001.000			7.494			-2.498
255101.000			7.493			-2.498
255201.000			7.494			-2.498
255300.000			7.493			-2.498
255400.000			7.493			-2.498
255500.000			7.493			-2.498
255600.000			7.493			-2.498
255701.000			7.494			-2.498
255800.000			7.494			-2.498
255901.000			7.493			-2.498
256002.000			7.494			-2.498
256101.000			7.494			-2.498
256200.000			7.494			-2.498
256301.000			7.494			-2.498
256400.000			7.493			-2.498
256500.000			7.493			-2.498
256601.000			7.493			-2.498
256700.000			7.493			-2.498
256800.000			7.493			-2.498
256902.000			7.493			-2.498
257001.000			7.493			-2.498
257100.000			7.493			-2.498
257201.000			7.493			-2.498
257300.000			7.492			-2.497
257400.000			7.492			-2.497
257501.000			7.493			-2.498
257600.000			7.493			-2.498
257700.000			7.493			-2.498
257801.000			7.493			-2.498
257901.000			7.493			-2.498
258001.000			7.493			-2.498
258101.000			7.492			-2.497
258200.000			7.492			-2.497
258300.000			7.493			-2.498
258401.000			7.492			-2.497
258500.000			7.491			-2.497
258600.000			7.493			-2.498
258700.000			7.492			-2.497
258800.000			7.492			-2.497
258902.000			7.492			-2.497
259001.000			7.492			-2.497
259100.000			7.493			-2.498
259201.000			7.491			-2.497
259300.000			7.491			-2.497
259400.000			7.492			-2.497
259501.000			7.492			-2.497
259600.000			7.492			-2.497
259700.000			7.493			-2.498
259802.000			7.493			-2.498
259901.000			7.492			-2.497
260001.000			7.492			-2.497
260101.000			7.492			-2.497
260200.000			7.492			-2.497
260300.000			7.492			-2.497
260401.000			7.492			-2.497
260500.000			7.492			-2.497
260600.000			7.492			-2.497
260701.000			7.491			-2.497
260801.000			7.491			-2.497
260901.000			7.490			-2.497
261001.000			7.491			-2.497
261100.000			7.491			-2.497
261200.000			7.492			-2.497
261301.000			7.490			-2.497
261400.000			7.490			-2.497
261500.000			7.491			-2.497
261601.000			7.490			-2.497
261701.000			7.490			-2.497
261802.000			7.489			-2.496
261901.000			7.490			-2.497
262000.000			7.490			-2.497
262101.000			7.490			-2.497
262200.000			7.490			-2.497
262300.000			7.489			-2.496
262401.000			7.489			-2.496
262500.000			7.490			-2.497
262600.000			7.489			-2.496
262702.000			7.489			-2.496
262801.000			7.489			-2.496
262900.000			7.489			-2.496
263001.000			7.490			-2.497
263100.000			7.490			-2.497
263200.000			7.490			-2.497
263301.000			7.489			-2.496
263400.000			7.489			-2.496
263500.000			7.489			-2.496
263601.000			7.489			-2.496
263701.000			7.489			-2.496
263801.000			7.489			-2.496
263901.000			7.489			-2.496
264000.000			7.488			-2.496
264100.000			7.488			-2.496
264201.000			7.487			-2.496
264300.000			7.488			-2.496
264400.000			7.487			-2.496
264501.000			7.487			-2.496
264601.000			7.486			-2.495
264701.000			7.487			-2.496
264802.000			7.487			-2.496
264900.000			7.487			-2.496
265000.000			7.487			-2.496
265100.000			7.487			-2.496
265200.000			7.486			-2.495
265301.000			7.485			-2.495
265400.000			7.485			-2.495
265500.000			7.486			-2.495
265602.000			7.486			-2.495
265701.000			7.485			-2.495
265801.000			7.485			-2.495
265901.000			7.485			-2.495
266000.000			7.485			-2.495
266100.000			7.485			-2.495
266201.000			7.485			-2.495
266300.000			7.485			-2.495
266400.000			7.485			-2.495
266501.000			7.485			-2.495
266601.000			7.484			-2.495
266701.000			7.484			-2.495
266801.000			7.484			-2.495
266900.000			7.484			-2.495
267000.000			7.483			-2.494
267101.000			7.483			-2.494
267200.000			7.484			-2.495
267300.000			7.484			-2.495
267401.000			7.484			-2.495
267501.000			7.484			-2.495
267601.000			7.484			-2.495
267702.000			7.483			-2.494
267800.000			7.483			-2.494
267900.000			7.484			-2.495
268001.000			7.483			-2.494
268100.000			7.483			-2.494
268200.000			7.484			-2.495
268300.000			7.484			-2.495
268400.000			7.484			-2.495
268502.000			7.483			-2.494
268601.000			7.482			-2.494
268701.000			7.482			-2.494
268801.000			7.484			-2.495
268900.000			7.483			-2.494
269000.000			7.483			-2.494
269101.000			7.483			-2.494
269200.000			7.483			-2.494
269300.000			7.483			-2.494
269401.000			7.483			-2.494
269501.000			7.483			-2.494
269601.000			7.484			-2.495
269702.000			7.483			-2.494
269800.000			7.481			-2.494
269900.000			7.483			-2.494
270001.000			7.484			-2.495
270100.000			7.483			-2.494
270200.000			7.483			-2.494
270301.000			7.482			-2.494
270400.000			7.482			-2.494
270501.000			7.482			-2.494
270602.000			7.481			-2.494
270700.000			7.482			-2.494
270800.000			7.481			-2.494
270901.000			7.482			-2.494
271000.000			7.482			-2.494
271100.000			7.482			-2.494
271201.000			7.481			-2.494
271300.000			7.482			-2.494
271402.000			7.482			-2.494
271501.000			7.481			-2.494
271601.000			7.481			-2.494
271701.000			7.482			-2.494
271800.000			7.481			-2.494
271900.000			7.481			-2.494
272001.000			7.480			-2.493
272100.000			7.481			-2.494
272200.000			7.482			-2.494
272301.000			7.481			-2.494
272401.000			7.481			-2.494
272501.000			7.481			-2.494
272601.000			7.481			-2.494
272700.000			7.480			-2.493
272800.000			7.480			-2.493
272901.000			7.480			-2.493
273000.000			7.481			-2.494
273100.000			7.481			-2.494
273201.000			7.480			-2.493
273301.000			7.481			-2.494
273401.000			7.481			-2.494
273501.000			7.480			-2.493
273600.000			7.481			-2.494
273700.000			7.482			-2.494
273801.000			7.482			-2.494
273900.000			7.481			-2.494
274000.000			7.480			-2.493
274101.000			7.480			-2.493
274201.000			7.480			-2.493
274301.000			7.480			-2.493
274402.000			7.480			-2.493
274500.000			7.480			-2.493
274600.000			7.479			-2.493
274700.000			7.479			-2.493
274800.000			7.479			-2.493
274901.000			7.479			-2.493
275000.000			7.480			-2.493
275100.000			7.480			-2.493
275202.000			7.479			-2.493
275301.000			7.480			-2.493
275401.000			7.481			-2.494
275501.000			7.480			-2.493
275600.000			7.480			-2.493
275700.000			7.480			-2.493
275801.000			7.480			-2.493
275900.000			7.480			-2.493
276000.000			7.479			-2.493
276101.000			7.479			-2.493
276201.000			7.480			-2.493
276301.000			7.480			-2.493
276401.000			7.479			-2.493
276500.000			7.479			-2.493
276600.000			7.478			-2.493
276701.000			7.478			-2.493
276800.000			7.479			-2.493
276900.000			7.480			-2.493
277001.000			7.480			-2.493
277100.000			7.479			-2.493
277201.000			7.479			-2.493
277302.000			7.478			-2.493
277400.000			7.478			-2.493
277500.000			7.477			-2.492
277601.000			7.477			-2.492
277700.000			7.478			-2.493
277800.000			7.479			-2.493
277900.000			7.478			-2.493
278000.000			7.478			-2.493
278102.000			7.479			-2.493
278201.000			7.480			-2.493
278301.000			7.479			-2.493
278401.000			7.479			-2.493
278500.000			7.478			-2.493
278600.000			7.478			-2.493
278701.000			7.478			-2.493
278800.000			7.479			-2.493
278900.000			7.478			-2.493
279001.000			7.478			-2.493
279100.000			7.477			-2.492
279201.000			7.478			-2.493
279302.000			7.478			-2.493
279400.000			7.478			-2.493
279500.000			7.478			-2.493
279601.000			7.476			-2.492
279700.000			7.477			-2.492
279800.000			7.477			-2.492
279901.000			7.476			-2.492
280000.000			7.477			-2.492
280100.000			7.478			-2.493
280202.000			7.479			-2.493
280301.000			7.478			-2.493
280400.000			7.477			-2.492
280501.000			7.478			-2.493
280600.000			7.478			-2.493
280700.000			7.477			-2.492
280801.000			7.478			-2.493
280900.000			7.480			-2.493
281000.000			7.479			-2.493
281102.000			7.479			-2.493
281201.000			7.479			-2.493
281302.000			7.479			-2.493
281400.000			7.479			-2.493
281500.000			7.479			-2.493
281601.000			7.480			-2.493
281700.000			7.480			-2.493
281800.000			7.479			-2.493
281901.000			7.479			-2.493
282000.000			7.479			-2.493
282101.000			7.480			-2.493
282202.000			7.480			-2.493
282301.000			7.479			-2.493
282400.000			7.479			-2.493
282501.000			7.480			-2.493
282600.000			7.480			-2.493
282700.000			7.480			-2.493
282801.000			7.479			-2.493
282900.000			7.479			-2.493
283000.000			7.479			-2.493
283102.000			7.478			-2.493
283201.000			7.479			-2.493
283300.000			7.479			-2.493
283401.000			7.479			-2.493
283500.000			7.479			-2.493
283600.000			7.479			-2.493
283701.000			7.479			-2.493
283800.000			7.480			-2.493
283900.000			7.479			-2.493
284001.000			7.478			-2.493
284101.000			7.479			-2.493
284202.000			7.480			-2.493
284300.000			7.478			-2.493
284400.000			7.479			-2.493
284501.000			7.479			-2.493
284600.000			7.479			-2.493
284700.000			7.479			-2.493
284801.000			7.478			-2.493
284900.000			7.478			-2.493
285001.000			7.478			-2.493
285102.000			7.479			-2.493
285201.000			7.479			-2.493
285300.000			7.479			-2.493
285401.000			7.478			-2.493
285500.000			7.478			-2.493
285600.000			7.478			-2.493
285701.000			7.478			-2.493
285800.000			7.478			-2.493
285900.000			7.478			-2.493
286002.000			7.478			-2.493
286101.000			7.478			-2.493
286201.000			7.478			-2.493
286301.000			7.478			-2.493
286400.000			7.478			-2.493
286500.000			7.479			-2.493
286601.000			7.478			-2.493
286700.000			7.478			-2.493
286800.000			7.478			-2.493
286901.000			7.477			-2.492
287001.000			7.476			-2.492
287101.000			7.476			-2.492
287202.000			7.477			-2.492
287300.000			7.476			-2.492
287400.000			7.476			-2.492
287500.000			7.478			-2.493
287600.000			7.477			-2.492
287701.000			7.477			-2.492
287800.000			7.477			-2.492
287900.000			7.476			-2.492
288002.000			7.477			-2.492
288101.000			7.476			-2.492
288201.000			7.476			-2.492
288301.000			7.476			-2.492
288400.000			7.476			-2.492
288500.000			7.476			-2.492
288601.000			7.476			-2.492
288700.000			7.475			-2.492
288800.000			7.474			-2.491
288901.000			7.474			-2.491
289001.000			7.475			-2.492
289101.000			7.475			-2.492
289202.000			7.475			-2.492
289300.000			7.474			-2.491
289400.000			7.474			-2.491
289501.000			7.474			-2.491
289600.000			7.473			-2.491
289700.000			7.473			-2.491
289801.000			7.475			-2.492
289900.000			7.474			-2.491
290001.000			7.474			-2.491
290102.000			7.474			-2.491
290201.000			7.474			-2.491
290300.000			7.473			-2.491
290401.000			7.473			-2.491
290500.000			7.474			-2.491
290600.000			7.473			-2.491
290700.000			7.472			-2.491
290800.000			7.473			-2.491
290901.000			7.474			-2.491
291001.000			7.474			-2.491
291101.000			7.475			-2.492
291201.000			7.473			-2.491
291300.000			7.474			-2.491
291400.000			7.474			-2.491
291501.000			7.473			-2.491
291600.000			7.473			-2.491
291700.000			7.473			-2.491
291801.000			7.473			-2.491
291901.000			7.473			-2.491
292001.000			7.472			-2.491
292102.000			7.472			-2.491
292200.000			7.472			-2.491
292300.000			7.473			-2.491
292401.000			7.472			-2.491
292500.000			7.472			-2.491
292600.000			7.473			-2.491
292701.000			7.473			-2.491
292800.000			7.472			-2.491
292901.000			7.472			-2.491
293002.000			7.472			-2.491
293100.000			7.472			-2.491
293200.000			7.472			-2.491
293301.000			7.471			-2.490
293400.000			7.472			-2.491
293500.000			7.473			-2.491
293601.000			7.472			-2.491
293700.000			7.471			-2.490
293802.000			7.471			-2.490
293901.000			7.471			-2.490
294001.000			7.470			-2.490
294101.000			7.472			-2.491
294200.000			7.471			-2.490
294300.000			7.471			-2.490
294401.000			7.471			-2.490
294500.000			7.471			-2.490
294600.000			7.471			-2.490
294701.000			7.470			-2.490
294801.000			7.471			-2.490
294901.000			7.471			-2.490
295001.000			7.471			-2.490
295100.000			7.471			-2.490
295200.000			7.471			-2.490
295301.000			7.471			-2.490
295400.000			7.470			-2.490
295500.000			7.470			-2.490
295601.000			7.471			-2.490
295701.000			7.472			-2.491
295801.000			7.471			-2.490
295902.000			7.470			-2.490
296000.000			7.471			-2.490
296100.000			7.471			-2.490
296201.000			7.470			-2.490
296300.000			7.470			-2.490
296400.000			7.470			-2.490
296501.000			7.471			-2.490
296600.000			7.472			-2.491
296701.000			7.471			-2.490
296802.000			7.470			-2.490
296900.000			7.470			-2.490
297000.000			7.470			-2.490
297100.000			7.469			-2.490
297200.000			7.469			-2.490
297301.000			7.470			-2.490
297400.000			7.470			-2.490
297500.000			7.471			-2.490
297601.000			7.471			-2.490
297701.000			7.470			-2.490
297801.000			7.470			-2.490
297901.000			7.470			-2.490
298000.000			7.471			-2.490
298100.000			7.472			-2.491
298201.000			7.471			-2.490
298300.000			7.470			-2.490
298400.000			7.470			-2.490
298501.000			7.470			-2.490
298600.000			7.470			-2.490
298701.000			7.471			-2.490
298802.000			7.470			-2.490
298900.000			7.469			-2.490
299000.000			7.470			-2.490
299101.000			7.470			-2.490
299200.000			7.469			-2.490
299300.000			7.469			-2.490
299401.000			7.470			-2.490
299500.000			7.470			-2.490
299600.000			7.469			-2.490
299702.000			7.470			-2.490
299801.000			7.471			-2.490
299901.000			7.469			-2.490
