# Acquired on 21/12/2023 13:57:04 
# SPIDER: Creep_9mm_0771453C
# CREEP MEASUREMENT

# time [ms]		force [N]		stiffness [N/mm]
1.000			-72.876			-8.097
100.000			-76.595			-8.511
200.000			-77.834			-8.648
300.000			-76.953			-8.550
401.000			-76.509			-8.501
500.000			-76.217			-8.469
600.000			-75.976			-8.442
702.000			-75.768			-8.419
801.000			-75.586			-8.398
900.000			-75.422			-8.380
1001.000			-75.141			-8.349
1100.000			-75.017			-8.335
1200.000			-74.903			-8.323
1301.000			-74.797			-8.311
1401.000			-74.694			-8.299
1501.000			-74.599			-8.289
1601.000			-74.510			-8.279
1700.000			-74.342			-8.260
1800.000			-74.264			-8.252
1901.000			-74.192			-8.244
2000.000			-74.124			-8.236
2100.000			-74.056			-8.228
2202.000			-73.992			-8.221
2301.000			-73.932			-8.215
2400.000			-73.816			-8.202
2501.000			-73.762			-8.196
2600.000			-73.709			-8.190
2700.000			-73.658			-8.184
2801.000			-73.608			-8.179
2900.000			-73.559			-8.173
3001.000			-73.513			-8.168
3102.000			-73.419			-8.158
3200.000			-73.377			-8.153
3300.000			-73.336			-8.148
3400.000			-73.294			-8.144
3500.000			-73.253			-8.139
3601.000			-73.214			-8.135
3701.000			-73.175			-8.131
3801.000			-73.138			-8.126
3901.000			-73.069			-8.119
4000.000			-73.033			-8.115
4100.000			-72.999			-8.111
4201.000			-72.966			-8.107
4300.000			-72.933			-8.104
4400.000			-72.901			-8.100
4502.000			-72.870			-8.097
4601.000			-72.808			-8.090
4700.000			-72.779			-8.087
4801.000			-72.750			-8.083
4900.000			-72.722			-8.080
5000.000			-72.693			-8.077
5101.000			-72.665			-8.074
5200.000			-72.639			-8.071
5301.000			-72.586			-8.065
5402.000			-72.559			-8.062
5500.000			-72.535			-8.059
5600.000			-72.509			-8.057
5701.000			-72.483			-8.054
5800.000			-72.458			-8.051
5900.000			-72.435			-8.048
6001.000			-72.412			-8.046
6101.000			-72.365			-8.041
6200.000			-72.343			-8.038
6301.000			-72.320			-8.036
6400.000			-72.299			-8.033
6500.000			-72.276			-8.031
6600.000			-72.253			-8.028
6700.000			-72.232			-8.026
6802.000			-72.191			-8.021
6901.000			-72.170			-8.019
7000.000			-72.150			-8.017
7101.000			-72.130			-8.014
7200.000			-72.111			-8.012
7300.000			-72.091			-8.010
7401.000			-72.071			-8.008
7500.000			-72.034			-8.004
7601.000			-72.015			-8.002
7702.000			-71.994			-7.999
7800.000			-71.974			-7.997
7900.000			-71.954			-7.995
8001.000			-71.936			-7.993
8100.000			-71.919			-7.991
8200.000			-71.902			-7.989
8302.000			-71.868			-7.985
8401.000			-71.851			-7.983
8501.000			-71.835			-7.982
8601.000			-71.819			-7.980
8700.000			-71.802			-7.978
8800.000			-71.785			-7.976
8901.000			-71.769			-7.974
9000.000			-71.738			-7.971
9101.000			-71.723			-7.969
9202.000			-71.708			-7.968
9301.000			-71.692			-7.966
9400.000			-71.678			-7.964
9501.000			-71.663			-7.963
9600.000			-71.648			-7.961
9700.000			-71.619			-7.958
9800.000			-71.605			-7.956
9901.000			-71.589			-7.954
10002.000			-71.575			-7.953
10100.000			-71.561			-7.951
10200.000			-71.546			-7.950
10301.000			-71.530			-7.948
10400.000			-71.517			-7.946
10500.000			-71.491			-7.943
10601.000			-71.476			-7.942
10701.000			-71.462			-7.940
10801.000			-71.450			-7.939
10901.000			-71.437			-7.937
11000.000			-71.424			-7.936
11100.000			-71.411			-7.935
11201.000			-71.386			-7.932
11300.000			-71.373			-7.930
11400.000			-71.361			-7.929
11502.000			-71.348			-7.928
11601.000			-71.336			-7.926
11700.000			-71.324			-7.925
11801.000			-71.311			-7.923
11900.000			-71.289			-7.921
12000.000			-71.276			-7.920
12101.000			-71.265			-7.918
12200.000			-71.253			-7.917
12301.000			-71.242			-7.916
12402.000			-71.230			-7.914
12500.000			-71.218			-7.913
12600.000			-71.206			-7.912
12701.000			-71.183			-7.909
12800.000			-71.172			-7.908
12900.000			-71.162			-7.907
13002.000			-71.152			-7.906
13101.000			-71.140			-7.904
13201.000			-71.131			-7.903
13300.000			-71.119			-7.902
13400.000			-71.098			-7.900
13501.000			-71.088			-7.899
13600.000			-71.077			-7.897
13700.000			-71.067			-7.896
13802.000			-71.056			-7.895
13901.000			-71.045			-7.894
14000.000			-71.036			-7.893
14101.000			-71.015			-7.891
14200.000			-71.005			-7.889
14300.000			-70.994			-7.888
14401.000			-70.986			-7.887
14500.000			-70.975			-7.886
14601.000			-70.965			-7.885
14702.000			-70.955			-7.884
14800.000			-70.937			-7.882
14900.000			-70.927			-7.881
15001.000			-70.918			-7.880
15100.000			-70.908			-7.879
15200.000			-70.899			-7.878
15301.000			-70.889			-7.877
15401.000			-70.880			-7.876
15501.000			-70.870			-7.874
15601.000			-70.852			-7.872
15700.000			-70.844			-7.872
15800.000			-70.836			-7.871
15901.000			-70.826			-7.870
16000.000			-70.817			-7.869
16100.000			-70.808			-7.868
16200.000			-70.799			-7.867
16301.000			-70.782			-7.865
16402.000			-70.773			-7.864
16500.000			-70.764			-7.863
16600.000			-70.756			-7.862
16701.000			-70.747			-7.861
16800.000			-70.739			-7.860
16900.000			-70.732			-7.859
17001.000			-70.713			-7.857
17101.000			-70.705			-7.856
17201.000			-70.697			-7.855
17301.000			-70.689			-7.854
17400.000			-70.680			-7.853
17500.000			-70.672			-7.852
17601.000			-70.664			-7.852
17700.000			-70.655			-7.851
17800.000			-70.639			-7.849
17902.000			-70.632			-7.848
18001.000			-70.624			-7.847
18100.000			-70.616			-7.846
18201.000			-70.609			-7.845
18300.000			-70.601			-7.845
18400.000			-70.592			-7.844
18501.000			-70.578			-7.842
18600.000			-70.570			-7.841
18701.000			-70.563			-7.840
18802.000			-70.554			-7.839
18900.000			-70.548			-7.839
19000.000			-70.541			-7.838
19101.000			-70.533			-7.837
19200.000			-70.519			-7.835
19300.000			-70.510			-7.834
19400.000			-70.503			-7.834
19501.000			-70.496			-7.833
19602.000			-70.489			-7.832
19700.000			-70.481			-7.831
19800.000			-70.474			-7.830
19901.000			-70.466			-7.830
20000.000			-70.453			-7.828
20100.000			-70.446			-7.827
20201.000			-70.438			-7.826
20301.000			-70.431			-7.826
20401.000			-70.424			-7.825
20501.000			-70.418			-7.824
20600.000			-70.412			-7.824
20700.000			-70.397			-7.822
20801.000			-70.389			-7.821
20900.000			-70.384			-7.820
21001.000			-70.378			-7.820
21102.000			-70.370			-7.819
21200.000			-70.364			-7.818
21300.000			-70.357			-7.817
21401.000			-70.344			-7.816
21500.000			-70.337			-7.815
21600.000			-70.331			-7.815
21701.000			-70.325			-7.814
21801.000			-70.318			-7.813
21901.000			-70.310			-7.812
22001.000			-70.304			-7.812
22100.000			-70.297			-7.811
22200.000			-70.285			-7.809
22301.000			-70.278			-7.809
22400.000			-70.271			-7.808
22500.000			-70.265			-7.807
22602.000			-70.260			-7.807
22701.000			-70.254			-7.806
22801.000			-70.248			-7.805
22900.000			-70.235			-7.804
23000.000			-70.228			-7.803
23101.000			-70.221			-7.802
23200.000			-70.215			-7.802
23300.000			-70.209			-7.801
23402.000			-70.204			-7.800
23501.000			-70.199			-7.800
23600.000			-70.185			-7.798
23701.000			-70.180			-7.798
23800.000			-70.174			-7.797
23900.000			-70.169			-7.797
24001.000			-70.162			-7.796
24101.000			-70.157			-7.795
24201.000			-70.150			-7.794
24301.000			-70.145			-7.794
24400.000			-70.133			-7.793
24500.000			-70.126			-7.792
24601.000			-70.120			-7.791
24700.000			-70.114			-7.790
24800.000			-70.109			-7.790
24902.000			-70.103			-7.789
25001.000			-70.098			-7.789
25100.000			-70.086			-7.787
25201.000			-70.081			-7.787
25300.000			-70.075			-7.786
25400.000			-70.069			-7.785
25501.000			-70.065			-7.785
25600.000			-70.058			-7.784
25702.000			-70.052			-7.784
25801.000			-70.040			-7.782
25900.000			-70.035			-7.782
26001.000			-70.030			-7.781
26100.000			-70.024			-7.780
26200.000			-70.019			-7.780
26301.000			-70.013			-7.779
26400.000			-70.008			-7.779
26501.000			-69.998			-7.778
26602.000			-69.992			-7.777
26700.000			-69.986			-7.776
26800.000			-69.981			-7.776
26901.000			-69.975			-7.775
27000.000			-69.970			-7.774
27100.000			-69.966			-7.774
27201.000			-69.960			-7.773
27301.000			-69.949			-7.772
27401.000			-69.945			-7.772
27501.000			-69.940			-7.771
27600.000			-69.934			-7.770
27700.000			-69.929			-7.770
27801.000			-69.923			-7.769
27900.000			-69.918			-7.769
28000.000			-69.910			-7.768
28102.000			-69.904			-7.767
28201.000			-69.898			-7.766
28301.000			-69.893			-7.766
28401.000			-69.888			-7.765
28500.000			-69.883			-7.765
28600.000			-69.878			-7.764
28701.000			-69.868			-7.763
28800.000			-69.864			-7.763
28900.000			-69.860			-7.762
29002.000			-69.854			-7.762
29101.000			-69.849			-7.761
29201.000			-69.844			-7.760
29300.000			-69.839			-7.760
29400.000			-69.835			-7.759
29501.000			-69.826			-7.758
29600.000			-69.821			-7.758
29700.000			-69.815			-7.757
29801.000			-69.811			-7.757
29901.000			-69.806			-7.756
30001.000			-69.801			-7.756
30101.000			-69.796			-7.755
30200.000			-69.788			-7.754
30300.000			-69.782			-7.754
30401.000			-69.778			-7.753
30500.000			-69.773			-7.753
30600.000			-69.767			-7.752
30702.000			-69.762			-7.751
30801.000			-69.758			-7.751
30900.000			-69.750			-7.750
31001.000			-69.745			-7.749
31100.000			-69.741			-7.749
31200.000			-69.737			-7.749
31301.000			-69.732			-7.748
31400.000			-69.727			-7.747
31501.000			-69.722			-7.747
31602.000			-69.718			-7.746
31701.000			-69.710			-7.746
31800.000			-69.705			-7.745
31901.000			-69.700			-7.744
32000.000			-69.696			-7.744
32100.000			-69.692			-7.744
32200.000			-69.687			-7.743
32300.000			-69.683			-7.743
32402.000			-69.674			-7.742
32501.000			-69.669			-7.741
32600.000			-69.664			-7.740
32701.000			-69.660			-7.740
32800.000			-69.657			-7.740
32900.000			-69.652			-7.739
33001.000			-69.647			-7.739
33100.000			-69.639			-7.738
33201.000			-69.634			-7.737
33302.000			-69.630			-7.737
33400.000			-69.627			-7.736
33500.000			-69.622			-7.736
33601.000			-69.617			-7.735
33700.000			-69.613			-7.735
33800.000			-69.608			-7.734
33901.000			-69.601			-7.733
34001.000			-69.597			-7.733
34101.000			-69.593			-7.733
34201.000			-69.589			-7.732
34300.000			-69.586			-7.732
34400.000			-69.581			-7.731
34501.000			-69.576			-7.731
34600.000			-69.568			-7.730
34700.000			-69.564			-7.729
34801.000			-69.560			-7.729
34901.000			-69.556			-7.728
35001.000			-69.551			-7.728
35101.000			-69.546			-7.727
35200.000			-69.543			-7.727
35300.000			-69.535			-7.726
35400.000			-69.531			-7.726
35500.000			-69.527			-7.725
35601.000			-69.522			-7.725
35701.000			-69.519			-7.724
35801.000			-69.516			-7.724
35901.000			-69.512			-7.724
36000.000			-69.507			-7.723
36100.000			-69.500			-7.722
36201.000			-69.496			-7.722
36300.000			-69.492			-7.721
36400.000			-69.487			-7.721
36502.000			-69.483			-7.720
36601.000			-69.479			-7.720
36700.000			-69.476			-7.720
36801.000			-69.468			-7.719
36900.000			-69.464			-7.718
37000.000			-69.460			-7.718
37101.000			-69.456			-7.717
37200.000			-69.452			-7.717
37301.000			-69.448			-7.716
37402.000			-69.445			-7.716
37500.000			-69.438			-7.715
37600.000			-69.435			-7.715
37701.000			-69.431			-7.715
37800.000			-69.426			-7.714
37900.000			-69.422			-7.714
38001.000			-69.418			-7.713
38101.000			-69.414			-7.713
38201.000			-69.408			-7.712
38302.000			-69.404			-7.712
38400.000			-69.400			-7.711
38500.000			-69.396			-7.711
38600.000			-69.392			-7.710
38700.000			-69.388			-7.710
38801.000			-69.385			-7.709
38900.000			-69.381			-7.709
39001.000			-69.374			-7.708
39102.000			-69.370			-7.708
39200.000			-69.366			-7.707
39300.000			-69.363			-7.707
39401.000			-69.360			-7.707
39500.000			-69.356			-7.706
39600.000			-69.353			-7.706
39701.000			-69.346			-7.705
39801.000			-69.342			-7.705
39901.000			-69.338			-7.704
40001.000			-69.336			-7.704
40100.000			-69.332			-7.704
40200.000			-69.328			-7.703
40301.000			-69.325			-7.703
40400.000			-69.317			-7.702
40500.000			-69.313			-7.701
40602.000			-69.309			-7.701
40701.000			-69.306			-7.701
40800.000			-69.304			-7.700
40901.000			-69.301			-7.700
41000.000			-69.296			-7.700
41100.000			-69.293			-7.699
41201.000			-69.286			-7.698
41300.000			-69.283			-7.698
41401.000			-69.279			-7.698
41502.000			-69.276			-7.697
41600.000			-69.273			-7.697
41700.000			-69.269			-7.697
41800.000			-69.266			-7.696
41900.000			-69.259			-7.695
42001.000			-69.256			-7.695
42100.000			-69.253			-7.695
42201.000			-69.250			-7.694
42302.000			-69.246			-7.694
42400.000			-69.242			-7.694
42500.000			-69.239			-7.693
42601.000			-69.232			-7.692
42700.000			-69.229			-7.692
42800.000			-69.226			-7.692
42901.000			-69.222			-7.691
43001.000			-69.219			-7.691
43101.000			-69.215			-7.691
43201.000			-69.212			-7.690
43300.000			-69.209			-7.690
43400.000			-69.203			-7.689
43501.000			-69.198			-7.689
43600.000			-69.195			-7.688
43700.000			-69.192			-7.688
43802.000			-69.190			-7.688
43901.000			-69.186			-7.687
44000.000			-69.183			-7.687
44101.000			-69.176			-7.686
44200.000			-69.172			-7.686
44300.000			-69.169			-7.685
44401.000			-69.165			-7.685
44500.000			-69.163			-7.685
44601.000			-69.161			-7.685
44702.000			-69.158			-7.684
44800.000			-69.153			-7.684
44900.000			-69.149			-7.683
45000.000			-69.144			-7.683
45100.000			-69.141			-7.682
45201.000			-69.139			-7.682
45300.000			-69.136			-7.682
45401.000			-69.131			-7.681
45502.000			-69.128			-7.681
45601.000			-69.123			-7.680
45700.000			-69.120			-7.680
45801.000			-69.117			-7.680
45900.000			-69.114			-7.679
46000.000			-69.111			-7.679
46101.000			-69.108			-7.679
46201.000			-69.105			-7.678
46301.000			-69.097			-7.677
46402.000			-69.094			-7.677
46500.000			-69.091			-7.677
46600.000			-69.089			-7.677
46701.000			-69.085			-7.676
46800.000			-69.083			-7.676
46900.000			-69.080			-7.676
47001.000			-69.073			-7.675
47101.000			-69.070			-7.674
47201.000			-69.067			-7.674
47301.000			-69.065			-7.674
47400.000			-69.061			-7.673
47500.000			-69.059			-7.673
47601.000			-69.055			-7.673
47700.000			-69.051			-7.672
47800.000			-69.046			-7.672
47902.000			-69.043			-7.671
48001.000			-69.040			-7.671
48100.000			-69.038			-7.671
48200.000			-69.035			-7.671
48300.000			-69.032			-7.670
48401.000			-69.029			-7.670
48500.000			-69.021			-7.669
48600.000			-69.020			-7.669
48702.000			-69.016			-7.668
48801.000			-69.013			-7.668
48901.000			-69.012			-7.668
49001.000			-69.009			-7.668
49100.000			-69.005			-7.667
49200.000			-68.999			-7.667
49301.000			-68.996			-7.666
49400.000			-68.994			-7.666
49500.000			-68.991			-7.666
49602.000			-68.988			-7.665
49701.000			-68.984			-7.665
49800.000			-68.981			-7.665
49901.000			-68.977			-7.664
50000.000			-68.973			-7.664
50100.000			-68.971			-7.663
50201.000			-68.968			-7.663
50300.000			-68.965			-7.663
50401.000			-68.962			-7.662
50502.000			-68.959			-7.662
50601.000			-68.957			-7.662
50700.000			-68.950			-7.661
50801.000			-68.948			-7.661
50900.000			-68.945			-7.661
51000.000			-68.942			-7.660
51101.000			-68.939			-7.660
51200.000			-68.937			-7.660
51302.000			-68.935			-7.659
51401.000			-68.928			-7.659
51500.000			-68.925			-7.658
51601.000			-68.923			-7.658
51700.000			-68.920			-7.658
51800.000			-68.917			-7.657
51901.000			-68.914			-7.657
52000.000			-68.911			-7.657
52101.000			-68.906			-7.656
52202.000			-68.904			-7.656
52300.000			-68.901			-7.656
52400.000			-68.898			-7.655
52501.000			-68.896			-7.655
52600.000			-68.894			-7.655
52700.000			-68.891			-7.655
52801.000			-68.888			-7.654
52901.000			-68.883			-7.654
53001.000			-68.880			-7.653
53101.000			-68.878			-7.653
53200.000			-68.875			-7.653
53300.000			-68.871			-7.652
53401.000			-68.870			-7.652
53500.000			-68.866			-7.652
53600.000			-68.862			-7.651
53702.000			-68.859			-7.651
53801.000			-68.856			-7.651
53901.000			-68.853			-7.650
54001.000			-68.851			-7.650
54100.000			-68.848			-7.650
54200.000			-68.845			-7.649
54301.000			-68.839			-7.649
54400.000			-68.837			-7.649
54500.000			-68.835			-7.648
54602.000			-68.832			-7.648
54701.000			-68.829			-7.648
54801.000			-68.826			-7.647
54900.000			-68.825			-7.647
55000.000			-68.822			-7.647
55101.000			-68.817			-7.646
55200.000			-68.813			-7.646
55300.000			-68.811			-7.646
55402.000			-68.809			-7.645
55501.000			-68.806			-7.645
55601.000			-68.804			-7.645
55701.000			-68.801			-7.645
55800.000			-68.796			-7.644
55900.000			-68.794			-7.644
56001.000			-68.791			-7.643
56100.000			-68.788			-7.643
56200.000			-68.786			-7.643
56302.000			-68.783			-7.643
56401.000			-68.781			-7.642
56500.000			-68.776			-7.642
56601.000			-68.773			-7.641
56700.000			-68.770			-7.641
56800.000			-68.767			-7.641
56901.000			-68.765			-7.641
57000.000			-68.763			-7.640
57101.000			-68.761			-7.640
57202.000			-68.758			-7.640
57301.000			-68.753			-7.639
57400.000			-68.750			-7.639
57501.000			-68.748			-7.639
57600.000			-68.745			-7.638
57700.000			-68.743			-7.638
57800.000			-68.741			-7.638
57900.000			-68.739			-7.638
58002.000			-68.734			-7.637
58101.000			-68.731			-7.637
58200.000			-68.729			-7.637
58301.000			-68.727			-7.636
58400.000			-68.723			-7.636
58500.000			-68.721			-7.636
58601.000			-68.718			-7.635
58700.000			-68.714			-7.635
58801.000			-68.712			-7.635
58902.000			-68.710			-7.634
59001.000			-68.707			-7.634
59100.000			-68.705			-7.634
59201.000			-68.702			-7.634
59300.000			-68.699			-7.633
59400.000			-68.693			-7.633
59501.000			-68.689			-7.632
59600.000			-68.685			-7.632
59701.000			-68.683			-7.631
59802.000			-68.681			-7.631
59900.000			-68.679			-7.631
60000.000			-68.676			-7.631
60101.000			-68.674			-7.630
60200.000			-68.670			-7.630
60300.000			-68.668			-7.630
60401.000			-68.665			-7.629
60501.000			-68.662			-7.629
60601.000			-68.659			-7.629
60701.000			-68.657			-7.629
60800.000			-68.654			-7.628
60900.000			-68.651			-7.628
61000.000			-68.648			-7.628
61100.000			-68.646			-7.627
61201.000			-68.644			-7.627
61301.000			-68.641			-7.627
61401.000			-68.639			-7.627
61501.000			-68.636			-7.626
61600.000			-68.634			-7.626
61700.000			-68.629			-7.625
61801.000			-68.628			-7.625
61900.000			-68.626			-7.625
62000.000			-68.623			-7.625
62101.000			-68.621			-7.625
62201.000			-68.618			-7.624
62301.000			-68.616			-7.624
62401.000			-68.611			-7.623
62500.000			-68.609			-7.623
62600.000			-68.607			-7.623
62701.000			-68.604			-7.623
62800.000			-68.602			-7.622
62900.000			-68.600			-7.622
63002.000			-68.597			-7.622
63101.000			-68.593			-7.621
63200.000			-68.590			-7.621
63301.000			-68.587			-7.621
63400.000			-68.584			-7.620
63500.000			-68.583			-7.620
63601.000			-68.581			-7.620
63700.000			-68.578			-7.620
63801.000			-68.573			-7.619
63902.000			-68.572			-7.619
64000.000			-68.570			-7.619
64100.000			-68.569			-7.619
64200.000			-68.566			-7.618
64300.000			-68.562			-7.618
64401.000			-68.560			-7.618
64500.000			-68.558			-7.618
64600.000			-68.555			-7.617
64702.000			-68.552			-7.617
64801.000			-68.551			-7.617
64900.000			-68.548			-7.616
65001.000			-68.546			-7.616
65100.000			-68.544			-7.616
65200.000			-68.540			-7.616
65301.000			-68.536			-7.615
65400.000			-68.535			-7.615
65501.000			-68.533			-7.615
65602.000			-68.530			-7.614
65700.000			-68.527			-7.614
65800.000			-68.525			-7.614
65901.000			-68.524			-7.614
66000.000			-68.520			-7.613
66100.000			-68.517			-7.613
66201.000			-68.516			-7.613
66301.000			-68.514			-7.613
66401.000			-68.511			-7.612
66501.000			-68.508			-7.612
66600.000			-68.507			-7.612
66700.000			-68.505			-7.612
66801.000			-68.500			-7.611
66900.000			-68.497			-7.611
67000.000			-68.497			-7.611
67101.000			-68.494			-7.610
67201.000			-68.492			-7.610
67302.000			-68.489			-7.610
67400.000			-68.487			-7.610
67500.000			-68.482			-7.609
67601.000			-68.479			-7.609
67700.000			-68.478			-7.609
67800.000			-68.477			-7.609
67901.000			-68.474			-7.608
68001.000			-68.472			-7.608
68101.000			-68.471			-7.608
68202.000			-68.466			-7.607
68300.000			-68.464			-7.607
68400.000			-68.462			-7.607
68501.000			-68.460			-7.607
68600.000			-68.457			-7.606
68700.000			-68.456			-7.606
68801.000			-68.454			-7.606
68901.000			-68.451			-7.606
69001.000			-68.448			-7.605
69101.000			-68.445			-7.605
69200.000			-68.443			-7.605
69300.000			-68.441			-7.605
69401.000			-68.439			-7.604
69500.000			-68.437			-7.604
69600.000			-68.435			-7.604
69702.000			-68.431			-7.603
69801.000			-68.429			-7.603
69901.000			-68.427			-7.603
70001.000			-68.425			-7.603
70100.000			-68.423			-7.603
70200.000			-68.421			-7.602
70301.000			-68.419			-7.602
70400.000			-68.414			-7.602
70500.000			-68.411			-7.601
70602.000			-68.410			-7.601
70701.000			-68.408			-7.601
70801.000			-68.405			-7.601
70900.000			-68.403			-7.600
71000.000			-68.402			-7.600
71101.000			-68.400			-7.600
71200.000			-68.396			-7.600
71300.000			-68.395			-7.599
71402.000			-68.392			-7.599
71501.000			-68.390			-7.599
71600.000			-68.389			-7.599
71701.000			-68.386			-7.598
71800.000			-68.384			-7.598
71900.000			-68.380			-7.598
72001.000			-68.378			-7.598
72100.000			-68.377			-7.597
72200.000			-68.374			-7.597
72302.000			-68.372			-7.597
72401.000			-68.370			-7.597
72500.000			-68.368			-7.596
72601.000			-68.364			-7.596
72700.000			-68.362			-7.596
72800.000			-68.360			-7.596
72901.000			-68.358			-7.595
73000.000			-68.356			-7.595
73101.000			-68.353			-7.595
73202.000			-68.351			-7.595
73300.000			-68.349			-7.594
73400.000			-68.346			-7.594
73501.000			-68.343			-7.594
73600.000			-68.342			-7.594
73700.000			-68.341			-7.593
73800.000			-68.338			-7.593
73900.000			-68.336			-7.593
74002.000			-68.335			-7.593
74101.000			-68.332			-7.592
74200.000			-68.329			-7.592
74301.000			-68.326			-7.592
74400.000			-68.325			-7.592
74500.000			-68.322			-7.591
74601.000			-68.320			-7.591
74700.000			-68.318			-7.591
74801.000			-68.316			-7.591
74902.000			-68.314			-7.590
75000.000			-68.311			-7.590
75100.000			-68.309			-7.590
75201.000			-68.306			-7.590
75300.000			-68.304			-7.589
75400.000			-68.302			-7.589
75501.000			-68.301			-7.589
75601.000			-68.298			-7.589
75701.000			-68.296			-7.588
75801.000			-68.294			-7.588
75900.000			-68.292			-7.588
76000.000			-68.290			-7.588
76101.000			-68.288			-7.588
76200.000			-68.287			-7.587
76300.000			-68.283			-7.587
76402.000			-68.280			-7.587
76501.000			-68.279			-7.587
76600.000			-68.278			-7.586
76701.000			-68.276			-7.586
76800.000			-68.273			-7.586
76900.000			-68.271			-7.586
77000.000			-68.270			-7.586
77100.000			-68.267			-7.585
77201.000			-68.264			-7.585
77301.000			-68.263			-7.585
77401.000			-68.261			-7.585
77501.000			-68.258			-7.584
77600.000			-68.256			-7.584
77700.000			-68.255			-7.584
77801.000			-68.252			-7.584
77900.000			-68.250			-7.583
78000.000			-68.248			-7.583
78102.000			-68.246			-7.583
78201.000			-68.245			-7.583
78300.000			-68.243			-7.583
78401.000			-68.240			-7.582
78500.000			-68.238			-7.582
78600.000			-68.235			-7.582
78701.000			-68.234			-7.582
78800.000			-68.232			-7.581
78900.000			-68.230			-7.581
79002.000			-68.229			-7.581
79101.000			-68.226			-7.581
79200.000			-68.222			-7.580
79301.000			-68.221			-7.580
79400.000			-68.219			-7.580
79500.000			-68.217			-7.580
79601.000			-68.215			-7.579
79700.000			-68.213			-7.579
79801.000			-68.211			-7.579
79902.000			-68.210			-7.579
80000.000			-68.207			-7.579
80100.000			-68.205			-7.578
80200.000			-68.203			-7.578
80300.000			-68.201			-7.578
80401.000			-68.199			-7.578
80500.000			-68.196			-7.577
80601.000			-68.195			-7.577
80702.000			-68.192			-7.577
80800.000			-68.191			-7.577
80900.000			-68.189			-7.577
81001.000			-68.187			-7.576
81100.000			-68.185			-7.576
81200.000			-68.184			-7.576
81301.000			-68.181			-7.576
81401.000			-68.178			-7.575
81501.000			-68.176			-7.575
81602.000			-68.175			-7.575
81700.000			-68.173			-7.575
81800.000			-68.172			-7.575
81901.000			-68.170			-7.574
82000.000			-68.167			-7.574
82100.000			-68.165			-7.574
82201.000			-68.163			-7.574
82301.000			-68.161			-7.573
82401.000			-68.158			-7.573
82501.000			-68.157			-7.573
82600.000			-68.155			-7.573
82700.000			-68.154			-7.573
82801.000			-68.152			-7.572
82900.000			-68.147			-7.572
83000.000			-68.148			-7.572
83102.000			-68.146			-7.572
83201.000			-68.143			-7.571
83300.000			-68.141			-7.571
83400.000			-68.139			-7.571
83500.000			-68.138			-7.571
83601.000			-68.135			-7.571
83700.000			-68.132			-7.570
83800.000			-68.131			-7.570
83901.000			-68.130			-7.570
84001.000			-68.129			-7.570
84101.000			-68.127			-7.570
84201.000			-68.125			-7.569
84300.000			-68.122			-7.569
84400.000			-68.119			-7.569
84501.000			-68.117			-7.569
84600.000			-68.116			-7.568
84700.000			-68.114			-7.568
84802.000			-68.112			-7.568
84901.000			-68.111			-7.568
85000.000			-68.110			-7.568
85101.000			-68.107			-7.567
85200.000			-68.104			-7.567
85300.000			-68.101			-7.567
85401.000			-68.100			-7.567
85500.000			-68.098			-7.566
85601.000			-68.097			-7.566
85702.000			-68.096			-7.566
85800.000			-68.092			-7.566
85900.000			-68.090			-7.566
86001.000			-68.088			-7.565
86100.000			-68.087			-7.565
86200.000			-68.084			-7.565
86301.000			-68.083			-7.565
86400.000			-68.083			-7.565
86502.000			-68.079			-7.564
86601.000			-68.078			-7.564
86700.000			-68.076			-7.564
86801.000			-68.074			-7.564
86900.000			-68.072			-7.564
87000.000			-68.072			-7.564
87101.000			-68.070			-7.563
87200.000			-68.068			-7.563
87301.000			-68.064			-7.563
87402.000			-68.062			-7.562
87500.000			-68.062			-7.562
87600.000			-68.060			-7.562
87701.000			-68.057			-7.562
87800.000			-68.055			-7.562
87900.000			-68.054			-7.562
88001.000			-68.051			-7.561
88101.000			-68.050			-7.561
88201.000			-68.048			-7.561
88302.000			-68.047			-7.561
88400.000			-68.044			-7.560
88500.000			-68.042			-7.560
88601.000			-68.041			-7.560
88700.000			-68.039			-7.560
88800.000			-68.037			-7.560
88901.000			-68.036			-7.560
89001.000			-68.034			-7.559
89101.000			-68.031			-7.559
89201.000			-68.029			-7.559
89300.000			-68.028			-7.559
89400.000			-68.027			-7.559
89501.000			-68.024			-7.558
89600.000			-68.021			-7.558
89700.000			-68.019			-7.558
89802.000			-68.017			-7.557
89901.000			-68.016			-7.557
90002.000			-68.015			-7.557
90100.000			-68.014			-7.557
90200.000			-68.010			-7.557
90301.000			-68.009			-7.557
90400.000			-68.006			-7.556
90500.000			-68.005			-7.556
90602.000			-68.004			-7.556
90701.000			-68.003			-7.556
90801.000			-68.002			-7.556
90901.000			-67.999			-7.555
91000.000			-67.997			-7.555
91100.000			-67.996			-7.555
91201.000			-67.994			-7.555
91300.000			-67.992			-7.555
91400.000			-67.990			-7.554
91502.000			-67.990			-7.554
91601.000			-67.988			-7.554
91700.000			-67.985			-7.554
91801.000			-67.983			-7.554
91900.000			-67.981			-7.553
92000.000			-67.980			-7.553
92101.000			-67.979			-7.553
92200.000			-67.978			-7.553
92300.000			-67.976			-7.553
92402.000			-67.972			-7.552
92501.000			-67.970			-7.552
92600.000			-67.969			-7.552
92701.000			-67.968			-7.552
92800.000			-67.967			-7.552
92900.000			-67.965			-7.552
93000.000			-67.963			-7.551
93100.000			-67.960			-7.551
93202.000			-67.958			-7.551
93301.000			-67.957			-7.551
93401.000			-67.955			-7.551
93501.000			-67.954			-7.550
93600.000			-67.952			-7.550
93700.000			-67.950			-7.550
93801.000			-67.949			-7.550
93900.000			-67.946			-7.550
94000.000			-67.944			-7.549
94102.000			-67.943			-7.549
94201.000			-67.941			-7.549
94300.000			-67.940			-7.549
94401.000			-67.938			-7.549
94500.000			-67.936			-7.548
94600.000			-67.934			-7.548
94701.000			-67.933			-7.548
94800.000			-67.931			-7.548
94900.000			-67.929			-7.548
95002.000			-67.927			-7.547
95101.000			-67.926			-7.547
95200.000			-67.924			-7.547
95301.000			-67.922			-7.547
95400.000			-67.920			-7.547
95500.000			-67.919			-7.547
95601.000			-67.917			-7.546
95700.000			-67.915			-7.546
95801.000			-67.914			-7.546
95902.000			-67.912			-7.546
96001.000			-67.910			-7.546
96100.000			-67.906			-7.545
96200.000			-67.906			-7.545
96300.000			-67.904			-7.545
96401.000			-67.903			-7.545
96500.000			-67.903			-7.545
96600.000			-67.901			-7.545
96702.000			-67.899			-7.544
96801.000			-67.896			-7.544
96900.000			-67.895			-7.544
97001.000			-67.893			-7.544
97100.000			-67.891			-7.543
97200.000			-67.890			-7.543
97301.000			-67.889			-7.543
97400.000			-67.888			-7.543
97500.000			-67.884			-7.543
97602.000			-67.883			-7.543
97701.000			-67.881			-7.542
97800.000			-67.880			-7.542
97901.000			-67.878			-7.542
98000.000			-67.877			-7.542
98100.000			-67.876			-7.542
98201.000			-67.874			-7.542
98300.000			-67.871			-7.541
98400.000			-67.869			-7.541
98502.000			-67.867			-7.541
98601.000			-67.866			-7.541
98700.000			-67.865			-7.541
98801.000			-67.863			-7.540
98900.000			-67.861			-7.540
99000.000			-67.859			-7.540
99101.000			-67.857			-7.540
99200.000			-67.854			-7.539
99302.000			-67.855			-7.539
99401.000			-67.855			-7.539
99501.000			-67.853			-7.539
99601.000			-67.851			-7.539
99700.000			-67.848			-7.539
99800.000			-67.847			-7.539
99901.000			-67.845			-7.538
100000.000			-67.844			-7.538
100100.000			-67.842			-7.538
100202.000			-67.841			-7.538
100301.000			-67.839			-7.538
100401.000			-67.837			-7.537
100501.000			-67.835			-7.537
100600.000			-67.833			-7.537
100700.000			-67.832			-7.537
100801.000			-67.830			-7.537
100900.000			-67.829			-7.537
101000.000			-67.828			-7.536
101102.000			-67.826			-7.536
101201.000			-67.824			-7.536
101300.000			-67.822			-7.536
101401.000			-67.821			-7.536
101500.000			-67.819			-7.535
101600.000			-67.818			-7.535
101701.000			-67.817			-7.535
101800.000			-67.815			-7.535
101900.000			-67.812			-7.535
102002.000			-67.810			-7.534
102101.000			-67.809			-7.534
102200.000			-67.807			-7.534
102301.000			-67.806			-7.534
102400.000			-67.806			-7.534
102500.000			-67.804			-7.534
102600.000			-67.803			-7.534
102700.000			-67.801			-7.533
102802.000			-67.798			-7.533
102901.000			-67.796			-7.533
103000.000			-67.795			-7.533
103101.000			-67.793			-7.533
103200.000			-67.793			-7.533
103300.000			-67.792			-7.532
103401.000			-67.788			-7.532
103500.000			-67.786			-7.532
103600.000			-67.786			-7.532
103702.000			-67.784			-7.532
103801.000			-67.782			-7.531
103900.000			-67.781			-7.531
104001.000			-67.781			-7.531
104100.000			-67.777			-7.531
104200.000			-67.775			-7.531
104301.000			-67.773			-7.530
104400.000			-67.772			-7.530
104500.000			-67.772			-7.530
104602.000			-67.771			-7.530
104701.000			-67.769			-7.530
104800.000			-67.767			-7.530
104901.000			-67.766			-7.530
105000.000			-67.764			-7.529
105100.000			-67.762			-7.529
105201.000			-67.761			-7.529
105300.000			-67.760			-7.529
105400.000			-67.759			-7.529
105502.000			-67.757			-7.529
105601.000			-67.753			-7.528
105700.000			-67.752			-7.528
105800.000			-67.750			-7.528
105900.000			-67.749			-7.528
106001.000			-67.749			-7.528
106100.000			-67.748			-7.528
106200.000			-67.747			-7.527
106302.000			-67.743			-7.527
106401.000			-67.741			-7.527
106501.000			-67.740			-7.527
106601.000			-67.739			-7.527
106700.000			-67.737			-7.526
106800.000			-67.736			-7.526
106901.000			-67.735			-7.526
107000.000			-67.731			-7.526
107100.000			-67.730			-7.526
107202.000			-67.729			-7.525
107301.000			-67.728			-7.525
107400.000			-67.726			-7.525
107501.000			-67.724			-7.525
107600.000			-67.723			-7.525
107700.000			-67.721			-7.525
107801.000			-67.720			-7.524
107900.000			-67.719			-7.524
108000.000			-67.718			-7.524
108102.000			-67.716			-7.524
108201.000			-67.714			-7.524
108300.000			-67.713			-7.524
108401.000			-67.712			-7.524
108500.000			-67.709			-7.523
108600.000			-67.708			-7.523
108701.000			-67.707			-7.523
108800.000			-67.706			-7.523
108900.000			-67.704			-7.523
109002.000			-67.702			-7.522
109101.000			-67.701			-7.522
109201.000			-67.698			-7.522
109300.000			-67.698			-7.522
109400.000			-67.696			-7.522
109501.000			-67.695			-7.522
109600.000			-67.694			-7.522
109700.000			-67.693			-7.521
109801.000			-67.691			-7.521
109901.000			-67.689			-7.521
110001.000			-67.686			-7.521
110101.000			-67.685			-7.521
110200.000			-67.684			-7.520
110300.000			-67.683			-7.520
110401.000			-67.681			-7.520
110500.000			-67.680			-7.520
110600.000			-67.680			-7.520
110702.000			-67.676			-7.520
110801.000			-67.674			-7.519
110901.000			-67.673			-7.519
111001.000			-67.672			-7.519
111100.000			-67.671			-7.519
111200.000			-67.670			-7.519
111301.000			-67.670			-7.519
111400.000			-67.666			-7.518
111500.000			-67.666			-7.518
111602.000			-67.664			-7.518
111701.000			-67.662			-7.518
111801.000			-67.660			-7.518
111901.000			-67.660			-7.518
112000.000			-67.658			-7.518
112100.000			-67.657			-7.517
112200.000			-67.654			-7.517
112300.000			-67.653			-7.517
112401.000			-67.652			-7.517
112501.000			-67.650			-7.517
112601.000			-67.650			-7.517
112701.000			-67.649			-7.517
112800.000			-67.647			-7.516
112900.000			-67.644			-7.516
113001.000			-67.643			-7.516
113100.000			-67.641			-7.516
113200.000			-67.640			-7.516
113301.000			-67.640			-7.516
113401.000			-67.639			-7.515
113501.000			-67.636			-7.515
113601.000			-67.634			-7.515
113700.000			-67.634			-7.515
113800.000			-67.633			-7.515
113901.000			-67.632			-7.515
114000.000			-67.630			-7.514
114100.000			-67.627			-7.514
114202.000			-67.626			-7.514
114301.000			-67.626			-7.514
114400.000			-67.622			-7.514
114501.000			-67.621			-7.513
114600.000			-67.621			-7.513
114700.000			-67.619			-7.513
114801.000			-67.618			-7.513
114900.000			-67.616			-7.513
115000.000			-67.616			-7.513
115102.000			-67.613			-7.513
115201.000			-67.612			-7.512
115300.000			-67.611			-7.512
115400.000			-67.609			-7.512
115500.000			-67.607			-7.512
115601.000			-67.607			-7.512
115700.000			-67.605			-7.512
115800.000			-67.603			-7.511
115902.000			-67.602			-7.511
116001.000			-67.601			-7.511
116100.000			-67.599			-7.511
116201.000			-67.599			-7.511
116300.000			-67.597			-7.511
116400.000			-67.595			-7.511
116501.000			-67.593			-7.510
116600.000			-67.591			-7.510
116700.000			-67.590			-7.510
116802.000			-67.589			-7.510
116901.000			-67.587			-7.510
117001.000			-67.586			-7.510
117101.000			-67.585			-7.509
117200.000			-67.584			-7.509
117300.000			-67.581			-7.509
117401.000			-67.580			-7.509
117500.000			-67.579			-7.509
117600.000			-67.578			-7.509
117702.000			-67.577			-7.509
117801.000			-67.575			-7.508
117900.000			-67.574			-7.508
118001.000			-67.573			-7.508
118100.000			-67.571			-7.508
118200.000			-67.569			-7.508
118301.000			-67.569			-7.508
118400.000			-67.568			-7.508
118500.000			-67.566			-7.507
118602.000			-67.564			-7.507
118701.000			-67.562			-7.507
118801.000			-67.561			-7.507
118900.000			-67.560			-7.507
119000.000			-67.559			-7.507
119101.000			-67.558			-7.506
119200.000			-67.556			-7.506
119300.000			-67.555			-7.506
119401.000			-67.554			-7.506
119501.000			-67.552			-7.506
119601.000			-67.550			-7.506
119701.000			-67.548			-7.505
119800.000			-67.547			-7.505
119900.000			-67.546			-7.505
120001.000			-67.544			-7.505
120100.000			-67.543			-7.505
120200.000			-67.543			-7.505
120301.000			-67.541			-7.505
120401.000			-67.539			-7.504
120501.000			-67.538			-7.504
120601.000			-67.537			-7.504
120700.000			-67.536			-7.504
120800.000			-67.535			-7.504
120901.000			-67.533			-7.504
121000.000			-67.532			-7.504
121100.000			-67.531			-7.503
121202.000			-67.530			-7.503
121301.000			-67.528			-7.503
121401.000			-67.528			-7.503
121501.000			-67.526			-7.503
121600.000			-67.524			-7.503
121700.000			-67.523			-7.503
121800.000			-67.522			-7.502
121900.000			-67.520			-7.502
122001.000			-67.519			-7.502
122101.000			-67.518			-7.502
122201.000			-67.516			-7.502
122301.000			-67.515			-7.502
122400.000			-67.514			-7.502
122500.000			-67.511			-7.501
122601.000			-67.510			-7.501
122700.000			-67.509			-7.501
122800.000			-67.508			-7.501
122902.000			-67.506			-7.501
123001.000			-67.506			-7.501
123100.000			-67.503			-7.500
123201.000			-67.502			-7.500
123300.000			-67.501			-7.500
123400.000			-67.501			-7.500
123501.000			-67.499			-7.500
123600.000			-67.497			-7.500
123700.000			-67.496			-7.500
123802.000			-67.495			-7.499
123901.000			-67.493			-7.499
124000.000			-67.492			-7.499
124101.000			-67.491			-7.499
124200.000			-67.488			-7.499
124300.000			-67.487			-7.499
124401.000			-67.487			-7.499
124500.000			-67.486			-7.498
124600.000			-67.484			-7.498
124702.000			-67.482			-7.498
124801.000			-67.481			-7.498
124900.000			-67.480			-7.498
125000.000			-67.478			-7.498
125100.000			-67.477			-7.497
125201.000			-67.476			-7.497
125300.000			-67.475			-7.497
125400.000			-67.473			-7.497
125501.000			-67.472			-7.497
125601.000			-67.470			-7.497
125701.000			-67.469			-7.497
125801.000			-67.468			-7.496
125900.000			-67.466			-7.496
126000.000			-67.465			-7.496
126101.000			-67.462			-7.496
126200.000			-67.462			-7.496
126300.000			-67.462			-7.496
126402.000			-67.460			-7.496
126501.000			-67.458			-7.495
126601.000			-67.457			-7.495
126701.000			-67.457			-7.495
126800.000			-67.455			-7.495
126900.000			-67.453			-7.495
127001.000			-67.452			-7.495
127100.000			-67.451			-7.495
127200.000			-67.450			-7.494
127302.000			-67.449			-7.494
127401.000			-67.447			-7.494
127501.000			-67.446			-7.494
127601.000			-67.445			-7.494
127700.000			-67.443			-7.494
127800.000			-67.442			-7.494
127901.000			-67.440			-7.493
128000.000			-67.440			-7.493
128100.000			-67.438			-7.493
128202.000			-67.436			-7.493
128301.000			-67.436			-7.493
128402.000			-67.434			-7.493
128500.000			-67.433			-7.493
128600.000			-67.432			-7.492
128701.000			-67.430			-7.492
128800.000			-67.429			-7.492
128900.000			-67.428			-7.492
129001.000			-67.427			-7.492
129101.000			-67.425			-7.492
129201.000			-67.424			-7.492
129301.000			-67.422			-7.491
129400.000			-67.421			-7.491
129500.000			-67.420			-7.491
129601.000			-67.419			-7.491
129700.000			-67.417			-7.491
129800.000			-67.416			-7.491
129901.000			-67.415			-7.491
130001.000			-67.414			-7.490
130101.000			-67.414			-7.490
130201.000			-67.413			-7.490
130300.000			-67.411			-7.490
130400.000			-67.409			-7.490
130501.000			-67.406			-7.490
130600.000			-67.406			-7.490
130700.000			-67.405			-7.489
130802.000			-67.404			-7.489
130901.000			-67.402			-7.489
131000.000			-67.402			-7.489
131101.000			-67.401			-7.489
131200.000			-67.398			-7.489
131300.000			-67.399			-7.489
131400.000			-67.397			-7.489
131500.000			-67.395			-7.488
131601.000			-67.393			-7.488
131701.000			-67.392			-7.488
131801.000			-67.391			-7.488
131902.000			-67.390			-7.488
132000.000			-67.387			-7.487
132100.000			-67.386			-7.487
132201.000			-67.385			-7.487
132300.000			-67.384			-7.487
132400.000			-67.384			-7.487
132501.000			-67.383			-7.487
132600.000			-67.382			-7.487
132701.000			-67.380			-7.487
132802.000			-67.376			-7.486
132900.000			-67.376			-7.486
133000.000			-67.375			-7.486
133101.000			-67.375			-7.486
133200.000			-67.373			-7.486
133300.000			-67.372			-7.486
133401.000			-67.370			-7.486
133500.000			-67.370			-7.486
133601.000			-67.369			-7.485
133702.000			-67.367			-7.485
133801.000			-67.367			-7.485
133900.000			-67.367			-7.485
134001.000			-67.365			-7.485
134100.000			-67.362			-7.485
134200.000			-67.360			-7.484
134301.000			-67.360			-7.484
134400.000			-67.359			-7.484
134500.000			-67.358			-7.484
134602.000			-67.357			-7.484
134701.000			-67.356			-7.484
134801.000			-67.354			-7.484
134900.000			-67.353			-7.484
135000.000			-67.351			-7.483
135101.000			-67.350			-7.483
135200.000			-67.349			-7.483
135300.000			-67.349			-7.483
135401.000			-67.348			-7.483
135501.000			-67.346			-7.483
135601.000			-67.345			-7.483
135702.000			-67.344			-7.483
135800.000			-67.342			-7.482
135900.000			-67.341			-7.482
136001.000			-67.340			-7.482
136100.000			-67.338			-7.482
136200.000			-67.336			-7.482
136301.000			-67.335			-7.482
136400.000			-67.335			-7.482
136501.000			-67.335			-7.482
136602.000			-67.332			-7.481
136700.000			-67.331			-7.481
136800.000			-67.331			-7.481
136901.000			-67.330			-7.481
137000.000			-67.327			-7.481
137100.000			-67.325			-7.481
137201.000			-67.324			-7.480
137300.000			-67.323			-7.480
137401.000			-67.323			-7.480
137502.000			-67.321			-7.480
137601.000			-67.321			-7.480
137700.000			-67.317			-7.480
137800.000			-67.317			-7.480
137900.000			-67.317			-7.480
138001.000			-67.315			-7.479
138100.000			-67.315			-7.479
138200.000			-67.315			-7.479
138301.000			-67.313			-7.479
138401.000			-67.312			-7.479
138501.000			-67.309			-7.479
138601.000			-67.308			-7.479
138700.000			-67.307			-7.479
138800.000			-67.306			-7.478
138901.000			-67.305			-7.478
139000.000			-67.305			-7.478
139100.000			-67.303			-7.478
139201.000			-67.301			-7.478
139301.000			-67.300			-7.478
139401.000			-67.299			-7.478
139501.000			-67.298			-7.478
139600.000			-67.296			-7.477
139700.000			-67.296			-7.477
139801.000			-67.294			-7.477
139900.000			-67.293			-7.477
140000.000			-67.292			-7.477
140101.000			-67.291			-7.477
140201.000			-67.289			-7.477
140301.000			-67.288			-7.476
140402.000			-67.287			-7.476
140500.000			-67.286			-7.476
140600.000			-67.285			-7.476
140701.000			-67.283			-7.476
140800.000			-67.283			-7.476
140900.000			-67.282			-7.476
141000.000			-67.281			-7.476
141100.000			-67.279			-7.475
141202.000			-67.278			-7.475
141301.000			-67.278			-7.475
141401.000			-67.276			-7.475
141501.000			-67.274			-7.475
141600.000			-67.273			-7.475
141700.000			-67.272			-7.475
141801.000			-67.271			-7.475
141900.000			-67.269			-7.474
142000.000			-67.269			-7.474
142101.000			-67.268			-7.474
142201.000			-67.267			-7.474
142301.000			-67.266			-7.474
142401.000			-67.265			-7.474
142500.000			-67.264			-7.474
142600.000			-67.262			-7.474
142701.000			-67.262			-7.474
142800.000			-67.261			-7.473
142900.000			-67.259			-7.473
143001.000			-67.257			-7.473
143101.000			-67.256			-7.473
143201.000			-67.255			-7.473
143301.000			-67.254			-7.473
143400.000			-67.253			-7.473
143500.000			-67.252			-7.472
143601.000			-67.249			-7.472
143700.000			-67.248			-7.472
143800.000			-67.246			-7.472
143901.000			-67.246			-7.472
144001.000			-67.246			-7.472
144102.000			-67.245			-7.472
144200.000			-67.244			-7.472
144300.000			-67.242			-7.471
144401.000			-67.241			-7.471
144500.000			-67.240			-7.471
144600.000			-67.239			-7.471
144701.000			-67.238			-7.471
144800.000			-67.237			-7.471
144901.000			-67.237			-7.471
145002.000			-67.234			-7.470
145101.000			-67.234			-7.470
145200.000			-67.233			-7.470
145301.000			-67.231			-7.470
145400.000			-67.231			-7.470
145500.000			-67.229			-7.470
145601.000			-67.229			-7.470
145700.000			-67.227			-7.470
145800.000			-67.225			-7.469
145902.000			-67.224			-7.469
146001.000			-67.223			-7.469
146100.000			-67.222			-7.469
146201.000			-67.220			-7.469
146300.000			-67.220			-7.469
146400.000			-67.219			-7.469
146501.000			-67.217			-7.469
146600.000			-67.216			-7.468
146700.000			-67.214			-7.468
146802.000			-67.213			-7.468
146901.000			-67.212			-7.468
147000.000			-67.211			-7.468
147101.000			-67.211			-7.468
147200.000			-67.210			-7.468
147300.000			-67.209			-7.468
147400.000			-67.207			-7.467
147500.000			-67.206			-7.467
147601.000			-67.206			-7.467
147701.000			-67.205			-7.467
147801.000			-67.204			-7.467
147902.000			-67.203			-7.467
148000.000			-67.199			-7.467
148100.000			-67.199			-7.467
148201.000			-67.199			-7.467
148300.000			-67.198			-7.466
148400.000			-67.197			-7.466
148501.000			-67.196			-7.466
148600.000			-67.194			-7.466
148701.000			-67.194			-7.466
148802.000			-67.191			-7.466
148901.000			-67.189			-7.465
149000.000			-67.189			-7.465
149101.000			-67.188			-7.465
149200.000			-67.187			-7.465
149300.000			-67.186			-7.465
149401.000			-67.185			-7.465
149500.000			-67.183			-7.465
149600.000			-67.183			-7.465
149702.000			-67.181			-7.465
149801.000			-67.180			-7.464
149901.000			-67.180			-7.464
150001.000			-67.178			-7.464
150100.000			-67.176			-7.464
150200.000			-67.175			-7.464
150301.000			-67.174			-7.464
150400.000			-67.174			-7.464
150500.000			-67.173			-7.464
150600.000			-67.172			-7.464
150701.000			-67.172			-7.464
150802.000			-67.170			-7.463
150900.000			-67.168			-7.463
151000.000			-67.167			-7.463
151101.000			-67.165			-7.463
151200.000			-67.164			-7.463
151300.000			-67.165			-7.463
151401.000			-67.164			-7.463
151500.000			-67.162			-7.462
151601.000			-67.160			-7.462
151702.000			-67.160			-7.462
151801.000			-67.159			-7.462
151900.000			-67.158			-7.462
152001.000			-67.157			-7.462
152100.000			-67.155			-7.462
152200.000			-67.155			-7.462
152301.000			15.431			1.715
152477.000			-67.150			-7.461
152565.000			-67.149			-7.461
152653.000			-67.150			-7.461
152740.000			-67.149			-7.461
152828.000			-67.148			-7.461
152916.000			-67.147			-7.461
153004.000			-67.146			-7.461
153100.000			-67.144			-7.460
153201.000			-67.144			-7.460
153300.000			-67.143			-7.460
153401.000			-67.142			-7.460
153502.000			-67.141			-7.460
153601.000			-67.139			-7.460
153700.000			-67.138			-7.460
153800.000			-67.136			-7.460
153900.000			-67.136			-7.460
154001.000			-67.135			-7.459
154100.000			-67.135			-7.459
154200.000			-67.133			-7.459
154301.000			-67.132			-7.459
154401.000			-67.130			-7.459
154501.000			-67.130			-7.459
154601.000			-67.128			-7.459
154700.000			-67.127			-7.459
154800.000			-67.126			-7.458
154901.000			-67.125			-7.458
155000.000			-67.124			-7.458
155100.000			-67.122			-7.458
155201.000			-67.123			-7.458
155301.000			-67.121			-7.458
155401.000			-67.120			-7.458
155501.000			-67.118			-7.458
155600.000			-67.117			-7.457
155700.000			-67.117			-7.457
155801.000			-67.116			-7.457
155900.000			-67.115			-7.457
156000.000			-67.113			-7.457
156101.000			-67.111			-7.457
156201.000			-67.110			-7.457
156301.000			-67.110			-7.457
156402.000			-67.108			-7.456
156500.000			-67.108			-7.456
156600.000			-67.108			-7.456
156701.000			-67.106			-7.456
156800.000			-67.105			-7.456
156900.000			-67.104			-7.456
157000.000			-67.103			-7.456
157100.000			-67.102			-7.456
157202.000			-67.102			-7.456
157301.000			-67.100			-7.456
157400.000			-67.099			-7.455
157501.000			-67.098			-7.455
157600.000			-67.097			-7.455
157700.000			-67.095			-7.455
157801.000			-67.093			-7.455
157900.000			-67.093			-7.455
158000.000			-67.092			-7.455
158102.000			-67.091			-7.455
158201.000			-67.090			-7.454
158301.000			-67.089			-7.454
158401.000			-67.088			-7.454
158500.000			-67.087			-7.454
158600.000			-67.086			-7.454
158701.000			-67.085			-7.454
158800.000			-67.084			-7.454
158900.000			-67.082			-7.454
159001.000			-67.081			-7.453
159101.000			-67.081			-7.453
159201.000			-67.080			-7.453
159301.000			-67.079			-7.453
159400.000			-67.079			-7.453
159500.000			-67.077			-7.453
159601.000			-67.076			-7.453
159700.000			-67.075			-7.453
159800.000			-67.073			-7.453
159901.000			-67.072			-7.452
160001.000			-67.072			-7.452
160102.000			-67.071			-7.452
160201.000			-67.071			-7.452
160300.000			-67.069			-7.452
160401.000			-67.068			-7.452
160500.000			-67.067			-7.452
160600.000			-67.066			-7.452
160701.000			-67.065			-7.452
160800.000			-67.064			-7.452
160900.000			-67.063			-7.451
161002.000			-67.062			-7.451
161101.000			-67.060			-7.451
161200.000			-67.059			-7.451
161301.000			-67.057			-7.451
161400.000			-67.056			-7.451
161500.000			-67.054			-7.450
161601.000			-67.055			-7.451
161700.000			-67.054			-7.450
161800.000			-67.052			-7.450
161902.000			-67.051			-7.450
162001.000			-67.050			-7.450
162101.000			-67.049			-7.450
162201.000			-67.048			-7.450
162300.000			-67.047			-7.450
162400.000			-67.046			-7.450
162501.000			-67.045			-7.449
162600.000			-67.043			-7.449
162700.000			-67.042			-7.449
162801.000			-67.042			-7.449
162901.000			-67.041			-7.449
163001.000			-67.040			-7.449
163101.000			-67.039			-7.449
163200.000			-67.039			-7.449
163300.000			-67.038			-7.449
163400.000			-67.036			-7.448
163500.000			-67.035			-7.448
163601.000			-67.035			-7.448
163700.000			-67.034			-7.448
163801.000			-67.033			-7.448
163902.000			-67.031			-7.448
164000.000			-67.030			-7.448
164100.000			-67.030			-7.448
164201.000			-67.028			-7.448
164300.000			-67.027			-7.447
164400.000			-67.027			-7.447
164501.000			-67.026			-7.447
164600.000			-67.025			-7.447
164701.000			-67.023			-7.447
164802.000			-67.023			-7.447
164901.000			-67.023			-7.447
165000.000			-67.022			-7.447
165101.000			-67.020			-7.447
165200.000			-67.018			-7.446
165300.000			-67.016			-7.446
165401.000			-67.016			-7.446
165500.000			-67.014			-7.446
165600.000			-67.013			-7.446
165702.000			-67.013			-7.446
165801.000			-67.013			-7.446
165900.000			-67.012			-7.446
166001.000			-67.011			-7.446
166100.000			-67.010			-7.446
166200.000			-67.009			-7.445
166301.000			-67.009			-7.445
166400.000			-67.007			-7.445
166500.000			-67.007			-7.445
166602.000			-67.005			-7.445
166701.000			-67.003			-7.445
166802.000			-67.003			-7.445
166900.000			-67.002			-7.445
167000.000			-67.000			-7.444
167101.000			-67.000			-7.444
167200.000			-66.998			-7.444
167300.000			-66.997			-7.444
167401.000			-66.998			-7.444
167500.000			-66.996			-7.444
167601.000			-66.995			-7.444
167702.000			-66.992			-7.444
167801.000			-66.991			-7.443
167900.000			-66.991			-7.443
168001.000			-66.990			-7.443
168100.000			-66.990			-7.443
168200.000			-66.991			-7.443
168301.000			-66.989			-7.443
168400.000			-66.986			-7.443
168500.000			-66.986			-7.443
168602.000			-66.985			-7.443
168701.000			-66.985			-7.443
168801.000			-66.983			-7.443
168901.000			-66.982			-7.442
169000.000			-66.981			-7.442
169100.000			-66.980			-7.442
169201.000			-66.979			-7.442
169300.000			-66.978			-7.442
169400.000			-66.978			-7.442
169501.000			-66.977			-7.442
169600.000			-66.975			-7.442
169702.000			-66.974			-7.442
169801.000			-66.974			-7.442
169900.000			-66.971			-7.441
170001.000			-66.971			-7.441
170100.000			-66.971			-7.441
170200.000			-66.971			-7.441
170301.000			-66.969			-7.441
170400.000			-66.967			-7.441
170500.000			-66.967			-7.441
170602.000			-66.965			-7.441
170701.000			-66.963			-7.440
170801.000			-66.962			-7.440
170901.000			-66.962			-7.440
171000.000			-66.961			-7.440
171100.000			-66.962			-7.440
171201.000			-66.961			-7.440
171300.000			-66.958			-7.440
171400.000			-66.957			-7.440
171501.000			-66.956			-7.440
171601.000			-66.956			-7.440
171701.000			-66.955			-7.439
171802.000			-66.952			-7.439
171900.000			-66.952			-7.439
172000.000			-66.951			-7.439
172101.000			-66.950			-7.439
172200.000			-66.951			-7.439
172300.000			-66.950			-7.439
172401.000			-66.948			-7.439
172500.000			-66.947			-7.439
172601.000			-66.947			-7.439
172702.000			-66.945			-7.438
172801.000			-66.943			-7.438
172900.000			-66.943			-7.438
173000.000			-66.942			-7.438
173100.000			-66.941			-7.438
173201.000			-66.940			-7.438
173300.000			-66.939			-7.438
173400.000			-66.939			-7.438
173501.000			-66.936			-7.437
173601.000			-66.936			-7.437
173701.000			-66.935			-7.437
173802.000			-66.934			-7.437
173900.000			-66.933			-7.437
174000.000			-66.932			-7.437
174101.000			-66.931			-7.437
174200.000			-66.931			-7.437
174300.000			-66.929			-7.437
174401.000			-66.928			-7.436
174500.000			-66.927			-7.436
174601.000			-66.927			-7.436
174702.000			-66.926			-7.436
174801.000			-66.926			-7.436
174900.000			-66.925			-7.436
175001.000			-66.923			-7.436
175100.000			-66.922			-7.436
175200.000			-66.920			-7.436
175301.000			-66.919			-7.435
175400.000			-66.918			-7.435
175500.000			-66.918			-7.435
175602.000			-66.919			-7.435
175701.000			-66.916			-7.435
175800.000			-66.916			-7.435
175901.000			-66.915			-7.435
176000.000			-66.914			-7.435
176100.000			-66.913			-7.435
176200.000			-66.912			-7.435
176300.000			-66.911			-7.435
176401.000			-66.911			-7.435
176501.000			-66.910			-7.434
176601.000			-66.910			-7.434
176702.000			-66.907			-7.434
176800.000			-66.906			-7.434
176900.000			-66.906			-7.434
177001.000			-66.905			-7.434
177100.000			-66.904			-7.434
177200.000			-66.902			-7.434
177301.000			-66.900			-7.433
177400.000			-66.900			-7.433
177501.000			-66.901			-7.433
177602.000			-66.899			-7.433
177701.000			-66.898			-7.433
177800.000			-66.897			-7.433
177901.000			-66.896			-7.433
178000.000			-66.895			-7.433
178100.000			-66.894			-7.433
178201.000			-66.892			-7.432
178300.000			-66.891			-7.432
178400.000			-66.891			-7.432
178502.000			-66.891			-7.432
178601.000			-66.890			-7.432
178701.000			-66.888			-7.432
178801.000			-66.888			-7.432
178900.000			-66.887			-7.432
179000.000			-66.886			-7.432
179101.000			-66.884			-7.432
179200.000			-66.884			-7.432
179300.000			-66.883			-7.431
179400.000			-66.882			-7.431
179500.000			-66.880			-7.431
179602.000			-66.880			-7.431
179701.000			-66.880			-7.431
179801.000			-66.879			-7.431
179901.000			-66.878			-7.431
180000.000			-66.878			-7.431
180100.000			-66.874			-7.430
180201.000			-66.873			-7.430
180300.000			-66.873			-7.430
180400.000			-66.872			-7.430
180501.000			-66.871			-7.430
180601.000			-66.870			-7.430
180701.000			-66.871			-7.430
180801.000			-66.869			-7.430
180900.000			-66.868			-7.430
181000.000			-66.867			-7.430
181101.000			-66.866			-7.430
181200.000			-66.866			-7.430
181300.000			-66.864			-7.429
181401.000			-66.863			-7.429
181500.000			-66.863			-7.429
181601.000			-66.861			-7.429
181702.000			-66.861			-7.429
181800.000			-66.859			-7.429
181900.000			-66.858			-7.429
182001.000			-66.858			-7.429
182100.000			-66.858			-7.429
182200.000			-66.856			-7.428
182301.000			-66.855			-7.428
182400.000			-66.855			-7.428
182500.000			-66.853			-7.428
182602.000			-66.852			-7.428
182701.000			-66.854			-7.428
182801.000			-66.852			-7.428
182900.000			-66.850			-7.428
183000.000			-66.849			-7.428
183101.000			-66.848			-7.428
183200.000			-66.847			-7.427
183300.000			-66.847			-7.427
183401.000			-66.845			-7.427
183501.000			-66.844			-7.427
183601.000			-66.843			-7.427
183702.000			-66.843			-7.427
183800.000			-66.842			-7.427
183900.000			-66.841			-7.427
184001.000			-66.840			-7.427
184100.000			-66.839			-7.427
184200.000			-66.839			-7.427
184301.000			-66.838			-7.426
184400.000			-66.837			-7.426
184501.000			-66.835			-7.426
184602.000			-66.835			-7.426
184701.000			-66.834			-7.426
184800.000			-66.833			-7.426
184901.000			-66.834			-7.426
185000.000			-66.833			-7.426
185100.000			-66.832			-7.426
185201.000			-66.829			-7.425
185300.000			-66.828			-7.425
185400.000			-66.828			-7.425
185502.000			-66.828			-7.425
185601.000			-66.827			-7.425
185702.000			-66.825			-7.425
185800.000			-66.825			-7.425
185900.000			-66.823			-7.425
186001.000			-66.822			-7.425
186100.000			-66.821			-7.425
186200.000			-66.820			-7.424
186301.000			-66.819			-7.424
186400.000			-66.820			-7.424
186501.000			-66.819			-7.424
186602.000			-66.817			-7.424
186701.000			-66.816			-7.424
186800.000			-66.814			-7.424
186901.000			-66.813			-7.424
187000.000			-66.813			-7.424
187100.000			-66.812			-7.424
187201.000			-66.812			-7.424
187300.000			-66.811			-7.423
187400.000			-66.809			-7.423
187502.000			-66.808			-7.423
187601.000			-66.809			-7.423
187701.000			-66.808			-7.423
187801.000			-66.806			-7.423
187900.000			-66.806			-7.423
188000.000			-66.805			-7.423
188101.000			-66.805			-7.423
188200.000			-66.802			-7.422
188300.000			-66.801			-7.422
188401.000			-66.801			-7.422
188501.000			-66.800			-7.422
188601.000			-66.799			-7.422
188701.000			-66.799			-7.422
188800.000			-66.798			-7.422
188900.000			-66.796			-7.422
189000.000			-66.794			-7.422
189100.000			-66.794			-7.422
189201.000			-66.794			-7.422
189300.000			-66.792			-7.421
189400.000			-66.792			-7.421
189502.000			-66.792			-7.421
189601.000			-66.790			-7.421
189701.000			-66.789			-7.421
189801.000			-66.789			-7.421
189900.000			-66.788			-7.421
190000.000			-66.787			-7.421
190101.000			-66.786			-7.421
190200.000			-66.786			-7.421
190300.000			-66.785			-7.421
190401.000			-66.782			-7.420
190501.000			-66.783			-7.420
190601.000			-66.782			-7.420
190702.000			-66.780			-7.420
190800.000			-66.780			-7.420
190900.000			-66.780			-7.420
191001.000			-66.779			-7.420
191100.000			-66.776			-7.420
191200.000			-66.777			-7.420
191301.000			-66.775			-7.419
191400.000			-66.774			-7.419
191501.000			-66.773			-7.419
191602.000			-66.772			-7.419
191701.000			-66.772			-7.419
191800.000			-66.770			-7.419
191901.000			-66.769			-7.419
192000.000			-66.769			-7.419
192100.000			-66.768			-7.419
192200.000			-66.768			-7.419
192300.000			-66.768			-7.419
192401.000			-66.766			-7.418
192501.000			-66.765			-7.418
192601.000			-66.765			-7.418
192702.000			-66.763			-7.418
192800.000			-66.762			-7.418
192900.000			-66.761			-7.418
193001.000			-66.760			-7.418
193100.000			-66.760			-7.418
193200.000			-66.760			-7.418
193301.000			-66.759			-7.418
193400.000			-66.759			-7.418
193501.000			-66.757			-7.417
193602.000			-66.756			-7.417
193701.000			-66.755			-7.417
193800.000			-66.754			-7.417
193901.000			-66.753			-7.417
194000.000			-66.752			-7.417
194100.000			-66.750			-7.417
194201.000			-66.750			-7.417
194300.000			-66.750			-7.417
194400.000			-66.750			-7.417
194502.000			-66.748			-7.416
194601.000			-66.746			-7.416
194701.000			-66.746			-7.416
194801.000			-66.746			-7.416
194900.000			-66.745			-7.416
195000.000			-66.744			-7.416
195101.000			-66.743			-7.416
195200.000			-66.742			-7.416
195300.000			-66.741			-7.416
195400.000			-66.741			-7.416
195501.000			-66.739			-7.415
195602.000			-66.737			-7.415
195701.000			-66.737			-7.415
195800.000			-66.736			-7.415
195901.000			-66.735			-7.415
196000.000			-66.734			-7.415
196100.000			-66.733			-7.415
196201.000			-66.734			-7.415
196300.000			-66.733			-7.415
196400.000			-66.731			-7.415
196502.000			-66.730			-7.414
196601.000			-66.730			-7.414
196701.000			-66.729			-7.414
196801.000			-66.729			-7.414
196900.000			-66.727			-7.414
197000.000			-66.726			-7.414
197101.000			-66.726			-7.414
197200.000			-66.725			-7.414
197300.000			-66.724			-7.414
197401.000			-66.723			-7.414
197501.000			-66.722			-7.414
197601.000			-66.721			-7.413
197701.000			-66.719			-7.413
197800.000			-66.720			-7.413
197900.000			-66.719			-7.413
198001.000			-66.718			-7.413
198100.000			-66.717			-7.413
198200.000			-66.717			-7.413
198301.000			-66.716			-7.413
198400.000			-66.714			-7.413
198502.000			-66.714			-7.413
198601.000			-66.713			-7.413
198701.000			-66.712			-7.412
198801.000			-66.712			-7.412
198900.000			-66.711			-7.412
199000.000			-66.711			-7.412
199101.000			-66.708			-7.412
199200.000			-66.707			-7.412
199300.000			-66.708			-7.412
199401.000			-66.708			-7.412
199501.000			-66.707			-7.412
199601.000			-66.706			-7.412
199702.000			-66.706			-7.412
199800.000			-66.703			-7.411
199900.000			-66.702			-7.411
200001.000			-66.702			-7.411
200100.000			-66.701			-7.411
200200.000			-66.700			-7.411
200301.000			-66.700			-7.411
200400.000			-66.699			-7.411
200501.000			-66.698			-7.411
200602.000			-66.696			-7.411
200701.000			-66.695			-7.411
200800.000			-66.695			-7.411
200901.000			-66.694			-7.410
201000.000			-66.693			-7.410
201100.000			-66.692			-7.410
201201.000			-66.692			-7.410
201300.000			-66.690			-7.410
201400.000			-66.689			-7.410
201502.000			-66.688			-7.410
201601.000			-66.688			-7.410
201700.000			-66.688			-7.410
201800.000			-66.687			-7.410
201900.000			-66.687			-7.410
202001.000			-66.684			-7.409
202100.000			-66.684			-7.409
202200.000			-66.683			-7.409
202301.000			-66.682			-7.409
202401.000			-66.681			-7.409
202501.000			-66.680			-7.409
202602.000			-66.680			-7.409
202700.000			-66.680			-7.409
202800.000			-66.679			-7.409
202901.000			-66.678			-7.409
203000.000			-66.677			-7.409
203100.000			-66.677			-7.409
203201.000			-66.676			-7.408
203300.000			-66.675			-7.408
203401.000			-66.674			-7.408
203502.000			-66.672			-7.408
203601.000			-66.672			-7.408
203700.000			-66.671			-7.408
203801.000			-66.670			-7.408
203900.000			-66.669			-7.408
204000.000			-66.668			-7.408
204101.000			-66.667			-7.407
204200.000			-66.666			-7.407
204300.000			-66.664			-7.407
204402.000			-66.664			-7.407
204501.000			-66.664			-7.407
204600.000			-66.663			-7.407
204701.000			-66.663			-7.407
204800.000			-66.663			-7.407
204900.000			-66.661			-7.407
205000.000			-66.659			-7.407
205100.000			-66.658			-7.406
205201.000			-66.658			-7.406
205301.000			-66.658			-7.406
205401.000			-66.657			-7.406
205501.000			-66.656			-7.406
205600.000			-66.655			-7.406
205700.000			-66.654			-7.406
205801.000			-66.652			-7.406
205900.000			-66.652			-7.406
206000.000			-66.652			-7.406
206101.000			-66.651			-7.406
206201.000			-66.650			-7.406
206301.000			-66.650			-7.406
206402.000			-66.648			-7.405
206500.000			-66.647			-7.405
206600.000			-66.647			-7.405
206701.000			-66.647			-7.405
206800.000			-66.645			-7.405
206900.000			-66.645			-7.405
207001.000			-66.644			-7.405
207100.000			-66.644			-7.405
207201.000			-66.643			-7.405
207302.000			-66.641			-7.405
207400.000			-66.640			-7.404
207500.000			-66.639			-7.404
207601.000			-66.639			-7.404
207700.000			-66.639			-7.404
207800.000			-66.638			-7.404
207901.000			-66.637			-7.404
208000.000			-66.636			-7.404
208102.000			-66.635			-7.404
208201.000			-66.635			-7.404
208301.000			-66.635			-7.404
208401.000			-66.632			-7.404
208500.000			-66.632			-7.404
208600.000			-66.630			-7.403
208701.000			-66.629			-7.403
208800.000			-66.628			-7.403
208900.000			-66.628			-7.403
209001.000			-66.628			-7.403
209101.000			-66.626			-7.403
209201.000			-66.626			-7.403
209301.000			-66.626			-7.403
209400.000			-66.625			-7.403
209500.000			-66.625			-7.403
209601.000			-66.624			-7.403
209700.000			-66.623			-7.403
209800.000			-66.623			-7.403
209901.000			-66.622			-7.402
210001.000			-66.620			-7.402
210101.000			-66.620			-7.402
210202.000			-66.619			-7.402
210300.000			-66.617			-7.402
210400.000			-66.617			-7.402
210501.000			-66.617			-7.402
210600.000			-66.616			-7.402
210700.000			-66.615			-7.402
210801.000			-66.614			-7.402
210901.000			-66.612			-7.401
211001.000			-66.612			-7.401
211102.000			-66.611			-7.401
211200.000			-66.610			-7.401
211300.000			-66.609			-7.401
211400.000			-66.609			-7.401
211500.000			-66.609			-7.401
211601.000			-66.608			-7.401
211700.000			-66.607			-7.401
211800.000			-66.606			-7.401
211902.000			-66.605			-7.401
212001.000			-66.603			-7.400
212100.000			-66.604			-7.400
212201.000			-66.603			-7.400
212300.000			-66.602			-7.400
212400.000			-66.601			-7.400
212501.000			-66.601			-7.400
212600.000			-66.600			-7.400
212700.000			-66.599			-7.400
212802.000			-66.599			-7.400
212901.000			-66.598			-7.400
213001.000			-66.596			-7.400
213101.000			-66.596			-7.400
213200.000			-66.595			-7.399
213300.000			-66.594			-7.399
213401.000			-66.594			-7.399
213500.000			-66.593			-7.399
213600.000			-66.592			-7.399
213701.000			-66.591			-7.399
213801.000			-66.589			-7.399
213901.000			-66.589			-7.399
214001.000			-66.589			-7.399
214100.000			-66.588			-7.399
214200.000			-66.587			-7.399
214301.000			-66.588			-7.399
214400.000			-66.586			-7.398
214500.000			-66.584			-7.398
214600.000			-66.583			-7.398
214701.000			-66.583			-7.398
214802.000			-66.583			-7.398
214901.000			-66.582			-7.398
215000.000			-66.582			-7.398
215101.000			-66.580			-7.398
215200.000			-66.580			-7.398
215300.000			-66.579			-7.398
215401.000			-66.578			-7.398
215500.000			-66.577			-7.397
215600.000			-66.577			-7.397
215702.000			-66.576			-7.397
215801.000			-66.575			-7.397
215900.000			-66.574			-7.397
216001.000			-66.574			-7.397
216100.000			-66.573			-7.397
216200.000			-66.571			-7.397
216301.000			-66.571			-7.397
216400.000			-66.571			-7.397
216500.000			-66.570			-7.397
216602.000			-66.569			-7.397
216701.000			-66.568			-7.396
216801.000			-66.566			-7.396
216901.000			-66.565			-7.396
217000.000			-66.565			-7.396
217100.000			-66.565			-7.396
217201.000			-66.565			-7.396
217300.000			-66.564			-7.396
217400.000			-66.564			-7.396
217501.000			-66.562			-7.396
217601.000			-66.561			-7.396
217702.000			-66.561			-7.396
217801.000			-66.560			-7.396
217900.000			-66.559			-7.395
218001.000			-66.558			-7.395
218100.000			-66.558			-7.395
218200.000			-66.557			-7.395
218301.000			-66.556			-7.395
218400.000			-66.554			-7.395
218500.000			-66.554			-7.395
218602.000			-66.553			-7.395
218701.000			-66.552			-7.395
218800.000			-66.552			-7.395
218901.000			-66.551			-7.395
219000.000			-66.550			-7.394
219100.000			-66.550			-7.394
219201.000			-66.548			-7.394
219300.000			-66.548			-7.394
219400.000			-66.548			-7.394
219502.000			-66.547			-7.394
219601.000			-66.545			-7.394
219701.000			-66.545			-7.394
219801.000			-66.544			-7.394
219900.000			-66.544			-7.394
220000.000			-66.544			-7.394
220101.000			-66.543			-7.394
220200.000			-66.542			-7.394
220300.000			-66.541			-7.393
220401.000			-66.540			-7.393
220501.000			-66.539			-7.393
220601.000			-66.537			-7.393
220701.000			-66.537			-7.393
220800.000			-66.537			-7.393
220900.000			-66.536			-7.393
221000.000			-66.535			-7.393
221100.000			-66.533			-7.393
221201.000			-66.533			-7.393
221300.000			-66.533			-7.393
221401.000			-66.533			-7.393
221502.000			-66.532			-7.392
221601.000			-66.531			-7.392
221700.000			-66.530			-7.392
221801.000			-66.530			-7.392
221900.000			-66.528			-7.392
222000.000			-66.527			-7.392
222101.000			-66.527			-7.392
222200.000			-66.526			-7.392
222300.000			-66.525			-7.392
222402.000			-66.524			-7.392
222501.000			-66.524			-7.392
222600.000			-66.523			-7.391
222701.000			-66.522			-7.391
222800.000			-66.522			-7.391
222900.000			-66.521			-7.391
223001.000			-66.520			-7.391
223100.000			-66.520			-7.391
223200.000			-66.519			-7.391
223302.000			-66.517			-7.391
223401.000			-66.517			-7.391
223500.000			-66.517			-7.391
223601.000			-66.516			-7.391
223700.000			-66.515			-7.391
223800.000			-66.513			-7.390
223901.000			-66.514			-7.390
224000.000			-66.513			-7.390
224100.000			-66.512			-7.390
224202.000			-66.510			-7.390
224301.000			-66.510			-7.390
224401.000			-66.511			-7.390
224500.000			-66.511			-7.390
224600.000			-66.510			-7.390
224701.000			-66.507			-7.390
224800.000			-66.507			-7.390
224900.000			-66.506			-7.390
225001.000			-66.505			-7.389
225101.000			-66.505			-7.389
225201.000			-66.505			-7.389
225302.000			-66.503			-7.389
225400.000			-66.502			-7.389
225500.000			-66.502			-7.389
225601.000			-66.501			-7.389
225700.000			-66.500			-7.389
225800.000			-66.498			-7.389
225901.000			-66.498			-7.389
226000.000			-66.498			-7.389
226101.000			-66.497			-7.389
226202.000			-66.496			-7.388
226301.000			-66.496			-7.388
226400.000			-66.495			-7.388
226501.000			-66.494			-7.388
226600.000			-66.494			-7.388
226700.000			-66.493			-7.388
226801.000			-66.491			-7.388
226900.000			-66.492			-7.388
227000.000			-66.491			-7.388
227102.000			-66.490			-7.388
227201.000			-66.489			-7.388
227300.000			-66.490			-7.388
227400.000			-66.489			-7.388
227500.000			-66.487			-7.387
227601.000			-66.486			-7.387
227700.000			-66.485			-7.387
227800.000			-66.485			-7.387
227901.000			-66.484			-7.387
228000.000			-66.483			-7.387
228101.000			-66.483			-7.387
228202.000			-66.483			-7.387
228301.000			-66.482			-7.387
228400.000			-66.480			-7.387
228501.000			-66.479			-7.387
228600.000			-66.480			-7.387
228700.000			-66.480			-7.387
228801.000			-66.479			-7.387
228900.000			-66.476			-7.386
229000.000			-66.475			-7.386
229102.000			-66.475			-7.386
229201.000			-66.474			-7.386
229300.000			-66.474			-7.386
229401.000			-66.474			-7.386
229500.000			-66.474			-7.386
229600.000			-66.472			-7.386
229701.000			-66.472			-7.386
229800.000			-66.470			-7.386
229900.000			-66.470			-7.386
230001.000			-66.469			-7.385
230101.000			-66.468			-7.385
230201.000			-66.468			-7.385
230301.000			-66.466			-7.385
230400.000			-66.466			-7.385
230500.000			-66.466			-7.385
230600.000			-66.465			-7.385
230700.000			-66.464			-7.385
230801.000			-66.464			-7.385
230900.000			-66.463			-7.385
231001.000			-66.463			-7.385
231102.000			-66.461			-7.385
231201.000			-66.459			-7.384
231300.000			-66.458			-7.384
231401.000			-66.457			-7.384
231500.000			-66.457			-7.384
231600.000			-66.456			-7.384
231701.000			-66.456			-7.384
231800.000			-66.456			-7.384
231900.000			-66.455			-7.384
232002.000			-66.452			-7.384
232101.000			-66.453			-7.384
232200.000			-66.453			-7.384
232301.000			-66.452			-7.384
232400.000			-66.452			-7.384
232500.000			-66.452			-7.384
232601.000			-66.451			-7.383
232700.000			-66.449			-7.383
232800.000			-66.448			-7.383
232902.000			-66.448			-7.383
233001.000			-66.448			-7.383
233101.000			-66.446			-7.383
233201.000			-66.445			-7.383
233300.000			-66.445			-7.383
233400.000			-66.445			-7.383
233501.000			-66.443			-7.383
233600.000			-66.443			-7.383
233700.000			-66.442			-7.382
233800.000			-66.441			-7.382
233901.000			-66.441			-7.382
234002.000			-66.440			-7.382
234100.000			-66.440			-7.382
234200.000			-66.439			-7.382
234301.000			-66.439			-7.382
234400.000			-66.439			-7.382
234500.000			-66.438			-7.382
234601.000			-66.436			-7.382
234700.000			-66.435			-7.382
234801.000			-66.434			-7.382
234902.000			-66.435			-7.382
235001.000			-66.434			-7.382
235100.000			-66.432			-7.381
235201.000			-66.432			-7.381
235300.000			-66.432			-7.381
235400.000			-66.430			-7.381
235501.000			-66.429			-7.381
235600.000			-66.428			-7.381
235701.000			-66.429			-7.381
235802.000			-66.429			-7.381
235901.000			-66.427			-7.381
236000.000			-66.427			-7.381
236101.000			-66.426			-7.381
236200.000			-66.425			-7.381
236300.000			-66.425			-7.381
236401.000			-66.423			-7.380
236500.000			-66.422			-7.380
236600.000			-66.422			-7.380
236702.000			-66.421			-7.380
236801.000			-66.421			-7.380
236902.000			-66.420			-7.380
237000.000			-66.419			-7.380
237100.000			-66.417			-7.380
237201.000			-66.417			-7.380
237300.000			-66.417			-7.380
237400.000			-66.416			-7.380
237501.000			-66.415			-7.379
237600.000			-66.414			-7.379
237701.000			-66.414			-7.379
237802.000			-66.415			-7.379
237900.000			-66.413			-7.379
238000.000			-66.413			-7.379
238101.000			-66.412			-7.379
238200.000			-66.411			-7.379
238300.000			-66.410			-7.379
238401.000			-66.408			-7.379
238500.000			-66.408			-7.379
238601.000			-66.407			-7.379
238702.000			-66.407			-7.379
238801.000			-66.406			-7.378
238900.000			-66.405			-7.378
239001.000			-66.405			-7.378
239100.000			-66.404			-7.378
239200.000			-66.403			-7.378
239301.000			-66.404			-7.378
239400.000			-66.402			-7.378
239500.000			-66.401			-7.378
239602.000			-66.401			-7.378
239701.000			-66.400			-7.378
239800.000			-66.399			-7.378
239901.000			-66.398			-7.378
240000.000			-66.399			-7.378
240100.000			-66.397			-7.377
240200.000			-66.397			-7.377
240300.000			-66.397			-7.377
240401.000			-66.396			-7.377
240501.000			-66.395			-7.377
240601.000			-66.393			-7.377
240701.000			-66.391			-7.377
240800.000			-66.392			-7.377
240900.000			-66.393			-7.377
241001.000			-66.392			-7.377
241100.000			-66.391			-7.377
241200.000			-66.390			-7.377
241301.000			-66.390			-7.377
241401.000			-66.389			-7.377
241501.000			-66.386			-7.376
241602.000			-66.386			-7.376
241700.000			-66.386			-7.376
241800.000			-66.385			-7.376
241901.000			-66.385			-7.376
242000.000			-66.384			-7.376
242100.000			-66.383			-7.376
242201.000			-66.383			-7.376
242300.000			-66.381			-7.376
242401.000			-66.380			-7.376
242502.000			-66.380			-7.376
242601.000			-66.379			-7.375
242700.000			-66.379			-7.375
242801.000			-66.378			-7.375
242900.000			-66.377			-7.375
243000.000			-66.376			-7.375
243101.000			-66.375			-7.375
243200.000			-66.375			-7.375
243300.000			-66.376			-7.375
243402.000			-66.375			-7.375
243501.000			-66.375			-7.375
243601.000			-66.374			-7.375
243700.000			-66.371			-7.375
243800.000			-66.370			-7.374
243901.000			-66.370			-7.374
244000.000			-66.370			-7.374
244100.000			-66.370			-7.374
244201.000			-66.369			-7.374
244301.000			-66.369			-7.374
244401.000			-66.368			-7.374
244502.000			-66.367			-7.374
244600.000			-66.366			-7.374
244700.000			-66.366			-7.374
244801.000			-66.366			-7.374
244900.000			-66.364			-7.374
245000.000			-66.364			-7.374
245101.000			-66.364			-7.374
245200.000			-66.362			-7.374
245301.000			-66.362			-7.374
245402.000			-66.361			-7.373
245501.000			-66.360			-7.373
245600.000			-66.359			-7.373
245701.000			-66.358			-7.373
245800.000			-66.358			-7.373
245900.000			-66.356			-7.373
246001.000			-66.355			-7.373
246100.000			-66.355			-7.373
246201.000			-66.354			-7.373
246302.000			-66.355			-7.373
246401.000			-66.354			-7.373
246500.000			-66.353			-7.373
246600.000			-66.352			-7.372
246700.000			-66.351			-7.372
246801.000			-66.349			-7.372
246900.000			-66.349			-7.372
247000.000			-66.349			-7.372
247101.000			-66.349			-7.372
247201.000			-66.348			-7.372
247301.000			-66.348			-7.372
247401.000			-66.348			-7.372
247500.000			-66.348			-7.372
247600.000			-66.347			-7.372
247701.000			-66.345			-7.372
247800.000			-66.344			-7.372
247900.000			-66.345			-7.372
248001.000			-66.344			-7.372
248100.000			-66.342			-7.371
248201.000			-66.341			-7.371
248302.000			-66.340			-7.371
248400.000			-66.341			-7.371
248500.000			-66.340			-7.371
248601.000			-66.339			-7.371
248700.000			-66.337			-7.371
248800.000			-66.337			-7.371
248901.000			-66.337			-7.371
249000.000			-66.337			-7.371
249100.000			-66.336			-7.371
249202.000			-66.335			-7.371
249301.000			-66.334			-7.370
249400.000			-66.333			-7.370
249501.000			-66.333			-7.370
249600.000			-66.331			-7.370
249700.000			-66.331			-7.370
249800.000			-66.330			-7.370
249900.000			-66.330			-7.370
250001.000			-66.329			-7.370
250101.000			-66.328			-7.370
250201.000			-66.328			-7.370
250302.000			-66.326			-7.370
250400.000			-66.326			-7.370
250500.000			-66.326			-7.370
250601.000			-66.326			-7.370
250700.000			-66.325			-7.369
250800.000			-66.324			-7.369
250901.000			-66.323			-7.369
251000.000			-66.322			-7.369
251101.000			-66.321			-7.369
251202.000			-66.320			-7.369
251300.000			-66.320			-7.369
251400.000			-66.320			-7.369
251501.000			-66.318			-7.369
251600.000			-66.317			-7.369
251700.000			-66.318			-7.369
251801.000			-66.316			-7.368
251900.000			-66.316			-7.368
252001.000			-66.316			-7.368
252102.000			-66.315			-7.368
252200.000			-66.313			-7.368
252300.000			-66.313			-7.368
252401.000			-66.313			-7.368
252500.000			-66.312			-7.368
252600.000			-66.311			-7.368
252701.000			-66.310			-7.368
252800.000			-66.310			-7.368
252902.000			-66.310			-7.368
253001.000			-66.309			-7.368
253101.000			-66.308			-7.368
253201.000			-66.307			-7.367
253300.000			-66.307			-7.367
253400.000			-66.306			-7.367
253501.000			-66.305			-7.367
253600.000			-66.305			-7.367
253700.000			-66.304			-7.367
253802.000			-66.304			-7.367
253901.000			-66.302			-7.367
254001.000			-66.302			-7.367
254101.000			-66.302			-7.367
254200.000			-66.302			-7.367
254300.000			-66.301			-7.367
254401.000			-66.300			-7.367
254500.000			-66.299			-7.367
254600.000			-66.299			-7.367
254701.000			-66.297			-7.366
254801.000			-66.296			-7.366
254901.000			-66.295			-7.366
255001.000			-66.295			-7.366
255100.000			-66.295			-7.366
255200.000			-66.296			-7.366
255301.000			-66.295			-7.366
255400.000			-66.293			-7.366
255500.000			-66.293			-7.366
255601.000			-66.292			-7.366
255700.000			-66.290			-7.366
255801.000			-66.290			-7.366
255902.000			-66.289			-7.365
256001.000			-66.288			-7.365
256100.000			-66.288			-7.365
256200.000			-66.288			-7.365
256300.000			-66.287			-7.365
256401.000			-66.286			-7.365
256500.000			-66.286			-7.365
256600.000			-66.286			-7.365
256701.000			-66.286			-7.365
256801.000			-66.284			-7.365
256901.000			-66.283			-7.365
257001.000			-66.283			-7.365
257100.000			-66.282			-7.365
257200.000			-66.280			-7.364
257301.000			-66.280			-7.364
257400.000			-66.279			-7.364
257500.000			-66.280			-7.364
257601.000			-66.278			-7.364
257700.000			-66.277			-7.364
257801.000			-66.278			-7.364
257902.000			-66.277			-7.364
258000.000			-66.276			-7.364
258100.000			-66.275			-7.364
258201.000			-66.273			-7.364
258300.000			-66.274			-7.364
258400.000			-66.273			-7.364
258501.000			-66.272			-7.364
258600.000			-66.271			-7.363
258700.000			-66.270			-7.363
258802.000			-66.270			-7.363
258901.000			-66.270			-7.363
259000.000			-66.269			-7.363
259101.000			-66.269			-7.363
259200.000			-66.268			-7.363
259300.000			-66.268			-7.363
259400.000			-66.268			-7.363
259500.000			-66.267			-7.363
259601.000			-66.265			-7.363
259701.000			-66.264			-7.363
259801.000			-66.263			-7.363
259902.000			-66.262			-7.362
260000.000			-66.261			-7.362
260100.000			-66.261			-7.362
260201.000			-66.262			-7.362
260300.000			-66.263			-7.363
260400.000			-66.262			-7.362
260501.000			-66.260			-7.362
260600.000			-66.258			-7.362
260701.000			-66.257			-7.362
260802.000			-66.257			-7.362
260901.000			-66.257			-7.362
261000.000			-66.256			-7.362
261101.000			-66.256			-7.362
261200.000			-66.255			-7.362
261300.000			-66.254			-7.362
261401.000			-66.253			-7.361
261500.000			-66.252			-7.361
261601.000			-66.252			-7.361
261702.000			-66.252			-7.361
261801.000			-66.251			-7.361
261900.000			-66.250			-7.361
262001.000			-66.251			-7.361
262100.000			-66.249			-7.361
262200.000			-66.248			-7.361
262301.000			-66.248			-7.361
262400.000			-66.247			-7.361
262500.000			-66.247			-7.361
262602.000			-66.247			-7.361
262701.000			-66.246			-7.361
262801.000			-66.245			-7.361
262900.000			-66.245			-7.361
263000.000			-66.244			-7.360
263101.000			-66.243			-7.360
263200.000			-66.243			-7.360
263300.000			-66.242			-7.360
263401.000			-66.242			-7.360
263501.000			-66.240			-7.360
263601.000			-66.239			-7.360
263702.000			-66.239			-7.360
263800.000			-66.238			-7.360
263900.000			-66.238			-7.360
264001.000			-66.237			-7.360
264100.000			-66.236			-7.360
264200.000			-66.235			-7.359
264301.000			-66.235			-7.359
264401.000			-66.234			-7.359
264501.000			-66.233			-7.359
264602.000			-66.233			-7.359
264700.000			-66.232			-7.359
264800.000			-66.232			-7.359
264901.000			-66.231			-7.359
265000.000			-66.230			-7.359
265100.000			-66.230			-7.359
265201.000			-66.230			-7.359
265300.000			-66.228			-7.359
265401.000			-66.228			-7.359
265502.000			-66.228			-7.359
265600.000			-66.227			-7.359
265700.000			-66.228			-7.359
265800.000			-66.227			-7.359
265900.000			-66.225			-7.358
266001.000			-66.224			-7.358
266100.000			-66.224			-7.358
266200.000			-66.224			-7.358
266302.000			-66.223			-7.358
266401.000			-66.223			-7.358
266501.000			-66.222			-7.358
266601.000			-66.222			-7.358
266700.000			-66.221			-7.358
266800.000			-66.220			-7.358
266901.000			-66.220			-7.358
267000.000			-66.218			-7.358
267100.000			-66.218			-7.358
267201.000			-66.217			-7.357
267301.000			-66.216			-7.357
267401.000			-66.216			-7.357
267501.000			-66.216			-7.357
267600.000			-66.215			-7.357
267700.000			-66.215			-7.357
267801.000			-66.214			-7.357
267900.000			-66.213			-7.357
268000.000			-66.213			-7.357
268101.000			-66.211			-7.357
268201.000			-66.211			-7.357
268301.000			-66.210			-7.357
268402.000			-66.210			-7.357
268500.000			-66.210			-7.357
268600.000			-66.207			-7.356
268701.000			-66.207			-7.356
268800.000			-66.207			-7.356
268900.000			-66.207			-7.356
269000.000			-66.206			-7.356
269100.000			-66.205			-7.356
269202.000			-66.205			-7.356
269301.000			-66.203			-7.356
269400.000			-66.203			-7.356
269501.000			-66.202			-7.356
269600.000			-66.203			-7.356
269700.000			-66.202			-7.356
269801.000			-66.202			-7.356
269900.000			-66.200			-7.356
270000.000			-66.200			-7.356
270102.000			-66.199			-7.355
270201.000			-66.198			-7.355
270301.000			-66.196			-7.355
270401.000			-66.196			-7.355
270500.000			-66.196			-7.355
270600.000			-66.196			-7.355
270701.000			-66.196			-7.355
270800.000			-66.195			-7.355
270900.000			-66.194			-7.355
271001.000			-66.193			-7.355
271101.000			-66.192			-7.355
271201.000			-66.192			-7.355
271301.000			-66.191			-7.355
271400.000			-66.190			-7.354
271500.000			-66.189			-7.354
271601.000			-66.190			-7.354
271700.000			-66.190			-7.354
271800.000			-66.188			-7.354
271901.000			-66.187			-7.354
272001.000			-66.187			-7.354
272102.000			-66.186			-7.354
272201.000			-66.185			-7.354
272300.000			-66.185			-7.354
272401.000			-66.184			-7.354
272500.000			-66.183			-7.354
272600.000			-66.183			-7.354
272701.000			-66.183			-7.354
272800.000			-66.182			-7.354
272900.000			-66.181			-7.353
273002.000			-66.180			-7.353
273101.000			-66.180			-7.353
273200.000			-66.179			-7.353
273301.000			-66.178			-7.353
273400.000			-66.178			-7.353
273500.000			-66.178			-7.353
273601.000			-66.177			-7.353
273700.000			-66.176			-7.353
273800.000			-66.175			-7.353
273902.000			-66.176			-7.353
274001.000			-66.175			-7.353
274101.000			-66.174			-7.353
274201.000			-66.174			-7.353
274300.000			-66.173			-7.353
274400.000			-66.172			-7.352
274501.000			-66.172			-7.352
274600.000			-66.171			-7.352
274700.000			-66.171			-7.352
274801.000			-66.171			-7.352
274901.000			-66.170			-7.352
275001.000			-66.169			-7.352
275101.000			-66.168			-7.352
275200.000			-66.168			-7.352
275300.000			-66.167			-7.352
275400.000			-66.166			-7.352
275500.000			-66.166			-7.352
275601.000			-66.166			-7.352
275700.000			-66.165			-7.352
275800.000			-66.164			-7.352
275902.000			-66.164			-7.352
276001.000			-66.162			-7.351
276100.000			-66.161			-7.351
276201.000			-66.162			-7.351
276300.000			-66.160			-7.351
276400.000			-66.160			-7.351
276501.000			-66.160			-7.351
276600.000			-66.160			-7.351
276700.000			-66.158			-7.351
276802.000			-66.157			-7.351
276901.000			-66.156			-7.351
277001.000			-66.155			-7.351
277101.000			-66.155			-7.351
277200.000			-66.155			-7.351
277300.000			-66.155			-7.351
277401.000			-66.154			-7.350
277500.000			-66.154			-7.350
277600.000			-66.154			-7.350
277701.000			-66.153			-7.350
277801.000			-66.152			-7.350
277901.000			-66.151			-7.350
278001.000			-66.151			-7.350
278100.000			-66.150			-7.350
278200.000			-66.149			-7.350
278301.000			-66.149			-7.350
278400.000			-66.149			-7.350
278500.000			-66.147			-7.350
278600.000			-66.147			-7.350
278700.000			-66.146			-7.350
278802.000			-66.145			-7.349
278901.000			-66.144			-7.349
279000.000			-66.143			-7.349
279101.000			-66.143			-7.349
279200.000			-66.143			-7.349
279300.000			-66.142			-7.349
279401.000			-66.142			-7.349
279500.000			-66.141			-7.349
279600.000			-66.141			-7.349
279702.000			-66.140			-7.349
279801.000			-66.139			-7.349
279900.000			-66.138			-7.349
280001.000			-66.138			-7.349
280100.000			-66.138			-7.349
280200.000			-66.138			-7.349
280301.000			-66.135			-7.348
280400.000			-66.135			-7.348
280500.000			-66.135			-7.348
280602.000			-66.135			-7.348
280701.000			-66.135			-7.348
280801.000			-66.135			-7.348
280901.000			-66.133			-7.348
281000.000			-66.132			-7.348
281100.000			-66.130			-7.348
281201.000			-66.130			-7.348
281300.000			-66.130			-7.348
281400.000			-66.130			-7.348
281501.000			-66.129			-7.348
281601.000			-66.130			-7.348
281702.000			-66.130			-7.348
281800.000			-66.127			-7.347
281900.000			-66.127			-7.347
282001.000			-66.127			-7.347
282100.000			-66.127			-7.347
282200.000			-66.126			-7.347
282301.000			-66.124			-7.347
282400.000			-66.124			-7.347
282501.000			-66.123			-7.347
282602.000			-66.122			-7.347
282701.000			-66.122			-7.347
282800.000			-66.122			-7.347
282901.000			-66.121			-7.347
283000.000			-66.121			-7.347
283100.000			-66.120			-7.347
283201.000			-66.119			-7.347
283300.000			-66.118			-7.346
283400.000			-66.117			-7.346
283502.000			-66.117			-7.346
283601.000			-66.116			-7.346
283700.000			-66.115			-7.346
283801.000			-66.117			-7.346
283900.000			-66.116			-7.346
284000.000			-66.113			-7.346
284101.000			-66.113			-7.346
284200.000			-66.113			-7.346
284300.000			-66.113			-7.346
284402.000			-66.112			-7.346
284501.000			-66.112			-7.346
284600.000			-66.112			-7.346
284701.000			-66.110			-7.346
284800.000			-66.110			-7.346
284900.000			-66.109			-7.345
285000.000			-66.108			-7.345
285100.000			-66.108			-7.345
285201.000			-66.108			-7.345
285301.000			-66.107			-7.345
285401.000			-66.106			-7.345
285502.000			-66.106			-7.345
285600.000			-66.105			-7.345
285700.000			-66.104			-7.345
285801.000			-66.105			-7.345
285900.000			-66.104			-7.345
286000.000			-66.104			-7.345
286101.000			-66.102			-7.345
286200.000			-66.102			-7.345
286301.000			-66.101			-7.345
286402.000			-66.101			-7.345
286500.000			-66.101			-7.345
286600.000			-66.100			-7.344
286701.000			-66.098			-7.344
286800.000			-66.099			-7.344
286900.000			-66.097			-7.344
287001.000			-66.096			-7.344
287100.000			-66.096			-7.344
287201.000			-66.095			-7.344
287302.000			-66.094			-7.344
287401.000			-66.094			-7.344
287500.000			-66.094			-7.344
287601.000			-66.093			-7.344
287700.000			-66.093			-7.344
287800.000			-66.092			-7.344
287901.000			-66.092			-7.344
288000.000			-66.091			-7.343
288100.000			-66.090			-7.343
288202.000			-66.091			-7.343
288301.000			-66.090			-7.343
288402.000			-66.088			-7.343
288500.000			-66.087			-7.343
288600.000			-66.087			-7.343
288701.000			-66.086			-7.343
288800.000			-66.086			-7.343
288900.000			-66.086			-7.343
289001.000			-66.085			-7.343
289100.000			-66.084			-7.343
289201.000			-66.083			-7.343
289302.000			-66.083			-7.343
289401.000			-66.082			-7.342
289500.000			-66.082			-7.342
289601.000			-66.083			-7.343
289700.000			-66.082			-7.342
289800.000			-66.080			-7.342
289901.000			-66.079			-7.342
290000.000			-66.079			-7.342
290100.000			-66.079			-7.342
290202.000			-66.079			-7.342
290301.000			-66.078			-7.342
290400.000			-66.077			-7.342
290501.000			-66.076			-7.342
290600.000			-66.076			-7.342
290700.000			-66.075			-7.342
290801.000			-66.074			-7.342
290900.000			-66.074			-7.342
291000.000			-66.074			-7.342
291102.000			-66.072			-7.341
291201.000			-66.073			-7.341
291302.000			-66.073			-7.341
291400.000			-66.072			-7.341
291500.000			-66.071			-7.341
291601.000			-66.070			-7.341
291700.000			-66.068			-7.341
291800.000			-66.067			-7.341
291901.000			-66.068			-7.341
292000.000			-66.067			-7.341
292101.000			-66.067			-7.341
292202.000			-66.066			-7.341
292300.000			-66.065			-7.341
292400.000			-66.065			-7.341
292501.000			-66.065			-7.341
292600.000			-66.064			-7.340
292700.000			-66.064			-7.340
292801.000			-66.063			-7.340
292900.000			-66.062			-7.340
293000.000			-66.061			-7.340
293102.000			-66.062			-7.340
293201.000			-66.062			-7.340
293300.000			-66.061			-7.340
293401.000			-66.061			-7.340
293500.000			-66.059			-7.340
293600.000			-66.059			-7.340
293701.000			-66.059			-7.340
293800.000			-66.057			-7.340
293900.000			-66.057			-7.340
294002.000			-66.056			-7.340
294101.000			-66.056			-7.340
294201.000			-66.056			-7.340
294301.000			-66.055			-7.339
294400.000			-66.055			-7.339
294500.000			-66.054			-7.339
294600.000			-66.052			-7.339
294700.000			-66.051			-7.339
294801.000			-66.051			-7.339
294901.000			-66.051			-7.339
295001.000			-66.051			-7.339
295102.000			-66.050			-7.339
295200.000			-66.050			-7.339
295300.000			-66.050			-7.339
295401.000			-66.049			-7.339
295500.000			-66.049			-7.339
295600.000			-66.049			-7.339
295701.000			-66.046			-7.338
295800.000			-66.046			-7.338
295901.000			-66.046			-7.338
296002.000			-66.045			-7.338
296101.000			-66.045			-7.338
296200.000			-66.044			-7.338
296301.000			-66.044			-7.338
296400.000			-66.042			-7.338
296500.000			-66.042			-7.338
296601.000			-66.042			-7.338
296700.000			-66.041			-7.338
296800.000			-66.040			-7.338
296902.000			-66.039			-7.338
297001.000			-66.040			-7.338
297100.000			-66.039			-7.338
297201.000			-66.038			-7.338
297300.000			-66.039			-7.338
297400.000			-66.037			-7.337
297501.000			-66.036			-7.337
297600.000			-66.036			-7.337
297700.000			-66.035			-7.337
297802.000			-66.035			-7.337
297901.000			-66.033			-7.337
298002.000			-66.034			-7.337
298100.000			-66.035			-7.337
298200.000			-66.033			-7.337
298301.000			-66.033			-7.337
298400.000			-66.032			-7.337
298500.000			-66.031			-7.337
298601.000			-66.030			-7.337
298700.000			-66.030			-7.337
298801.000			-66.030			-7.337
298902.000			-66.030			-7.337
299000.000			-66.028			-7.336
299100.000			-66.028			-7.336
299201.000			-66.028			-7.336
299300.000			-66.025			-7.336
299400.000			-66.025			-7.336
299501.000			-66.024			-7.336
299600.000			-66.024			-7.336
299700.000			-66.024			-7.336
299802.000			-66.024			-7.336
299901.000			-66.023			-7.336
