# Acquired on 25/01/2024 13:47:35 
# SPIDER: Creep_5mm_GRPCNT1454A-2
# CREEP MEASUREMENT

# time [ms]		force [N]		stiffness [N/mm]
0.000			-18.824			-3.765
103.000			-19.338			-3.868
205.000			-19.353			-3.871
304.000			-19.177			-3.835
405.000			-19.036			-3.807
504.000			-18.838			-3.768
603.000			-18.760			-3.752
705.000			-18.693			-3.739
804.000			-18.635			-3.727
904.000			-18.581			-3.716
1005.000			-18.531			-3.706
1104.000			-18.486			-3.697
1204.000			-18.443			-3.689
1304.000			-18.369			-3.674
1404.000			-18.336			-3.667
1504.000			-18.304			-3.661
1605.000			-18.273			-3.655
1704.000			-18.244			-3.649
1803.000			-18.217			-3.643
1905.000			-18.192			-3.638
2004.000			-18.144			-3.629
2104.000			-18.122			-3.624
2205.000			-18.099			-3.620
2304.000			-18.078			-3.616
2404.000			-18.059			-3.612
2504.000			-18.039			-3.608
2604.000			-18.021			-3.604
2704.000			-17.986			-3.597
2805.000			-17.971			-3.594
2904.000			-17.955			-3.591
3004.000			-17.938			-3.588
3105.000			-17.922			-3.584
3203.000			-17.907			-3.581
3304.000			-17.893			-3.579
3405.000			-17.865			-3.573
3504.000			-17.853			-3.571
3605.000			-17.839			-3.568
3703.000			-17.827			-3.565
3804.000			-17.815			-3.563
3905.000			-17.803			-3.561
4004.000			-17.791			-3.558
4104.000			-17.779			-3.556
4205.000			-17.758			-3.552
4304.000			-17.747			-3.549
4403.000			-17.736			-3.547
4505.000			-17.726			-3.545
4604.000			-17.715			-3.543
4704.000			-17.706			-3.541
4805.000			-17.697			-3.539
4904.000			-17.678			-3.536
5004.000			-17.668			-3.534
5104.000			-17.658			-3.532
5204.000			-17.650			-3.530
5304.000			-17.642			-3.528
5405.000			-17.634			-3.527
5504.000			-17.626			-3.525
5603.000			-17.609			-3.522
5705.000			-17.601			-3.520
5804.000			-17.591			-3.518
5904.000			-17.584			-3.517
6005.000			-17.577			-3.515
6104.000			-17.570			-3.514
6204.000			-17.563			-3.513
6304.000			-17.555			-3.511
6404.000			-17.540			-3.508
6504.000			-17.532			-3.506
6605.000			-17.526			-3.505
6704.000			-17.520			-3.504
6805.000			-17.514			-3.503
6904.000			-17.507			-3.501
7003.000			-17.499			-3.500
7105.000			-17.487			-3.497
7204.000			-17.481			-3.496
7304.000			-17.474			-3.495
7405.000			-17.468			-3.494
7504.000			-17.462			-3.492
7604.000			-17.457			-3.491
7704.000			-17.452			-3.490
7804.000			-17.440			-3.488
7904.000			-17.434			-3.487
8005.000			-17.428			-3.486
8104.000			-17.423			-3.485
8203.000			-17.417			-3.483
8305.000			-17.410			-3.482
8404.000			-17.405			-3.481
8504.000			-17.401			-3.480
8605.000			-17.390			-3.478
8704.000			-17.385			-3.477
8804.000			-17.379			-3.476
8904.000			-17.375			-3.475
9004.000			-17.370			-3.474
9104.000			-17.364			-3.473
9205.000			-17.360			-3.472
9304.000			-17.349			-3.470
9404.000			-17.344			-3.469
9505.000			-17.340			-3.468
9603.000			-17.335			-3.467
9704.000			-17.331			-3.466
9805.000			-17.327			-3.465
9904.000			-17.322			-3.464
10005.000			-17.313			-3.463
10103.000			-17.308			-3.462
10204.000			-17.304			-3.461
10305.000			-17.300			-3.460
10404.000			-17.296			-3.459
10504.000			-17.292			-3.458
10605.000			-17.288			-3.458
10704.000			-17.283			-3.457
10803.000			-17.275			-3.455
10905.000			-17.269			-3.454
11004.000			-17.266			-3.453
11104.000			-17.263			-3.453
11205.000			-17.259			-3.452
11304.000			-17.254			-3.451
11404.000			-17.249			-3.450
11504.000			-17.244			-3.449
11604.000			-17.240			-3.448
11704.000			-17.236			-3.447
11805.000			-17.232			-3.446
11904.000			-17.229			-3.446
12004.000			-17.225			-3.445
12105.000			-17.221			-3.444
12203.000			-17.214			-3.443
12304.000			-17.210			-3.442
12405.000			-17.207			-3.441
12504.000			-17.203			-3.441
12604.000			-17.200			-3.440
12705.000			-17.196			-3.439
12804.000			-17.193			-3.439
12903.000			-17.189			-3.438
13005.000			-17.182			-3.436
13104.000			-17.178			-3.436
13205.000			-17.175			-3.435
13304.000			-17.171			-3.434
13404.000			-17.167			-3.433
13505.000			-17.165			-3.433
13603.000			-17.162			-3.432
13704.000			-17.156			-3.431
13805.000			-17.153			-3.431
13904.000			-17.149			-3.430
14004.000			-17.145			-3.429
14104.000			-17.141			-3.428
14204.000			-17.139			-3.428
14303.000			-17.136			-3.427
14405.000			-17.129			-3.426
14504.000			-17.125			-3.425
14604.000			-17.124			-3.425
14705.000			-17.122			-3.424
14803.000			-17.118			-3.424
14904.000			-17.115			-3.423
15005.000			-17.113			-3.423
15104.000			-17.110			-3.422
15204.000			-17.104			-3.421
15305.000			-17.101			-3.420
15404.000			-17.097			-3.419
15503.000			-17.094			-3.419
15605.000			-17.091			-3.418
15704.000			-17.089			-3.418
15804.000			-17.086			-3.417
15905.000			-17.080			-3.416
16004.000			-17.077			-3.415
16104.000			-17.074			-3.415
16204.000			-17.071			-3.414
16304.000			-17.069			-3.414
16405.000			-17.067			-3.413
16504.000			-17.064			-3.413
16604.000			-17.059			-3.412
16704.000			-17.057			-3.411
16804.000			-17.054			-3.411
16904.000			-17.051			-3.410
17005.000			-17.048			-3.410
17104.000			-17.045			-3.409
17204.000			-17.042			-3.408
17305.000			-17.038			-3.408
17403.000			-17.035			-3.407
17504.000			-17.032			-3.406
17605.000			-17.030			-3.406
17704.000			-17.027			-3.405
17804.000			-17.024			-3.405
17905.000			-17.022			-3.404
18004.000			-17.019			-3.404
18103.000			-17.014			-3.403
18205.000			-17.013			-3.403
18304.000			-17.011			-3.402
18404.000			-17.008			-3.402
18505.000			-17.005			-3.401
18604.000			-17.002			-3.400
18704.000			-17.000			-3.400
18804.000			-16.995			-3.399
18904.000			-16.994			-3.399
19004.000			-16.991			-3.398
19105.000			-16.989			-3.398
19204.000			-16.987			-3.397
19304.000			-16.985			-3.397
19405.000			-16.983			-3.397
19503.000			-16.978			-3.396
19605.000			-16.977			-3.395
19704.000			-16.974			-3.395
19804.000			-16.972			-3.394
19905.000			-16.970			-3.394
20004.000			-16.968			-3.394
20104.000			-16.965			-3.393
20204.000			-16.962			-3.392
20304.000			-16.958			-3.392
20404.000			-16.956			-3.391
20505.000			-16.954			-3.391
20604.000			-16.951			-3.390
20704.000			-16.949			-3.390
20805.000			-16.948			-3.390
20903.000			-16.946			-3.389
21004.000			-16.941			-3.388
21105.000			-16.939			-3.388
21204.000			-16.937			-3.387
21304.000			-16.935			-3.387
21404.000			-16.933			-3.387
21504.000			-16.930			-3.386
21603.000			-16.929			-3.386
21705.000			-16.925			-3.385
21804.000			-16.924			-3.385
21904.000			-16.921			-3.384
22005.000			-16.919			-3.384
22104.000			-16.917			-3.383
22204.000			-16.915			-3.383
22304.000			-16.913			-3.383
22404.000			-16.911			-3.382
22504.000			-16.908			-3.382
22605.000			-16.906			-3.381
22704.000			-16.903			-3.381
22805.000			-16.901			-3.380
22904.000			-16.901			-3.380
23003.000			-16.899			-3.380
23105.000			-16.897			-3.379
23204.000			-16.892			-3.378
23304.000			-16.891			-3.378
23405.000			-16.888			-3.378
23504.000			-16.886			-3.377
23604.000			-16.885			-3.377
23704.000			-16.883			-3.377
23804.000			-16.882			-3.376
23904.000			-16.878			-3.376
24005.000			-16.877			-3.375
24104.000			-16.874			-3.375
24203.000			-16.872			-3.374
24305.000			-16.871			-3.374
24404.000			-16.869			-3.374
24504.000			-16.867			-3.373
24605.000			-16.865			-3.373
24704.000			-16.861			-3.372
24804.000			-16.860			-3.372
24904.000			-16.859			-3.372
25004.000			-16.856			-3.371
25103.000			-16.854			-3.371
25205.000			-16.853			-3.371
25304.000			-16.851			-3.370
25404.000			-16.847			-3.369
25505.000			-16.845			-3.369
25604.000			-16.844			-3.369
25704.000			-16.842			-3.368
25804.000			-16.841			-3.368
25904.000			-16.840			-3.368
26005.000			-16.838			-3.368
26104.000			-16.834			-3.367
26204.000			-16.833			-3.367
26305.000			-16.832			-3.366
26404.000			-16.830			-3.366
26503.000			-16.829			-3.366
26605.000			-16.826			-3.365
26704.000			-16.824			-3.365
26804.000			-16.821			-3.364
26905.000			-16.820			-3.364
27004.000			-16.819			-3.364
27104.000			-16.816			-3.363
27204.000			-16.814			-3.363
27304.000			-16.812			-3.362
27404.000			-16.811			-3.362
27505.000			-16.810			-3.362
27604.000			-16.807			-3.361
27704.000			-16.804			-3.361
27805.000			-16.802			-3.360
27903.000			-16.802			-3.360
28004.000			-16.801			-3.360
28105.000			-16.799			-3.360
28204.000			-16.797			-3.359
28304.000			-16.794			-3.359
28404.000			-16.792			-3.358
28504.000			-16.791			-3.358
28603.000			-16.790			-3.358
28705.000			-16.788			-3.358
28804.000			-16.786			-3.357
28904.000			-16.785			-3.357
29005.000			-16.781			-3.356
29104.000			-16.781			-3.356
29205.000			-16.778			-3.356
29303.000			-16.777			-3.355
29404.000			-16.777			-3.355
29505.000			-16.776			-3.355
29604.000			-16.773			-3.355
29704.000			-16.772			-3.354
29805.000			-16.768			-3.354
29904.000			-16.766			-3.353
30003.000			-16.766			-3.353
30105.000			-16.764			-3.353
30204.000			-16.762			-3.352
30304.000			-16.761			-3.352
30405.000			-16.760			-3.352
30504.000			-16.757			-3.351
30604.000			-16.755			-3.351
30704.000			-16.754			-3.351
30804.000			-16.753			-3.351
30904.000			-16.751			-3.350
31005.000			-16.749			-3.350
31104.000			-16.748			-3.350
31204.000			-16.746			-3.349
31305.000			-16.744			-3.349
31403.000			-16.743			-3.349
31504.000			-16.741			-3.348
31605.000			-16.741			-3.348
31704.000			-16.739			-3.348
31804.000			-16.738			-3.348
31904.000			-16.736			-3.347
32004.000			-16.733			-3.347
32104.000			-16.732			-3.346
32205.000			-16.731			-3.346
32304.000			-16.729			-3.346
32405.000			-16.728			-3.346
32504.000			-16.728			-3.346
32603.000			-16.726			-3.345
32705.000			-16.723			-3.345
32804.000			-16.722			-3.344
32904.000			-16.720			-3.344
33005.000			-16.719			-3.344
33104.000			-16.718			-3.344
33204.000			-16.716			-3.343
33304.000			-16.715			-3.343
33404.000			-16.713			-3.343
33504.000			-16.712			-3.342
33605.000			-16.711			-3.342
33704.000			-16.710			-3.342
33804.000			-16.707			-3.341
33905.000			-16.706			-3.341
34003.000			-16.705			-3.341
34104.000			-16.703			-3.341
34205.000			-16.702			-3.340
34304.000			-16.701			-3.340
34404.000			-16.699			-3.340
34504.000			-16.698			-3.340
34604.000			-16.697			-3.339
34703.000			-16.696			-3.339
34805.000			-16.694			-3.339
34904.000			-16.692			-3.338
35004.000			-16.691			-3.338
35105.000			-16.690			-3.338
35204.000			-16.689			-3.338
35304.000			-16.686			-3.337
35404.000			-16.685			-3.337
35504.000			-16.684			-3.337
35605.000			-16.682			-3.336
35704.000			-16.681			-3.336
35804.000			-16.680			-3.336
35905.000			-16.678			-3.336
36004.000			-16.677			-3.335
36103.000			-16.676			-3.335
36205.000			-16.676			-3.335
36304.000			-16.672			-3.334
36404.000			-16.671			-3.334
36505.000			-16.670			-3.334
36604.000			-16.669			-3.334
36704.000			-16.667			-3.333
36804.000			-16.665			-3.333
36904.000			-16.665			-3.333
37004.000			-16.663			-3.333
37105.000			-16.662			-3.332
37204.000			-16.661			-3.332
37304.000			-16.661			-3.332
37405.000			-16.659			-3.332
37503.000			-16.657			-3.331
37604.000			-16.656			-3.331
37705.000			-16.654			-3.331
37804.000			-16.653			-3.331
37904.000			-16.652			-3.330
38005.000			-16.650			-3.330
38104.000			-16.650			-3.330
38203.000			-16.649			-3.330
38305.000			-16.647			-3.329
38404.000			-16.646			-3.329
38504.000			-16.643			-3.329
38605.000			-16.643			-3.329
38704.000			-16.643			-3.329
38805.000			-16.642			-3.328
38903.000			-16.640			-3.328
39004.000			-16.639			-3.328
39105.000			-16.638			-3.328
39204.000			-16.637			-3.327
39304.000			-16.635			-3.327
39405.000			-16.633			-3.327
39504.000			-16.632			-3.326
39603.000			-16.631			-3.326
39705.000			-16.630			-3.326
39804.000			-16.629			-3.326
39904.000			-16.628			-3.326
40005.000			-16.626			-3.325
40104.000			-16.625			-3.325
40204.000			-16.625			-3.325
40305.000			-16.623			-3.325
40404.000			-16.622			-3.324
40504.000			-16.621			-3.324
40605.000			-16.620			-3.324
40704.000			-16.618			-3.324
40803.000			-16.616			-3.323
40905.000			-16.615			-3.323
41004.000			-16.615			-3.323
41104.000			-16.614			-3.323
41205.000			-16.613			-3.323
41304.000			-16.612			-3.322
41404.000			-16.610			-3.322
41504.000			-16.608			-3.322
41604.000			-16.607			-3.321
41704.000			-16.607			-3.321
41805.000			-16.605			-3.321
41904.000			-16.604			-3.321
42005.000			-16.602			-3.320
42104.000			-16.602			-3.320
42203.000			-16.600			-3.320
42305.000			-16.599			-3.320
42404.000			-16.598			-3.320
42504.000			-16.597			-3.319
42605.000			-16.595			-3.319
42704.000			-16.596			-3.319
42804.000			-16.595			-3.319
42904.000			-16.592			-3.318
43004.000			-16.591			-3.318
43104.000			-16.590			-3.318
43205.000			-16.589			-3.318
43304.000			-16.589			-3.318
43404.000			-16.587			-3.317
43505.000			-16.586			-3.317
43603.000			-16.585			-3.317
43704.000			-16.585			-3.317
43805.000			-16.583			-3.317
43904.000			-16.582			-3.316
44004.000			-16.581			-3.316
44104.000			-16.580			-3.316
44204.000			-16.579			-3.316
44303.000			-16.579			-3.316
44405.000			-16.575			-3.315
44504.000			-16.575			-3.315
44604.000			-16.574			-3.315
44705.000			-16.573			-3.315
44803.000			-16.572			-3.314
44904.000			-16.571			-3.314
45004.000			-16.570			-3.314
45104.000			-16.569			-3.314
45205.000			-16.567			-3.313
45304.000			-16.566			-3.313
45404.000			-16.565			-3.313
45504.000			-16.565			-3.313
45604.000			-16.563			-3.313
45703.000			-16.563			-3.313
45805.000			-16.561			-3.312
45904.000			-16.561			-3.312
46004.000			-16.560			-3.312
46105.000			-16.559			-3.312
46203.000			-16.558			-3.312
46304.000			-16.558			-3.312
46405.000			-16.556			-3.311
46504.000			-16.554			-3.311
46604.000			-16.554			-3.311
46705.000			-16.551			-3.310
46804.000			-16.551			-3.310
46903.000			-16.551			-3.310
47005.000			-16.549			-3.310
47104.000			-16.548			-3.310
47204.000			-16.548			-3.310
47305.000			-16.546			-3.309
47404.000			-16.545			-3.309
47504.000			-16.544			-3.309
47604.000			-16.544			-3.309
47704.000			-16.543			-3.309
47804.000			-16.541			-3.308
47905.000			-16.541			-3.308
48004.000			-16.539			-3.308
48104.000			-16.538			-3.308
48205.000			-16.536			-3.307
48303.000			-16.535			-3.307
48405.000			-16.535			-3.307
48504.000			-16.535			-3.307
48604.000			-16.534			-3.307
48705.000			-16.533			-3.307
48804.000			-16.531			-3.306
48904.000			-16.530			-3.306
49004.000			-16.528			-3.306
49104.000			-16.526			-3.305
49204.000			-16.528			-3.306
49305.000			-16.527			-3.305
49404.000			-16.526			-3.305
49504.000			-16.524			-3.305
49605.000			-16.523			-3.305
49703.000			-16.522			-3.304
49804.000			-16.522			-3.304
49905.000			-16.521			-3.304
50004.000			-16.520			-3.304
50104.000			-16.519			-3.304
50205.000			-16.517			-3.303
50304.000			-16.516			-3.303
50403.000			-16.515			-3.303
50505.000			-16.515			-3.303
50604.000			-16.514			-3.303
50704.000			-16.514			-3.303
50805.000			-16.511			-3.302
50904.000			-16.511			-3.302
51004.000			-16.509			-3.302
51104.000			-16.509			-3.302
51204.000			-16.508			-3.302
51304.000			-16.508			-3.302
51405.000			-16.507			-3.301
51504.000			-16.506			-3.301
51603.000			-16.505			-3.301
51704.000			-16.504			-3.301
51804.000			-16.503			-3.301
51905.000			-16.502			-3.300
52004.000			-16.501			-3.300
52104.000			-16.500			-3.300
52205.000			-16.499			-3.300
52303.000			-16.500			-3.300
52404.000			-16.497			-3.299
52505.000			-16.497			-3.299
52604.000			-16.496			-3.299
52704.000			-16.496			-3.299
52805.000			-16.495			-3.299
52904.000			-16.493			-3.299
53003.000			-16.493			-3.299
53105.000			-16.490			-3.298
53204.000			-16.489			-3.298
53304.000			-16.489			-3.298
53405.000			-16.489			-3.298
53504.000			-16.487			-3.297
53604.000			-16.487			-3.297
53704.000			-16.487			-3.297
53804.000			-16.485			-3.297
53904.000			-16.483			-3.297
54005.000			-16.482			-3.296
54104.000			-16.482			-3.296
54204.000			-16.481			-3.296
54305.000			-16.481			-3.296
54403.000			-16.481			-3.296
54504.000			-16.479			-3.296
54605.000			-16.478			-3.296
54704.000			-16.477			-3.295
54805.000			-16.476			-3.295
54904.000			-16.475			-3.295
55004.000			-16.474			-3.295
55104.000			-16.474			-3.295
55204.000			-16.473			-3.295
55304.000			-16.472			-3.294
55405.000			-16.470			-3.294
55504.000			-16.469			-3.294
55604.000			-16.469			-3.294
55705.000			-16.468			-3.294
55803.000			-16.467			-3.293
55904.000			-16.466			-3.293
56005.000			-16.466			-3.293
56104.000			-16.464			-3.293
56204.000			-16.464			-3.293
56305.000			-16.464			-3.293
56404.000			-16.464			-3.293
56503.000			-16.462			-3.292
56605.000			-16.460			-3.292
56704.000			-16.460			-3.292
56804.000			-16.458			-3.292
56905.000			-16.458			-3.292
57004.000			-16.457			-3.291
57104.000			-16.455			-3.291
57204.000			-16.456			-3.291
57304.000			-16.455			-3.291
57404.000			-16.454			-3.291
57505.000			-16.454			-3.291
57604.000			-16.453			-3.291
57704.000			-16.451			-3.290
57805.000			-16.449			-3.290
57903.000			-16.449			-3.290
58005.000			-16.450			-3.290
58104.000			-16.450			-3.290
58204.000			-16.449			-3.290
58305.000			-16.447			-3.289
58404.000			-16.446			-3.289
58504.000			-16.446			-3.289
58604.000			-16.444			-3.289
58704.000			-16.444			-3.289
58804.000			-16.443			-3.289
58905.000			-16.442			-3.288
59004.000			-16.441			-3.288
59104.000			-16.441			-3.288
59205.000			-16.439			-3.288
59303.000			-16.439			-3.288
59404.000			-16.439			-3.288
59505.000			-16.437			-3.287
59604.000			-16.438			-3.288
59704.000			-16.436			-3.287
59805.000			-16.436			-3.287
59904.000			-16.435			-3.287
60003.000			-16.433			-3.287
60105.000			-16.433			-3.287
60204.000			-16.432			-3.286
60304.000			-16.431			-3.286
60405.000			-16.430			-3.286
60504.000			-16.430			-3.286
60604.000			-16.429			-3.286
60704.000			-16.428			-3.286
60804.000			-16.427			-3.285
60904.000			-16.426			-3.285
61005.000			-16.426			-3.285
61104.000			-16.425			-3.285
61203.000			-16.424			-3.285
61304.000			-16.423			-3.285
61404.000			-16.423			-3.285
61505.000			-16.423			-3.285
61604.000			-16.421			-3.284
61704.000			-16.420			-3.284
61805.000			-16.420			-3.284
61903.000			-16.418			-3.284
62004.000			-16.417			-3.283
62105.000			-16.417			-3.283
62204.000			-16.416			-3.283
62304.000			-16.416			-3.283
62405.000			-16.415			-3.283
62504.000			-16.414			-3.283
62603.000			-16.413			-3.283
62705.000			-16.413			-3.283
62804.000			-16.412			-3.282
62904.000			-16.412			-3.282
63005.000			-16.411			-3.282
63104.000			-16.411			-3.282
63204.000			-16.409			-3.282
63304.000			-16.408			-3.282
63404.000			-16.407			-3.281
63504.000			-16.406			-3.281
63605.000			-16.407			-3.281
63704.000			-16.406			-3.281
63804.000			-16.405			-3.281
63905.000			-16.404			-3.281
64003.000			-16.402			-3.280
64104.000			-16.402			-3.280
64205.000			-16.402			-3.280
64304.000			-16.401			-3.280
64405.000			-16.400			-3.280
64504.000			-16.400			-3.280
64604.000			-16.398			-3.280
64704.000			-16.398			-3.280
64804.000			-16.397			-3.279
64904.000			-16.396			-3.279
65005.000			-16.394			-3.279
65104.000			-16.394			-3.279
65204.000			-16.394			-3.279
65305.000			-16.393			-3.279
65403.000			-16.392			-3.278
65504.000			-16.391			-3.278
65605.000			-16.390			-3.278
65704.000			-16.390			-3.278
65804.000			-16.390			-3.278
65905.000			-16.389			-3.278
66004.000			-16.388			-3.278
66103.000			-16.388			-3.278
66205.000			-16.387			-3.277
66304.000			-16.386			-3.277
66404.000			-16.385			-3.277
66505.000			-16.384			-3.277
66604.000			-16.384			-3.277
66704.000			-16.383			-3.277
66804.000			-16.383			-3.277
66904.000			-16.382			-3.276
67004.000			-16.379			-3.276
67105.000			-16.380			-3.276
67204.000			-16.380			-3.276
67304.000			-16.379			-3.276
67405.000			-16.377			-3.275
67503.000			-16.376			-3.275
67605.000			-16.376			-3.275
67704.000			-16.376			-3.275
67804.000			-16.375			-3.275
67905.000			-16.374			-3.275
68004.000			-16.373			-3.275
68104.000			-16.372			-3.274
68204.000			-16.372			-3.274
68304.000			-16.371			-3.274
68404.000			-16.371			-3.274
68505.000			-16.369			-3.274
68604.000			-16.368			-3.274
68704.000			-16.369			-3.274
68805.000			-16.368			-3.274
68903.000			-16.367			-3.273
69004.000			-16.367			-3.273
69105.000			-16.366			-3.273
69204.000			-16.364			-3.273
69304.000			-16.364			-3.273
69405.000			-16.363			-3.273
69504.000			-16.363			-3.273
69603.000			-16.362			-3.272
69705.000			-16.361			-3.272
69804.000			-16.361			-3.272
69904.000			-16.359			-3.272
70005.000			-16.359			-3.272
70104.000			-16.358			-3.272
70204.000			-16.358			-3.272
70304.000			-16.357			-3.271
70404.000			-16.356			-3.271
70504.000			-16.357			-3.271
70605.000			-16.356			-3.271
70704.000			-16.355			-3.271
70805.000			-16.354			-3.271
70904.000			-16.352			-3.270
71003.000			-16.352			-3.270
71105.000			-16.352			-3.270
71204.000			-16.352			-3.270
71304.000			-16.352			-3.270
71405.000			-16.351			-3.270
71504.000			-16.350			-3.270
71604.000			-16.349			-3.270
71704.000			-16.349			-3.270
71804.000			-16.348			-3.270
71904.000			-16.347			-3.269
72005.000			-16.346			-3.269
72104.000			-16.344			-3.269
72204.000			-16.343			-3.269
72305.000			-16.343			-3.269
72403.000			-16.342			-3.268
72504.000			-16.342			-3.268
72605.000			-16.343			-3.269
72704.000			-16.342			-3.268
72804.000			-16.340			-3.268
72905.000			-16.340			-3.268
73004.000			-16.339			-3.268
73103.000			-16.338			-3.268
73205.000			-16.339			-3.268
73304.000			-16.337			-3.267
73404.000			-16.336			-3.267
73505.000			-16.336			-3.267
73604.000			-16.333			-3.267
73704.000			-16.333			-3.267
73804.000			-16.332			-3.266
73904.000			-16.333			-3.267
74005.000			-16.332			-3.266
74104.000			-16.331			-3.266
74204.000			-16.330			-3.266
74305.000			-16.331			-3.266
74404.000			-16.330			-3.266
74503.000			-16.329			-3.266
74605.000			-16.328			-3.266
74704.000			-16.326			-3.265
74804.000			-16.325			-3.265
74905.000			-16.326			-3.265
75004.000			-16.327			-3.265
75104.000			-16.324			-3.265
75204.000			-16.325			-3.265
75304.000			-16.325			-3.265
75404.000			-16.323			-3.265
75505.000			-16.323			-3.265
75604.000			-16.323			-3.265
75704.000			-16.322			-3.264
75805.000			-16.320			-3.264
75903.000			-16.320			-3.264
76004.000			-16.319			-3.264
76105.000			-16.319			-3.264
76204.000			-16.317			-3.263
76304.000			-16.317			-3.263
76405.000			-16.317			-3.263
76504.000			-16.317			-3.263
76603.000			-16.316			-3.263
76705.000			-16.315			-3.263
76804.000			-16.315			-3.263
76904.000			-16.314			-3.263
77005.000			-16.313			-3.263
77104.000			-16.312			-3.262
77205.000			-16.312			-3.262
77303.000			-16.311			-3.262
77404.000			-16.311			-3.262
77505.000			-16.309			-3.262
77604.000			-16.310			-3.262
77704.000			-16.310			-3.262
77805.000			-16.309			-3.262
77904.000			-16.308			-3.262
78003.000			-16.306			-3.261
78105.000			-16.306			-3.261
78204.000			-16.307			-3.261
78304.000			-16.306			-3.261
78405.000			-16.306			-3.261
78504.000			-16.305			-3.261
78604.000			-16.303			-3.261
78704.000			-16.303			-3.261
78804.000			-16.302			-3.260
78904.000			-16.301			-3.260
79005.000			-16.300			-3.260
79104.000			-16.301			-3.260
79204.000			-16.301			-3.260
79305.000			-16.300			-3.260
79403.000			-16.298			-3.260
79504.000			-16.298			-3.260
79605.000			-16.298			-3.260
79704.000			-16.296			-3.259
79804.000			-16.296			-3.259
79905.000			-16.296			-3.259
80004.000			-16.295			-3.259
80103.000			-16.296			-3.259
80205.000			-16.295			-3.259
80304.000			-16.294			-3.259
80405.000			-16.294			-3.259
80504.000			-16.293			-3.259
80604.000			-16.293			-3.259
80705.000			-16.292			-3.258
80803.000			-16.292			-3.258
80904.000			-16.290			-3.258
81005.000			-16.289			-3.258
81104.000			-16.289			-3.258
81204.000			-16.289			-3.258
81305.000			-16.289			-3.258
81404.000			-16.289			-3.258
81503.000			-16.288			-3.258
81605.000			-16.286			-3.257
81704.000			-16.286			-3.257
81804.000			-16.286			-3.257
81905.000			-16.285			-3.257
82004.000			-16.284			-3.257
82104.000			-16.284			-3.257
82204.000			-16.284			-3.257
82304.000			-16.282			-3.256
82404.000			-16.282			-3.256
82505.000			-16.282			-3.256
82604.000			-16.280			-3.256
82704.000			-16.279			-3.256
82805.000			-16.279			-3.256
82903.000			-16.279			-3.256
83004.000			-16.278			-3.256
83105.000			-16.278			-3.256
83204.000			-16.278			-3.256
83304.000			-16.277			-3.255
83405.000			-16.276			-3.255
83504.000			-16.275			-3.255
83603.000			-16.275			-3.255
83704.000			-16.274			-3.255
83804.000			-16.275			-3.255
83905.000			-16.274			-3.255
84004.000			-16.274			-3.255
84104.000			-16.273			-3.255
84205.000			-16.272			-3.254
84303.000			-16.272			-3.254
84404.000			-16.271			-3.254
84505.000			-16.271			-3.254
84604.000			-16.269			-3.254
84704.000			-16.269			-3.254
84805.000			-16.268			-3.254
84904.000			-16.268			-3.254
85003.000			-16.268			-3.254
85105.000			-16.267			-3.253
85204.000			-16.267			-3.253
85304.000			-16.266			-3.253
85405.000			-16.265			-3.253
85504.000			-16.264			-3.253
85604.000			-16.263			-3.253
85704.000			-16.262			-3.252
85804.000			-16.262			-3.252
85904.000			-16.262			-3.252
86005.000			-16.263			-3.253
86104.000			-16.262			-3.252
86204.000			-16.261			-3.252
86305.000			-16.261			-3.252
86403.000			-16.260			-3.252
86504.000			-16.260			-3.252
86605.000			-16.259			-3.252
86704.000			-16.259			-3.252
86805.000			-16.258			-3.252
86904.000			-16.258			-3.252
87004.000			-16.257			-3.251
87104.000			-16.255			-3.251
87204.000			-16.255			-3.251
87304.000			-16.255			-3.251
87405.000			-16.254			-3.251
87504.000			-16.252			-3.250
87604.000			-16.253			-3.251
87705.000			-16.253			-3.251
87803.000			-16.253			-3.251
87904.000			-16.253			-3.251
88005.000			-16.252			-3.250
88104.000			-16.252			-3.250
88204.000			-16.250			-3.250
88305.000			-16.250			-3.250
88404.000			-16.249			-3.250
88503.000			-16.249			-3.250
88605.000			-16.248			-3.250
88704.000			-16.247			-3.249
88804.000			-16.247			-3.249
88905.000			-16.246			-3.249
89004.000			-16.246			-3.249
89104.000			-16.245			-3.249
89204.000			-16.245			-3.249
89304.000			-16.245			-3.249
89404.000			-16.244			-3.249
89505.000			-16.244			-3.249
89604.000			-16.243			-3.249
89704.000			-16.242			-3.248
89805.000			-16.242			-3.248
89903.000			-16.242			-3.248
90005.000			-16.242			-3.248
90104.000			-16.240			-3.248
90204.000			-16.239			-3.248
90305.000			-16.239			-3.248
90404.000			-16.239			-3.248
90504.000			-16.239			-3.248
90604.000			-16.238			-3.248
90704.000			-16.237			-3.247
90804.000			-16.236			-3.247
90905.000			-16.235			-3.247
91004.000			-16.237			-3.247
91104.000			-16.236			-3.247
91205.000			-16.235			-3.247
91303.000			-16.234			-3.247
91404.000			-16.233			-3.247
91505.000			-16.233			-3.247
91604.000			-16.233			-3.247
91704.000			-16.232			-3.246
91805.000			-16.232			-3.246
91904.000			-16.232			-3.246
92003.000			-16.230			-3.246
92105.000			-16.229			-3.246
92204.000			-16.229			-3.246
92304.000			-16.229			-3.246
92405.000			-16.229			-3.246
92504.000			-16.229			-3.246
92604.000			-16.227			-3.245
92704.000			-16.227			-3.245
92804.000			-16.227			-3.245
92904.000			-16.227			-3.245
93005.000			-16.226			-3.245
93104.000			-16.226			-3.245
93205.000			-16.225			-3.245
93304.000			-16.224			-3.245
93403.000			-16.224			-3.245
93505.000			-16.223			-3.245
93604.000			-16.223			-3.245
93704.000			-16.223			-3.245
93805.000			-16.222			-3.244
93904.000			-16.221			-3.244
94004.000			-16.220			-3.244
94104.000			-16.220			-3.244
94204.000			-16.219			-3.244
94304.000			-16.219			-3.244
94405.000			-16.218			-3.244
94504.000			-16.217			-3.243
94604.000			-16.217			-3.243
94705.000			-16.215			-3.243
94803.000			-16.215			-3.243
94904.000			-16.214			-3.243
95005.000			-16.214			-3.243
95104.000			-16.214			-3.243
95204.000			-16.213			-3.243
95305.000			-16.213			-3.243
95404.000			-16.212			-3.242
95503.000			-16.211			-3.242
95605.000			-16.211			-3.242
95704.000			-16.211			-3.242
95804.000			-16.210			-3.242
95905.000			-16.210			-3.242
96004.000			-16.209			-3.242
96104.000			-16.209			-3.242
96204.000			-16.207			-3.241
96304.000			-16.207			-3.241
96405.000			-16.207			-3.241
96504.000			-16.206			-3.241
96604.000			-16.205			-3.241
96705.000			-16.206			-3.241
96804.000			-16.206			-3.241
96903.000			-16.205			-3.241
97005.000			-16.204			-3.241
97104.000			-16.203			-3.241
97204.000			-16.204			-3.241
97305.000			-16.203			-3.241
97404.000			-16.203			-3.241
97504.000			-16.202			-3.240
97604.000			-16.201			-3.240
97704.000			-16.201			-3.240
97804.000			-16.201			-3.240
97905.000			-16.201			-3.240
98004.000			-16.200			-3.240
98104.000			-16.200			-3.240
98205.000			-16.199			-3.240
98303.000			-16.199			-3.240
98404.000			-16.198			-3.240
98505.000			-16.198			-3.240
98604.000			-16.197			-3.239
98704.000			-16.197			-3.239
98805.000			-16.197			-3.239
98904.000			-16.196			-3.239
99003.000			-16.196			-3.239
99105.000			-16.195			-3.239
99204.000			-16.195			-3.239
99304.000			-16.194			-3.239
99405.000			-16.194			-3.239
99504.000			-16.193			-3.239
99605.000			-16.193			-3.239
99704.000			-16.192			-3.238
99804.000			-16.192			-3.238
99904.000			-16.191			-3.238
100004.000			-16.190			-3.238
100104.000			-16.190			-3.238
100205.000			-16.189			-3.238
100304.000			-16.189			-3.238
100404.000			-16.189			-3.238
100505.000			-16.188			-3.238
100603.000			-16.188			-3.238
100704.000			-16.188			-3.238
100805.000			-16.188			-3.238
100904.000			-16.188			-3.238
101004.000			-16.188			-3.238
101105.000			-16.186			-3.237
101204.000			-16.186			-3.237
101303.000			-16.185			-3.237
101405.000			-16.185			-3.237
101504.000			-16.184			-3.237
101604.000			-16.184			-3.237
101705.000			-16.184			-3.237
101804.000			-16.184			-3.237
101904.000			-16.184			-3.237
102004.000			-16.182			-3.236
102104.000			-16.181			-3.236
102204.000			-16.181			-3.236
102305.000			-16.181			-3.236
102404.000			-16.180			-3.236
102504.000			-16.179			-3.236
102605.000			-16.180			-3.236
102703.000			-16.179			-3.236
102805.000			-16.178			-3.236
102904.000			-16.176			-3.235
103004.000			-16.176			-3.235
103105.000			-16.177			-3.235
103204.000			-16.177			-3.235
103304.000			-16.177			-3.235
103404.000			-16.176			-3.235
103504.000			-16.175			-3.235
103603.000			-16.174			-3.235
103705.000			-16.174			-3.235
103804.000			-16.173			-3.235
103904.000			-16.173			-3.235
104005.000			-16.173			-3.235
104103.000			-16.173			-3.235
104204.000			-16.172			-3.234
104305.000			-16.171			-3.234
104404.000			-16.170			-3.234
104504.000			-16.171			-3.234
104605.000			-16.170			-3.234
104704.000			-16.170			-3.234
104803.000			-16.170			-3.234
104905.000			-16.169			-3.234
105004.000			-16.168			-3.234
105104.000			-16.168			-3.234
105205.000			-16.168			-3.234
105304.000			-16.167			-3.233
105404.000			-16.166			-3.233
105504.000			-16.166			-3.233
105604.000			-16.165			-3.233
105703.000			-16.165			-3.233
105805.000			-16.165			-3.233
105904.000			-16.166			-3.233
106005.000			-16.165			-3.233
106104.000			-16.164			-3.233
106204.000			-16.164			-3.233
106305.000			-16.163			-3.233
106403.000			-16.161			-3.232
106504.000			-16.161			-3.232
106605.000			-16.160			-3.232
106704.000			-16.161			-3.232
106804.000			-16.160			-3.232
106905.000			-16.159			-3.232
107004.000			-16.159			-3.232
107103.000			-16.159			-3.232
107205.000			-16.159			-3.232
107304.000			-16.158			-3.232
107404.000			-16.158			-3.232
107505.000			-16.157			-3.231
107604.000			-16.156			-3.231
107704.000			-16.156			-3.231
107804.000			-16.156			-3.231
107904.000			-16.155			-3.231
108004.000			-16.154			-3.231
108105.000			-16.153			-3.231
108204.000			-16.154			-3.231
108304.000			-16.154			-3.231
108405.000			-16.153			-3.231
108503.000			-16.153			-3.231
108604.000			-16.153			-3.231
108705.000			-16.153			-3.231
108804.000			-16.152			-3.230
108904.000			-16.152			-3.230
109005.000			-16.151			-3.230
109104.000			-16.150			-3.230
109203.000			-16.149			-3.230
109304.000			-16.150			-3.230
109403.000			-16.148			-3.230
109505.000			-16.148			-3.230
109604.000			-16.148			-3.230
109704.000			-16.147			-3.229
109805.000			-16.148			-3.230
109904.000			-16.147			-3.229
110004.000			-16.148			-3.230
110104.000			-16.146			-3.229
110204.000			-16.145			-3.229
110304.000			-16.145			-3.229
110405.000			-16.145			-3.229
110504.000			-16.144			-3.229
110604.000			-16.144			-3.229
110705.000			-16.143			-3.229
110803.000			-16.143			-3.229
110904.000			-16.142			-3.228
111005.000			-16.142			-3.228
111104.000			-16.142			-3.228
111204.000			-16.141			-3.228
111305.000			-16.141			-3.228
111404.000			-16.141			-3.228
111503.000			-16.140			-3.228
111605.000			-16.139			-3.228
111704.000			-16.139			-3.228
111804.000			-16.138			-3.228
111905.000			-16.139			-3.228
112004.000			-16.139			-3.228
112104.000			-16.138			-3.228
112204.000			-16.137			-3.227
112304.000			-16.137			-3.227
112405.000			-16.137			-3.227
112504.000			-16.136			-3.227
112604.000			-16.135			-3.227
112705.000			-16.135			-3.227
112804.000			-16.136			-3.227
112903.000			-16.135			-3.227
113005.000			-16.134			-3.227
113104.000			-16.133			-3.227
113204.000			-16.133			-3.227
113305.000			-16.133			-3.227
113404.000			-16.133			-3.227
113504.000			-16.132			-3.226
113604.000			-16.130			-3.226
113704.000			-16.129			-3.226
113804.000			-16.129			-3.226
113905.000			-16.130			-3.226
114004.000			-16.130			-3.226
114104.000			-16.130			-3.226
114205.000			-16.129			-3.226
114303.000			-16.129			-3.226
114404.000			-16.128			-3.226
114505.000			-16.127			-3.225
114604.000			-16.127			-3.225
114704.000			-16.128			-3.226
114805.000			-16.127			-3.225
114904.000			-16.126			-3.225
115003.000			-16.125			-3.225
115105.000			-16.124			-3.225
115204.000			-16.124			-3.225
115304.000			-16.124			-3.225
115405.000			-16.124			-3.225
115504.000			-16.124			-3.225
115605.000			-16.124			-3.225
115703.000			-16.123			-3.225
115804.000			-16.123			-3.225
115905.000			-16.121			-3.224
116004.000			-16.122			-3.224
116104.000			-16.121			-3.224
116205.000			-16.121			-3.224
116304.000			-16.120			-3.224
116403.000			-16.120			-3.224
116505.000			-16.120			-3.224
116604.000			-16.119			-3.224
116704.000			-16.120			-3.224
116805.000			-16.119			-3.224
116904.000			-16.119			-3.224
117004.000			-16.117			-3.223
117104.000			-16.118			-3.224
117204.000			-16.117			-3.223
117304.000			-16.116			-3.223
117405.000			-16.116			-3.223
117504.000			-16.117			-3.223
117604.000			-16.115			-3.223
117705.000			-16.114			-3.223
117803.000			-16.115			-3.223
117904.000			-16.115			-3.223
118005.000			-16.113			-3.223
118104.000			-16.113			-3.223
118204.000			-16.113			-3.223
118305.000			-16.113			-3.223
118404.000			-16.113			-3.223
118503.000			-16.112			-3.222
118605.000			-16.110			-3.222
118704.000			-16.110			-3.222
118805.000			-16.110			-3.222
118904.000			-16.110			-3.222
119004.000			-16.110			-3.222
119105.000			-16.110			-3.222
119203.000			-16.110			-3.222
119304.000			-16.109			-3.222
119405.000			-16.109			-3.222
119504.000			-16.108			-3.222
119604.000			-16.106			-3.221
119705.000			-16.106			-3.221
119804.000			-16.106			-3.221
119903.000			-16.106			-3.221
120005.000			-16.106			-3.221
120104.000			-16.105			-3.221
120204.000			-16.105			-3.221
120305.000			-16.105			-3.221
120404.000			-16.105			-3.221
120504.000			-16.104			-3.221
120604.000			-16.104			-3.221
120704.000			-16.103			-3.221
120804.000			-16.103			-3.221
120905.000			-16.102			-3.220
121004.000			-16.102			-3.220
121104.000			-16.102			-3.220
121205.000			-16.101			-3.220
121303.000			-16.101			-3.220
121404.000			-16.102			-3.220
121505.000			-16.101			-3.220
121604.000			-16.100			-3.220
121704.000			-16.099			-3.220
121805.000			-16.098			-3.220
121904.000			-16.099			-3.220
122003.000			-16.098			-3.220
122104.000			-16.097			-3.219
122203.000			-16.097			-3.219
122305.000			-16.098			-3.220
122404.000			-16.097			-3.219
122504.000			-16.097			-3.219
122605.000			-16.097			-3.219
122704.000			-16.096			-3.219
122804.000			-16.096			-3.219
122904.000			-16.095			-3.219
123004.000			-16.095			-3.219
123104.000			-16.094			-3.219
123205.000			-16.095			-3.219
123304.000			-16.095			-3.219
123404.000			-16.093			-3.219
123505.000			-16.092			-3.218
123603.000			-16.092			-3.218
123704.000			-16.092			-3.218
123805.000			-16.092			-3.218
123904.000			-16.091			-3.218
124004.000			-16.090			-3.218
124105.000			-16.089			-3.218
124204.000			-16.090			-3.218
124303.000			-16.090			-3.218
124405.000			-16.089			-3.218
124504.000			-16.090			-3.218
124604.000			-16.089			-3.218
124705.000			-16.088			-3.218
124804.000			-16.087			-3.217
124904.000			-16.087			-3.217
125004.000			-16.087			-3.217
125104.000			-16.088			-3.218
125203.000			-16.088			-3.218
125304.000			-16.086			-3.217
125404.000			-16.086			-3.217
125505.000			-16.085			-3.217
125604.000			-16.085			-3.217
125704.000			-16.084			-3.217
125805.000			-16.084			-3.217
125903.000			-16.084			-3.217
126004.000			-16.083			-3.217
126105.000			-16.083			-3.217
126204.000			-16.082			-3.216
126304.000			-16.081			-3.216
126405.000			-16.082			-3.216
126504.000			-16.082			-3.216
126603.000			-16.081			-3.216
126705.000			-16.080			-3.216
126804.000			-16.080			-3.216
126904.000			-16.080			-3.216
127005.000			-16.078			-3.216
127104.000			-16.078			-3.216
127204.000			-16.079			-3.216
127304.000			-16.079			-3.216
127404.000			-16.078			-3.216
127504.000			-16.077			-3.215
127605.000			-16.076			-3.215
127704.000			-16.076			-3.215
127804.000			-16.076			-3.215
127905.000			-16.075			-3.215
128003.000			-16.075			-3.215
128104.000			-16.076			-3.215
128205.000			-16.073			-3.215
128304.000			-16.074			-3.215
128405.000			-16.075			-3.215
128504.000			-16.074			-3.215
128604.000			-16.073			-3.215
128704.000			-16.073			-3.215
128804.000			-16.073			-3.215
128903.000			-16.073			-3.215
129005.000			-16.072			-3.214
129104.000			-16.071			-3.214
129204.000			-16.071			-3.214
129305.000			-16.070			-3.214
129404.000			-16.070			-3.214
129504.000			-16.069			-3.214
129604.000			-16.069			-3.214
129704.000			-16.069			-3.214
129804.000			-16.069			-3.214
129905.000			-16.068			-3.214
130004.000			-16.068			-3.214
130104.000			-16.069			-3.214
130205.000			-16.069			-3.214
130303.000			-16.067			-3.213
130404.000			-16.067			-3.213
130505.000			-16.066			-3.213
130604.000			-16.065			-3.213
130704.000			-16.066			-3.213
130805.000			-16.066			-3.213
130904.000			-16.064			-3.213
131003.000			-16.064			-3.213
131105.000			-16.063			-3.213
131204.000			-16.063			-3.213
131304.000			-16.064			-3.213
131405.000			-16.063			-3.213
131504.000			-16.062			-3.212
131605.000			-16.061			-3.212
131703.000			-16.060			-3.212
131804.000			-16.060			-3.212
131905.000			-16.059			-3.212
132004.000			-16.059			-3.212
132104.000			-16.059			-3.212
132205.000			-16.059			-3.212
132304.000			-16.060			-3.212
132404.000			-16.059			-3.212
132505.000			-16.057			-3.211
132603.000			-16.057			-3.211
132704.000			-16.057			-3.211
132805.000			-16.057			-3.211
132904.000			-16.057			-3.211
133004.000			-16.056			-3.211
133105.000			-16.056			-3.211
133204.000			-16.056			-3.211
133304.000			-16.055			-3.211
133405.000			-16.056			-3.211
133503.000			-16.055			-3.211
133604.000			-16.055			-3.211
133705.000			-16.054			-3.211
133804.000			-16.053			-3.211
133904.000			-16.053			-3.211
134005.000			-16.053			-3.211
134104.000			-16.053			-3.211
134203.000			-16.052			-3.210
134305.000			-16.051			-3.210
134404.000			-16.052			-3.210
134504.000			-16.052			-3.210
134605.000			-16.051			-3.210
134704.000			-16.051			-3.210
134805.000			-16.051			-3.210
134904.000			-16.050			-3.210
135004.000			-16.050			-3.210
135104.000			-16.050			-3.210
135204.000			-16.050			-3.210
135304.000			-16.050			-3.210
135405.000			-16.048			-3.210
135504.000			-16.048			-3.210
135604.000			-16.049			-3.210
135705.000			-16.048			-3.210
135803.000			-16.047			-3.209
135904.000			-16.047			-3.209
136004.000			-16.048			-3.210
136104.000			-16.047			-3.209
136204.000			-16.046			-3.209
136305.000			-16.045			-3.209
136404.000			-16.045			-3.209
136504.000			-16.045			-3.209
136605.000			-16.045			-3.209
136703.000			-16.044			-3.209
136804.000			-16.044			-3.209
136905.000			-16.044			-3.209
137004.000			-16.044			-3.209
137104.000			-16.043			-3.209
137205.000			-16.042			-3.208
137304.000			-16.043			-3.209
137404.000			-16.042			-3.208
137505.000			-16.042			-3.208
137603.000			-16.042			-3.208
137704.000			-16.042			-3.208
137805.000			-16.041			-3.208
137904.000			-16.040			-3.208
138005.000			-16.041			-3.208
138104.000			-16.040			-3.208
138204.000			-16.040			-3.208
138304.000			-16.039			-3.208
138404.000			-16.039			-3.208
138503.000			-16.039			-3.208
138605.000			-16.039			-3.208
138704.000			-16.037			-3.207
138804.000			-16.037			-3.207
138905.000			-16.038			-3.208
139004.000			-16.037			-3.207
139104.000			-16.037			-3.207
139204.000			-16.036			-3.207
139304.000			-16.035			-3.207
139403.000			-16.034			-3.207
139505.000			-16.035			-3.207
139604.000			-16.035			-3.207
139704.000			-16.035			-3.207
139805.000			-16.034			-3.207
139904.000			-16.034			-3.207
140004.000			-16.034			-3.207
140104.000			-16.034			-3.207
140204.000			-16.033			-3.207
140304.000			-16.033			-3.207
140405.000			-16.033			-3.207
140504.000			-16.031			-3.206
140604.000			-16.032			-3.206
140705.000			-16.031			-3.206
140804.000			-16.031			-3.206
140904.000			-16.031			-3.206
141004.000			-16.031			-3.206
141104.000			-16.030			-3.206
141205.000			-16.030			-3.206
141304.000			-16.030			-3.206
141404.000			-16.029			-3.206
141505.000			-16.029			-3.206
141604.000			-16.029			-3.206
141703.000			-16.028			-3.206
141805.000			-16.027			-3.205
141903.000			-16.026			-3.205
142004.000			-16.026			-3.205
142105.000			-16.027			-3.205
142204.000			-16.025			-3.205
142304.000			-16.025			-3.205
142405.000			-16.026			-3.205
142504.000			-16.025			-3.205
142603.000			-16.025			-3.205
142705.000			-16.025			-3.205
142804.000			-16.024			-3.205
142904.000			-16.024			-3.205
143005.000			-16.024			-3.205
143104.000			-16.023			-3.205
143204.000			-16.024			-3.205
143304.000			-16.023			-3.205
143404.000			-16.022			-3.204
143503.000			-16.022			-3.204
143605.000			-16.021			-3.204
143704.000			-16.021			-3.204
143804.000			-16.020			-3.204
143905.000			-16.020			-3.204
144004.000			-16.020			-3.204
144104.000			-16.020			-3.204
144204.000			-16.020			-3.204
144304.000			-16.019			-3.204
144405.000			-16.019			-3.204
144504.000			-16.019			-3.204
144604.000			-16.018			-3.204
144705.000			-16.017			-3.203
144804.000			-16.018			-3.204
144903.000			-16.017			-3.203
145005.000			-16.017			-3.203
145104.000			-16.017			-3.203
145204.000			-16.017			-3.203
145305.000			-16.016			-3.203
145404.000			-16.015			-3.203
145504.000			-16.014			-3.203
145605.000			-16.014			-3.203
145704.000			-16.014			-3.203
145803.000			-16.013			-3.203
145905.000			-16.013			-3.203
146004.000			-16.013			-3.203
146104.000			-16.012			-3.202
146205.000			-16.012			-3.202
146304.000			-16.012			-3.202
146404.000			-16.012			-3.202
146505.000			-16.011			-3.202
146604.000			-16.011			-3.202
146703.000			-16.010			-3.202
146805.000			-16.011			-3.202
146904.000			-16.010			-3.202
147004.000			-16.010			-3.202
147105.000			-16.011			-3.202
147204.000			-16.009			-3.202
147304.000			-16.009			-3.202
147404.000			-16.008			-3.202
147504.000			-16.009			-3.202
147603.000			-16.009			-3.202
147704.000			-16.008			-3.202
147804.000			-16.008			-3.202
147905.000			-16.008			-3.202
148004.000			-16.007			-3.201
148104.000			-16.007			-3.201
148205.000			-16.007			-3.201
148303.000			-16.007			-3.201
148404.000			-16.006			-3.201
148505.000			-16.005			-3.201
148604.000			-16.005			-3.201
148704.000			-16.004			-3.201
148805.000			-16.004			-3.201
148904.000			-16.004			-3.201
149004.000			-16.003			-3.201
149105.000			-16.003			-3.201
149203.000			-16.003			-3.201
149304.000			-16.003			-3.201
149405.000			-16.003			-3.201
149504.000			-16.002			-3.200
149604.000			-16.002			-3.200
149705.000			-16.001			-3.200
149804.000			-16.001			-3.200
149904.000			-16.002			-3.200
150005.000			-16.002			-3.200
150103.000			-16.000			-3.200
150204.000			-15.999			-3.200
150305.000			-15.998			-3.200
150404.000			-15.999			-3.200
150504.000			-15.999			-3.200
150605.000			-15.999			-3.200
150704.000			-15.998			-3.200
150805.000			-15.998			-3.200
150904.000			-15.997			-3.199
151003.000			-15.997			-3.199
151105.000			-15.997			-3.199
151204.000			-15.997			-3.199
151304.000			-15.997			-3.199
151405.000			-15.996			-3.199
151504.000			-15.997			-3.199
151604.000			-15.996			-3.199
151705.000			-15.997			-3.199
151804.000			-15.996			-3.199
151903.000			-15.994			-3.199
152005.000			-15.994			-3.199
152103.000			-15.995			-3.199
152204.000			-15.995			-3.199
152305.000			-15.994			-3.199
152404.000			-15.994			-3.199
152504.000			-15.993			-3.199
152605.000			-15.993			-3.199
152704.000			-15.993			-3.199
152804.000			-15.992			-3.198
152905.000			-15.991			-3.198
153003.000			-15.991			-3.198
153104.000			-15.991			-3.198
153205.000			-15.990			-3.198
153304.000			-15.990			-3.198
153404.000			-15.990			-3.198
153505.000			-15.989			-3.198
153604.000			-15.989			-3.198
153704.000			-15.989			-3.198
153805.000			-15.989			-3.198
153903.000			-15.988			-3.198
154005.000			-15.988			-3.198
154103.000			-15.988			-3.198
154204.000			-15.988			-3.198
154305.000			-15.987			-3.197
154404.000			-15.987			-3.197
154504.000			-15.986			-3.197
154605.000			-15.986			-3.197
154704.000			-15.985			-3.197
154804.000			-15.986			-3.197
154905.000			-15.986			-3.197
155003.000			-15.985			-3.197
155104.000			-15.984			-3.197
155205.000			-15.984			-3.197
155304.000			-15.984			-3.197
155404.000			-15.984			-3.197
155505.000			-15.983			-3.197
155604.000			-15.983			-3.197
155704.000			-15.983			-3.197
155805.000			-15.982			-3.196
155903.000			-15.981			-3.196
156004.000			-15.982			-3.196
156104.000			-15.982			-3.196
156204.000			-15.981			-3.196
156304.000			-15.980			-3.196
156405.000			-15.979			-3.196
156504.000			-15.980			-3.196
156604.000			-15.980			-3.196
156705.000			-15.979			-3.196
156803.000			-15.979			-3.196
156904.000			-15.979			-3.196
157004.000			-15.979			-3.196
157104.000			-15.978			-3.196
157205.000			-15.978			-3.196
157304.000			-15.977			-3.195
157404.000			-15.978			-3.196
157505.000			-15.978			-3.196
157604.000			-15.977			-3.195
157704.000			-15.977			-3.195
157805.000			-15.977			-3.195
157903.000			-15.975			-3.195
158004.000			-15.974			-3.195
158104.000			-15.974			-3.195
158204.000			-15.976			-3.195
158304.000			-15.975			-3.195
158405.000			-15.975			-3.195
158504.000			-15.973			-3.195
158604.000			-15.974			-3.195
158705.000			-15.975			-3.195
158804.000			-15.974			-3.195
158904.000			-15.973			-3.195
159004.000			-15.972			-3.194
159104.000			-15.972			-3.194
159204.000			-15.972			-3.194
159305.000			-15.972			-3.194
159404.000			-15.972			-3.194
159504.000			-15.971			-3.194
159605.000			-15.971			-3.194
159704.000			-15.971			-3.194
159804.000			-15.971			-3.194
159904.000			-15.970			-3.194
160004.000			-15.969			-3.194
160103.000			-15.970			-3.194
160205.000			-15.969			-3.194
160304.000			-15.970			-3.194
160405.000			-15.970			-3.194
160504.000			-15.969			-3.194
160604.000			-15.968			-3.194
160705.000			-15.968			-3.194
160804.000			-15.967			-3.193
160904.000			-15.968			-3.194
161004.000			-15.969			-3.194
161104.000			-15.967			-3.193
161203.000			-15.967			-3.193
161305.000			-15.968			-3.194
161404.000			-15.967			-3.193
161504.000			-15.966			-3.193
161605.000			-15.966			-3.193
161704.000			-15.966			-3.193
161804.000			-15.965			-3.193
161904.000			-15.965			-3.193
162004.000			-15.965			-3.193
162103.000			-15.964			-3.193
162205.000			-15.964			-3.193
162304.000			-15.964			-3.193
162404.000			-15.964			-3.193
162505.000			-15.964			-3.193
162604.000			-15.963			-3.193
162704.000			-15.963			-3.193
162804.000			-15.962			-3.192
162904.000			-15.963			-3.193
163003.000			-15.961			-3.192
163105.000			-15.961			-3.192
163204.000			-15.961			-3.192
163304.000			-15.961			-3.192
163405.000			-15.960			-3.192
163504.000			-15.960			-3.192
163605.000			-15.960			-3.192
163704.000			-15.960			-3.192
163804.000			-15.960			-3.192
163904.000			-15.959			-3.192
164004.000			-15.958			-3.192
164104.000			-15.959			-3.192
164205.000			-15.958			-3.192
164304.000			-15.958			-3.192
164404.000			-15.958			-3.192
164505.000			-15.957			-3.191
164604.000			-15.957			-3.191
164704.000			-15.957			-3.191
164804.000			-15.957			-3.191
164904.000			-15.956			-3.191
165003.000			-15.956			-3.191
165105.000			-15.956			-3.191
165204.000			-15.956			-3.191
165304.000			-15.955			-3.191
165405.000			-15.956			-3.191
165504.000			-15.955			-3.191
165604.000			-15.954			-3.191
165704.000			-15.953			-3.191
165804.000			-15.953			-3.191
165903.000			-15.954			-3.191
166005.000			-15.954			-3.191
166104.000			-15.953			-3.191
166204.000			-15.953			-3.191
166305.000			-15.952			-3.190
166404.000			-15.952			-3.190
166504.000			-15.952			-3.190
166605.000			-15.952			-3.190
166704.000			-15.951			-3.190
166803.000			-15.951			-3.190
166904.000			-15.951			-3.190
167004.000			-15.951			-3.190
167105.000			-15.950			-3.190
167204.000			-15.950			-3.190
167304.000			-15.949			-3.190
167405.000			-15.949			-3.190
167504.000			-15.949			-3.190
167604.000			-15.949			-3.190
167704.000			-15.948			-3.190
167804.000			-15.948			-3.190
167903.000			-15.948			-3.190
168005.000			-15.948			-3.190
168104.000			-15.948			-3.190
168204.000			-15.948			-3.190
168305.000			-15.948			-3.190
168404.000			-15.946			-3.189
168504.000			-15.947			-3.189
168605.000			-15.947			-3.189
168704.000			-15.946			-3.189
168803.000			-15.945			-3.189
168905.000			-15.946			-3.189
169004.000			-15.946			-3.189
169104.000			-15.945			-3.189
169205.000			-15.945			-3.189
169304.000			-15.944			-3.189
169404.000			-15.944			-3.189
169505.000			-15.944			-3.189
169604.000			-15.944			-3.189
169703.000			-15.943			-3.189
169805.000			-15.943			-3.189
169903.000			-15.942			-3.188
170005.000			-15.941			-3.188
170104.000			-15.942			-3.188
170204.000			-15.942			-3.188
170305.000			-15.941			-3.188
170404.000			-15.942			-3.188
170504.000			-15.940			-3.188
170604.000			-15.939			-3.188
170704.000			-15.940			-3.188
170803.000			-15.940			-3.188
170905.000			-15.938			-3.188
171004.000			-15.939			-3.188
171104.000			-15.939			-3.188
171205.000			-15.939			-3.188
171304.000			-15.939			-3.188
171404.000			-15.938			-3.188
171505.000			-15.938			-3.188
171604.000			-15.937			-3.187
171703.000			-15.936			-3.187
171805.000			-15.937			-3.187
171904.000			-15.936			-3.187
172004.000			-15.936			-3.187
172105.000			-15.935			-3.187
172204.000			-15.935			-3.187
172304.000			-15.935			-3.187
172405.000			-15.935			-3.187
172504.000			-15.935			-3.187
172603.000			-15.934			-3.187
172705.000			-15.935			-3.187
172804.000			-15.934			-3.187
172904.000			-15.933			-3.187
173005.000			-15.934			-3.187
173104.000			-15.933			-3.187
173205.000			-15.933			-3.187
173304.000			-15.932			-3.186
173404.000			-15.932			-3.186
173504.000			-15.932			-3.186
173604.000			-15.931			-3.186
173703.000			-15.931			-3.186
173805.000			-15.930			-3.186
173904.000			-15.931			-3.186
174004.000			-15.931			-3.186
174105.000			-15.931			-3.186
174204.000			-15.930			-3.186
174304.000			-15.930			-3.186
174404.000			-15.930			-3.186
174504.000			-15.930			-3.186
174604.000			-15.930			-3.186
174705.000			-15.929			-3.186
174804.000			-15.928			-3.186
174904.000			-15.927			-3.185
175005.000			-15.927			-3.185
175104.000			-15.927			-3.185
175204.000			-15.926			-3.185
175304.000			-15.925			-3.185
175404.000			-15.924			-3.185
175503.000			-15.924			-3.185
175605.000			-15.925			-3.185
175704.000			-15.923			-3.185
175804.000			-15.923			-3.185
175905.000			-15.924			-3.185
176004.000			-15.924			-3.185
176104.000			-15.923			-3.185
176205.000			-15.924			-3.185
176304.000			-15.923			-3.185
176403.000			-15.923			-3.185
176504.000			-15.924			-3.185
176604.000			-15.922			-3.184
176705.000			-15.921			-3.184
176804.000			-15.921			-3.184
176904.000			-15.922			-3.184
177005.000			-15.920			-3.184
177104.000			-15.921			-3.184
177204.000			-15.920			-3.184
177304.000			-15.920			-3.184
177404.000			-15.920			-3.184
177503.000			-15.922			-3.184
177605.000			-15.922			-3.184
177704.000			-15.921			-3.184
177804.000			-15.920			-3.184
177905.000			-15.920			-3.184
178004.000			-15.920			-3.184
178104.000			-15.919			-3.184
178204.000			-15.919			-3.184
178304.000			-15.919			-3.184
178403.000			-15.919			-3.184
178505.000			-15.918			-3.184
178604.000			-15.917			-3.183
178704.000			-15.918			-3.184
178805.000			-15.918			-3.184
178904.000			-15.918			-3.184
179004.000			-15.918			-3.184
179105.000			-15.917			-3.183
179204.000			-15.917			-3.183
179303.000			-15.917			-3.183
179405.000			-15.916			-3.183
179504.000			-15.917			-3.183
179605.000			-15.917			-3.183
179704.000			-15.915			-3.183
179804.000			-15.915			-3.183
179905.000			-15.916			-3.183
180004.000			-15.915			-3.183
180104.000			-15.914			-3.183
180204.000			-15.914			-3.183
180304.000			-15.913			-3.183
180403.000			-15.913			-3.183
180505.000			-15.914			-3.183
180604.000			-15.915			-3.183
180704.000			-15.913			-3.183
180805.000			-15.912			-3.183
180904.000			-15.912			-3.182
181004.000			-15.912			-3.182
181104.000			-15.911			-3.182
181204.000			-15.912			-3.182
181304.000			-15.912			-3.182
181405.000			-15.912			-3.182
181504.000			-15.911			-3.182
181604.000			-15.910			-3.182
181705.000			-15.910			-3.182
181804.000			-15.909			-3.182
181904.000			-15.909			-3.182
182004.000			-15.909			-3.182
182104.000			-15.909			-3.182
182203.000			-15.908			-3.182
182305.000			-15.907			-3.181
182404.000			-15.907			-3.181
182504.000			-15.907			-3.181
182605.000			-15.907			-3.181
182704.000			-15.907			-3.181
182805.000			-15.907			-3.181
182904.000			-15.906			-3.181
183004.000			-15.905			-3.181
183104.000			-15.905			-3.181
183204.000			-15.905			-3.181
183304.000			-15.905			-3.181
183405.000			-15.905			-3.181
183504.000			-15.905			-3.181
183604.000			-15.905			-3.181
183705.000			-15.904			-3.181
183804.000			-15.904			-3.181
183904.000			-15.904			-3.181
184004.000			-15.904			-3.181
184104.000			-15.904			-3.181
184204.000			-15.905			-3.181
184305.000			-15.904			-3.181
184404.000			-15.903			-3.181
184504.000			-15.902			-3.180
184605.000			-15.902			-3.180
184704.000			-15.902			-3.180
184804.000			-15.902			-3.180
184904.000			-15.902			-3.180
185004.000			-15.902			-3.180
185103.000			-15.902			-3.180
185205.000			-15.901			-3.180
185304.000			-15.899			-3.180
185404.000			-15.900			-3.180
185505.000			-15.900			-3.180
185604.000			-15.900			-3.180
185704.000			-15.900			-3.180
185804.000			-15.900			-3.180
185904.000			-15.899			-3.180
186003.000			-15.899			-3.180
186104.000			-15.899			-3.180
186204.000			-15.899			-3.180
186305.000			-15.899			-3.180
186404.000			-15.898			-3.180
186504.000			-15.897			-3.179
186605.000			-15.899			-3.180
186704.000			-15.899			-3.180
186804.000			-15.897			-3.179
186904.000			-15.898			-3.180
187004.000			-15.897			-3.179
187103.000			-15.897			-3.179
187205.000			-15.896			-3.179
187304.000			-15.895			-3.179
187404.000			-15.896			-3.179
187505.000			-15.896			-3.179
187604.000			-15.896			-3.179
187704.000			-15.895			-3.179
187805.000			-15.894			-3.179
187904.000			-15.894			-3.179
188003.000			-15.894			-3.179
188105.000			-15.894			-3.179
188203.000			-15.892			-3.178
188304.000			-15.892			-3.178
188405.000			-15.892			-3.178
188504.000			-15.892			-3.178
188604.000			-15.891			-3.178
188705.000			-15.891			-3.178
188804.000			-15.892			-3.178
188904.000			-15.891			-3.178
189005.000			-15.890			-3.178
189103.000			-15.890			-3.178
189205.000			-15.891			-3.178
189304.000			-15.891			-3.178
189404.000			-15.892			-3.178
189505.000			-15.891			-3.178
189604.000			-15.890			-3.178
189704.000			-15.891			-3.178
189805.000			-15.890			-3.178
189904.000			-15.889			-3.178
190004.000			-15.889			-3.178
190105.000			-15.890			-3.178
190203.000			-15.889			-3.178
190304.000			-15.890			-3.178
190405.000			-15.889			-3.178
190504.000			-15.888			-3.178
190604.000			-15.888			-3.178
190705.000			-15.888			-3.178
190804.000			-15.888			-3.178
190904.000			-15.888			-3.178
191005.000			-15.887			-3.177
191104.000			-15.888			-3.178
191204.000			-15.888			-3.178
191304.000			-15.887			-3.177
191404.000			-15.887			-3.177
191504.000			-15.888			-3.178
191605.000			-15.887			-3.177
191704.000			-15.887			-3.177
191804.000			-15.886			-3.177
191905.000			-15.885			-3.177
192004.000			-15.885			-3.177
192104.000			-15.885			-3.177
192204.000			-15.886			-3.177
192304.000			-15.885			-3.177
192403.000			-15.885			-3.177
192504.000			-15.885			-3.177
192604.000			-15.885			-3.177
192705.000			-15.884			-3.177
192804.000			-15.883			-3.177
192904.000			-15.882			-3.176
193005.000			-15.883			-3.177
193104.000			-15.883			-3.177
193204.000			-15.883			-3.177
193304.000			-15.882			-3.176
193404.000			-15.882			-3.176
193504.000			-15.882			-3.176
193605.000			-15.882			-3.176
193704.000			-15.882			-3.176
193804.000			-15.880			-3.176
193905.000			-15.881			-3.176
194004.000			-15.881			-3.176
194104.000			-15.880			-3.176
194204.000			-15.880			-3.176
194304.000			-15.880			-3.176
194403.000			-15.880			-3.176
194505.000			-15.880			-3.176
194604.000			-15.880			-3.176
194704.000			-15.879			-3.176
194805.000			-15.877			-3.175
194904.000			-15.877			-3.175
195004.000			-15.878			-3.176
195105.000			-15.878			-3.176
195204.000			-15.877			-3.175
195303.000			-15.877			-3.175
195405.000			-15.878			-3.176
195504.000			-15.877			-3.175
195605.000			-15.877			-3.175
195704.000			-15.877			-3.175
195804.000			-15.877			-3.175
195905.000			-15.877			-3.175
196004.000			-15.878			-3.176
196104.000			-15.876			-3.175
196204.000			-15.876			-3.175
196304.000			-15.876			-3.175
196403.000			-15.876			-3.175
196505.000			-15.875			-3.175
196604.000			-15.875			-3.175
196704.000			-15.875			-3.175
196805.000			-15.874			-3.175
196904.000			-15.874			-3.175
197004.000			-15.874			-3.175
197105.000			-15.873			-3.175
197204.000			-15.872			-3.174
197303.000			-15.872			-3.174
197405.000			-15.872			-3.174
197503.000			-15.872			-3.174
197604.000			-15.871			-3.174
197705.000			-15.871			-3.174
197804.000			-15.872			-3.174
197904.000			-15.872			-3.174
198005.000			-15.871			-3.174
198104.000			-15.870			-3.174
198204.000			-15.870			-3.174
198305.000			-15.869			-3.174
198403.000			-15.870			-3.174
198504.000			-15.870			-3.174
198605.000			-15.869			-3.174
198704.000			-15.870			-3.174
198805.000			-15.869			-3.174
198904.000			-15.869			-3.174
199004.000			-15.870			-3.174
199105.000			-15.868			-3.174
199204.000			-15.868			-3.174
199304.000			-15.868			-3.174
199405.000			-15.868			-3.174
199503.000			-15.868			-3.174
199604.000			-15.868			-3.174
199704.000			-15.868			-3.174
199804.000			-15.867			-3.173
199904.000			-15.867			-3.173
200005.000			-15.867			-3.173
200104.000			-15.867			-3.173
200204.000			-15.867			-3.173
200305.000			-15.866			-3.173
200403.000			-15.865			-3.173
200504.000			-15.865			-3.173
200604.000			-15.866			-3.173
200704.000			-15.865			-3.173
200804.000			-15.865			-3.173
200905.000			-15.865			-3.173
201004.000			-15.865			-3.173
201104.000			-15.863			-3.173
201205.000			-15.863			-3.173
201303.000			-15.863			-3.173
201404.000			-15.862			-3.172
201504.000			-15.863			-3.173
201604.000			-15.862			-3.172
201704.000			-15.862			-3.172
201805.000			-15.862			-3.172
201904.000			-15.862			-3.172
202005.000			-15.861			-3.172
202104.000			-15.861			-3.172
202203.000			-15.862			-3.172
202305.000			-15.862			-3.172
202404.000			-15.862			-3.172
202504.000			-15.860			-3.172
202605.000			-15.861			-3.172
202704.000			-15.859			-3.172
202804.000			-15.859			-3.172
202905.000			-15.860			-3.172
203004.000			-15.860			-3.172
203103.000			-15.860			-3.172
203205.000			-15.859			-3.172
203304.000			-15.858			-3.172
203404.000			-15.859			-3.172
203505.000			-15.859			-3.172
203604.000			-15.857			-3.171
203704.000			-15.857			-3.171
203805.000			-15.857			-3.171
203904.000			-15.857			-3.171
204003.000			-15.857			-3.171
204105.000			-15.857			-3.171
204203.000			-15.856			-3.171
204304.000			-15.856			-3.171
204405.000			-15.857			-3.171
204504.000			-15.858			-3.172
204604.000			-15.857			-3.171
204705.000			-15.856			-3.171
204804.000			-15.856			-3.171
204903.000			-15.855			-3.171
205005.000			-15.854			-3.171
205103.000			-15.855			-3.171
205205.000			-15.855			-3.171
205304.000			-15.854			-3.171
205404.000			-15.854			-3.171
205505.000			-15.854			-3.171
205604.000			-15.853			-3.171
205704.000			-15.853			-3.171
205804.000			-15.853			-3.171
205904.000			-15.853			-3.171
206003.000			-15.853			-3.171
206105.000			-15.853			-3.171
206204.000			-15.853			-3.171
206304.000			-15.853			-3.171
206405.000			-15.853			-3.171
206504.000			-15.852			-3.170
206604.000			-15.852			-3.170
206704.000			-15.851			-3.170
206804.000			-15.851			-3.170
206903.000			-15.852			-3.170
207005.000			-15.851			-3.170
207104.000			-15.851			-3.170
207204.000			-15.850			-3.170
207305.000			-15.851			-3.170
207404.000			-15.850			-3.170
207504.000			-15.849			-3.170
207604.000			-15.849			-3.170
207704.000			-15.849			-3.170
207803.000			-15.849			-3.170
207905.000			-15.848			-3.170
208004.000			-15.848			-3.170
208104.000			-15.848			-3.170
208205.000			-15.847			-3.169
208304.000			-15.847			-3.169
208405.000			-15.847			-3.169
208504.000			-15.848			-3.170
208604.000			-15.847			-3.169
208704.000			-15.847			-3.169
208804.000			-15.847			-3.169
208904.000			-15.847			-3.169
209005.000			-15.844			-3.169
209104.000			-15.844			-3.169
209204.000			-15.845			-3.169
209305.000			-15.845			-3.169
209404.000			-15.844			-3.169
209504.000			-15.845			-3.169
209604.000			-15.844			-3.169
209704.000			-15.843			-3.169
209804.000			-15.844			-3.169
209905.000			-15.843			-3.169
210004.000			-15.843			-3.169
210104.000			-15.842			-3.168
210205.000			-15.842			-3.168
210304.000			-15.842			-3.168
210404.000			-15.841			-3.168
210504.000			-15.841			-3.168
210604.000			-15.840			-3.168
210704.000			-15.842			-3.168
210805.000			-15.841			-3.168
210904.000			-15.841			-3.168
211004.000			-15.839			-3.168
211105.000			-15.839			-3.168
211203.000			-15.839			-3.168
211304.000			-15.838			-3.168
211404.000			-15.839			-3.168
211504.000			-15.839			-3.168
211605.000			-15.838			-3.168
211704.000			-15.838			-3.168
211804.000			-15.837			-3.167
211905.000			-15.837			-3.167
212004.000			-15.836			-3.167
212103.000			-15.837			-3.167
212205.000			-15.837			-3.167
212303.000			-15.836			-3.167
212404.000			-15.835			-3.167
212505.000			-15.836			-3.167
212604.000			-15.836			-3.167
212704.000			-15.835			-3.167
212805.000			-15.834			-3.167
212904.000			-15.836			-3.167
213003.000			-15.836			-3.167
213105.000			-15.835			-3.167
213204.000			-15.834			-3.167
213304.000			-15.834			-3.167
213405.000			-15.834			-3.167
213504.000			-15.834			-3.167
213604.000			-15.834			-3.167
213705.000			-15.834			-3.167
213804.000			-15.834			-3.167
213903.000			-15.834			-3.167
214005.000			-15.834			-3.167
214104.000			-15.833			-3.167
214204.000			-15.832			-3.166
214305.000			-15.832			-3.166
214404.000			-15.832			-3.166
214504.000			-15.832			-3.166
214605.000			-15.831			-3.166
214704.000			-15.831			-3.166
214805.000			-15.831			-3.166
214904.000			-15.831			-3.166
215003.000			-15.831			-3.166
215105.000			-15.830			-3.166
215204.000			-15.829			-3.166
215304.000			-15.830			-3.166
215405.000			-15.830			-3.166
215504.000			-15.830			-3.166
215604.000			-15.829			-3.166
215705.000			-15.830			-3.166
215804.000			-15.830			-3.166
215903.000			-15.829			-3.166
216005.000			-15.828			-3.166
216104.000			-15.829			-3.166
216204.000			-15.829			-3.166
216305.000			-15.828			-3.166
216404.000			-15.827			-3.165
216504.000			-15.828			-3.166
216605.000			-15.828			-3.166
216704.000			-15.828			-3.166
216803.000			-15.827			-3.165
216905.000			-15.827			-3.165
217004.000			-15.827			-3.165
217104.000			-15.827			-3.165
217205.000			-15.827			-3.165
217304.000			-15.826			-3.165
217404.000			-15.826			-3.165
217505.000			-15.826			-3.165
217604.000			-15.827			-3.165
217703.000			-15.826			-3.165
217805.000			-15.826			-3.165
217904.000			-15.825			-3.165
218005.000			-15.825			-3.165
218104.000			-15.824			-3.165
218204.000			-15.825			-3.165
218305.000			-15.824			-3.165
218404.000			-15.824			-3.165
218504.000			-15.825			-3.165
218604.000			-15.824			-3.165
218704.000			-15.824			-3.165
218804.000			-15.823			-3.165
218905.000			-15.822			-3.164
219004.000			-15.823			-3.165
219104.000			-15.823			-3.165
219205.000			-15.822			-3.164
219304.000			-15.822			-3.164
219404.000			-15.822			-3.164
219504.000			-15.822			-3.164
219604.000			-15.822			-3.164
219704.000			-15.822			-3.164
219805.000			-15.821			-3.164
219904.000			-15.821			-3.164
220004.000			-15.821			-3.164
220105.000			-15.821			-3.164
220204.000			-15.819			-3.164
220304.000			-15.819			-3.164
220404.000			-15.820			-3.164
220504.000			-15.821			-3.164
220604.000			-15.821			-3.164
220705.000			-15.820			-3.164
220804.000			-15.819			-3.164
220904.000			-15.818			-3.164
221005.000			-15.818			-3.164
221103.000			-15.819			-3.164
221205.000			-15.819			-3.164
221303.000			-15.817			-3.163
221404.000			-15.816			-3.163
221505.000			-15.817			-3.163
221604.000			-15.818			-3.164
221704.000			-15.817			-3.163
221805.000			-15.817			-3.163
221904.000			-15.817			-3.163
222003.000			-15.817			-3.163
222105.000			-15.816			-3.163
222204.000			-15.815			-3.163
222304.000			-15.815			-3.163
222405.000			-15.815			-3.163
222504.000			-15.815			-3.163
222604.000			-15.816			-3.163
222705.000			-15.815			-3.163
222804.000			-15.814			-3.163
222903.000			-15.815			-3.163
223005.000			-15.814			-3.163
223104.000			-15.813			-3.163
223204.000			-15.813			-3.163
223305.000			-15.814			-3.163
223404.000			-15.814			-3.163
223504.000			-15.814			-3.163
223605.000			-15.813			-3.163
223704.000			-15.813			-3.163
223803.000			-15.813			-3.163
223905.000			-15.813			-3.163
224004.000			-15.813			-3.163
224104.000			-15.812			-3.162
224205.000			-15.812			-3.162
224304.000			-15.813			-3.163
224405.000			-15.812			-3.162
224504.000			-15.811			-3.162
224604.000			-15.811			-3.162
224704.000			-15.810			-3.162
224804.000			-15.809			-3.162
224904.000			-15.811			-3.162
225005.000			-15.810			-3.162
225104.000			-15.810			-3.162
225204.000			-15.809			-3.162
225305.000			-15.810			-3.162
225404.000			-15.809			-3.162
225504.000			-15.809			-3.162
225604.000			-15.808			-3.162
225704.000			-15.808			-3.162
225804.000			-15.808			-3.162
225905.000			-15.809			-3.162
226004.000			-15.807			-3.161
226104.000			-15.808			-3.162
226205.000			-15.808			-3.162
226304.000			-15.808			-3.162
226404.000			-15.807			-3.161
226504.000			-15.807			-3.161
226604.000			-15.807			-3.161
226704.000			-15.807			-3.161
226805.000			-15.805			-3.161
226904.000			-15.805			-3.161
227004.000			-15.806			-3.161
227105.000			-15.805			-3.161
227204.000			-15.805			-3.161
227304.000			-15.806			-3.161
227404.000			-15.805			-3.161
227504.000			-15.804			-3.161
227605.000			-15.805			-3.161
227704.000			-15.805			-3.161
227804.000			-15.805			-3.161
227905.000			-15.805			-3.161
228004.000			-15.803			-3.161
228104.000			-15.803			-3.161
228205.000			-15.803			-3.161
228303.000			-15.804			-3.161
228404.000			-15.803			-3.161
228505.000			-15.804			-3.161
228604.000			-15.802			-3.160
228704.000			-15.802			-3.160
228805.000			-15.802			-3.160
228904.000			-15.802			-3.160
229004.000			-15.802			-3.160
229105.000			-15.802			-3.160
229203.000			-15.801			-3.160
229304.000			-15.801			-3.160
229405.000			-15.800			-3.160
229504.000			-15.800			-3.160
229604.000			-15.801			-3.160
229705.000			-15.800			-3.160
229804.000			-15.800			-3.160
229904.000			-15.800			-3.160
230005.000			-15.800			-3.160
230103.000			-15.799			-3.160
230204.000			-15.799			-3.160
230304.000			-15.799			-3.160
230404.000			-15.797			-3.159
230504.000			-15.797			-3.159
230605.000			-15.797			-3.159
230704.000			-15.797			-3.159
230805.000			-15.797			-3.159
230904.000			-15.797			-3.159
231003.000			-15.797			-3.159
231105.000			-15.796			-3.159
231203.000			-15.796			-3.159
231304.000			-15.795			-3.159
231405.000			-15.795			-3.159
231504.000			-15.795			-3.159
231604.000			-15.795			-3.159
231705.000			-15.794			-3.159
231804.000			-15.794			-3.159
231904.000			-15.794			-3.159
232005.000			-15.795			-3.159
232103.000			-15.794			-3.159
232204.000			-15.794			-3.159
232305.000			-15.794			-3.159
232404.000			-15.793			-3.159
232504.000			-15.792			-3.158
232605.000			-15.794			-3.159
232704.000			-15.794			-3.159
232804.000			-15.793			-3.159
232905.000			-15.792			-3.158
233003.000			-15.792			-3.158
233104.000			-15.793			-3.159
233205.000			-15.792			-3.158
233304.000			-15.791			-3.158
233404.000			-15.792			-3.158
233505.000			-15.792			-3.158
233604.000			-15.792			-3.158
233704.000			-15.792			-3.158
233805.000			-15.792			-3.158
233903.000			-15.792			-3.158
234005.000			-15.792			-3.158
234104.000			-15.792			-3.158
234204.000			-15.791			-3.158
234305.000			-15.791			-3.158
234404.000			-15.791			-3.158
234504.000			-15.790			-3.158
234605.000			-15.791			-3.158
234704.000			-15.791			-3.158
234803.000			-15.790			-3.158
234905.000			-15.790			-3.158
235004.000			-15.790			-3.158
235104.000			-15.789			-3.158
235205.000			-15.789			-3.158
235304.000			-15.789			-3.158
235404.000			-15.789			-3.158
235505.000			-15.789			-3.158
235604.000			-15.788			-3.158
235703.000			-15.788			-3.158
235805.000			-15.788			-3.158
235903.000			-15.790			-3.158
236004.000			-15.789			-3.158
236105.000			-15.788			-3.158
236204.000			-15.787			-3.157
236304.000			-15.787			-3.157
236405.000			-15.787			-3.157
236504.000			-15.787			-3.157
236604.000			-15.788			-3.158
236705.000			-15.787			-3.157
236803.000			-15.787			-3.157
236904.000			-15.786			-3.157
237005.000			-15.787			-3.157
237104.000			-15.787			-3.157
237205.000			-15.786			-3.157
237304.000			-15.786			-3.157
237404.000			-15.786			-3.157
237505.000			-15.785			-3.157
237604.000			-15.787			-3.157
237703.000			-15.785			-3.157
237805.000			-15.784			-3.157
237903.000			-15.784			-3.157
238004.000			-15.784			-3.157
238105.000			-15.785			-3.157
238204.000			-15.785			-3.157
238304.000			-15.783			-3.157
238405.000			-15.783			-3.157
238504.000			-15.784			-3.157
238604.000			-15.784			-3.157
238705.000			-15.783			-3.157
238803.000			-15.783			-3.157
238904.000			-15.782			-3.156
239005.000			-15.782			-3.156
239104.000			-15.782			-3.156
239204.000			-15.782			-3.156
239305.000			-15.782			-3.156
239404.000			-15.782			-3.156
239504.000			-15.781			-3.156
239605.000			-15.780			-3.156
239704.000			-15.780			-3.156
239804.000			-15.780			-3.156
239904.000			-15.779			-3.156
240004.000			-15.779			-3.156
240104.000			-15.780			-3.156
240205.000			-15.779			-3.156
240304.000			-15.779			-3.156
240405.000			-15.779			-3.156
240504.000			-15.779			-3.156
240604.000			-15.779			-3.156
240705.000			-15.779			-3.156
240803.000			-15.779			-3.156
240904.000			-15.779			-3.156
241005.000			-15.778			-3.156
241104.000			-15.778			-3.156
241204.000			-15.778			-3.156
241305.000			-15.777			-3.155
241404.000			-15.776			-3.155
241504.000			-15.777			-3.155
241605.000			-15.776			-3.155
241703.000			-15.776			-3.155
241804.000			-15.776			-3.155
241904.000			-15.776			-3.155
242004.000			-15.776			-3.155
242104.000			-15.776			-3.155
242205.000			-15.776			-3.155
242304.000			-15.775			-3.155
242404.000			-15.775			-3.155
242505.000			-15.773			-3.155
242603.000			-15.774			-3.155
242704.000			-15.774			-3.155
242804.000			-15.774			-3.155
242904.000			-15.773			-3.155
243004.000			-15.773			-3.155
243105.000			-15.773			-3.155
243204.000			-15.773			-3.155
243304.000			-15.773			-3.155
243405.000			-15.772			-3.154
243503.000			-15.772			-3.154
243605.000			-15.772			-3.154
243703.000			-15.772			-3.154
243804.000			-15.771			-3.154
243905.000			-15.770			-3.154
244004.000			-15.771			-3.154
244104.000			-15.771			-3.154
244205.000			-15.771			-3.154
244304.000			-15.770			-3.154
244403.000			-15.770			-3.154
244505.000			-15.769			-3.154
244603.000			-15.769			-3.154
244704.000			-15.769			-3.154
244805.000			-15.769			-3.154
244904.000			-15.768			-3.154
245004.000			-15.768			-3.154
245105.000			-15.768			-3.154
245204.000			-15.768			-3.154
245304.000			-15.768			-3.154
245405.000			-15.767			-3.153
245503.000			-15.766			-3.153
245604.000			-15.767			-3.153
245705.000			-15.767			-3.153
245804.000			-15.767			-3.153
245904.000			-15.767			-3.153
246005.000			-15.768			-3.154
246104.000			-15.767			-3.153
246204.000			-15.766			-3.153
246305.000			-15.767			-3.153
246403.000			-15.767			-3.153
246504.000			-15.766			-3.153
246604.000			-15.767			-3.153
246704.000			-15.767			-3.153
246805.000			-15.767			-3.153
246904.000			-15.766			-3.153
247004.000			-15.765			-3.153
247105.000			-15.765			-3.153
247204.000			-15.765			-3.153
247304.000			-15.765			-3.153
247405.000			-15.765			-3.153
247503.000			-15.766			-3.153
247604.000			-15.765			-3.153
247705.000			-15.765			-3.153
247804.000			-15.765			-3.153
247904.000			-15.764			-3.153
248005.000			-15.764			-3.153
248104.000			-15.764			-3.153
248204.000			-15.763			-3.153
248305.000			-15.764			-3.153
248404.000			-15.765			-3.153
248504.000			-15.765			-3.153
248604.000			-15.763			-3.153
248704.000			-15.763			-3.153
248804.000			-15.763			-3.153
248905.000			-15.762			-3.152
249004.000			-15.762			-3.152
249104.000			-15.762			-3.152
249205.000			-15.761			-3.152
249304.000			-15.762			-3.152
249404.000			-15.761			-3.152
249504.000			-15.761			-3.152
249604.000			-15.762			-3.152
249703.000			-15.761			-3.152
249805.000			-15.761			-3.152
249904.000			-15.760			-3.152
250005.000			-15.760			-3.152
250104.000			-15.760			-3.152
250204.000			-15.760			-3.152
250305.000			-15.760			-3.152
250403.000			-15.761			-3.152
250504.000			-15.760			-3.152
250604.000			-15.760			-3.152
250704.000			-15.759			-3.152
250804.000			-15.759			-3.152
250905.000			-15.759			-3.152
251004.000			-15.759			-3.152
251104.000			-15.759			-3.152
251205.000			-15.759			-3.152
251303.000			-15.758			-3.152
251404.000			-15.758			-3.152
251504.000			-15.757			-3.151
251604.000			-15.757			-3.151
251704.000			-15.756			-3.151
251805.000			-15.756			-3.151
251904.000			-15.757			-3.151
252004.000			-15.757			-3.151
252105.000			-15.756			-3.151
252204.000			-15.757			-3.151
252304.000			-15.757			-3.151
252404.000			-15.756			-3.151
252504.000			-15.757			-3.151
252604.000			-15.756			-3.151
252705.000			-15.756			-3.151
252804.000			-15.756			-3.151
252904.000			-15.755			-3.151
253005.000			-15.755			-3.151
253104.000			-15.755			-3.151
253205.000			-15.755			-3.151
253303.000			-15.756			-3.151
253404.000			-15.755			-3.151
253504.000			-15.754			-3.151
253604.000			-15.754			-3.151
253704.000			-15.755			-3.151
253805.000			-15.754			-3.151
253904.000			-15.754			-3.151
254004.000			-15.754			-3.151
254105.000			-15.753			-3.151
254203.000			-15.753			-3.151
254304.000			-15.753			-3.151
254405.000			-15.753			-3.151
254504.000			-15.752			-3.150
254604.000			-15.752			-3.150
254705.000			-15.752			-3.150
254804.000			-15.751			-3.150
254904.000			-15.752			-3.150
255005.000			-15.752			-3.150
255103.000			-15.752			-3.150
255204.000			-15.751			-3.150
255305.000			-15.750			-3.150
255404.000			-15.751			-3.150
255504.000			-15.751			-3.150
255605.000			-15.751			-3.150
255704.000			-15.749			-3.150
255804.000			-15.749			-3.150
255905.000			-15.751			-3.150
256003.000			-15.749			-3.150
256104.000			-15.748			-3.150
256204.000			-15.749			-3.150
256304.000			-15.749			-3.150
256405.000			-15.748			-3.150
256504.000			-15.747			-3.149
256604.000			-15.748			-3.150
256705.000			-15.749			-3.150
256804.000			-15.748			-3.150
256904.000			-15.749			-3.150
257005.000			-15.748			-3.150
257103.000			-15.748			-3.150
257204.000			-15.747			-3.149
257305.000			-15.748			-3.150
257404.000			-15.748			-3.150
257504.000			-15.747			-3.149
257605.000			-15.747			-3.149
257704.000			-15.747			-3.149
257804.000			-15.748			-3.150
257905.000			-15.747			-3.149
258003.000			-15.746			-3.149
258104.000			-15.746			-3.149
258205.000			-15.745			-3.149
258304.000			-15.745			-3.149
258404.000			-15.746			-3.149
258505.000			-15.745			-3.149
258604.000			-15.744			-3.149
258704.000			-15.745			-3.149
258805.000			-15.744			-3.149
258903.000			-15.744			-3.149
259004.000			-15.744			-3.149
259104.000			-15.744			-3.149
259204.000			-15.744			-3.149
259304.000			-15.744			-3.149
259405.000			-15.745			-3.149
259504.000			-15.745			-3.149
259605.000			-15.744			-3.149
259704.000			-15.743			-3.149
259803.000			-15.743			-3.149
259905.000			-15.744			-3.149
260003.000			-15.744			-3.149
260104.000			-15.742			-3.148
260205.000			-15.741			-3.148
260304.000			-15.743			-3.149
260404.000			-15.743			-3.149
260505.000			-15.742			-3.148
260604.000			-15.743			-3.149
260703.000			-15.743			-3.149
260805.000			-15.742			-3.148
260903.000			-15.741			-3.148
261004.000			-15.741			-3.148
261105.000			-15.741			-3.148
261204.000			-15.740			-3.148
261304.000			-15.739			-3.148
261405.000			-15.739			-3.148
261504.000			-15.739			-3.148
261603.000			-15.740			-3.148
261705.000			-15.739			-3.148
261803.000			-15.739			-3.148
261904.000			-15.740			-3.148
262005.000			-15.740			-3.148
262104.000			-15.739			-3.148
262204.000			-15.739			-3.148
262305.000			-15.738			-3.148
262404.000			-15.738			-3.148
262504.000			-15.739			-3.148
262605.000			-15.738			-3.148
262703.000			-15.738			-3.148
262805.000			-15.737			-3.147
262904.000			-15.737			-3.147
263004.000			-15.737			-3.147
263105.000			-15.737			-3.147
263204.000			-15.737			-3.147
263304.000			-15.737			-3.147
263405.000			-15.736			-3.147
263504.000			-15.736			-3.147
263603.000			-15.736			-3.147
263705.000			-15.736			-3.147
263804.000			-15.736			-3.147
263904.000			-15.735			-3.147
264005.000			-15.735			-3.147
264104.000			-15.734			-3.147
264204.000			-15.735			-3.147
264305.000			-15.735			-3.147
264404.000			-15.734			-3.147
264503.000			-15.735			-3.147
264605.000			-15.735			-3.147
264704.000			-15.734			-3.147
264804.000			-15.733			-3.147
264905.000			-15.732			-3.146
265004.000			-15.732			-3.146
265104.000			-15.732			-3.146
265205.000			-15.732			-3.146
265304.000			-15.732			-3.146
265403.000			-15.732			-3.146
265505.000			-15.733			-3.147
265604.000			-15.731			-3.146
265704.000			-15.731			-3.146
265805.000			-15.732			-3.146
265904.000			-15.732			-3.146
266005.000			-15.731			-3.146
266104.000			-15.731			-3.146
266204.000			-15.731			-3.146
266304.000			-15.731			-3.146
266404.000			-15.731			-3.146
266504.000			-15.730			-3.146
266605.000			-15.730			-3.146
266704.000			-15.730			-3.146
266804.000			-15.731			-3.146
266905.000			-15.729			-3.146
267004.000			-15.729			-3.146
267104.000			-15.728			-3.146
267204.000			-15.729			-3.146
267304.000			-15.730			-3.146
267403.000			-15.730			-3.146
267505.000			-15.730			-3.146
267604.000			-15.729			-3.146
267704.000			-15.728			-3.146
267805.000			-15.728			-3.146
267904.000			-15.727			-3.145
268004.000			-15.727			-3.145
268105.000			-15.726			-3.145
268204.000			-15.727			-3.145
268303.000			-15.727			-3.145
268405.000			-15.727			-3.145
268504.000			-15.727			-3.145
268604.000			-15.726			-3.145
268705.000			-15.727			-3.145
268804.000			-15.726			-3.145
268904.000			-15.726			-3.145
269005.000			-15.726			-3.145
269104.000			-15.725			-3.145
269203.000			-15.726			-3.145
269304.000			-15.726			-3.145
269403.000			-15.726			-3.145
269505.000			-15.726			-3.145
269604.000			-15.725			-3.145
269704.000			-15.725			-3.145
269805.000			-15.724			-3.145
269904.000			-15.725			-3.145
270004.000			-15.724			-3.145
270104.000			-15.724			-3.145
270204.000			-15.725			-3.145
270303.000			-15.725			-3.145
270405.000			-15.724			-3.145
270504.000			-15.724			-3.145
270604.000			-15.723			-3.145
270705.000			-15.723			-3.145
270804.000			-15.724			-3.145
270904.000			-15.724			-3.145
271004.000			-15.724			-3.145
271104.000			-15.723			-3.145
271203.000			-15.723			-3.145
271305.000			-15.722			-3.144
271404.000			-15.722			-3.144
271504.000			-15.722			-3.144
271605.000			-15.722			-3.144
271704.000			-15.721			-3.144
271804.000			-15.722			-3.144
271904.000			-15.721			-3.144
272004.000			-15.721			-3.144
272104.000			-15.721			-3.144
272205.000			-15.720			-3.144
272304.000			-15.720			-3.144
272405.000			-15.720			-3.144
272504.000			-15.720			-3.144
272604.000			-15.720			-3.144
272705.000			-15.720			-3.144
272803.000			-15.720			-3.144
272904.000			-15.720			-3.144
273005.000			-15.719			-3.144
273104.000			-15.718			-3.144
273204.000			-15.719			-3.144
273305.000			-15.719			-3.144
273404.000			-15.719			-3.144
273504.000			-15.718			-3.144
273605.000			-15.719			-3.144
273703.000			-15.719			-3.144
273804.000			-15.718			-3.144
273905.000			-15.718			-3.144
274004.000			-15.718			-3.144
274104.000			-15.718			-3.144
274205.000			-15.717			-3.143
274304.000			-15.717			-3.143
274404.000			-15.718			-3.144
274505.000			-15.717			-3.143
274603.000			-15.717			-3.143
274704.000			-15.716			-3.143
274804.000			-15.715			-3.143
274904.000			-15.716			-3.143
275004.000			-15.716			-3.143
275105.000			-15.715			-3.143
275204.000			-15.716			-3.143
275304.000			-15.716			-3.143
275405.000			-15.715			-3.143
275503.000			-15.715			-3.143
275605.000			-15.715			-3.143
275703.000			-15.716			-3.143
275804.000			-15.716			-3.143
275905.000			-15.716			-3.143
276004.000			-15.715			-3.143
276104.000			-15.715			-3.143
276205.000			-15.715			-3.143
276304.000			-15.714			-3.143
276403.000			-15.714			-3.143
276505.000			-15.713			-3.143
276603.000			-15.713			-3.143
276704.000			-15.713			-3.143
276805.000			-15.713			-3.143
276904.000			-15.713			-3.143
277004.000			-15.713			-3.143
277105.000			-15.713			-3.143
277204.000			-15.712			-3.142
277304.000			-15.713			-3.143
277405.000			-15.712			-3.142
277503.000			-15.711			-3.142
277604.000			-15.712			-3.142
277705.000			-15.711			-3.142
277804.000			-15.711			-3.142
277904.000			-15.711			-3.142
278005.000			-15.711			-3.142
278104.000			-15.711			-3.142
278204.000			-15.711			-3.142
278305.000			-15.711			-3.142
278403.000			-15.710			-3.142
278504.000			-15.710			-3.142
278605.000			-15.710			-3.142
278704.000			-15.710			-3.142
278805.000			-15.710			-3.142
278904.000			-15.710			-3.142
279004.000			-15.710			-3.142
279105.000			-15.710			-3.142
279204.000			-15.710			-3.142
279303.000			-15.708			-3.142
279405.000			-15.708			-3.142
279504.000			-15.708			-3.142
279604.000			-15.708			-3.142
279705.000			-15.708			-3.142
279804.000			-15.707			-3.141
279904.000			-15.708			-3.142
280005.000			-15.708			-3.142
280104.000			-15.707			-3.141
280203.000			-15.707			-3.141
280305.000			-15.706			-3.141
280404.000			-15.707			-3.141
280504.000			-15.707			-3.141
280605.000			-15.706			-3.141
280704.000			-15.706			-3.141
280804.000			-15.705			-3.141
280905.000			-15.706			-3.141
281004.000			-15.706			-3.141
281103.000			-15.705			-3.141
281205.000			-15.705			-3.141
281303.000			-15.706			-3.141
281404.000			-15.705			-3.141
281505.000			-15.704			-3.141
281604.000			-15.704			-3.141
281704.000			-15.705			-3.141
281805.000			-15.704			-3.141
281904.000			-15.703			-3.141
282003.000			-15.703			-3.141
282104.000			-15.703			-3.141
282203.000			-15.703			-3.141
282305.000			-15.703			-3.141
282404.000			-15.702			-3.140
282504.000			-15.702			-3.140
282605.000			-15.702			-3.140
282704.000			-15.702			-3.140
282804.000			-15.701			-3.140
282904.000			-15.701			-3.140
283004.000			-15.701			-3.140
283103.000			-15.702			-3.140
283205.000			-15.702			-3.140
283304.000			-15.701			-3.140
283404.000			-15.701			-3.140
283505.000			-15.699			-3.140
283604.000			-15.699			-3.140
283704.000			-15.700			-3.140
283804.000			-15.699			-3.140
283904.000			-15.699			-3.140
284003.000			-15.699			-3.140
284105.000			-15.698			-3.140
284204.000			-15.699			-3.140
284304.000			-15.699			-3.140
284405.000			-15.698			-3.140
284504.000			-15.698			-3.140
284604.000			-15.698			-3.140
284705.000			-15.697			-3.139
284804.000			-15.697			-3.139
284903.000			-15.697			-3.139
285005.000			-15.696			-3.139
285104.000			-15.696			-3.139
285205.000			-15.696			-3.139
285304.000			-15.696			-3.139
285404.000			-15.696			-3.139
285505.000			-15.696			-3.139
285604.000			-15.697			-3.139
285704.000			-15.696			-3.139
285805.000			-15.695			-3.139
285904.000			-15.695			-3.139
286003.000			-15.696			-3.139
286105.000			-15.695			-3.139
286204.000			-15.694			-3.139
286304.000			-15.694			-3.139
286405.000			-15.695			-3.139
286504.000			-15.695			-3.139
286604.000			-15.695			-3.139
286705.000			-15.694			-3.139
286804.000			-15.694			-3.139
286903.000			-15.694			-3.139
287005.000			-15.694			-3.139
287103.000			-15.694			-3.139
287204.000			-15.694			-3.139
287305.000			-15.693			-3.139
287404.000			-15.693			-3.139
287504.000			-15.693			-3.139
287605.000			-15.694			-3.139
287704.000			-15.694			-3.139
287804.000			-15.694			-3.139
287905.000			-15.693			-3.139
288003.000			-15.693			-3.139
288104.000			-15.692			-3.138
288205.000			-15.693			-3.139
288304.000			-15.693			-3.139
288405.000			-15.693			-3.139
288504.000			-15.693			-3.139
288604.000			-15.693			-3.139
288705.000			-15.693			-3.139
288804.000			-15.692			-3.138
288903.000			-15.693			-3.139
289005.000			-15.693			-3.139
289103.000			-15.692			-3.138
289204.000			-15.692			-3.138
289305.000			-15.691			-3.138
289404.000			-15.691			-3.138
289504.000			-15.691			-3.138
289605.000			-15.691			-3.138
289704.000			-15.691			-3.138
289804.000			-15.691			-3.138
289905.000			-15.691			-3.138
290003.000			-15.691			-3.138
290104.000			-15.691			-3.138
290205.000			-15.690			-3.138
290304.000			-15.690			-3.138
290404.000			-15.690			-3.138
290505.000			-15.690			-3.138
290604.000			-15.689			-3.138
290704.000			-15.689			-3.138
290805.000			-15.688			-3.138
290904.000			-15.689			-3.138
291004.000			-15.689			-3.138
291104.000			-15.689			-3.138
291204.000			-15.688			-3.138
291304.000			-15.688			-3.138
291405.000			-15.687			-3.137
291504.000			-15.686			-3.137
291605.000			-15.687			-3.137
291704.000			-15.687			-3.137
291804.000			-15.688			-3.138
291905.000			-15.687			-3.137
292003.000			-15.687			-3.137
292104.000			-15.686			-3.137
292204.000			-15.686			-3.137
292304.000			-15.687			-3.137
292404.000			-15.687			-3.137
292505.000			-15.686			-3.137
292604.000			-15.685			-3.137
292704.000			-15.685			-3.137
292805.000			-15.684			-3.137
292904.000			-15.684			-3.137
293004.000			-15.685			-3.137
293104.000			-15.685			-3.137
293204.000			-15.684			-3.137
293304.000			-15.684			-3.137
293405.000			-15.684			-3.137
293504.000			-15.684			-3.137
293604.000			-15.683			-3.137
293705.000			-15.682			-3.136
293804.000			-15.682			-3.136
293904.000			-15.683			-3.137
294004.000			-15.683			-3.137
294104.000			-15.682			-3.136
294203.000			-15.682			-3.136
294305.000			-15.682			-3.136
294404.000			-15.681			-3.136
294504.000			-15.682			-3.136
294605.000			-15.681			-3.136
294704.000			-15.681			-3.136
294805.000			-15.681			-3.136
294903.000			-15.681			-3.136
295004.000			-15.681			-3.136
295104.000			-15.681			-3.136
295204.000			-15.680			-3.136
295304.000			-15.679			-3.136
295405.000			-15.680			-3.136
295504.000			-15.680			-3.136
295604.000			-15.680			-3.136
295705.000			-15.680			-3.136
295804.000			-15.680			-3.136
295904.000			-15.679			-3.136
296004.000			-15.679			-3.136
296104.000			-15.679			-3.136
296203.000			-15.678			-3.136
296305.000			-15.678			-3.136
296404.000			-15.678			-3.136
296504.000			-15.679			-3.136
296605.000			-15.678			-3.136
296704.000			-15.677			-3.135
296804.000			-15.677			-3.135
296905.000			-15.677			-3.135
297004.000			-15.676			-3.135
297103.000			-15.677			-3.135
297205.000			-15.677			-3.135
297304.000			-15.677			-3.135
297404.000			-15.677			-3.135
297505.000			-15.676			-3.135
297604.000			-15.677			-3.135
297704.000			-15.676			-3.135
297805.000			-15.676			-3.135
297904.000			-15.676			-3.135
298005.000			-15.677			-3.135
298104.000			-15.676			-3.135
298203.000			-15.676			-3.135
298305.000			-15.675			-3.135
298404.000			-15.675			-3.135
298504.000			-15.675			-3.135
298605.000			-15.675			-3.135
298704.000			-15.676			-3.135
298804.000			-15.675			-3.135
298905.000			-15.676			-3.135
299004.000			-15.675			-3.135
299103.000			-15.675			-3.135
299205.000			-15.675			-3.135
299303.000			-15.675			-3.135
299404.000			-15.674			-3.135
299505.000			-15.675			-3.135
299604.000			-15.675			-3.135
299704.000			-15.673			-3.135
299805.000			-15.673			-3.135
299904.000			-15.673			-3.135
