# Acquired on 09/01/2024 11:12:13 
# SPIDER: Creep_-6mm_07714532B-2
# CREEP MEASUREMENT

# time [ms]		force [N]		stiffness [N/mm]
1.000			18.619			-3.103
101.000			19.616			-3.269
202.000			19.993			-3.332
300.000			19.995			-3.332
400.000			19.910			-3.318
501.000			19.790			-3.298
600.000			19.743			-3.291
700.000			19.703			-3.284
801.000			19.668			-3.278
901.000			19.636			-3.273
1001.000			19.607			-3.268
1101.000			19.580			-3.263
1200.000			19.533			-3.256
1300.000			19.512			-3.252
1401.000			19.492			-3.249
1500.000			19.473			-3.246
1601.000			19.455			-3.243
1702.000			19.439			-3.240
1800.000			19.424			-3.237
1900.000			19.394			-3.232
2001.000			19.379			-3.230
2100.000			19.367			-3.228
2200.000			19.355			-3.226
2301.000			19.343			-3.224
2401.000			19.330			-3.222
2501.000			19.319			-3.220
2601.000			19.299			-3.216
2700.000			19.289			-3.215
2800.000			19.279			-3.213
2901.000			19.270			-3.212
3000.000			19.261			-3.210
3100.000			19.252			-3.209
3202.000			19.243			-3.207
3301.000			19.235			-3.206
3401.000			19.217			-3.203
3500.000			19.210			-3.202
3600.000			19.203			-3.200
3701.000			19.195			-3.199
3800.000			19.187			-3.198
3900.000			19.181			-3.197
4002.000			19.175			-3.196
4101.000			19.162			-3.194
4200.000			19.154			-3.192
4301.000			19.150			-3.192
4400.000			19.143			-3.191
4500.000			19.137			-3.189
4601.000			19.131			-3.189
4701.000			19.125			-3.187
4801.000			19.114			-3.186
4901.000			19.108			-3.185
5000.000			19.102			-3.184
5100.000			19.098			-3.183
5201.000			19.093			-3.182
5300.000			19.088			-3.181
5400.000			19.083			-3.180
5502.000			19.073			-3.179
5601.000			19.069			-3.178
5700.000			19.064			-3.177
5801.000			19.059			-3.177
5900.000			19.055			-3.176
6000.000			19.050			-3.175
6101.000			19.045			-3.174
6201.000			19.041			-3.173
6302.000			19.033			-3.172
6401.000			19.028			-3.171
6500.000			19.025			-3.171
6601.000			19.022			-3.170
6700.000			19.018			-3.170
6800.000			19.013			-3.169
6901.000			19.009			-3.168
7001.000			19.002			-3.167
7101.000			18.998			-3.166
7201.000			18.994			-3.166
7300.000			18.991			-3.165
7400.000			18.988			-3.165
7501.000			18.985			-3.164
7600.000			18.980			-3.163
7700.000			18.973			-3.162
7802.000			18.969			-3.161
7901.000			18.966			-3.161
8000.000			18.963			-3.161
8101.000			18.959			-3.160
8200.000			18.956			-3.159
8300.000			18.953			-3.159
8401.000			18.948			-3.158
8500.000			18.944			-3.157
8601.000			18.941			-3.157
8702.000			18.938			-3.156
8800.000			18.935			-3.156
8900.000			18.932			-3.155
9001.000			18.929			-3.155
9100.000			18.927			-3.154
9200.000			18.921			-3.154
9301.000			18.917			-3.153
9401.000			18.915			-3.153
9502.000			18.913			-3.152
9600.000			18.910			-3.152
9700.000			18.907			-3.151
9801.000			18.904			-3.151
9900.000			18.900			-3.150
10000.000			18.897			-3.150
10101.000			18.895			-3.149
10201.000			18.892			-3.149
10301.000			18.889			-3.148
10401.000			18.888			-3.148
10500.000			18.885			-3.147
10600.000			18.879			-3.146
10701.000			18.877			-3.146
10800.000			18.875			-3.146
10900.000			18.873			-3.145
11002.000			18.870			-3.145
11101.000			18.867			-3.145
11200.000			18.865			-3.144
11301.000			18.859			-3.143
11400.000			18.858			-3.143
11500.000			18.856			-3.143
11601.000			18.853			-3.142
11700.000			18.851			-3.142
11800.000			18.850			-3.142
11902.000			18.848			-3.141
12001.000			18.845			-3.141
12100.000			18.840			-3.140
12201.000			18.838			-3.140
12300.000			18.837			-3.139
12400.000			18.835			-3.139
12501.000			18.832			-3.139
12600.000			18.830			-3.138
12702.000			18.829			-3.138
12801.000			18.824			-3.137
12900.000			18.822			-3.137
13001.000			18.820			-3.137
13100.000			18.818			-3.136
13200.000			18.816			-3.136
13301.000			18.815			-3.136
13400.000			18.813			-3.135
13501.000			18.808			-3.135
13602.000			18.806			-3.134
13700.000			18.805			-3.134
13800.000			18.803			-3.134
13901.000			18.801			-3.133
14000.000			18.798			-3.133
14100.000			18.798			-3.133
14201.000			18.794			-3.132
14301.000			18.792			-3.132
14401.000			18.790			-3.132
14501.000			18.788			-3.131
14600.000			18.786			-3.131
14700.000			18.785			-3.131
14801.000			18.784			-3.131
14900.000			18.782			-3.130
15000.000			18.777			-3.130
15102.000			18.776			-3.129
15201.000			18.774			-3.129
15300.000			18.773			-3.129
15401.000			18.771			-3.129
15500.000			18.769			-3.128
15600.000			18.767			-3.128
15701.000			18.765			-3.128
15800.000			18.764			-3.127
15902.000			18.761			-3.127
16001.000			18.761			-3.127
16101.000			18.760			-3.127
16201.000			18.756			-3.126
16300.000			18.754			-3.126
16400.000			18.752			-3.125
16501.000			18.751			-3.125
16600.000			18.749			-3.125
16700.000			18.747			-3.124
16802.000			18.746			-3.124
16901.000			18.745			-3.124
17000.000			18.743			-3.124
17101.000			18.740			-3.123
17200.000			18.739			-3.123
17300.000			18.737			-3.123
17401.000			18.736			-3.123
17500.000			18.734			-3.122
17601.000			18.732			-3.122
17702.000			18.730			-3.122
17800.000			18.730			-3.122
17900.000			18.727			-3.121
18001.000			18.726			-3.121
18100.000			18.724			-3.121
18200.000			18.723			-3.120
18301.000			18.721			-3.120
18401.000			18.721			-3.120
18501.000			18.719			-3.120
18601.000			18.717			-3.119
18700.000			18.715			-3.119
18800.000			18.714			-3.119
18901.000			18.712			-3.119
19000.000			18.711			-3.119
19100.000			18.709			-3.118
19202.000			18.708			-3.118
19301.000			18.705			-3.117
19401.000			18.703			-3.117
19500.000			18.703			-3.117
19600.000			18.702			-3.117
19701.000			18.700			-3.117
19800.000			18.699			-3.116
19900.000			18.697			-3.116
20001.000			18.695			-3.116
20101.000			18.693			-3.116
20201.000			18.692			-3.115
20301.000			18.691			-3.115
20400.000			18.690			-3.115
20500.000			18.690			-3.115
20601.000			18.688			-3.115
20700.000			18.686			-3.114
20800.000			18.683			-3.114
20902.000			18.682			-3.114
21001.000			18.682			-3.114
21100.000			18.681			-3.114
21201.000			18.679			-3.113
21300.000			18.678			-3.113
21400.000			18.677			-3.113
21501.000			18.674			-3.112
21600.000			18.673			-3.112
21701.000			18.671			-3.112
21802.000			18.670			-3.112
21900.000			18.670			-3.112
22000.000			18.671			-3.112
22101.000			18.670			-3.112
22200.000			18.666			-3.111
22300.000			18.664			-3.111
22400.000			18.662			-3.110
22501.000			18.661			-3.110
22602.000			18.661			-3.110
22700.000			18.660			-3.110
22800.000			18.659			-3.110
22901.000			18.657			-3.110
23000.000			18.657			-3.109
23100.000			18.656			-3.109
23201.000			18.654			-3.109
23301.000			18.652			-3.109
23401.000			18.651			-3.109
23501.000			18.651			-3.108
23600.000			18.650			-3.108
23700.000			18.648			-3.108
23801.000			18.646			-3.108
23900.000			18.644			-3.107
24000.000			18.644			-3.107
24102.000			18.642			-3.107
24201.000			18.641			-3.107
24300.000			18.640			-3.107
24401.000			18.639			-3.106
24500.000			18.638			-3.106
24600.000			18.637			-3.106
24701.000			18.636			-3.106
24800.000			18.635			-3.106
24901.000			18.633			-3.106
25002.000			18.632			-3.105
25100.000			18.630			-3.105
25200.000			18.629			-3.105
25301.000			18.628			-3.105
25400.000			18.627			-3.105
25500.000			18.626			-3.104
25600.000			18.625			-3.104
25701.000			18.626			-3.104
25802.000			18.622			-3.104
25901.000			18.621			-3.104
26000.000			18.621			-3.103
26101.000			18.621			-3.103
26200.000			18.619			-3.103
26300.000			18.619			-3.103
26401.000			18.618			-3.103
26501.000			18.616			-3.103
26601.000			18.614			-3.102
26702.000			18.613			-3.102
26800.000			18.612			-3.102
26900.000			18.611			-3.102
27001.000			18.611			-3.102
27100.000			18.609			-3.102
27200.000			18.608			-3.101
27302.000			18.606			-3.101
27401.000			18.606			-3.101
27501.000			18.605			-3.101
27601.000			18.604			-3.101
27700.000			18.603			-3.100
27800.000			18.602			-3.100
27901.000			18.602			-3.100
28000.000			18.599			-3.100
28100.000			18.599			-3.100
28202.000			18.599			-3.100
28301.000			18.597			-3.100
28400.000			18.596			-3.099
28501.000			18.595			-3.099
28600.000			18.593			-3.099
28700.000			18.593			-3.099
28800.000			18.591			-3.099
28900.000			18.590			-3.098
29002.000			18.589			-3.098
29101.000			18.589			-3.098
29200.000			18.588			-3.098
29301.000			18.587			-3.098
29400.000			18.587			-3.098
29500.000			18.584			-3.097
29601.000			18.583			-3.097
29700.000			18.582			-3.097
29801.000			18.582			-3.097
29902.000			18.582			-3.097
30001.000			18.580			-3.097
30100.000			18.580			-3.097
30201.000			18.578			-3.096
30300.000			18.576			-3.096
30400.000			18.576			-3.096
30501.000			18.576			-3.096
30600.000			18.576			-3.096
30701.000			18.574			-3.096
30802.000			18.573			-3.095
30900.000			18.572			-3.095
31000.000			18.570			-3.095
31101.000			18.570			-3.095
31200.000			18.570			-3.095
31300.000			18.570			-3.095
31401.000			18.569			-3.095
31501.000			18.567			-3.094
31601.000			18.564			-3.094
31701.000			18.564			-3.094
31800.000			18.562			-3.094
31900.000			18.563			-3.094
32000.000			18.563			-3.094
32100.000			18.562			-3.094
32201.000			18.561			-3.093
32301.000			18.559			-3.093
32401.000			18.557			-3.093
32501.000			18.557			-3.093
32600.000			18.558			-3.093
32700.000			18.558			-3.093
32801.000			18.556			-3.093
32900.000			18.555			-3.092
33000.000			18.553			-3.092
33102.000			18.551			-3.092
33201.000			18.551			-3.092
33300.000			18.550			-3.092
33401.000			18.550			-3.092
33500.000			18.551			-3.092
33600.000			18.550			-3.092
33701.000			18.548			-3.091
33800.000			18.547			-3.091
33901.000			18.546			-3.091
34002.000			18.546			-3.091
34100.000			18.546			-3.091
34200.000			18.546			-3.091
34301.000			18.545			-3.091
34400.000			18.541			-3.090
34500.000			18.541			-3.090
34601.000			18.541			-3.090
34701.000			18.540			-3.090
34801.000			18.539			-3.090
34901.000			18.540			-3.090
35000.000			18.539			-3.090
35100.000			18.537			-3.089
35200.000			18.536			-3.089
35300.000			18.536			-3.089
35401.000			18.535			-3.089
35501.000			18.534			-3.089
35601.000			18.533			-3.089
35701.000			18.533			-3.089
35800.000			18.533			-3.089
35900.000			18.531			-3.088
36001.000			18.530			-3.088
36100.000			18.529			-3.088
36200.000			18.528			-3.088
36302.000			18.527			-3.088
36401.000			18.527			-3.088
36500.000			18.526			-3.088
36601.000			18.525			-3.088
36700.000			18.525			-3.088
36800.000			18.524			-3.087
36901.000			18.522			-3.087
37000.000			18.522			-3.087
37101.000			18.521			-3.087
37202.000			18.520			-3.087
37300.000			18.520			-3.087
37400.000			18.519			-3.086
37501.000			18.518			-3.086
37600.000			18.518			-3.086
37700.000			18.517			-3.086
37801.000			18.516			-3.086
37901.000			18.515			-3.086
38001.000			18.514			-3.086
38101.000			18.513			-3.086
38200.000			18.513			-3.086
38300.000			18.512			-3.085
38400.000			18.511			-3.085
38500.000			18.511			-3.085
38601.000			18.511			-3.085
38701.000			18.509			-3.085
38801.000			18.508			-3.085
38902.000			18.507			-3.084
39000.000			18.507			-3.084
39100.000			18.506			-3.084
39201.000			18.504			-3.084
39300.000			18.504			-3.084
39400.000			18.504			-3.084
39501.000			18.504			-3.084
39601.000			18.502			-3.084
39701.000			18.502			-3.084
39801.000			18.501			-3.084
39900.000			18.501			-3.083
40000.000			18.501			-3.083
40101.000			18.499			-3.083
40200.000			18.499			-3.083
40300.000			18.496			-3.083
40402.000			18.496			-3.083
40501.000			18.496			-3.083
40600.000			18.496			-3.083
40701.000			18.495			-3.083
40800.000			18.494			-3.082
40900.000			18.493			-3.082
41001.000			18.492			-3.082
41100.000			18.492			-3.082
41201.000			18.492			-3.082
41302.000			18.491			-3.082
41400.000			18.490			-3.082
41500.000			18.490			-3.082
41600.000			18.488			-3.081
41700.000			18.488			-3.081
41801.000			18.486			-3.081
41900.000			18.486			-3.081
42001.000			18.484			-3.081
42102.000			18.484			-3.081
42200.000			18.485			-3.081
42300.000			18.484			-3.081
42401.000			18.484			-3.081
42500.000			18.484			-3.081
42600.000			18.483			-3.080
42701.000			18.481			-3.080
42801.000			18.481			-3.080
42901.000			18.480			-3.080
43001.000			18.479			-3.080
43100.000			18.478			-3.080
43200.000			18.477			-3.080
43301.000			18.477			-3.079
43400.000			18.477			-3.079
43500.000			18.476			-3.079
43602.000			18.475			-3.079
43701.000			18.474			-3.079
43800.000			18.473			-3.079
43901.000			18.473			-3.079
44000.000			18.473			-3.079
44100.000			18.471			-3.079
44201.000			18.471			-3.079
44300.000			18.471			-3.079
44401.000			18.471			-3.079
44502.000			18.471			-3.078
44601.000			18.468			-3.078
44700.000			18.467			-3.078
44800.000			18.467			-3.078
44900.000			18.466			-3.078
45001.000			18.466			-3.078
45100.000			18.466			-3.078
45200.000			18.466			-3.078
45302.000			18.465			-3.078
45401.000			18.463			-3.077
45500.000			18.463			-3.077
45601.000			18.463			-3.077
45700.000			18.462			-3.077
45800.000			18.462			-3.077
45901.000			18.460			-3.077
46000.000			18.460			-3.077
46101.000			18.460			-3.077
46202.000			18.459			-3.077
46300.000			18.458			-3.076
46400.000			18.457			-3.076
46501.000			18.457			-3.076
46600.000			18.455			-3.076
46700.000			18.455			-3.076
46801.000			18.455			-3.076
46901.000			18.455			-3.076
47001.000			18.454			-3.076
47101.000			18.453			-3.076
47200.000			18.453			-3.075
47300.000			18.453			-3.075
47401.000			18.451			-3.075
47500.000			18.451			-3.075
47600.000			18.450			-3.075
47702.000			18.449			-3.075
47801.000			18.449			-3.075
47900.000			18.448			-3.075
48000.000			18.449			-3.075
48100.000			18.449			-3.075
48201.000			18.447			-3.075
48300.000			18.446			-3.074
48400.000			18.446			-3.074
48502.000			18.445			-3.074
48601.000			18.445			-3.074
48701.000			18.444			-3.074
48801.000			18.443			-3.074
48900.000			18.443			-3.074
49000.000			18.442			-3.074
49101.000			18.442			-3.074
49200.000			18.441			-3.073
49300.000			18.442			-3.074
49402.000			18.441			-3.074
49501.000			18.440			-3.073
49600.000			18.439			-3.073
49701.000			18.438			-3.073
49800.000			18.436			-3.073
49900.000			18.437			-3.073
50001.000			18.437			-3.073
50100.000			18.436			-3.073
50201.000			18.436			-3.073
50302.000			18.434			-3.072
50400.000			18.435			-3.073
50500.000			18.435			-3.072
50601.000			18.433			-3.072
50700.000			18.432			-3.072
50800.000			18.431			-3.072
50901.000			18.431			-3.072
51001.000			18.431			-3.072
51102.000			18.431			-3.072
51200.000			18.431			-3.072
51300.000			18.430			-3.072
51401.000			18.429			-3.072
51500.000			18.429			-3.071
51600.000			18.427			-3.071
51701.000			18.426			-3.071
51801.000			18.426			-3.071
51901.000			18.425			-3.071
52001.000			18.425			-3.071
52100.000			18.424			-3.071
52200.000			18.423			-3.071
52301.000			18.425			-3.071
52400.000			18.424			-3.071
52500.000			18.423			-3.070
52602.000			18.422			-3.070
52701.000			18.421			-3.070
52800.000			18.420			-3.070
52901.000			18.421			-3.070
53000.000			18.421			-3.070
53100.000			18.420			-3.070
53201.000			18.419			-3.070
53301.000			18.418			-3.070
53401.000			18.419			-3.070
53502.000			18.418			-3.070
53600.000			18.418			-3.070
53700.000			18.417			-3.069
53801.000			18.417			-3.069
53900.000			18.416			-3.069
54000.000			18.415			-3.069
54101.000			18.414			-3.069
54201.000			18.414			-3.069
54302.000			18.414			-3.069
54400.000			18.412			-3.069
54500.000			18.412			-3.069
54601.000			18.412			-3.069
54700.000			18.412			-3.069
54800.000			18.410			-3.068
54901.000			18.410			-3.068
55001.000			18.410			-3.068
55101.000			18.409			-3.068
55201.000			18.408			-3.068
55300.000			18.408			-3.068
55400.000			18.408			-3.068
55501.000			18.405			-3.068
55600.000			18.406			-3.068
55700.000			18.406			-3.068
55802.000			18.406			-3.068
55901.000			18.406			-3.068
56000.000			18.406			-3.068
56101.000			18.405			-3.068
56200.000			18.405			-3.067
56300.000			18.404			-3.067
56401.000			18.404			-3.067
56500.000			18.403			-3.067
56601.000			18.402			-3.067
56702.000			18.401			-3.067
56800.000			18.400			-3.067
56900.000			18.400			-3.067
57001.000			18.400			-3.067
57100.000			18.400			-3.067
57200.000			18.399			-3.066
57301.000			18.399			-3.066
57401.000			18.398			-3.066
57502.000			18.398			-3.066
57600.000			18.397			-3.066
57700.000			18.396			-3.066
57801.000			18.396			-3.066
57900.000			18.395			-3.066
58000.000			18.395			-3.066
58101.000			18.395			-3.066
58201.000			18.395			-3.066
58301.000			18.395			-3.066
58401.000			18.393			-3.066
58500.000			18.393			-3.065
58600.000			18.393			-3.065
58701.000			18.392			-3.065
58800.000			18.392			-3.065
58900.000			18.391			-3.065
59001.000			18.390			-3.065
59101.000			18.389			-3.065
59201.000			18.388			-3.065
59301.000			18.388			-3.065
59400.000			18.388			-3.065
59500.000			18.388			-3.065
59601.000			18.387			-3.064
59700.000			18.387			-3.065
59800.000			18.387			-3.065
59902.000			18.387			-3.064
60001.000			18.385			-3.064
60100.000			18.385			-3.064
60201.000			18.385			-3.064
60300.000			18.385			-3.064
60400.000			18.384			-3.064
60501.000			18.383			-3.064
60600.000			18.382			-3.064
60702.000			18.381			-3.064
60801.000			18.380			-3.063
60900.000			18.380			-3.063
61001.000			18.380			-3.063
61100.000			18.380			-3.063
61200.000			18.379			-3.063
61301.000			18.379			-3.063
61400.000			18.378			-3.063
61501.000			18.379			-3.063
61602.000			18.378			-3.063
61701.000			18.377			-3.063
61800.000			18.376			-3.063
61901.000			18.376			-3.063
62000.000			18.376			-3.063
62100.000			18.375			-3.063
62201.000			18.375			-3.063
62300.000			18.376			-3.063
62401.000			18.375			-3.063
62502.000			18.374			-3.062
62600.000			18.373			-3.062
62700.000			18.373			-3.062
62801.000			18.373			-3.062
62900.000			18.372			-3.062
63000.000			18.372			-3.062
63101.000			18.371			-3.062
63201.000			18.371			-3.062
63301.000			18.371			-3.062
63401.000			18.370			-3.062
63500.000			18.370			-3.062
63600.000			18.369			-3.061
63701.000			18.367			-3.061
63800.000			18.369			-3.061
63900.000			18.369			-3.061
64002.000			18.368			-3.061
64101.000			18.367			-3.061
64202.000			18.367			-3.061
64300.000			18.366			-3.061
64400.000			18.365			-3.061
64501.000			18.365			-3.061
64600.000			18.366			-3.061
64700.000			18.365			-3.061
64801.000			18.364			-3.061
64901.000			18.363			-3.060
65001.000			18.362			-3.060
65101.000			18.361			-3.060
65200.000			18.361			-3.060
65300.000			18.361			-3.060
65401.000			18.360			-3.060
65500.000			18.360			-3.060
65600.000			18.361			-3.060
65702.000			18.359			-3.060
65801.000			18.359			-3.060
65900.000			18.359			-3.060
66001.000			18.359			-3.060
66100.000			18.359			-3.060
66200.000			18.358			-3.060
66301.000			18.356			-3.059
66400.000			18.358			-3.060
66501.000			18.357			-3.060
66602.000			18.356			-3.059
66700.000			18.357			-3.059
66800.000			18.356			-3.059
66901.000			18.355			-3.059
67000.000			18.354			-3.059
67100.000			18.353			-3.059
67200.000			18.353			-3.059
67301.000			18.353			-3.059
67402.000			18.353			-3.059
67501.000			18.353			-3.059
67600.000			18.353			-3.059
67701.000			18.352			-3.059
67800.000			18.352			-3.059
67900.000			18.351			-3.058
68001.000			18.350			-3.058
68101.000			18.349			-3.058
68201.000			18.349			-3.058
68302.000			18.349			-3.058
68400.000			18.348			-3.058
68500.000			18.347			-3.058
68601.000			18.347			-3.058
68700.000			18.347			-3.058
68800.000			18.346			-3.058
68901.000			18.346			-3.058
69001.000			18.345			-3.058
69101.000			18.346			-3.058
69201.000			18.345			-3.057
69300.000			18.345			-3.058
69400.000			18.344			-3.057
69501.000			18.345			-3.057
69600.000			18.344			-3.057
69700.000			18.344			-3.057
69801.000			18.343			-3.057
69901.000			18.344			-3.057
70001.000			18.342			-3.057
70101.000			18.342			-3.057
70200.000			18.341			-3.057
70300.000			18.341			-3.057
70400.000			18.341			-3.057
70500.000			18.341			-3.057
70601.000			18.340			-3.057
70701.000			18.340			-3.057
70801.000			18.340			-3.057
70901.000			18.340			-3.057
71000.000			18.339			-3.057
71100.000			18.339			-3.056
71201.000			18.337			-3.056
71300.000			18.336			-3.056
71400.000			18.336			-3.056
71502.000			18.337			-3.056
71601.000			18.336			-3.056
71700.000			18.335			-3.056
71801.000			18.335			-3.056
71900.000			18.335			-3.056
72000.000			18.334			-3.056
72101.000			18.334			-3.056
72200.000			18.334			-3.056
72301.000			18.333			-3.056
72402.000			18.333			-3.055
72500.000			18.332			-3.055
72600.000			18.333			-3.055
72701.000			18.333			-3.055
72800.000			18.332			-3.055
72900.000			18.331			-3.055
73001.000			18.331			-3.055
73101.000			18.331			-3.055
73201.000			18.332			-3.055
73301.000			18.330			-3.055
73400.000			18.330			-3.055
73500.000			18.330			-3.055
73600.000			18.329			-3.055
73700.000			18.328			-3.055
73801.000			18.328			-3.055
73901.000			18.328			-3.055
74001.000			18.328			-3.055
74101.000			18.327			-3.055
74200.000			18.327			-3.055
74300.000			18.327			-3.055
74401.000			18.326			-3.054
74500.000			18.325			-3.054
74600.000			18.325			-3.054
74701.000			18.326			-3.054
74801.000			18.325			-3.054
74901.000			18.324			-3.054
75001.000			18.325			-3.054
75100.000			18.324			-3.054
75200.000			18.324			-3.054
75301.000			18.324			-3.054
75400.000			18.323			-3.054
75500.000			18.321			-3.054
75602.000			18.322			-3.054
75701.000			18.323			-3.054
75800.000			18.321			-3.054
75901.000			18.321			-3.053
76000.000			18.319			-3.053
76100.000			18.319			-3.053
76201.000			18.319			-3.053
76300.000			18.319			-3.053
76401.000			18.320			-3.053
76502.000			18.319			-3.053
76600.000			18.318			-3.053
76700.000			18.317			-3.053
76800.000			18.318			-3.053
76900.000			18.317			-3.053
77001.000			18.316			-3.053
77100.000			18.315			-3.053
77201.000			18.316			-3.053
77302.000			18.315			-3.053
77400.000			18.314			-3.052
77500.000			18.315			-3.052
77601.000			18.316			-3.053
77700.000			18.314			-3.052
77800.000			18.314			-3.052
77901.000			18.312			-3.052
78001.000			18.313			-3.052
78101.000			18.312			-3.052
78202.000			18.312			-3.052
78300.000			18.312			-3.052
78400.000			18.312			-3.052
78501.000			18.311			-3.052
78600.000			18.311			-3.052
78700.000			18.310			-3.052
78801.000			18.310			-3.052
78901.000			18.310			-3.052
79001.000			18.309			-3.051
79101.000			18.308			-3.051
79200.000			18.308			-3.051
79300.000			18.308			-3.051
79401.000			18.308			-3.051
79500.000			18.308			-3.051
79600.000			18.307			-3.051
79702.000			18.307			-3.051
79801.000			18.306			-3.051
79900.000			18.307			-3.051
80000.000			18.306			-3.051
80100.000			18.305			-3.051
80201.000			18.305			-3.051
80300.000			18.304			-3.051
80400.000			18.304			-3.051
80502.000			18.304			-3.051
80601.000			18.304			-3.051
80700.000			18.303			-3.050
80801.000			18.302			-3.050
80900.000			18.302			-3.050
81000.000			18.302			-3.050
81101.000			18.302			-3.050
81200.000			18.301			-3.050
81301.000			18.301			-3.050
81402.000			18.301			-3.050
81500.000			18.301			-3.050
81600.000			18.299			-3.050
81701.000			18.298			-3.050
81800.000			18.299			-3.050
81900.000			18.299			-3.050
82001.000			18.300			-3.050
82101.000			18.300			-3.050
82201.000			18.299			-3.050
82302.000			18.297			-3.049
82400.000			18.296			-3.049
82500.000			18.295			-3.049
82601.000			18.295			-3.049
82700.000			18.295			-3.049
82800.000			18.296			-3.049
82901.000			18.296			-3.049
83001.000			18.295			-3.049
83102.000			18.295			-3.049
83200.000			18.294			-3.049
83300.000			18.293			-3.049
83401.000			18.293			-3.049
83500.000			18.292			-3.049
83600.000			18.293			-3.049
83701.000			18.293			-3.049
83801.000			18.292			-3.049
83901.000			18.292			-3.049
84002.000			18.291			-3.049
84100.000			18.291			-3.049
84200.000			18.291			-3.048
84301.000			18.290			-3.048
84400.000			18.290			-3.048
84500.000			18.289			-3.048
84601.000			18.289			-3.048
84701.000			18.290			-3.048
84801.000			18.289			-3.048
84901.000			18.288			-3.048
85000.000			18.287			-3.048
85100.000			18.288			-3.048
85201.000			18.287			-3.048
85300.000			18.287			-3.048
85400.000			18.287			-3.048
85502.000			18.287			-3.048
85601.000			18.286			-3.048
85701.000			18.286			-3.048
85801.000			18.287			-3.048
85900.000			18.285			-3.047
86000.000			18.284			-3.047
86101.000			18.285			-3.047
86200.000			18.283			-3.047
86300.000			18.283			-3.047
86402.000			18.283			-3.047
86501.000			18.284			-3.047
86601.000			18.282			-3.047
86700.000			18.282			-3.047
86800.000			18.283			-3.047
86901.000			18.282			-3.047
87000.000			18.282			-3.047
87100.000			18.281			-3.047
87202.000			18.280			-3.047
87301.000			18.280			-3.047
87401.000			18.279			-3.047
87501.000			18.279			-3.046
87600.000			18.280			-3.047
87700.000			18.279			-3.046
87801.000			18.278			-3.046
87900.000			18.278			-3.046
88000.000			18.278			-3.046
88102.000			18.278			-3.046
88201.000			18.277			-3.046
88301.000			18.277			-3.046
88401.000			18.277			-3.046
88500.000			18.276			-3.046
88600.000			18.275			-3.046
88701.000			18.274			-3.046
88800.000			18.275			-3.046
88900.000			18.274			-3.046
89002.000			18.274			-3.046
89101.000			18.275			-3.046
89200.000			18.274			-3.046
89301.000			18.273			-3.046
89400.000			18.273			-3.045
89500.000			18.273			-3.046
89600.000			18.272			-3.045
89700.000			18.272			-3.045
89802.000			18.271			-3.045
89901.000			18.270			-3.045
90001.000			18.271			-3.045
90101.000			18.271			-3.045
90200.000			18.271			-3.045
90300.000			18.270			-3.045
90401.000			18.270			-3.045
90500.000			18.270			-3.045
90600.000			18.269			-3.045
90702.000			18.269			-3.045
90801.000			18.269			-3.045
90900.000			18.269			-3.045
91001.000			18.267			-3.044
91100.000			18.267			-3.045
91200.000			18.268			-3.045
91301.000			18.267			-3.045
91400.000			18.267			-3.044
91501.000			18.268			-3.045
91602.000			18.268			-3.045
91700.000			18.266			-3.044
91800.000			18.266			-3.044
91901.000			18.266			-3.044
92000.000			18.265			-3.044
92100.000			18.264			-3.044
92201.000			18.264			-3.044
92301.000			18.264			-3.044
92401.000			18.264			-3.044
92501.000			18.264			-3.044
92600.000			18.264			-3.044
92700.000			18.264			-3.044
92800.000			18.265			-3.044
92900.000			18.264			-3.044
93001.000			18.263			-3.044
93101.000			18.261			-3.044
93201.000			18.262			-3.044
93302.000			18.260			-3.043
93400.000			18.260			-3.043
93500.000			18.260			-3.043
93601.000			18.260			-3.043
93700.000			18.260			-3.043
93800.000			18.260			-3.043
93901.000			18.259			-3.043
94001.000			18.258			-3.043
94101.000			18.259			-3.043
94201.000			18.258			-3.043
94300.000			18.258			-3.043
94400.000			18.258			-3.043
94501.000			18.257			-3.043
94600.000			18.257			-3.043
94700.000			18.257			-3.043
94802.000			18.258			-3.043
94901.000			18.256			-3.043
95000.000			18.257			-3.043
95101.000			18.257			-3.043
95200.000			18.256			-3.043
95300.000			18.256			-3.043
95401.000			18.256			-3.043
95500.000			18.255			-3.043
95601.000			18.254			-3.042
95702.000			18.253			-3.042
95801.000			18.253			-3.042
95900.000			18.254			-3.042
96000.000			18.253			-3.042
96100.000			18.254			-3.042
96201.000			18.254			-3.042
96300.000			18.253			-3.042
96400.000			18.252			-3.042
96502.000			18.251			-3.042
96601.000			18.252			-3.042
96700.000			18.251			-3.042
96801.000			18.252			-3.042
96900.000			18.251			-3.042
97000.000			18.250			-3.042
97101.000			18.250			-3.042
97200.000			18.250			-3.042
97301.000			18.250			-3.042
97402.000			18.249			-3.042
97500.000			18.249			-3.041
97600.000			18.248			-3.041
97701.000			18.247			-3.041
97800.000			18.248			-3.041
97900.000			18.248			-3.041
98001.000			18.247			-3.041
98100.000			18.247			-3.041
98201.000			18.247			-3.041
98302.000			18.246			-3.041
98400.000			18.246			-3.041
98500.000			18.246			-3.041
98601.000			18.246			-3.041
98700.000			18.246			-3.041
98800.000			18.245			-3.041
98901.000			18.246			-3.041
99001.000			18.245			-3.041
99102.000			18.245			-3.041
99201.000			18.244			-3.041
99300.000			18.243			-3.040
99401.000			18.242			-3.040
99500.000			18.243			-3.040
99600.000			18.243			-3.041
99701.000			18.243			-3.040
99800.000			18.243			-3.041
99901.000			18.243			-3.040
100002.000			18.241			-3.040
100100.000			18.241			-3.040
100200.000			18.241			-3.040
100301.000			18.240			-3.040
100400.000			18.241			-3.040
100500.000			18.241			-3.040
100601.000			18.241			-3.040
100701.000			18.240			-3.040
100801.000			18.239			-3.040
100901.000			18.239			-3.040
101000.000			18.239			-3.040
101100.000			18.238			-3.040
101201.000			18.239			-3.040
101300.000			18.239			-3.040
101400.000			18.238			-3.040
101502.000			18.238			-3.040
101601.000			18.238			-3.040
101701.000			18.237			-3.040
101801.000			18.237			-3.039
101900.000			18.238			-3.040
102000.000			18.237			-3.040
102101.000			18.237			-3.039
102200.000			18.236			-3.039
102300.000			18.235			-3.039
102402.000			18.235			-3.039
102501.000			18.235			-3.039
102601.000			18.235			-3.039
102700.000			18.235			-3.039
102800.000			18.235			-3.039
102901.000			18.234			-3.039
103000.000			18.234			-3.039
103100.000			18.234			-3.039
103202.000			18.233			-3.039
103301.000			18.233			-3.039
103401.000			18.232			-3.039
103501.000			18.233			-3.039
103600.000			18.233			-3.039
103700.000			18.232			-3.039
103801.000			18.232			-3.039
103900.000			18.231			-3.038
104000.000			18.231			-3.038
104102.000			18.230			-3.038
104201.000			18.230			-3.038
104300.000			18.230			-3.038
104401.000			18.230			-3.038
104500.000			18.230			-3.038
104600.000			18.229			-3.038
104701.000			18.229			-3.038
104800.000			18.229			-3.038
104901.000			18.229			-3.038
105002.000			18.228			-3.038
105100.000			18.229			-3.038
105200.000			18.229			-3.038
105301.000			18.228			-3.038
105400.000			18.227			-3.038
105500.000			18.227			-3.038
105600.000			18.226			-3.038
105700.000			18.226			-3.038
105802.000			18.226			-3.038
105901.000			18.226			-3.038
106000.000			18.226			-3.038
106101.000			18.226			-3.038
106200.000			18.225			-3.038
106300.000			18.224			-3.037
106401.000			18.224			-3.037
106500.000			18.224			-3.037
106601.000			18.224			-3.037
106702.000			18.224			-3.037
106800.000			18.224			-3.037
106900.000			18.224			-3.037
107001.000			18.223			-3.037
107100.000			18.223			-3.037
107200.000			18.221			-3.037
107301.000			18.221			-3.037
107401.000			18.222			-3.037
107501.000			18.222			-3.037
107602.000			18.222			-3.037
107700.000			18.222			-3.037
107800.000			18.221			-3.037
107901.000			18.220			-3.037
108000.000			18.220			-3.037
108100.000			18.219			-3.037
108201.000			18.219			-3.036
108301.000			18.218			-3.036
108401.000			18.218			-3.036
108501.000			18.218			-3.036
108600.000			18.219			-3.036
108700.000			18.218			-3.036
108800.000			18.218			-3.036
108900.000			18.218			-3.036
109001.000			18.217			-3.036
109101.000			18.217			-3.036
109201.000			18.216			-3.036
109302.000			18.216			-3.036
109400.000			18.216			-3.036
109500.000			18.216			-3.036
109601.000			18.216			-3.036
109700.000			18.215			-3.036
109800.000			18.215			-3.036
109901.000			18.215			-3.036
110001.000			18.214			-3.036
110101.000			18.214			-3.036
110201.000			18.214			-3.036
110300.000			18.215			-3.036
110400.000			18.214			-3.036
110501.000			18.213			-3.036
110600.000			18.213			-3.036
110700.000			18.214			-3.036
110802.000			18.213			-3.035
110901.000			18.213			-3.035
111000.000			18.213			-3.035
111101.000			18.213			-3.035
111200.000			18.212			-3.035
111300.000			18.212			-3.035
111401.000			18.211			-3.035
111500.000			18.211			-3.035
111601.000			18.211			-3.035
111702.000			18.211			-3.035
111800.000			18.210			-3.035
111900.000			18.210			-3.035
112000.000			18.210			-3.035
112100.000			18.210			-3.035
112201.000			18.209			-3.035
112300.000			18.209			-3.035
112400.000			18.209			-3.035
112502.000			18.209			-3.035
112601.000			18.209			-3.035
112700.000			18.208			-3.035
112801.000			18.209			-3.035
112900.000			18.208			-3.035
113000.000			18.207			-3.034
113101.000			18.207			-3.034
113200.000			18.208			-3.035
113301.000			18.207			-3.035
113402.000			18.206			-3.034
113500.000			18.206			-3.034
113600.000			18.206			-3.034
113701.000			18.206			-3.034
113800.000			18.205			-3.034
113900.000			18.206			-3.034
114001.000			18.205			-3.034
114101.000			18.204			-3.034
114201.000			18.204			-3.034
114301.000			18.203			-3.034
114400.000			18.205			-3.034
114500.000			18.205			-3.034
114601.000			18.204			-3.034
114700.000			18.204			-3.034
114800.000			18.203			-3.034
114902.000			18.203			-3.034
115001.000			18.202			-3.034
115102.000			18.203			-3.034
115200.000			18.202			-3.034
115300.000			18.201			-3.034
115401.000			18.201			-3.033
115500.000			18.202			-3.034
115600.000			18.201			-3.034
115701.000			18.201			-3.034
115801.000			18.202			-3.034
115901.000			18.201			-3.034
116001.000			18.200			-3.033
116100.000			18.199			-3.033
116200.000			18.198			-3.033
116301.000			18.198			-3.033
116400.000			18.198			-3.033
116500.000			18.199			-3.033
116602.000			18.198			-3.033
116701.000			18.199			-3.033
116801.000			18.199			-3.033
116901.000			18.198			-3.033
117000.000			18.198			-3.033
117100.000			18.198			-3.033
117201.000			18.197			-3.033
117300.000			18.197			-3.033
117400.000			18.196			-3.033
117502.000			18.196			-3.033
117601.000			18.196			-3.033
117700.000			18.196			-3.033
117801.000			18.196			-3.033
117900.000			18.195			-3.033
118000.000			18.194			-3.032
118101.000			18.194			-3.032
118200.000			18.194			-3.032
118300.000			18.193			-3.032
118402.000			18.194			-3.032
118501.000			18.193			-3.032
118601.000			18.193			-3.032
118700.000			18.194			-3.032
118800.000			18.194			-3.032
118901.000			18.193			-3.032
119000.000			18.192			-3.032
119100.000			18.191			-3.032
119201.000			18.191			-3.032
119301.000			18.191			-3.032
119401.000			18.192			-3.032
119501.000			18.192			-3.032
119600.000			18.191			-3.032
119700.000			18.191			-3.032
119801.000			18.191			-3.032
119900.000			18.191			-3.032
120000.000			18.190			-3.032
120102.000			18.190			-3.032
120201.000			18.189			-3.031
120300.000			18.189			-3.031
120401.000			18.189			-3.031
120500.000			18.188			-3.031
120600.000			18.188			-3.031
120701.000			18.188			-3.031
120800.000			18.188			-3.031
120900.000			18.187			-3.031
121002.000			18.186			-3.031
121101.000			18.185			-3.031
121200.000			18.186			-3.031
121301.000			18.186			-3.031
121400.000			18.187			-3.031
121500.000			18.186			-3.031
121600.000			18.186			-3.031
121700.000			18.187			-3.031
121801.000			18.186			-3.031
121901.000			18.185			-3.031
122001.000			18.184			-3.031
122101.000			18.185			-3.031
122200.000			18.185			-3.031
122300.000			18.185			-3.031
122401.000			18.184			-3.031
122500.000			18.184			-3.031
122600.000			18.183			-3.030
122702.000			18.182			-3.030
122801.000			18.182			-3.030
122900.000			18.182			-3.030
123001.000			18.184			-3.031
123100.000			18.183			-3.031
123200.000			18.182			-3.030
123301.000			18.182			-3.030
123400.000			18.182			-3.030
123500.000			18.181			-3.030
123602.000			18.180			-3.030
123701.000			18.180			-3.030
123800.000			18.182			-3.030
123901.000			18.182			-3.030
124000.000			18.181			-3.030
124100.000			18.180			-3.030
124201.000			18.180			-3.030
124300.000			18.180			-3.030
124401.000			18.180			-3.030
124502.000			18.178			-3.030
124601.000			18.179			-3.030
124700.000			18.179			-3.030
124800.000			18.178			-3.030
124900.000			18.177			-3.030
125001.000			18.178			-3.030
125100.000			18.178			-3.030
125200.000			18.178			-3.030
125302.000			18.177			-3.030
125401.000			18.177			-3.030
125501.000			18.177			-3.030
125601.000			18.176			-3.029
125700.000			18.176			-3.029
125800.000			18.177			-3.029
125901.000			18.176			-3.029
126000.000			18.176			-3.029
126100.000			18.176			-3.029
126202.000			18.175			-3.029
126301.000			18.175			-3.029
126400.000			18.176			-3.029
126501.000			18.176			-3.029
126600.000			18.175			-3.029
126700.000			18.175			-3.029
126801.000			18.175			-3.029
126900.000			18.173			-3.029
127000.000			18.172			-3.029
127102.000			18.173			-3.029
127201.000			18.173			-3.029
127300.000			18.173			-3.029
127401.000			18.174			-3.029
127500.000			18.174			-3.029
127600.000			18.173			-3.029
127701.000			18.171			-3.029
127800.000			18.171			-3.029
127902.000			18.170			-3.028
128001.000			18.171			-3.028
128101.000			18.170			-3.028
128201.000			18.170			-3.028
128300.000			18.171			-3.028
128400.000			18.171			-3.029
128501.000			18.171			-3.028
128600.000			18.169			-3.028
128700.000			18.169			-3.028
128802.000			18.170			-3.028
128901.000			18.169			-3.028
129000.000			18.169			-3.028
129101.000			18.168			-3.028
129200.000			18.169			-3.028
129300.000			18.169			-3.028
129401.000			18.169			-3.028
129500.000			18.168			-3.028
129600.000			18.168			-3.028
129702.000			18.168			-3.028
129801.000			18.167			-3.028
129900.000			18.167			-3.028
130001.000			18.167			-3.028
130100.000			18.167			-3.028
130200.000			18.167			-3.028
130301.000			18.166			-3.028
130400.000			18.167			-3.028
130501.000			18.166			-3.028
130602.000			18.167			-3.028
130701.000			18.165			-3.028
130800.000			18.165			-3.027
130901.000			18.165			-3.028
131000.000			18.166			-3.028
131100.000			18.165			-3.028
131200.000			18.165			-3.028
131300.000			18.165			-3.027
131402.000			18.164			-3.027
131501.000			18.163			-3.027
131601.000			18.163			-3.027
131701.000			18.164			-3.027
131800.000			18.163			-3.027
131900.000			18.163			-3.027
132001.000			18.164			-3.027
132100.000			18.163			-3.027
132200.000			18.163			-3.027
132302.000			18.163			-3.027
132401.000			18.162			-3.027
132501.000			18.163			-3.027
132601.000			18.163			-3.027
132700.000			18.163			-3.027
132800.000			18.163			-3.027
132901.000			18.161			-3.027
133000.000			18.160			-3.027
133100.000			18.160			-3.027
133202.000			18.161			-3.027
133301.000			18.161			-3.027
133401.000			18.162			-3.027
133501.000			18.162			-3.027
133600.000			18.160			-3.027
133700.000			18.160			-3.027
133801.000			18.160			-3.027
133900.000			18.160			-3.027
134000.000			18.160			-3.027
134102.000			18.159			-3.027
134201.000			18.159			-3.026
134302.000			18.159			-3.026
134400.000			18.158			-3.026
134500.000			18.158			-3.026
134601.000			18.158			-3.026
134700.000			18.158			-3.026
134800.000			18.158			-3.026
134901.000			18.157			-3.026
135000.000			18.157			-3.026
135101.000			18.157			-3.026
135202.000			18.158			-3.026
135301.000			18.157			-3.026
135400.000			18.156			-3.026
135501.000			18.156			-3.026
135600.000			18.156			-3.026
135700.000			18.156			-3.026
135801.000			18.156			-3.026
135900.000			18.155			-3.026
136000.000			18.155			-3.026
136102.000			18.155			-3.026
136201.000			18.155			-3.026
136300.000			18.155			-3.026
136401.000			18.155			-3.026
136500.000			18.154			-3.026
136600.000			18.154			-3.026
136701.000			18.153			-3.025
136800.000			18.153			-3.026
136900.000			18.153			-3.025
137002.000			18.153			-3.025
137101.000			18.153			-3.026
137200.000			18.153			-3.026
137301.000			18.153			-3.025
137400.000			18.152			-3.025
137500.000			18.151			-3.025
137600.000			18.150			-3.025
137700.000			18.150			-3.025
137801.000			18.150			-3.025
137901.000			18.151			-3.025
138001.000			18.151			-3.025
138101.000			18.150			-3.025
138200.000			18.150			-3.025
138300.000			18.150			-3.025
138401.000			18.150			-3.025
138500.000			18.150			-3.025
138600.000			18.150			-3.025
138701.000			18.150			-3.025
138801.000			18.149			-3.025
138901.000			18.148			-3.025
139002.000			18.147			-3.025
139100.000			18.148			-3.025
139200.000			18.149			-3.025
139301.000			18.148			-3.025
139400.000			18.148			-3.025
139500.000			18.148			-3.025
139601.000			18.147			-3.024
139700.000			18.146			-3.024
139801.000			18.146			-3.024
139902.000			18.146			-3.024
140001.000			18.147			-3.025
140100.000			18.147			-3.025
140201.000			18.145			-3.024
140300.000			18.145			-3.024
140400.000			18.145			-3.024
140501.000			18.144			-3.024
140600.000			18.145			-3.024
140700.000			18.144			-3.024
140802.000			18.144			-3.024
140901.000			18.144			-3.024
141001.000			18.144			-3.024
141100.000			18.144			-3.024
141200.000			18.145			-3.024
141301.000			18.144			-3.024
141400.000			18.143			-3.024
141500.000			18.143			-3.024
141601.000			18.143			-3.024
141701.000			18.143			-3.024
141801.000			18.143			-3.024
141901.000			18.143			-3.024
142000.000			18.142			-3.024
142100.000			18.142			-3.024
142201.000			18.142			-3.024
142300.000			18.142			-3.024
142400.000			18.142			-3.024
142501.000			18.142			-3.024
142601.000			18.142			-3.024
142701.000			18.141			-3.023
142801.000			18.140			-3.023
142900.000			18.139			-3.023
143000.000			18.140			-3.023
143101.000			18.140			-3.023
143200.000			18.140			-3.023
143300.000			18.139			-3.023
143401.000			18.139			-3.023
143501.000			18.138			-3.023
143601.000			18.139			-3.023
143702.000			18.139			-3.023
143800.000			18.139			-3.023
143900.000			18.139			-3.023
144000.000			18.139			-3.023
144100.000			18.138			-3.023
144201.000			18.137			-3.023
144300.000			18.137			-3.023
144400.000			18.138			-3.023
144502.000			18.137			-3.023
144601.000			18.137			-3.023
144700.000			18.136			-3.023
144801.000			18.136			-3.023
144900.000			18.136			-3.023
145000.000			18.136			-3.023
145101.000			18.136			-3.023
145200.000			18.135			-3.023
145300.000			18.136			-3.023
145402.000			18.137			-3.023
145501.000			18.137			-3.023
145601.000			18.136			-3.023
145701.000			18.135			-3.022
145800.000			18.135			-3.022
145900.000			18.136			-3.023
146001.000			18.135			-3.023
146100.000			18.134			-3.022
146200.000			18.134			-3.022
146302.000			18.134			-3.022
146401.000			18.134			-3.022
146501.000			18.134			-3.022
146601.000			18.133			-3.022
146700.000			18.133			-3.022
146800.000			18.133			-3.022
146901.000			18.133			-3.022
147000.000			18.133			-3.022
147100.000			18.133			-3.022
147200.000			18.133			-3.022
147301.000			18.132			-3.022
147402.000			18.132			-3.022
147501.000			18.132			-3.022
147600.000			18.132			-3.022
147701.000			18.132			-3.022
147800.000			18.133			-3.022
147900.000			18.132			-3.022
148001.000			18.131			-3.022
148100.000			18.131			-3.022
148201.000			18.130			-3.022
148302.000			18.130			-3.022
148401.000			18.131			-3.022
148500.000			18.131			-3.022
148601.000			18.130			-3.022
148700.000			18.129			-3.022
148800.000			18.130			-3.022
148901.000			18.129			-3.021
149000.000			18.128			-3.021
149100.000			18.129			-3.021
149202.000			18.129			-3.022
149301.000			18.129			-3.021
149400.000			18.128			-3.021
149501.000			18.128			-3.021
149600.000			18.128			-3.021
149700.000			18.128			-3.021
149801.000			18.128			-3.021
149900.000			18.126			-3.021
150000.000			18.126			-3.021
150102.000			18.127			-3.021
150201.000			18.128			-3.021
150302.000			18.127			-3.021
150400.000			18.126			-3.021
150500.000			18.124			-3.021
150601.000			18.124			-3.021
150700.000			18.125			-3.021
150800.000			18.124			-3.021
150901.000			18.124			-3.021
151001.000			18.125			-3.021
151101.000			18.125			-3.021
151202.000			18.124			-3.021
151300.000			18.124			-3.021
151400.000			18.124			-3.021
151501.000			18.122			-3.020
151600.000			18.124			-3.021
151700.000			18.124			-3.021
151801.000			18.123			-3.020
151901.000			18.123			-3.021
152001.000			18.123			-3.020
152102.000			18.122			-3.020
152200.000			18.123			-3.020
152300.000			18.123			-3.020
152401.000			18.122			-3.020
152500.000			18.122			-3.020
152600.000			18.122			-3.020
152701.000			18.122			-3.020
152800.000			18.122			-3.020
152901.000			18.122			-3.020
153002.000			18.121			-3.020
153100.000			18.121			-3.020
153200.000			18.121			-3.020
153301.000			18.120			-3.020
153400.000			18.120			-3.020
153500.000			18.120			-3.020
153600.000			18.121			-3.020
153700.000			18.120			-3.020
153802.000			18.120			-3.020
153901.000			18.119			-3.020
154000.000			18.120			-3.020
154101.000			18.119			-3.020
154200.000			18.118			-3.020
154300.000			18.118			-3.020
154401.000			18.119			-3.020
154500.000			18.118			-3.020
154600.000			18.118			-3.020
154702.000			18.119			-3.020
154801.000			18.118			-3.020
154901.000			18.117			-3.019
155001.000			18.116			-3.019
155100.000			18.117			-3.019
155200.000			18.117			-3.019
155301.000			18.118			-3.020
155400.000			18.117			-3.019
155500.000			18.117			-3.019
155601.000			18.116			-3.019
155701.000			18.116			-3.019
155801.000			18.116			-3.019
155901.000			18.116			-3.019
156000.000			18.115			-3.019
156100.000			18.116			-3.019
156201.000			18.116			-3.019
156300.000			18.116			-3.019
156400.000			18.116			-3.019
156501.000			18.115			-3.019
156601.000			18.115			-3.019
156702.000			18.115			-3.019
156800.000			18.115			-3.019
156900.000			18.115			-3.019
157001.000			18.115			-3.019
157100.000			18.114			-3.019
157200.000			18.115			-3.019
157301.000			18.114			-3.019
157400.000			18.114			-3.019
157501.000			18.114			-3.019
157602.000			18.113			-3.019
157701.000			18.113			-3.019
157800.000			18.113			-3.019
157901.000			18.113			-3.019
158000.000			18.111			-3.019
158100.000			18.112			-3.019
158201.000			18.112			-3.019
158300.000			18.113			-3.019
158400.000			18.112			-3.019
158502.000			18.112			-3.019
158601.000			18.112			-3.019
158700.000			18.112			-3.019
158801.000			18.112			-3.019
158900.000			18.112			-3.019
159000.000			18.110			-3.018
159101.000			18.111			-3.018
159200.000			18.111			-3.018
159300.000			18.111			-3.019
159402.000			18.111			-3.019
159501.000			18.110			-3.018
159600.000			18.108			-3.018
159701.000			18.109			-3.018
159800.000			18.109			-3.018
159900.000			18.109			-3.018
160000.000			18.110			-3.018
160100.000			18.110			-3.018
160201.000			18.110			-3.018
160301.000			18.109			-3.018
160401.000			18.109			-3.018
160502.000			18.108			-3.018
160600.000			18.108			-3.018
160700.000			18.108			-3.018
160801.000			18.108			-3.018
160900.000			18.109			-3.018
161000.000			18.107			-3.018
161101.000			18.107			-3.018
161201.000			18.106			-3.018
161301.000			18.107			-3.018
161402.000			18.107			-3.018
161500.000			18.106			-3.018
161600.000			18.106			-3.018
161701.000			18.106			-3.018
161800.000			18.105			-3.017
161900.000			18.106			-3.018
162001.000			18.106			-3.018
162100.000			18.105			-3.018
162201.000			18.105			-3.017
162302.000			18.105			-3.017
162400.000			18.106			-3.018
162500.000			18.105			-3.018
162601.000			18.105			-3.017
162700.000			18.105			-3.017
162800.000			18.105			-3.017
162901.000			18.104			-3.017
163000.000			18.104			-3.017
163102.000			18.104			-3.017
163201.000			18.103			-3.017
163300.000			18.103			-3.017
163401.000			18.102			-3.017
163500.000			18.103			-3.017
163600.000			18.102			-3.017
163701.000			18.101			-3.017
163800.000			18.102			-3.017
163900.000			18.102			-3.017
164002.000			18.103			-3.017
164101.000			18.101			-3.017
164200.000			18.101			-3.017
164301.000			18.101			-3.017
164400.000			18.101			-3.017
164500.000			18.101			-3.017
164601.000			18.101			-3.017
164700.000			18.100			-3.017
164800.000			18.100			-3.017
164902.000			18.099			-3.017
165001.000			18.099			-3.016
165100.000			18.099			-3.016
165201.000			18.099			-3.017
165300.000			18.099			-3.016
165400.000			18.098			-3.016
165501.000			18.099			-3.016
165600.000			18.099			-3.016
165700.000			18.099			-3.016
165801.000			18.099			-3.017
165901.000			18.099			-3.017
166001.000			18.100			-3.017
166101.000			18.098			-3.016
166200.000			18.098			-3.016
166300.000			18.098			-3.016
166400.000			18.098			-3.016
166500.000			18.097			-3.016
166601.000			18.096			-3.016
166700.000			18.097			-3.016
166801.000			18.097			-3.016
166902.000			18.097			-3.016
167001.000			18.097			-3.016
167100.000			18.097			-3.016
167201.000			18.096			-3.016
167300.000			18.095			-3.016
167400.000			18.095			-3.016
167501.000			18.095			-3.016
167600.000			18.095			-3.016
167700.000			18.095			-3.016
167802.000			18.095			-3.016
167901.000			18.095			-3.016
168001.000			18.094			-3.016
168101.000			18.095			-3.016
168200.000			18.095			-3.016
168300.000			18.095			-3.016
168401.000			18.094			-3.016
168500.000			18.093			-3.016
168600.000			18.094			-3.016
168701.000			18.095			-3.016
168801.000			18.094			-3.016
168901.000			18.093			-3.016
169001.000			18.093			-3.016
169100.000			18.094			-3.016
169200.000			18.093			-3.015
169301.000			18.093			-3.015
169400.000			18.092			-3.015
169500.000			18.092			-3.015
169600.000			18.092			-3.015
169700.000			18.093			-3.015
169802.000			18.093			-3.015
169901.000			18.092			-3.015
170000.000			18.092			-3.015
170101.000			18.092			-3.015
170200.000			18.092			-3.015
170300.000			18.092			-3.015
170401.000			18.092			-3.015
170500.000			18.091			-3.015
170600.000			18.090			-3.015
170702.000			18.091			-3.015
170801.000			18.090			-3.015
170900.000			18.089			-3.015
171001.000			18.090			-3.015
171100.000			18.090			-3.015
171200.000			18.091			-3.015
171301.000			18.090			-3.015
171400.000			18.089			-3.015
171500.000			18.089			-3.015
171602.000			18.089			-3.015
171701.000			18.088			-3.015
171801.000			18.088			-3.015
171901.000			18.088			-3.015
172000.000			18.088			-3.015
172100.000			18.088			-3.015
172201.000			18.089			-3.015
172300.000			18.088			-3.015
172400.000			18.088			-3.015
172501.000			18.088			-3.015
172601.000			18.087			-3.015
172702.000			18.088			-3.015
172801.000			18.087			-3.014
172900.000			18.086			-3.014
173001.000			18.086			-3.014
173100.000			18.087			-3.014
173200.000			18.086			-3.014
173301.000			18.086			-3.014
173400.000			18.086			-3.014
173500.000			18.085			-3.014
173602.000			18.086			-3.014
173701.000			18.087			-3.014
173800.000			18.086			-3.014
173901.000			18.084			-3.014
174000.000			18.085			-3.014
174100.000			18.086			-3.014
174201.000			18.085			-3.014
174300.000			18.083			-3.014
174400.000			18.084			-3.014
174502.000			18.084			-3.014
174601.000			18.084			-3.014
174701.000			18.085			-3.014
174801.000			18.084			-3.014
174900.000			18.084			-3.014
175000.000			18.083			-3.014
175101.000			18.083			-3.014
175200.000			18.083			-3.014
175300.000			18.083			-3.014
175401.000			18.083			-3.014
175501.000			18.082			-3.014
175601.000			18.083			-3.014
175701.000			18.083			-3.014
175800.000			18.083			-3.014
175900.000			18.083			-3.014
176000.000			18.082			-3.014
176100.000			18.082			-3.014
176201.000			18.082			-3.014
176300.000			18.082			-3.014
176401.000			18.081			-3.014
176502.000			18.081			-3.013
176601.000			18.081			-3.014
176700.000			18.081			-3.014
176801.000			18.081			-3.013
176900.000			18.081			-3.013
177000.000			18.081			-3.013
177101.000			18.081			-3.013
177200.000			18.079			-3.013
177300.000			18.078			-3.013
177402.000			18.079			-3.013
177501.000			18.079			-3.013
177601.000			18.079			-3.013
177701.000			18.080			-3.013
177800.000			18.079			-3.013
177900.000			18.080			-3.013
178001.000			18.079			-3.013
178100.000			18.079			-3.013
178200.000			18.079			-3.013
178301.000			18.078			-3.013
178401.000			18.078			-3.013
178501.000			18.078			-3.013
178601.000			18.077			-3.013
178700.000			18.077			-3.013
178800.000			18.076			-3.013
178901.000			18.077			-3.013
179000.000			18.076			-3.013
179100.000			18.076			-3.013
179200.000			18.077			-3.013
179300.000			18.077			-3.013
179402.000			18.076			-3.013
179501.000			18.076			-3.013
179601.000			18.076			-3.013
179701.000			18.075			-3.013
179800.000			18.075			-3.012
179900.000			18.075			-3.012
180001.000			18.075			-3.012
180100.000			18.074			-3.012
180200.000			18.074			-3.012
180301.000			18.075			-3.013
180401.000			18.075			-3.013
180501.000			18.074			-3.012
180601.000			18.074			-3.012
180700.000			18.072			-3.012
180800.000			18.073			-3.012
180901.000			18.074			-3.012
181000.000			18.074			-3.012
181100.000			18.073			-3.012
181201.000			18.073			-3.012
181301.000			18.073			-3.012
181401.000			18.072			-3.012
181501.000			18.072			-3.012
181600.000			18.073			-3.012
181700.000			18.073			-3.012
181801.000			18.071			-3.012
181900.000			18.072			-3.012
182000.000			18.072			-3.012
182101.000			18.070			-3.012
182201.000			18.071			-3.012
182302.000			18.072			-3.012
182401.000			18.071			-3.012
182500.000			18.070			-3.012
182601.000			18.069			-3.011
182700.000			18.069			-3.011
182800.000			18.069			-3.012
182901.000			18.070			-3.012
183000.000			18.070			-3.012
183100.000			18.070			-3.012
183202.000			18.069			-3.012
183301.000			18.070			-3.012
183400.000			18.069			-3.012
183501.000			18.068			-3.011
183600.000			18.069			-3.012
183700.000			18.070			-3.012
183801.000			18.068			-3.011
183900.000			18.068			-3.011
184000.000			18.068			-3.011
184101.000			18.067			-3.011
184201.000			18.067			-3.011
184301.000			18.068			-3.011
184401.000			18.067			-3.011
184500.000			18.068			-3.011
184600.000			18.067			-3.011
184701.000			18.067			-3.011
184800.000			18.067			-3.011
184900.000			18.066			-3.011
185001.000			18.067			-3.011
185101.000			18.065			-3.011
185201.000			18.065			-3.011
185302.000			18.065			-3.011
185400.000			18.065			-3.011
185500.000			18.065			-3.011
185600.000			18.065			-3.011
185700.000			18.065			-3.011
185801.000			18.065			-3.011
185900.000			18.065			-3.011
186000.000			18.064			-3.011
186102.000			18.064			-3.011
186201.000			18.064			-3.011
186300.000			18.063			-3.011
186401.000			18.064			-3.011
186500.000			18.063			-3.011
186600.000			18.064			-3.011
186701.000			18.064			-3.011
186800.000			18.063			-3.011
186900.000			18.063			-3.011
187002.000			18.063			-3.011
187101.000			18.063			-3.010
187201.000			18.062			-3.010
187301.000			18.063			-3.010
187400.000			18.062			-3.010
187500.000			18.062			-3.010
187601.000			18.063			-3.010
187700.000			18.061			-3.010
187800.000			18.061			-3.010
187901.000			18.062			-3.010
188001.000			18.060			-3.010
188101.000			18.061			-3.010
188201.000			18.061			-3.010
188300.000			18.061			-3.010
188400.000			18.061			-3.010
188501.000			18.061			-3.010
188600.000			18.061			-3.010
188700.000			18.060			-3.010
188800.000			18.061			-3.010
188900.000			18.061			-3.010
189002.000			18.060			-3.010
189101.000			18.059			-3.010
189200.000			18.059			-3.010
189301.000			18.060			-3.010
189400.000			18.060			-3.010
189500.000			18.059			-3.010
189601.000			18.058			-3.010
189700.000			18.058			-3.010
189800.000			18.059			-3.010
189902.000			18.059			-3.010
190001.000			18.059			-3.010
190101.000			18.059			-3.010
190201.000			18.058			-3.010
190300.000			18.057			-3.010
190400.000			18.057			-3.010
190501.000			18.057			-3.010
190600.000			18.058			-3.010
190700.000			18.057			-3.009
190801.000			4.879			-0.813
190901.000			-48.258			8.043
191001.000			18.057			-3.010
191101.000			18.057			-3.009
191200.000			18.057			-3.009
191300.000			18.057			-3.009
191401.000			18.057			-3.009
191500.000			18.056			-3.009
191600.000			18.055			-3.009
191701.000			18.056			-3.009
191801.000			18.056			-3.009
191902.000			18.056			-3.009
192001.000			18.056			-3.009
192100.000			18.055			-3.009
192201.000			18.056			-3.009
192300.000			18.055			-3.009
192400.000			18.056			-3.009
192501.000			18.056			-3.009
192600.000			18.054			-3.009
192700.000			18.054			-3.009
192802.000			18.054			-3.009
192901.000			18.054			-3.009
193000.000			18.054			-3.009
193101.000			18.053			-3.009
193200.000			18.052			-3.009
193300.000			18.052			-3.009
193401.000			18.053			-3.009
193500.000			18.053			-3.009
193600.000			18.053			-3.009
193702.000			18.053			-3.009
193801.000			18.053			-3.009
193901.000			18.053			-3.009
194001.000			18.052			-3.009
194100.000			18.052			-3.009
194200.000			18.051			-3.008
194301.000			18.051			-3.008
194400.000			18.051			-3.009
194500.000			18.051			-3.008
194601.000			18.051			-3.009
194701.000			18.051			-3.008
194801.000			18.050			-3.008
194901.000			18.050			-3.008
195000.000			18.051			-3.008
195100.000			18.051			-3.009
195200.000			18.050			-3.008
195300.000			18.049			-3.008
195401.000			18.049			-3.008
195500.000			18.049			-3.008
195600.000			18.049			-3.008
195702.000			18.050			-3.008
195801.000			18.051			-3.008
195900.000			18.050			-3.008
196001.000			18.049			-3.008
196100.000			18.049			-3.008
196200.000			18.048			-3.008
196301.000			18.049			-3.008
196400.000			18.049			-3.008
196500.000			18.048			-3.008
196602.000			18.047			-3.008
196701.000			18.047			-3.008
196801.000			18.048			-3.008
196901.000			18.048			-3.008
197000.000			18.048			-3.008
197100.000			18.048			-3.008
197201.000			18.048			-3.008
197300.000			18.048			-3.008
197400.000			18.047			-3.008
197501.000			18.047			-3.008
197601.000			18.048			-3.008
197701.000			18.047			-3.008
197802.000			18.047			-3.008
197900.000			18.048			-3.008
198000.000			18.048			-3.008
198101.000			18.046			-3.008
198200.000			18.046			-3.008
198300.000			18.046			-3.008
198400.000			18.045			-3.008
198500.000			18.045			-3.007
198602.000			18.045			-3.007
198701.000			18.046			-3.008
198801.000			18.046			-3.008
198901.000			18.046			-3.008
199000.000			18.045			-3.007
199100.000			18.043			-3.007
199201.000			18.044			-3.007
199300.000			18.044			-3.007
199400.000			18.044			-3.007
199501.000			18.045			-3.007
199601.000			18.043			-3.007
199701.000			18.043			-3.007
199802.000			18.043			-3.007
199900.000			18.043			-3.007
200000.000			18.044			-3.007
200101.000			18.044			-3.007
200200.000			18.043			-3.007
200300.000			18.042			-3.007
200401.000			18.043			-3.007
200501.000			18.043			-3.007
200601.000			18.042			-3.007
200702.000			18.042			-3.007
200800.000			18.042			-3.007
200900.000			18.042			-3.007
201001.000			18.041			-3.007
201100.000			18.042			-3.007
201200.000			18.042			-3.007
201301.000			18.043			-3.007
201401.000			18.042			-3.007
201502.000			18.040			-3.007
201601.000			18.040			-3.007
201700.000			18.040			-3.007
201801.000			18.040			-3.007
201900.000			18.040			-3.007
202000.000			18.040			-3.007
202101.000			18.040			-3.007
202200.000			18.041			-3.007
202301.000			18.040			-3.007
202402.000			18.040			-3.007
202501.000			18.040			-3.007
202600.000			18.039			-3.007
202701.000			18.040			-3.007
202800.000			18.039			-3.006
202900.000			18.039			-3.006
203001.000			18.039			-3.007
203100.000			18.039			-3.006
203200.000			18.039			-3.007
203302.000			18.040			-3.007
203401.000			18.040			-3.007
203500.000			18.039			-3.007
203601.000			18.038			-3.006
203700.000			18.039			-3.007
203800.000			18.038			-3.006
203901.000			18.037			-3.006
204000.000			18.037			-3.006
204100.000			18.037			-3.006
204202.000			18.037			-3.006
204301.000			18.038			-3.006
204400.000			18.037			-3.006
204501.000			18.037			-3.006
204600.000			18.037			-3.006
204700.000			18.036			-3.006
204800.000			18.037			-3.006
204900.000			18.037			-3.006
205001.000			18.036			-3.006
205101.000			18.035			-3.006
205201.000			18.036			-3.006
205301.000			18.036			-3.006
205400.000			18.035			-3.006
205500.000			18.035			-3.006
205601.000			18.035			-3.006
205700.000			18.035			-3.006
205800.000			18.035			-3.006
205901.000			18.035			-3.006
206001.000			18.035			-3.006
206101.000			18.035			-3.006
206201.000			18.035			-3.006
206300.000			18.034			-3.006
206400.000			18.035			-3.006
206501.000			18.036			-3.006
206600.000			18.034			-3.006
206700.000			18.034			-3.006
206801.000			18.033			-3.006
206901.000			18.033			-3.005
207001.000			18.033			-3.005
207101.000			18.032			-3.005
207200.000			18.033			-3.006
207300.000			18.033			-3.005
207401.000			18.033			-3.005
207500.000			18.034			-3.006
207600.000			18.033			-3.005
207701.000			18.032			-3.005
207801.000			18.031			-3.005
207902.000			18.033			-3.005
208000.000			18.033			-3.006
208100.000			18.032			-3.005
208201.000			18.033			-3.005
208300.000			18.033			-3.006
208400.000			18.032			-3.005
208501.000			18.032			-3.005
208600.000			18.031			-3.005
208701.000			18.031			-3.005
208802.000			18.031			-3.005
208900.000			18.031			-3.005
209000.000			18.031			-3.005
209101.000			18.031			-3.005
209200.000			18.031			-3.005
209300.000			18.031			-3.005
209401.000			18.030			-3.005
209500.000			18.030			-3.005
209601.000			18.030			-3.005
209702.000			18.032			-3.005
209801.000			18.030			-3.005
209900.000			18.029			-3.005
210001.000			18.029			-3.005
210100.000			18.030			-3.005
210200.000			18.029			-3.005
210301.000			18.028			-3.005
210400.000			18.029			-3.005
210501.000			18.029			-3.005
210602.000			18.028			-3.005
210701.000			18.029			-3.005
210800.000			18.029			-3.005
210901.000			18.028			-3.005
211000.000			18.028			-3.005
211100.000			18.027			-3.005
211200.000			18.027			-3.004
211300.000			18.026			-3.004
211401.000			18.027			-3.005
211501.000			18.028			-3.005
211601.000			18.027			-3.005
211701.000			18.028			-3.005
211800.000			18.027			-3.005
211900.000			18.028			-3.005
212001.000			18.027			-3.005
212100.000			18.027			-3.005
212200.000			18.026			-3.004
212301.000			18.026			-3.004
212401.000			18.027			-3.004
212501.000			18.027			-3.005
212601.000			18.026			-3.004
212700.000			18.027			-3.004
212800.000			18.026			-3.004
212901.000			18.026			-3.004
213000.000			18.026			-3.004
213100.000			18.026			-3.004
213201.000			18.025			-3.004
213301.000			18.026			-3.004
213401.000			18.026			-3.004
213501.000			18.026			-3.004
213600.000			18.026			-3.004
213700.000			18.025			-3.004
213801.000			18.024			-3.004
213900.000			18.024			-3.004
214000.000			18.025			-3.004
214101.000			18.025			-3.004
214201.000			18.024			-3.004
214302.000			18.024			-3.004
214400.000			18.023			-3.004
214500.000			18.023			-3.004
214601.000			18.023			-3.004
214700.000			18.023			-3.004
214800.000			18.023			-3.004
214901.000			18.023			-3.004
215000.000			18.023			-3.004
215101.000			18.024			-3.004
215202.000			18.024			-3.004
215300.000			18.023			-3.004
215400.000			18.022			-3.004
215501.000			18.023			-3.004
215600.000			18.022			-3.004
215700.000			18.021			-3.004
215801.000			18.021			-3.003
215900.000			18.021			-3.003
216001.000			18.022			-3.004
216102.000			18.022			-3.004
216200.000			18.021			-3.004
216300.000			18.021			-3.004
216401.000			18.021			-3.004
216500.000			18.021			-3.004
216600.000			18.021			-3.003
216701.000			18.021			-3.003
216800.000			18.020			-3.003
216901.000			18.020			-3.003
217002.000			18.020			-3.003
217100.000			18.021			-3.003
217200.000			18.021			-3.004
217301.000			18.019			-3.003
217400.000			18.018			-3.003
217500.000			18.019			-3.003
217600.000			18.020			-3.003
217700.000			18.021			-3.003
217802.000			18.019			-3.003
217901.000			18.019			-3.003
218000.000			18.019			-3.003
218101.000			18.019			-3.003
218200.000			18.018			-3.003
218300.000			18.018			-3.003
218401.000			18.019			-3.003
218500.000			18.020			-3.003
218600.000			18.019			-3.003
218702.000			18.019			-3.003
218801.000			18.019			-3.003
218901.000			18.018			-3.003
219001.000			18.019			-3.003
219100.000			18.020			-3.003
219200.000			18.019			-3.003
219301.000			18.018			-3.003
219400.000			18.018			-3.003
219500.000			18.018			-3.003
219601.000			18.018			-3.003
219701.000			18.018			-3.003
219801.000			18.018			-3.003
219901.000			18.018			-3.003
220000.000			18.017			-3.003
220100.000			18.018			-3.003
220201.000			18.017			-3.003
220300.000			18.016			-3.003
220400.000			18.017			-3.003
220501.000			18.017			-3.003
220601.000			18.017			-3.003
220702.000			18.018			-3.003
220800.000			18.017			-3.003
220900.000			18.016			-3.003
221001.000			18.016			-3.003
221100.000			18.017			-3.003
221200.000			18.017			-3.003
221301.000			18.016			-3.003
221401.000			18.016			-3.003
221501.000			18.016			-3.003
221602.000			18.015			-3.002
221700.000			18.014			-3.002
221800.000			18.015			-3.002
221901.000			18.015			-3.003
222000.000			18.014			-3.002
222100.000			18.015			-3.003
222201.000			18.015			-3.003
222301.000			18.015			-3.002
222401.000			18.015			-3.002
222502.000			18.014			-3.002
222600.000			18.015			-3.002
222700.000			18.015			-3.002
222801.000			18.014			-3.002
222900.000			18.014			-3.002
223000.000			18.013			-3.002
223101.000			18.014			-3.002
223200.000			18.014			-3.002
223301.000			18.013			-3.002
223402.000			18.014			-3.002
223500.000			18.013			-3.002
223600.000			18.014			-3.002
223701.000			18.014			-3.002
223800.000			18.013			-3.002
223900.000			18.012			-3.002
224000.000			18.012			-3.002
224100.000			18.012			-3.002
224202.000			18.013			-3.002
224301.000			18.013			-3.002
224400.000			18.013			-3.002
224501.000			18.012			-3.002
224600.000			18.011			-3.002
224700.000			18.011			-3.002
224801.000			18.012			-3.002
224900.000			18.012			-3.002
225000.000			18.010			-3.002
225102.000			18.011			-3.002
225201.000			18.012			-3.002
225300.000			18.012			-3.002
225401.000			18.011			-3.002
225500.000			18.011			-3.002
225600.000			18.010			-3.002
225701.000			18.009			-3.002
225800.000			18.009			-3.002
225901.000			18.010			-3.002
226002.000			18.010			-3.002
226101.000			18.010			-3.002
226200.000			18.009			-3.002
226301.000			18.009			-3.001
226400.000			18.009			-3.002
226500.000			18.009			-3.002
226601.000			18.009			-3.001
226700.000			18.009			-3.001
226800.000			18.008			-3.001
226902.000			18.008			-3.001
227001.000			18.007			-3.001
227100.000			18.008			-3.001
227200.000			18.008			-3.001
227300.000			18.008			-3.001
227401.000			18.007			-3.001
227500.000			18.007			-3.001
227600.000			18.007			-3.001
227701.000			18.007			-3.001
227801.000			18.008			-3.001
227901.000			18.008			-3.001
228001.000			18.007			-3.001
228100.000			18.007			-3.001
228200.000			18.006			-3.001
228301.000			18.007			-3.001
228400.000			18.007			-3.001
228500.000			18.006			-3.001
228601.000			18.006			-3.001
228701.000			18.006			-3.001
228801.000			18.006			-3.001
228902.000			18.006			-3.001
229000.000			18.005			-3.001
229100.000			18.005			-3.001
229201.000			18.005			-3.001
229300.000			18.005			-3.001
229400.000			18.005			-3.001
229501.000			18.005			-3.001
229600.000			18.005			-3.001
229701.000			18.004			-3.001
229802.000			18.005			-3.001
229900.000			18.004			-3.001
230000.000			18.004			-3.001
230101.000			18.004			-3.001
230200.000			18.003			-3.001
230300.000			18.004			-3.001
230400.000			18.004			-3.001
230500.000			18.003			-3.001
230602.000			18.003			-3.000
230701.000			18.003			-3.001
230800.000			18.003			-3.000
230901.000			18.004			-3.001
231000.000			18.005			-3.001
231100.000			18.004			-3.001
231201.000			18.003			-3.001
231300.000			18.002			-3.000
231400.000			18.003			-3.000
231502.000			18.002			-3.000
231601.000			18.002			-3.000
231700.000			18.002			-3.000
231801.000			18.002			-3.000
231900.000			18.001			-3.000
232000.000			18.000			-3.000
232101.000			18.001			-3.000
232200.000			18.002			-3.000
232301.000			18.003			-3.000
232402.000			18.002			-3.000
232501.000			18.001			-3.000
232600.000			18.002			-3.000
232701.000			18.001			-3.000
232800.000			18.002			-3.000
232900.000			18.001			-3.000
233001.000			18.001			-3.000
233100.000			18.001			-3.000
233201.000			18.000			-3.000
233302.000			17.999			-3.000
233401.000			18.000			-3.000
233500.000			18.000			-3.000
233600.000			17.999			-3.000
233700.000			17.999			-3.000
233801.000			17.999			-3.000
233900.000			17.999			-3.000
234000.000			17.999			-3.000
234101.000			17.999			-3.000
234201.000			18.000			-3.000
234301.000			17.999			-3.000
234402.000			17.999			-3.000
234500.000			17.999			-3.000
234600.000			17.999			-3.000
234701.000			17.999			-3.000
234800.000			17.998			-3.000
234900.000			17.998			-3.000
235001.000			17.999			-3.000
235100.000			17.999			-3.000
235201.000			17.998			-3.000
235302.000			17.997			-3.000
235401.000			17.997			-2.999
235500.000			17.997			-2.999
235601.000			17.996			-2.999
235700.000			17.997			-3.000
235800.000			17.998			-3.000
235901.000			17.997			-3.000
236000.000			17.996			-2.999
236100.000			17.997			-2.999
236201.000			17.996			-2.999
236301.000			17.996			-2.999
236401.000			17.996			-2.999
236501.000			17.995			-2.999
236600.000			17.996			-2.999
236700.000			17.996			-2.999
236800.000			17.995			-2.999
236900.000			17.995			-2.999
237001.000			17.996			-2.999
237100.000			17.995			-2.999
237200.000			17.996			-2.999
237302.000			17.996			-2.999
237401.000			17.994			-2.999
237500.000			17.993			-2.999
237601.000			17.994			-2.999
237700.000			17.995			-2.999
237800.000			17.994			-2.999
237901.000			17.994			-2.999
238000.000			17.994			-2.999
238100.000			17.994			-2.999
238201.000			17.994			-2.999
238301.000			17.994			-2.999
238401.000			17.994			-2.999
238501.000			17.994			-2.999
238600.000			17.993			-2.999
238700.000			17.993			-2.999
238801.000			17.993			-2.999
238900.000			17.993			-2.999
239000.000			17.992			-2.999
239101.000			17.992			-2.999
239200.000			17.992			-2.999
239301.000			17.994			-2.999
239402.000			17.992			-2.999
239501.000			17.991			-2.999
239600.000			17.991			-2.999
239701.000			17.991			-2.998
239800.000			17.991			-2.998
239900.000			17.991			-2.999
240000.000			17.991			-2.998
240100.000			17.992			-2.999
240201.000			17.990			-2.998
240301.000			17.990			-2.998
240401.000			17.990			-2.998
240501.000			17.990			-2.998
240600.000			17.990			-2.998
240700.000			17.990			-2.998
240801.000			17.990			-2.998
240900.000			17.990			-2.998
241000.000			17.989			-2.998
241101.000			17.990			-2.998
241200.000			17.990			-2.998
241301.000			17.989			-2.998
241402.000			17.988			-2.998
241500.000			17.988			-2.998
241600.000			17.989			-2.998
241701.000			17.989			-2.998
241800.000			17.989			-2.998
241900.000			17.989			-2.998
242001.000			17.989			-2.998
242100.000			17.989			-2.998
242200.000			17.988			-2.998
242302.000			17.988			-2.998
242401.000			17.988			-2.998
242500.000			17.987			-2.998
242601.000			17.987			-2.998
242700.000			17.988			-2.998
242800.000			17.988			-2.998
242901.000			17.988			-2.998
243000.000			17.988			-2.998
243100.000			17.986			-2.998
243202.000			17.986			-2.998
243301.000			17.986			-2.998
243402.000			17.987			-2.998
243500.000			17.987			-2.998
243600.000			17.988			-2.998
243701.000			17.986			-2.998
243800.000			17.986			-2.998
243900.000			17.986			-2.998
244001.000			17.987			-2.998
244100.000			17.987			-2.998
244200.000			17.986			-2.998
244302.000			17.986			-2.998
244401.000			17.985			-2.998
244500.000			17.985			-2.997
244601.000			17.983			-2.997
244700.000			17.985			-2.997
244800.000			17.985			-2.998
244901.000			17.984			-2.997
245000.000			17.984			-2.997
245100.000			17.984			-2.997
245202.000			17.984			-2.997
245301.000			17.984			-2.997
245401.000			17.983			-2.997
245501.000			17.983			-2.997
245600.000			17.982			-2.997
245700.000			17.983			-2.997
245801.000			17.982			-2.997
245900.000			17.983			-2.997
246000.000			17.984			-2.997
246101.000			17.984			-2.997
246201.000			17.983			-2.997
246302.000			17.982			-2.997
246401.000			17.982			-2.997
246500.000			17.983			-2.997
246601.000			17.982			-2.997
246700.000			17.982			-2.997
246800.000			17.983			-2.997
246901.000			17.982			-2.997
247000.000			17.982			-2.997
247100.000			17.982			-2.997
247202.000			17.982			-2.997
247301.000			17.982			-2.997
247400.000			17.981			-2.997
247501.000			17.982			-2.997
247600.000			17.982			-2.997
247700.000			17.981			-2.997
247801.000			17.981			-2.997
247900.000			17.981			-2.997
248000.000			17.981			-2.997
248101.000			17.981			-2.997
248201.000			17.982			-2.997
248301.000			17.982			-2.997
248401.000			17.982			-2.997
248500.000			17.981			-2.997
248600.000			17.981			-2.997
248701.000			17.980			-2.997
248800.000			17.981			-2.997
248900.000			17.980			-2.997
249001.000			17.980			-2.997
249100.000			17.979			-2.997
249201.000			17.979			-2.997
249302.000			17.979			-2.996
249401.000			17.979			-2.997
249500.000			17.978			-2.996
249600.000			17.979			-2.997
249700.000			17.980			-2.997
249801.000			17.979			-2.996
249900.000			17.979			-2.996
250000.000			17.979			-2.997
250101.000			17.979			-2.997
250201.000			17.978			-2.996
250301.000			17.979			-2.996
250402.000			17.979			-2.996
250500.000			17.979			-2.996
250600.000			17.978			-2.996
250701.000			17.978			-2.996
250800.000			17.977			-2.996
250900.000			17.978			-2.996
251001.000			17.977			-2.996
251100.000			17.978			-2.996
251201.000			17.978			-2.996
251302.000			17.976			-2.996
251401.000			17.977			-2.996
251500.000			17.976			-2.996
251601.000			17.977			-2.996
251700.000			17.976			-2.996
251800.000			17.975			-2.996
251901.000			17.976			-2.996
252000.000			17.976			-2.996
252100.000			17.976			-2.996
252202.000			17.976			-2.996
252301.000			17.975			-2.996
252401.000			17.975			-2.996
252501.000			17.975			-2.996
252600.000			17.975			-2.996
252700.000			17.974			-2.996
252800.000			17.974			-2.996
252900.000			17.975			-2.996
253001.000			17.975			-2.996
253100.000			17.975			-2.996
253201.000			17.975			-2.996
253302.000			17.974			-2.996
253401.000			17.973			-2.996
253500.000			17.974			-2.996
253601.000			17.973			-2.996
253700.000			17.973			-2.996
253800.000			17.974			-2.996
253901.000			17.974			-2.996
254000.000			17.974			-2.996
254100.000			17.974			-2.996
254202.000			17.973			-2.995
254301.000			17.973			-2.996
254401.000			17.973			-2.996
254501.000			17.973			-2.996
254600.000			17.974			-2.996
254700.000			17.974			-2.996
254801.000			17.973			-2.996
254900.000			17.973			-2.995
255000.000			17.973			-2.996
255101.000			17.973			-2.996
255201.000			17.973			-2.995
255301.000			17.973			-2.996
255402.000			17.972			-2.995
255500.000			17.972			-2.995
255600.000			17.972			-2.995
255701.000			17.972			-2.995
255800.000			17.972			-2.995
255900.000			17.972			-2.995
256000.000			17.971			-2.995
256100.000			17.971			-2.995
256202.000			17.971			-2.995
256301.000			17.971			-2.995
256401.000			17.971			-2.995
256501.000			17.970			-2.995
256600.000			17.970			-2.995
256700.000			17.970			-2.995
256801.000			17.970			-2.995
256900.000			17.970			-2.995
257000.000			17.971			-2.995
257101.000			17.970			-2.995
257201.000			17.971			-2.995
257301.000			17.970			-2.995
257401.000			17.971			-2.995
257500.000			17.970			-2.995
257600.000			17.970			-2.995
257701.000			17.970			-2.995
257800.000			17.970			-2.995
257900.000			17.971			-2.995
258001.000			17.970			-2.995
258100.000			17.969			-2.995
258201.000			17.968			-2.995
258302.000			17.968			-2.995
258401.000			17.968			-2.995
258500.000			17.969			-2.995
258601.000			17.969			-2.995
258700.000			17.968			-2.995
258800.000			17.969			-2.995
258901.000			17.968			-2.995
259000.000			17.968			-2.995
259100.000			17.968			-2.995
259202.000			17.967			-2.995
259301.000			17.967			-2.995
259402.000			17.967			-2.995
259500.000			17.967			-2.995
259600.000			17.967			-2.995
259701.000			17.967			-2.995
259800.000			17.968			-2.995
259900.000			17.967			-2.995
260001.000			17.966			-2.994
260100.000			17.967			-2.994
260200.000			17.967			-2.995
260302.000			17.967			-2.994
260401.000			17.967			-2.994
260500.000			17.966			-2.994
260601.000			17.966			-2.994
260700.000			17.966			-2.994
260800.000			17.966			-2.994
260901.000			17.966			-2.994
261000.000			17.965			-2.994
261100.000			17.966			-2.994
261202.000			17.967			-2.995
261301.000			17.966			-2.994
261401.000			17.965			-2.994
261501.000			17.965			-2.994
261600.000			17.966			-2.994
261700.000			17.965			-2.994
261801.000			17.965			-2.994
261900.000			17.965			-2.994
262000.000			17.965			-2.994
262101.000			17.965			-2.994
262201.000			17.965			-2.994
262302.000			17.964			-2.994
262401.000			17.963			-2.994
262500.000			17.963			-2.994
262601.000			17.964			-2.994
262700.000			17.964			-2.994
262800.000			17.964			-2.994
262901.000			17.964			-2.994
263000.000			17.963			-2.994
263100.000			17.963			-2.994
263202.000			17.964			-2.994
263301.000			17.963			-2.994
263400.000			17.963			-2.994
263501.000			17.963			-2.994
263600.000			17.963			-2.994
263700.000			17.962			-2.994
263801.000			17.962			-2.994
263900.000			17.962			-2.994
264000.000			17.962			-2.994
264101.000			17.962			-2.994
264201.000			17.962			-2.994
264301.000			17.962			-2.994
264401.000			17.962			-2.994
264500.000			17.962			-2.994
264600.000			17.962			-2.994
264701.000			17.961			-2.993
264800.000			17.962			-2.994
264900.000			17.962			-2.994
265001.000			17.962			-2.994
265101.000			17.962			-2.994
265201.000			17.961			-2.994
265302.000			17.962			-2.994
265400.000			17.962			-2.994
265500.000			17.961			-2.993
265600.000			17.960			-2.993
265700.000			17.961			-2.994
265801.000			17.960			-2.993
265900.000			17.960			-2.993
266000.000			17.960			-2.993
266102.000			17.960			-2.993
266201.000			17.959			-2.993
266301.000			17.960			-2.993
266401.000			17.960			-2.993
266500.000			17.960			-2.993
266600.000			17.960			-2.993
266701.000			17.960			-2.993
266800.000			17.959			-2.993
266900.000			17.959			-2.993
267001.000			17.959			-2.993
267101.000			17.960			-2.993
267201.000			17.959			-2.993
267302.000			17.959			-2.993
267400.000			17.959			-2.993
267500.000			17.959			-2.993
267601.000			17.958			-2.993
267700.000			17.958			-2.993
267800.000			17.959			-2.993
267901.000			17.959			-2.993
268000.000			17.959			-2.993
268100.000			17.959			-2.993
268202.000			17.958			-2.993
268301.000			17.958			-2.993
268400.000			17.957			-2.993
268501.000			17.957			-2.993
268600.000			17.958			-2.993
268700.000			17.957			-2.993
268800.000			17.956			-2.993
268900.000			17.957			-2.993
269001.000			17.958			-2.993
269100.000			17.958			-2.993
269201.000			17.958			-2.993
269302.000			17.957			-2.993
269400.000			17.956			-2.993
269500.000			17.957			-2.993
269601.000			17.956			-2.993
269700.000			17.957			-2.993
269800.000			17.957			-2.993
269901.000			17.956			-2.993
270000.000			17.956			-2.993
270100.000			17.956			-2.993
270202.000			17.957			-2.993
270301.000			17.956			-2.993
270400.000			17.956			-2.993
270501.000			17.956			-2.993
270600.000			17.956			-2.993
270700.000			17.956			-2.993
270801.000			17.956			-2.993
270900.000			17.955			-2.992
271000.000			17.955			-2.993
271102.000			17.955			-2.992
271201.000			17.955			-2.993
271301.000			17.955			-2.993
271401.000			17.954			-2.992
271500.000			17.954			-2.992
271600.000			17.955			-2.992
271701.000			17.955			-2.992
271800.000			17.955			-2.993
271900.000			17.955			-2.992
272000.000			17.954			-2.992
272101.000			17.955			-2.992
272202.000			17.955			-2.992
272301.000			17.955			-2.992
272400.000			17.954			-2.992
272501.000			17.954			-2.992
272600.000			17.953			-2.992
272700.000			17.953			-2.992
272801.000			17.954			-2.992
272900.000			17.953			-2.992
273000.000			17.954			-2.992
273102.000			17.954			-2.992
273201.000			17.954			-2.992
273300.000			17.953			-2.992
273401.000			17.953			-2.992
273500.000			17.952			-2.992
273600.000			17.952			-2.992
273701.000			17.953			-2.992
273800.000			17.952			-2.992
273900.000			17.952			-2.992
274001.000			17.952			-2.992
274101.000			17.952			-2.992
274201.000			17.952			-2.992
274301.000			17.952			-2.992
274400.000			17.952			-2.992
274500.000			17.952			-2.992
274601.000			17.951			-2.992
274700.000			17.951			-2.992
274800.000			17.951			-2.992
274901.000			17.951			-2.992
275001.000			17.951			-2.992
275102.000			17.950			-2.992
275201.000			17.950			-2.992
275300.000			17.951			-2.992
275401.000			17.950			-2.992
275500.000			17.949			-2.992
275600.000			17.949			-2.992
275701.000			17.948			-2.991
275800.000			17.949			-2.992
275900.000			17.950			-2.992
276002.000			17.949			-2.991
276101.000			17.949			-2.991
276201.000			17.949			-2.991
276301.000			17.948			-2.991
276400.000			17.949			-2.992
276500.000			17.950			-2.992
276601.000			17.949			-2.992
276700.000			17.949			-2.991
276800.000			17.948			-2.991
276901.000			17.948			-2.991
277001.000			17.948			-2.991
277101.000			17.948			-2.991
277202.000			17.948			-2.991
277300.000			17.948			-2.991
277400.000			17.947			-2.991
277501.000			17.948			-2.991
277600.000			17.948			-2.991
277700.000			17.947			-2.991
277801.000			17.947			-2.991
277900.000			17.947			-2.991
278001.000			17.946			-2.991
278102.000			17.946			-2.991
278201.000			17.947			-2.991
278300.000			17.947			-2.991
278400.000			17.946			-2.991
278500.000			17.945			-2.991
278601.000			17.946			-2.991
278700.000			17.947			-2.991
278800.000			17.946			-2.991
278901.000			17.945			-2.991
279000.000			17.945			-2.991
279101.000			17.946			-2.991
279202.000			17.946			-2.991
279300.000			17.946			-2.991
279400.000			17.946			-2.991
279501.000			17.945			-2.991
279600.000			17.944			-2.991
279700.000			17.945			-2.991
279801.000			17.945			-2.991
279900.000			17.944			-2.991
280000.000			17.944			-2.991
280102.000			17.944			-2.991
280201.000			17.944			-2.991
280300.000			17.944			-2.991
280401.000			17.943			-2.991
280500.000			17.944			-2.991
280600.000			17.943			-2.991
280701.000			17.944			-2.991
280800.000			17.943			-2.991
280900.000			17.943			-2.991
281002.000			17.943			-2.990
281101.000			17.943			-2.991
281201.000			17.944			-2.991
281301.000			17.944			-2.991
281400.000			17.944			-2.991
281500.000			17.943			-2.991
281600.000			17.943			-2.991
281700.000			17.942			-2.990
281801.000			17.942			-2.990
281900.000			17.943			-2.991
282001.000			17.942			-2.990
282102.000			17.942			-2.990
282201.000			17.942			-2.990
282300.000			17.942			-2.990
282401.000			17.941			-2.990
282500.000			17.941			-2.990
282600.000			17.941			-2.990
282701.000			17.941			-2.990
282800.000			17.941			-2.990
282900.000			17.941			-2.990
283002.000			17.942			-2.990
283101.000			17.941			-2.990
283200.000			17.941			-2.990
283301.000			17.941			-2.990
283400.000			17.942			-2.990
283500.000			17.941			-2.990
283601.000			17.941			-2.990
283700.000			17.941			-2.990
283800.000			17.941			-2.990
283902.000			17.941			-2.990
284001.000			17.941			-2.990
284101.000			17.941			-2.990
284201.000			17.939			-2.990
284300.000			17.941			-2.990
284400.000			17.940			-2.990
284501.000			17.939			-2.990
284600.000			17.940			-2.990
284700.000			17.940			-2.990
284800.000			17.939			-2.990
284901.000			17.939			-2.990
285002.000			17.939			-2.990
285101.000			17.940			-2.990
285200.000			17.938			-2.990
285301.000			17.938			-2.990
285400.000			17.939			-2.990
285500.000			17.940			-2.990
285601.000			17.938			-2.990
285700.000			17.939			-2.990
285800.000			17.939			-2.990
285902.000			17.938			-2.990
286001.000			17.937			-2.990
286101.000			17.938			-2.990
286201.000			17.937			-2.990
286300.000			17.937			-2.989
286400.000			17.938			-2.990
286501.000			17.938			-2.990
286600.000			17.936			-2.989
286700.000			17.936			-2.989
286801.000			17.937			-2.989
286901.000			17.937			-2.989
287001.000			17.937			-2.989
287102.000			17.936			-2.989
287200.000			17.936			-2.989
287300.000			17.936			-2.989
287401.000			17.937			-2.990
287500.000			17.937			-2.989
287600.000			17.935			-2.989
287701.000			17.935			-2.989
287800.000			17.934			-2.989
287902.000			17.935			-2.989
288001.000			17.935			-2.989
288101.000			17.935			-2.989
288201.000			17.936			-2.989
288300.000			17.936			-2.989
288400.000			17.936			-2.989
288501.000			17.936			-2.989
288600.000			17.936			-2.989
288700.000			17.936			-2.989
288801.000			17.935			-2.989
288900.000			17.935			-2.989
289001.000			17.935			-2.989
289102.000			17.935			-2.989
289200.000			17.935			-2.989
289300.000			17.935			-2.989
289401.000			17.935			-2.989
289500.000			17.935			-2.989
289600.000			17.934			-2.989
289701.000			17.934			-2.989
289800.000			17.934			-2.989
289900.000			17.933			-2.989
290002.000			17.934			-2.989
290101.000			17.933			-2.989
290200.000			17.934			-2.989
290301.000			17.934			-2.989
290400.000			17.933			-2.989
290500.000			17.933			-2.989
290601.000			17.933			-2.989
290700.000			17.934			-2.989
290800.000			17.934			-2.989
290902.000			17.933			-2.989
291001.000			17.933			-2.989
291102.000			17.933			-2.989
291200.000			17.933			-2.989
291300.000			17.932			-2.989
291401.000			17.932			-2.989
291500.000			17.932			-2.989
291600.000			17.932			-2.989
291701.000			17.932			-2.989
291800.000			17.932			-2.989
291901.000			17.932			-2.989
292002.000			17.931			-2.988
292101.000			17.931			-2.989
292200.000			17.932			-2.989
292301.000			17.932			-2.989
292400.000			17.931			-2.988
292500.000			17.930			-2.988
292601.000			17.930			-2.988
292700.000			17.931			-2.988
292800.000			17.931			-2.988
292902.000			17.930			-2.988
293001.000			17.929			-2.988
293100.000			17.930			-2.988
293201.000			17.931			-2.989
293300.000			17.930			-2.988
293400.000			17.929			-2.988
293501.000			17.930			-2.988
293600.000			17.930			-2.988
293700.000			17.930			-2.988
293801.000			17.930			-2.988
293901.000			17.930			-2.988
294001.000			17.929			-2.988
294101.000			17.929			-2.988
294200.000			17.929			-2.988
294300.000			17.930			-2.988
294400.000			17.929			-2.988
294500.000			17.929			-2.988
294601.000			17.929			-2.988
294700.000			17.929			-2.988
294800.000			17.928			-2.988
294902.000			17.928			-2.988
295001.000			17.929			-2.988
295101.000			17.929			-2.988
295201.000			17.928			-2.988
295300.000			17.928			-2.988
295400.000			17.928			-2.988
295501.000			17.929			-2.988
295600.000			17.929			-2.988
295700.000			17.928			-2.988
295801.000			17.928			-2.988
295901.000			17.928			-2.988
296001.000			17.928			-2.988
296102.000			17.928			-2.988
296200.000			17.928			-2.988
296300.000			17.928			-2.988
296401.000			17.927			-2.988
296500.000			17.928			-2.988
296600.000			17.928			-2.988
296701.000			17.927			-2.988
296800.000			17.927			-2.988
296901.000			17.927			-2.988
297002.000			17.927			-2.988
297101.000			17.926			-2.988
297200.000			17.927			-2.988
297301.000			17.925			-2.988
297400.000			17.925			-2.988
297500.000			17.925			-2.987
297600.000			17.925			-2.988
297700.000			17.926			-2.988
297801.000			17.927			-2.988
297901.000			17.926			-2.988
298001.000			17.926			-2.988
298102.000			17.925			-2.988
298200.000			17.925			-2.988
298300.000			17.926			-2.988
298401.000			17.925			-2.988
298500.000			17.924			-2.987
298600.000			17.923			-2.987
298701.000			17.925			-2.987
298800.000			17.926			-2.988
298901.000			17.927			-2.988
299002.000			17.925			-2.988
299101.000			17.925			-2.987
299200.000			17.924			-2.987
299301.000			17.925			-2.987
299400.000			17.926			-2.988
299500.000			17.924			-2.987
299601.000			17.924			-2.987
299700.000			17.924			-2.987
299800.000			17.924			-2.987
299902.000			17.924			-2.987
