# Acquired on 20/12/2023 13:18:48 
# SPIDER: Creep_-5mm_07714532C-1
# CREEP MEASUREMENT

# time [ms]		force [N]		stiffness [N/mm]
0.000			5.798			-1.160
100.000			6.228			-1.246
201.000			6.393			-1.279
301.000			6.394			-1.279
401.000			6.362			-1.272
501.000			6.335			-1.267
600.000			6.297			-1.259
700.000			6.282			-1.256
801.000			6.269			-1.254
900.000			6.255			-1.251
1000.000			6.244			-1.249
1102.000			6.235			-1.247
1201.000			6.226			-1.245
1300.000			6.209			-1.242
1401.000			6.202			-1.240
1500.000			6.194			-1.239
1600.000			6.187			-1.237
1701.000			6.181			-1.236
1801.000			6.175			-1.235
1901.000			6.169			-1.234
2001.000			6.158			-1.232
2100.000			6.153			-1.231
2200.000			6.148			-1.230
2301.000			6.144			-1.229
2400.000			6.140			-1.228
2500.000			6.135			-1.227
2602.000			6.131			-1.226
2701.000			6.126			-1.225
2800.000			6.118			-1.224
2901.000			6.115			-1.223
3000.000			6.111			-1.222
3101.000			6.107			-1.221
3200.000			6.104			-1.221
3301.000			6.100			-1.220
3402.000			6.096			-1.219
3500.000			6.089			-1.218
3600.000			6.087			-1.217
3701.000			6.084			-1.217
3800.000			6.082			-1.216
3900.000			6.079			-1.216
4001.000			6.076			-1.215
4101.000			6.073			-1.215
4201.000			6.067			-1.213
4301.000			6.065			-1.213
4400.000			6.063			-1.213
4500.000			6.060			-1.212
4601.000			6.057			-1.211
4700.000			6.055			-1.211
4801.000			6.054			-1.211
4902.000			6.052			-1.210
5000.000			6.046			-1.209
5100.000			6.045			-1.209
5201.000			6.043			-1.209
5300.000			6.041			-1.208
5400.000			6.039			-1.208
5502.000			6.037			-1.207
5601.000			6.035			-1.207
5700.000			6.030			-1.206
5801.000			6.029			-1.206
5900.000			6.027			-1.205
6000.000			6.025			-1.205
6101.000			6.023			-1.205
6200.000			6.022			-1.204
6302.000			6.019			-1.204
6401.000			6.016			-1.203
6500.000			6.015			-1.203
6601.000			6.013			-1.203
6700.000			6.011			-1.202
6800.000			6.010			-1.202
6901.000			6.008			-1.202
7001.000			6.006			-1.201
7101.000			6.004			-1.201
7201.000			6.001			-1.200
7300.000			6.000			-1.200
7400.000			5.998			-1.200
7501.000			5.997			-1.199
7600.000			5.996			-1.199
7700.000			5.995			-1.199
7802.000			5.993			-1.199
7901.000			5.990			-1.198
8000.000			5.989			-1.198
8101.000			5.988			-1.198
8200.000			5.985			-1.197
8300.000			5.983			-1.197
8401.000			5.982			-1.196
8500.000			5.981			-1.196
8601.000			5.978			-1.196
8702.000			5.978			-1.196
8800.000			5.978			-1.196
8900.000			5.976			-1.195
9001.000			5.975			-1.195
9100.000			5.974			-1.195
9200.000			5.971			-1.194
9302.000			5.969			-1.194
9401.000			5.969			-1.194
9501.000			5.968			-1.194
9600.000			5.966			-1.193
9700.000			5.965			-1.193
9801.000			5.963			-1.193
9900.000			5.962			-1.192
10000.000			5.962			-1.192
10102.000			5.958			-1.192
10201.000			5.957			-1.191
10300.000			5.956			-1.191
10401.000			5.956			-1.191
10500.000			5.955			-1.191
10600.000			5.954			-1.191
10701.000			5.952			-1.190
10800.000			5.950			-1.190
10901.000			5.950			-1.190
11002.000			5.949			-1.190
11100.000			5.949			-1.190
11200.000			5.947			-1.189
11301.000			5.946			-1.189
11400.000			5.944			-1.189
11500.000			5.943			-1.189
11601.000			5.943			-1.189
11701.000			5.940			-1.188
11801.000			5.940			-1.188
11901.000			5.939			-1.188
12000.000			5.937			-1.187
12100.000			5.936			-1.187
12201.000			5.936			-1.187
12300.000			5.934			-1.187
12400.000			5.932			-1.186
12502.000			5.932			-1.186
12601.000			5.931			-1.186
12701.000			5.931			-1.186
12800.000			5.930			-1.186
12900.000			5.929			-1.186
13001.000			5.927			-1.185
13100.000			5.927			-1.185
13200.000			5.925			-1.185
13302.000			5.924			-1.185
13401.000			5.923			-1.185
13500.000			5.923			-1.185
13601.000			5.923			-1.185
13700.000			5.922			-1.184
13800.000			5.920			-1.184
13901.000			5.919			-1.184
14001.000			5.918			-1.184
14101.000			5.917			-1.183
14202.000			5.916			-1.183
14300.000			5.914			-1.183
14400.000			5.915			-1.183
14501.000			5.913			-1.183
14600.000			5.913			-1.183
14700.000			5.913			-1.183
14801.000			5.912			-1.182
14901.000			5.910			-1.182
15001.000			5.909			-1.182
15101.000			5.908			-1.182
15200.000			5.908			-1.182
15300.000			5.907			-1.181
15401.000			5.907			-1.181
15500.000			5.906			-1.181
15600.000			5.906			-1.181
15702.000			5.904			-1.181
15801.000			5.903			-1.181
15901.000			5.903			-1.181
16000.000			5.901			-1.180
16100.000			5.900			-1.180
16201.000			5.899			-1.180
16300.000			5.899			-1.180
16401.000			5.898			-1.180
16502.000			5.899			-1.180
16601.000			5.898			-1.180
16700.000			5.896			-1.179
16801.000			5.896			-1.179
16900.000			5.894			-1.179
17000.000			5.894			-1.179
17101.000			5.892			-1.178
17200.000			5.892			-1.178
17301.000			5.891			-1.178
17402.000			5.890			-1.178
17500.000			5.890			-1.178
17600.000			5.890			-1.178
17701.000			5.889			-1.178
17800.000			5.889			-1.178
17900.000			5.888			-1.178
18001.000			5.887			-1.177
18101.000			5.886			-1.177
18201.000			5.885			-1.177
18301.000			5.884			-1.177
18400.000			5.884			-1.177
18500.000			5.883			-1.177
18601.000			5.883			-1.177
18700.000			5.883			-1.177
18800.000			5.882			-1.176
18902.000			5.881			-1.176
19001.000			5.880			-1.176
19101.000			5.879			-1.176
19200.000			5.879			-1.176
19300.000			5.879			-1.176
19401.000			5.877			-1.175
19500.000			5.877			-1.175
19600.000			5.876			-1.175
19702.000			5.875			-1.175
19801.000			5.875			-1.175
19900.000			5.874			-1.175
20001.000			5.874			-1.175
20100.000			5.873			-1.175
20200.000			5.872			-1.174
20301.000			5.871			-1.174
20400.000			5.871			-1.174
20501.000			5.870			-1.174
20602.000			5.870			-1.174
20700.000			5.869			-1.174
20800.000			5.868			-1.174
20901.000			5.867			-1.173
21000.000			5.867			-1.173
21100.000			5.867			-1.173
21201.000			5.865			-1.173
21301.000			5.865			-1.173
21401.000			5.865			-1.173
21501.000			5.864			-1.173
21600.000			5.864			-1.173
21700.000			5.863			-1.173
21801.000			5.863			-1.173
21900.000			5.861			-1.172
22000.000			5.862			-1.172
22102.000			5.861			-1.172
22201.000			5.861			-1.172
22301.000			5.859			-1.172
22400.000			5.859			-1.172
22500.000			5.859			-1.172
22601.000			5.858			-1.172
22700.000			5.857			-1.171
22800.000			5.856			-1.171
22902.000			5.856			-1.171
23001.000			5.856			-1.171
23100.000			5.855			-1.171
23201.000			5.854			-1.171
23300.000			5.853			-1.171
23400.000			5.854			-1.171
23501.000			5.854			-1.171
23600.000			5.853			-1.171
23701.000			5.851			-1.170
23802.000			5.850			-1.170
23900.000			5.851			-1.170
24000.000			5.851			-1.170
24101.000			5.851			-1.170
24200.000			5.851			-1.170
24300.000			5.850			-1.170
24401.000			5.849			-1.170
24501.000			5.849			-1.170
24601.000			5.849			-1.170
24701.000			5.847			-1.169
24800.000			5.846			-1.169
24900.000			5.846			-1.169
25001.000			5.847			-1.169
25100.000			5.845			-1.169
25200.000			5.845			-1.169
25302.000			5.844			-1.169
25401.000			5.844			-1.169
25501.000			5.843			-1.169
25600.000			5.843			-1.169
25700.000			5.842			-1.168
25801.000			5.840			-1.168
25900.000			5.840			-1.168
26000.000			5.840			-1.168
26102.000			5.840			-1.168
26201.000			5.839			-1.168
26300.000			5.840			-1.168
26401.000			5.839			-1.168
26500.000			5.839			-1.168
26600.000			5.839			-1.168
26701.000			5.838			-1.168
26800.000			5.837			-1.167
26901.000			5.836			-1.167
27002.000			5.835			-1.167
27100.000			5.834			-1.167
27200.000			5.835			-1.167
27301.000			5.834			-1.167
27400.000			5.834			-1.167
27500.000			5.833			-1.167
27601.000			5.833			-1.167
27701.000			5.833			-1.167
27801.000			5.832			-1.166
27901.000			5.832			-1.166
28000.000			5.830			-1.166
28100.000			5.830			-1.166
28201.000			5.830			-1.166
28300.000			5.830			-1.166
28400.000			5.830			-1.166
28502.000			5.828			-1.166
28601.000			5.828			-1.166
28701.000			5.828			-1.166
28800.000			5.827			-1.165
28900.000			5.827			-1.165
29001.000			5.828			-1.166
29100.000			5.827			-1.165
29200.000			5.825			-1.165
29302.000			5.826			-1.165
29401.000			5.825			-1.165
29500.000			5.825			-1.165
29601.000			5.824			-1.165
29700.000			5.824			-1.165
29800.000			5.825			-1.165
29901.000			5.822			-1.164
30000.000			5.822			-1.164
30101.000			5.821			-1.164
30202.000			5.821			-1.164
30300.000			5.822			-1.164
30400.000			5.821			-1.164
30501.000			5.820			-1.164
30600.000			5.819			-1.164
30700.000			5.820			-1.164
30802.000			5.820			-1.164
30901.000			5.819			-1.164
31000.000			5.819			-1.164
31101.000			5.818			-1.164
31200.000			5.818			-1.164
31300.000			5.817			-1.163
31401.000			5.816			-1.163
31500.000			5.817			-1.163
31601.000			5.816			-1.163
31702.000			5.814			-1.163
31800.000			5.815			-1.163
31901.000			5.815			-1.163
32000.000			5.815			-1.163
32100.000			5.813			-1.163
32201.000			5.813			-1.163
32300.000			5.814			-1.163
32401.000			5.814			-1.163
32502.000			5.812			-1.162
32600.000			5.811			-1.162
32700.000			5.811			-1.162
32801.000			5.812			-1.162
32900.000			5.810			-1.162
33000.000			5.810			-1.162
33101.000			5.811			-1.162
33201.000			5.810			-1.162
33301.000			5.809			-1.162
33401.000			5.809			-1.162
33500.000			5.809			-1.162
33600.000			5.808			-1.162
33701.000			5.808			-1.162
33800.000			5.808			-1.162
33900.000			5.807			-1.161
34002.000			5.807			-1.161
34101.000			5.806			-1.161
34200.000			5.806			-1.161
34301.000			5.805			-1.161
34400.000			5.805			-1.161
34500.000			5.805			-1.161
34601.000			5.805			-1.161
34701.000			5.805			-1.161
34801.000			5.804			-1.161
34901.000			5.803			-1.161
35000.000			5.802			-1.160
35101.000			5.802			-1.160
35200.000			5.802			-1.160
35300.000			5.802			-1.160
35401.000			5.801			-1.160
35501.000			5.800			-1.160
35601.000			5.800			-1.160
35701.000			5.799			-1.160
35800.000			5.800			-1.160
35900.000			5.799			-1.160
36001.000			5.799			-1.160
36100.000			5.798			-1.160
36200.000			5.798			-1.160
36302.000			5.799			-1.160
36401.000			5.799			-1.160
36500.000			5.797			-1.159
36601.000			5.797			-1.159
36700.000			5.796			-1.159
36800.000			5.796			-1.159
36901.000			5.796			-1.159
37000.000			5.795			-1.159
37100.000			5.795			-1.159
37202.000			5.795			-1.159
37301.000			5.794			-1.159
37400.000			5.794			-1.159
37501.000			5.794			-1.159
37600.000			5.793			-1.159
37700.000			5.793			-1.159
37801.000			5.793			-1.159
37900.000			5.793			-1.159
38001.000			5.792			-1.158
38102.000			5.792			-1.158
38200.000			5.791			-1.158
38301.000			5.791			-1.158
38400.000			5.791			-1.158
38500.000			5.791			-1.158
38601.000			5.790			-1.158
38701.000			5.789			-1.158
38801.000			5.788			-1.158
38902.000			5.788			-1.158
39000.000			5.788			-1.158
39100.000			5.789			-1.158
39201.000			5.788			-1.158
39300.000			5.788			-1.158
39400.000			5.788			-1.158
39501.000			5.787			-1.157
39601.000			5.787			-1.157
39701.000			5.787			-1.157
39801.000			5.787			-1.157
39900.000			5.787			-1.157
40000.000			5.786			-1.157
40101.000			5.785			-1.157
40200.000			5.785			-1.157
40300.000			5.785			-1.157
40402.000			5.784			-1.157
40501.000			5.784			-1.157
40600.000			5.785			-1.157
40701.000			5.784			-1.157
40800.000			5.783			-1.157
40900.000			5.783			-1.157
41001.000			5.783			-1.157
41100.000			5.783			-1.157
41201.000			5.782			-1.156
41302.000			5.781			-1.156
41400.000			5.781			-1.156
41501.000			5.781			-1.156
41600.000			5.780			-1.156
41700.000			5.779			-1.156
41801.000			5.779			-1.156
41900.000			5.780			-1.156
42001.000			5.779			-1.156
42102.000			5.778			-1.156
42200.000			5.778			-1.156
42300.000			5.778			-1.156
42401.000			5.778			-1.156
42500.000			5.778			-1.156
42600.000			5.778			-1.156
42701.000			5.777			-1.155
42801.000			5.777			-1.155
42901.000			5.776			-1.155
43001.000			5.775			-1.155
43100.000			5.775			-1.155
43200.000			5.775			-1.155
43301.000			5.776			-1.155
43400.000			5.775			-1.155
43500.000			5.775			-1.155
43602.000			5.774			-1.155
43701.000			5.775			-1.155
43800.000			5.774			-1.155
43901.000			5.774			-1.155
44000.000			5.774			-1.155
44100.000			5.773			-1.155
44201.000			5.773			-1.155
44300.000			5.772			-1.154
44401.000			5.772			-1.154
44502.000			5.772			-1.154
44600.000			5.771			-1.154
44701.000			5.771			-1.154
44800.000			5.771			-1.154
44900.000			5.770			-1.154
45001.000			5.770			-1.154
45100.000			5.769			-1.154
45201.000			5.770			-1.154
45302.000			5.770			-1.154
45400.000			5.769			-1.154
45500.000			5.769			-1.154
45601.000			5.768			-1.154
45700.000			5.767			-1.153
45800.000			5.768			-1.154
45901.000			5.768			-1.154
46001.000			5.767			-1.153
46101.000			5.768			-1.154
46201.000			5.768			-1.154
46300.000			5.767			-1.153
46400.000			5.767			-1.153
46501.000			5.767			-1.153
46600.000			5.766			-1.153
46700.000			5.766			-1.153
46801.000			5.766			-1.153
46901.000			5.765			-1.153
47001.000			5.764			-1.153
47101.000			5.764			-1.153
47200.000			5.764			-1.153
47300.000			5.764			-1.153
47401.000			5.763			-1.153
47500.000			5.764			-1.153
47600.000			5.763			-1.153
47702.000			5.763			-1.153
47801.000			5.763			-1.153
47901.000			5.763			-1.153
48000.000			5.761			-1.152
48100.000			5.762			-1.152
48201.000			5.762			-1.152
48300.000			5.761			-1.152
48400.000			5.761			-1.152
48502.000			5.760			-1.152
48601.000			5.759			-1.152
48700.000			5.760			-1.152
48801.000			5.760			-1.152
48900.000			5.760			-1.152
49000.000			5.759			-1.152
49101.000			5.759			-1.152
49200.000			5.758			-1.152
49301.000			5.758			-1.152
49402.000			5.758			-1.152
49500.000			5.758			-1.152
49600.000			5.758			-1.152
49701.000			5.757			-1.151
49800.000			5.758			-1.152
49900.000			5.757			-1.151
50001.000			5.757			-1.151
50101.000			5.756			-1.151
50201.000			5.755			-1.151
50301.000			5.757			-1.151
50400.000			5.756			-1.151
50500.000			5.756			-1.151
50601.000			5.756			-1.151
50700.000			5.754			-1.151
50800.000			5.753			-1.151
50902.000			5.753			-1.151
51001.000			5.754			-1.151
51101.000			5.754			-1.151
51200.000			5.755			-1.151
51300.000			5.753			-1.151
51401.000			5.753			-1.151
51500.000			5.753			-1.151
51600.000			5.753			-1.151
51702.000			5.753			-1.151
51801.000			5.752			-1.150
51900.000			5.753			-1.151
52001.000			5.751			-1.150
52100.000			5.751			-1.150
52200.000			5.751			-1.150
52301.000			5.751			-1.150
52401.000			5.751			-1.150
52501.000			5.750			-1.150
52602.000			5.750			-1.150
52700.000			5.750			-1.150
52800.000			5.750			-1.150
52901.000			5.750			-1.150
53000.000			5.750			-1.150
53100.000			5.749			-1.150
53202.000			5.749			-1.150
53301.000			5.750			-1.150
53401.000			5.747			-1.149
53501.000			5.748			-1.150
53600.000			5.748			-1.150
53700.000			5.748			-1.150
53801.000			5.747			-1.149
53900.000			5.747			-1.149
54000.000			5.747			-1.149
54102.000			5.747			-1.149
54201.000			5.747			-1.149
54301.000			5.747			-1.149
54400.000			5.745			-1.149
54500.000			5.745			-1.149
54601.000			5.744			-1.149
54700.000			5.744			-1.149
54801.000			5.744			-1.149
54902.000			5.744			-1.149
55001.000			5.743			-1.149
55100.000			5.744			-1.149
55201.000			5.744			-1.149
55300.000			5.743			-1.149
55400.000			5.744			-1.149
55501.000			5.744			-1.149
55601.000			5.743			-1.149
55701.000			5.742			-1.148
55801.000			5.742			-1.148
55900.000			5.742			-1.148
56000.000			5.742			-1.148
56101.000			5.743			-1.149
56200.000			5.743			-1.149
56300.000			5.742			-1.148
56402.000			5.741			-1.148
56501.000			5.741			-1.148
56600.000			5.741			-1.148
56701.000			5.739			-1.148
56800.000			5.739			-1.148
56900.000			5.740			-1.148
57001.000			5.740			-1.148
57100.000			5.740			-1.148
57201.000			5.740			-1.148
57302.000			5.740			-1.148
57400.000			5.739			-1.148
57501.000			5.740			-1.148
57600.000			5.739			-1.148
57700.000			5.739			-1.148
57801.000			5.738			-1.148
57900.000			5.738			-1.148
58000.000			5.737			-1.147
58102.000			5.737			-1.147
58201.000			5.737			-1.147
58300.000			5.737			-1.147
58401.000			5.739			-1.148
58500.000			5.737			-1.147
58600.000			5.737			-1.147
58701.000			5.737			-1.147
58800.000			5.736			-1.147
58901.000			5.735			-1.147
59002.000			5.735			-1.147
59100.000			5.736			-1.147
59200.000			5.736			-1.147
59301.000			5.735			-1.147
59400.000			5.734			-1.147
59500.000			5.734			-1.147
59601.000			5.734			-1.147
59701.000			5.734			-1.147
59801.000			5.734			-1.147
59901.000			5.734			-1.147
60000.000			5.733			-1.147
60100.000			5.733			-1.147
60201.000			5.733			-1.147
60300.000			5.733			-1.147
60400.000			5.733			-1.147
60502.000			5.732			-1.146
60601.000			5.731			-1.146
60701.000			5.731			-1.146
60800.000			5.732			-1.146
60900.000			5.731			-1.146
61001.000			5.731			-1.146
61100.000			5.731			-1.146
61200.000			5.730			-1.146
61302.000			5.730			-1.146
61400.000			5.730			-1.146
61500.000			5.731			-1.146
61601.000			5.730			-1.146
61700.000			5.729			-1.146
61800.000			5.729			-1.146
61901.000			5.729			-1.146
62001.000			5.729			-1.146
62101.000			5.728			-1.146
62201.000			5.727			-1.145
62300.000			5.728			-1.146
62400.000			5.728			-1.146
62501.000			5.727			-1.145
62600.000			5.728			-1.146
62700.000			5.728			-1.146
62802.000			5.728			-1.146
62901.000			5.729			-1.146
63000.000			5.727			-1.145
63101.000			5.727			-1.145
63200.000			5.726			-1.145
63300.000			5.725			-1.145
63401.000			5.726			-1.145
63500.000			5.726			-1.145
63601.000			5.726			-1.145
63702.000			5.725			-1.145
63800.000			5.725			-1.145
63901.000			5.726			-1.145
64000.000			5.725			-1.145
64100.000			5.725			-1.145
64201.000			5.725			-1.145
64300.000			5.725			-1.145
64401.000			5.725			-1.145
64502.000			5.724			-1.145
64600.000			5.723			-1.145
64700.000			5.723			-1.145
64801.000			5.724			-1.145
64900.000			5.723			-1.145
65000.000			5.723			-1.145
65101.000			5.723			-1.145
65201.000			5.722			-1.144
65301.000			5.721			-1.144
65401.000			5.722			-1.144
65500.000			5.722			-1.144
65600.000			5.722			-1.144
65701.000			5.722			-1.144
65800.000			5.721			-1.144
65900.000			5.721			-1.144
66002.000			5.720			-1.144
66101.000			5.720			-1.144
66200.000			5.721			-1.144
66301.000			5.722			-1.144
66400.000			5.720			-1.144
66500.000			5.720			-1.144
66601.000			5.719			-1.144
66700.000			5.719			-1.144
66801.000			5.719			-1.144
66902.000			5.720			-1.144
67000.000			5.720			-1.144
67101.000			5.720			-1.144
67200.000			5.719			-1.144
67300.000			5.718			-1.144
67401.000			5.718			-1.144
67500.000			5.718			-1.144
67601.000			5.717			-1.143
67702.000			5.718			-1.144
67800.000			5.718			-1.144
67900.000			5.717			-1.143
68001.000			5.717			-1.143
68100.000			5.716			-1.143
68200.000			5.716			-1.143
68301.000			5.716			-1.143
68401.000			5.716			-1.143
68501.000			5.717			-1.143
68601.000			5.716			-1.143
68700.000			5.716			-1.143
68800.000			5.716			-1.143
68901.000			5.715			-1.143
69000.000			5.714			-1.143
69100.000			5.714			-1.143
69201.000			5.715			-1.143
69301.000			5.715			-1.143
69401.000			5.715			-1.143
69501.000			5.714			-1.143
69600.000			5.714			-1.143
69700.000			5.713			-1.143
69801.000			5.712			-1.142
69900.000			5.713			-1.143
70000.000			5.713			-1.143
70102.000			5.711			-1.142
70201.000			5.713			-1.143
70301.000			5.712			-1.142
70400.000			5.712			-1.142
70500.000			5.712			-1.142
70601.000			5.712			-1.142
70700.000			5.711			-1.142
70800.000			5.711			-1.142
70902.000			5.712			-1.142
71001.000			5.711			-1.142
71100.000			5.711			-1.142
71201.000			5.711			-1.142
71300.000			5.710			-1.142
71400.000			5.710			-1.142
71501.000			5.710			-1.142
71601.000			5.711			-1.142
71701.000			5.711			-1.142
71801.000			5.710			-1.142
71900.000			5.710			-1.142
72000.000			5.710			-1.142
72101.000			5.709			-1.142
72200.000			5.709			-1.142
72300.000			5.708			-1.142
72402.000			5.709			-1.142
72501.000			5.708			-1.142
72600.000			5.708			-1.142
72701.000			5.709			-1.142
72800.000			5.708			-1.142
72900.000			5.707			-1.141
73001.000			5.707			-1.141
73100.000			5.708			-1.142
73201.000			5.707			-1.141
73302.000			5.707			-1.141
73400.000			5.707			-1.141
73501.000			5.707			-1.141
73600.000			5.706			-1.141
73700.000			5.706			-1.141
73801.000			5.706			-1.141
73900.000			5.705			-1.141
74001.000			5.705			-1.141
74102.000			5.705			-1.141
74200.000			5.705			-1.141
74300.000			5.705			-1.141
74401.000			5.705			-1.141
74500.000			5.705			-1.141
74600.000			5.705			-1.141
74701.000			5.705			-1.141
74801.000			5.705			-1.141
74901.000			5.703			-1.141
75002.000			5.703			-1.141
75100.000			5.703			-1.141
75200.000			5.703			-1.141
75301.000			5.702			-1.140
75400.000			5.702			-1.140
75500.000			5.702			-1.140
75601.000			5.703			-1.141
75701.000			5.704			-1.141
75801.000			5.703			-1.141
75901.000			5.702			-1.140
76000.000			5.702			-1.140
76100.000			5.702			-1.140
76201.000			5.701			-1.140
76300.000			5.701			-1.140
76400.000			5.701			-1.140
76502.000			5.701			-1.140
76601.000			5.699			-1.140
76701.000			5.701			-1.140
76800.000			5.701			-1.140
76900.000			5.699			-1.140
77001.000			5.700			-1.140
77100.000			5.700			-1.140
77200.000			5.700			-1.140
77302.000			5.700			-1.140
77401.000			5.700			-1.140
77500.000			5.699			-1.140
77601.000			5.699			-1.140
77700.000			5.699			-1.140
77800.000			5.699			-1.140
77901.000			5.699			-1.140
78000.000			5.699			-1.140
78100.000			5.698			-1.140
78202.000			5.699			-1.140
78301.000			5.698			-1.140
78400.000			5.697			-1.139
78501.000			5.696			-1.139
78600.000			5.697			-1.139
78700.000			5.698			-1.140
78801.000			5.697			-1.139
78900.000			5.696			-1.139
79001.000			5.697			-1.139
79102.000			5.698			-1.140
79200.000			5.697			-1.139
79300.000			5.697			-1.139
79401.000			5.696			-1.139
79500.000			5.696			-1.139
79600.000			5.696			-1.139
79701.000			5.697			-1.139
79800.000			5.696			-1.139
79902.000			5.696			-1.139
80001.000			5.695			-1.139
80100.000			5.695			-1.139
80201.000			5.695			-1.139
80300.000			5.695			-1.139
80400.000			5.694			-1.139
80501.000			5.694			-1.139
80600.000			5.695			-1.139
80701.000			5.694			-1.139
80802.000			5.694			-1.139
80900.000			5.694			-1.139
81000.000			5.693			-1.139
81101.000			5.692			-1.138
81200.000			5.693			-1.139
81300.000			5.693			-1.139
81401.000			5.693			-1.139
81501.000			5.694			-1.139
81601.000			5.694			-1.139
81701.000			5.693			-1.139
81800.000			5.692			-1.138
81900.000			5.691			-1.138
82001.000			5.691			-1.138
82100.000			5.692			-1.138
82200.000			5.693			-1.139
82302.000			5.692			-1.138
82401.000			5.691			-1.138
82500.000			5.690			-1.138
82601.000			5.691			-1.138
82700.000			5.691			-1.138
82800.000			5.691			-1.138
82901.000			5.691			-1.138
83000.000			5.690			-1.138
83101.000			5.690			-1.138
83201.000			5.690			-1.138
83301.000			5.691			-1.138
83401.000			5.690			-1.138
83500.000			5.689			-1.138
83600.000			5.689			-1.138
83701.000			5.688			-1.138
83800.000			5.688			-1.138
83900.000			5.689			-1.138
84002.000			5.690			-1.138
84101.000			5.690			-1.138
84200.000			5.689			-1.138
84301.000			5.688			-1.138
84400.000			5.688			-1.138
84500.000			5.689			-1.138
84601.000			5.689			-1.138
84700.000			5.689			-1.138
84800.000			5.688			-1.138
84902.000			5.688			-1.138
85001.000			5.687			-1.137
85100.000			5.688			-1.138
85201.000			5.688			-1.138
85300.000			5.687			-1.137
85400.000			5.687			-1.137
85501.000			5.686			-1.137
85600.000			5.686			-1.137
85701.000			5.687			-1.137
85802.000			5.687			-1.137
85900.000			5.687			-1.137
86000.000			5.685			-1.137
86101.000			5.685			-1.137
86200.000			5.685			-1.137
86301.000			5.685			-1.137
86400.000			5.686			-1.137
86501.000			5.685			-1.137
86602.000			5.685			-1.137
86700.000			5.686			-1.137
86800.000			5.685			-1.137
86901.000			5.686			-1.137
87000.000			5.685			-1.137
87100.000			5.684			-1.137
87201.000			5.682			-1.136
87300.000			5.683			-1.137
87401.000			5.684			-1.137
87502.000			5.685			-1.137
87600.000			5.684			-1.137
87700.000			5.683			-1.137
87801.000			5.683			-1.137
87900.000			5.684			-1.137
88000.000			5.683			-1.137
88101.000			5.682			-1.136
88201.000			5.682			-1.136
88301.000			5.683			-1.137
88401.000			5.682			-1.136
88500.000			5.681			-1.136
88600.000			5.681			-1.136
88701.000			5.681			-1.136
88800.000			5.682			-1.136
88900.000			5.682			-1.136
89002.000			5.682			-1.136
89101.000			5.681			-1.136
89200.000			5.681			-1.136
89301.000			5.681			-1.136
89400.000			5.681			-1.136
89501.000			5.681			-1.136
89600.000			5.681			-1.136
89700.000			5.681			-1.136
89801.000			5.680			-1.136
89901.000			5.680			-1.136
90001.000			5.680			-1.136
90101.000			5.680			-1.136
90200.000			5.679			-1.136
90300.000			5.679			-1.136
90401.000			5.679			-1.136
90500.000			5.679			-1.136
90600.000			5.680			-1.136
90702.000			5.678			-1.136
90801.000			5.679			-1.136
90900.000			5.679			-1.136
91001.000			5.678			-1.136
91100.000			5.679			-1.136
91200.000			5.680			-1.136
91301.000			5.678			-1.136
91400.000			5.678			-1.136
91501.000			5.678			-1.136
91602.000			5.677			-1.135
91701.000			5.677			-1.135
91800.000			5.678			-1.136
91901.000			5.678			-1.136
92000.000			5.677			-1.135
92100.000			5.678			-1.136
92201.000			5.677			-1.135
92300.000			5.677			-1.135
92401.000			5.677			-1.135
92502.000			5.677			-1.135
92600.000			5.677			-1.135
92701.000			5.676			-1.135
92800.000			5.676			-1.135
92900.000			5.675			-1.135
93001.000			5.675			-1.135
93100.000			5.675			-1.135
93201.000			5.676			-1.135
93302.000			5.676			-1.135
93401.000			5.676			-1.135
93500.000			5.675			-1.135
93601.000			5.675			-1.135
93700.000			5.675			-1.135
93800.000			5.675			-1.135
93901.000			5.673			-1.135
94001.000			5.673			-1.135
94101.000			5.673			-1.135
94202.000			5.674			-1.135
94300.000			5.675			-1.135
94400.000			5.674			-1.135
94501.000			5.673			-1.135
94600.000			5.674			-1.135
94700.000			5.673			-1.135
94801.000			5.673			-1.135
94901.000			5.673			-1.135
95001.000			5.672			-1.134
95101.000			5.673			-1.135
95200.000			5.673			-1.135
95300.000			5.673			-1.135
95401.000			5.672			-1.134
95500.000			5.672			-1.134
95600.000			5.672			-1.134
95702.000			5.672			-1.134
95801.000			5.673			-1.135
95901.000			5.672			-1.134
96000.000			5.672			-1.134
96100.000			5.672			-1.134
96201.000			5.672			-1.134
96300.000			5.672			-1.134
96400.000			5.672			-1.134
96502.000			5.671			-1.134
96601.000			5.670			-1.134
96700.000			5.672			-1.134
96801.000			5.671			-1.134
96900.000			5.669			-1.134
97000.000			5.669			-1.134
97101.000			5.671			-1.134
97200.000			5.671			-1.134
97300.000			5.670			-1.134
97402.000			5.669			-1.134
97501.000			5.670			-1.134
97600.000			5.670			-1.134
97701.000			5.669			-1.134
97800.000			5.668			-1.134
97900.000			5.668			-1.134
98001.000			5.668			-1.134
98100.000			5.668			-1.134
98201.000			5.668			-1.134
98302.000			5.669			-1.134
98400.000			5.669			-1.134
98500.000			5.669			-1.134
98601.000			5.669			-1.134
98700.000			5.669			-1.134
98800.000			5.668			-1.134
98901.000			5.667			-1.133
99000.000			5.667			-1.133
99102.000			5.666			-1.133
99201.000			5.666			-1.133
99300.000			5.666			-1.133
99401.000			5.667			-1.133
99500.000			5.667			-1.133
99600.000			5.666			-1.133
99701.000			5.666			-1.133
99800.000			5.666			-1.133
99900.000			5.665			-1.133
100002.000			5.666			-1.133
100101.000			5.667			-1.133
100200.000			5.666			-1.133
100301.000			5.665			-1.133
100400.000			5.664			-1.133
100500.000			5.665			-1.133
100601.000			5.666			-1.133
100700.000			5.666			-1.133
100801.000			5.665			-1.133
100902.000			5.664			-1.133
101000.000			5.663			-1.133
101100.000			5.665			-1.133
101201.000			5.665			-1.133
101300.000			5.665			-1.133
101400.000			5.663			-1.133
101501.000			5.662			-1.132
101601.000			5.663			-1.133
101701.000			5.664			-1.133
101801.000			5.664			-1.133
101900.000			5.663			-1.133
102000.000			5.663			-1.133
102101.000			5.663			-1.133
102200.000			5.664			-1.133
102301.000			5.663			-1.133
102401.000			5.663			-1.133
102501.000			5.663			-1.133
102601.000			5.661			-1.132
102700.000			5.661			-1.132
102800.000			5.663			-1.133
102901.000			5.663			-1.133
103000.000			5.662			-1.132
103100.000			5.661			-1.132
103202.000			5.662			-1.132
103301.000			5.662			-1.132
103401.000			5.660			-1.132
103501.000			5.660			-1.132
103600.000			5.660			-1.132
103700.000			5.660			-1.132
103801.000			5.660			-1.132
103900.000			5.659			-1.132
104000.000			5.659			-1.132
104102.000			5.660			-1.132
104201.000			5.659			-1.132
104300.000			5.659			-1.132
104401.000			5.658			-1.132
104500.000			5.659			-1.132
104600.000			5.660			-1.132
104701.000			5.660			-1.132
104800.000			5.659			-1.132
104901.000			5.659			-1.132
105002.000			5.659			-1.132
105100.000			5.659			-1.132
105200.000			5.660			-1.132
105301.000			5.659			-1.132
105400.000			5.658			-1.132
105501.000			5.658			-1.132
105600.000			5.658			-1.132
105700.000			5.659			-1.132
105802.000			5.659			-1.132
105901.000			5.657			-1.131
106000.000			5.657			-1.131
106101.000			5.657			-1.131
106200.000			5.657			-1.131
106300.000			5.658			-1.132
106401.000			5.657			-1.131
106500.000			5.657			-1.131
106601.000			5.656			-1.131
106702.000			5.656			-1.131
106800.000			5.657			-1.131
106900.000			5.656			-1.131
107001.000			5.657			-1.131
107100.000			5.656			-1.131
107200.000			5.656			-1.131
107301.000			5.655			-1.131
107401.000			5.656			-1.131
107501.000			5.656			-1.131
107602.000			5.656			-1.131
107700.000			5.656			-1.131
107800.000			5.656			-1.131
107901.000			5.656			-1.131
108000.000			5.655			-1.131
108100.000			5.655			-1.131
108201.000			5.655			-1.131
108301.000			5.655			-1.131
108401.000			5.655			-1.131
108501.000			5.654			-1.131
108600.000			5.655			-1.131
108701.000			5.654			-1.131
108800.000			5.655			-1.131
108900.000			5.655			-1.131
109001.000			5.655			-1.131
109100.000			5.654			-1.131
109201.000			5.653			-1.131
109302.000			5.653			-1.131
109400.000			5.654			-1.131
109500.000			5.654			-1.131
109601.000			5.654			-1.131
109700.000			5.654			-1.131
109800.000			5.654			-1.131
109901.000			5.654			-1.131
110001.000			5.653			-1.131
110101.000			5.653			-1.131
110201.000			5.654			-1.131
110300.000			5.653			-1.131
110400.000			5.653			-1.131
110501.000			5.652			-1.130
110600.000			5.652			-1.130
110700.000			5.652			-1.130
110802.000			5.651			-1.130
110901.000			5.652			-1.130
111000.000			5.653			-1.131
111101.000			5.651			-1.130
111200.000			5.651			-1.130
111300.000			5.651			-1.130
111401.000			5.652			-1.130
111500.000			5.652			-1.130
111601.000			5.651			-1.130
111702.000			5.651			-1.130
111800.000			5.652			-1.130
111901.000			5.651			-1.130
112000.000			5.651			-1.130
112100.000			5.651			-1.130
112201.000			5.651			-1.130
112300.000			5.650			-1.130
112401.000			5.650			-1.130
112502.000			5.650			-1.130
112601.000			5.650			-1.130
112700.000			5.650			-1.130
112801.000			5.649			-1.130
112900.000			5.650			-1.130
113000.000			5.649			-1.130
113101.000			5.650			-1.130
113201.000			5.650			-1.130
113301.000			5.649			-1.130
113401.000			5.649			-1.130
113500.000			5.649			-1.130
113600.000			5.648			-1.130
113701.000			5.649			-1.130
113800.000			5.648			-1.130
113900.000			5.648			-1.130
114001.000			5.648			-1.130
114101.000			5.648			-1.130
114201.000			5.648			-1.130
114301.000			5.649			-1.130
114400.000			5.647			-1.129
114500.000			5.646			-1.129
114601.000			5.646			-1.129
114700.000			5.648			-1.130
114800.000			5.649			-1.130
114902.000			5.647			-1.129
115001.000			5.647			-1.129
115101.000			5.647			-1.129
115200.000			5.646			-1.129
115300.000			5.647			-1.129
115401.000			5.647			-1.129
115500.000			5.647			-1.129
115600.000			5.647			-1.129
115701.000			5.646			-1.129
115801.000			5.646			-1.129
115901.000			5.646			-1.129
116001.000			5.646			-1.129
116100.000			5.645			-1.129
116200.000			5.645			-1.129
116301.000			5.644			-1.129
116400.000			5.646			-1.129
116500.000			5.646			-1.129
116602.000			5.644			-1.129
116701.000			5.645			-1.129
116800.000			5.645			-1.129
116901.000			5.645			-1.129
117000.000			5.645			-1.129
117100.000			5.645			-1.129
117201.000			5.645			-1.129
117300.000			5.644			-1.129
117401.000			5.643			-1.129
117502.000			5.644			-1.129
117601.000			5.644			-1.129
117700.000			5.644			-1.129
117801.000			5.642			-1.128
117900.000			5.643			-1.129
118000.000			5.643			-1.129
118101.000			5.644			-1.129
118200.000			5.643			-1.129
118302.000			5.643			-1.129
118401.000			5.643			-1.129
118500.000			5.643			-1.129
118601.000			5.643			-1.129
118700.000			5.643			-1.129
118800.000			5.642			-1.128
118901.000			5.642			-1.128
119000.000			5.642			-1.128
119101.000			5.642			-1.128
119202.000			5.642			-1.128
119301.000			5.642			-1.128
119400.000			5.641			-1.128
119501.000			5.641			-1.128
119600.000			5.642			-1.128
119700.000			5.641			-1.128
119801.000			5.641			-1.128
119900.000			5.641			-1.128
120001.000			5.640			-1.128
120102.000			5.640			-1.128
120200.000			5.640			-1.128
120300.000			5.641			-1.128
120401.000			5.640			-1.128
120500.000			5.640			-1.128
120600.000			5.640			-1.128
120701.000			5.639			-1.128
120801.000			5.639			-1.128
120901.000			5.639			-1.128
121001.000			5.638			-1.128
121100.000			5.639			-1.128
121200.000			5.639			-1.128
121301.000			5.639			-1.128
121400.000			5.639			-1.128
121501.000			5.639			-1.128
121601.000			5.638			-1.128
121701.000			5.639			-1.128
121802.000			5.638			-1.128
121900.000			5.639			-1.128
122000.000			5.638			-1.128
122101.000			5.638			-1.128
122200.000			5.639			-1.128
122300.000			5.639			-1.128
122401.000			5.639			-1.128
122501.000			5.637			-1.127
122601.000			5.638			-1.128
122701.000			5.638			-1.128
122800.000			5.638			-1.128
122900.000			5.638			-1.128
123001.000			5.637			-1.127
123100.000			5.636			-1.127
123200.000			5.637			-1.127
123302.000			5.637			-1.127
123401.000			5.637			-1.127
123500.000			5.636			-1.127
123601.000			5.636			-1.127
123700.000			5.636			-1.127
123800.000			5.636			-1.127
123901.000			5.636			-1.127
124000.000			5.637			-1.127
124100.000			5.635			-1.127
124202.000			5.636			-1.127
124301.000			5.637			-1.127
124400.000			5.637			-1.127
124501.000			5.637			-1.127
124600.000			5.636			-1.127
124701.000			5.635			-1.127
124800.000			5.636			-1.127
124900.000			5.635			-1.127
125002.000			5.636			-1.127
125101.000			5.636			-1.127
125201.000			5.636			-1.127
125301.000			5.635			-1.127
125400.000			5.635			-1.127
125500.000			5.635			-1.127
125601.000			5.636			-1.127
125700.000			5.635			-1.127
125800.000			5.634			-1.127
125902.000			5.634			-1.127
126001.000			5.633			-1.127
126100.000			5.633			-1.127
126201.000			5.633			-1.127
126300.000			5.634			-1.127
126400.000			5.634			-1.127
126501.000			5.633			-1.127
126600.000			5.633			-1.127
126701.000			5.633			-1.127
126802.000			5.633			-1.127
126900.000			5.632			-1.126
127000.000			5.633			-1.127
127101.000			5.633			-1.127
127200.000			5.633			-1.127
127300.000			5.633			-1.127
127401.000			5.632			-1.126
127501.000			5.631			-1.126
127601.000			5.632			-1.126
127701.000			5.632			-1.126
127800.000			5.632			-1.126
127901.000			5.632			-1.126
128000.000			5.632			-1.126
128100.000			5.632			-1.126
128201.000			5.631			-1.126
128301.000			5.630			-1.126
128401.000			5.631			-1.126
128502.000			5.631			-1.126
128600.000			5.630			-1.126
128700.000			5.631			-1.126
128801.000			5.631			-1.126
128900.000			5.630			-1.126
129000.000			5.631			-1.126
129101.000			5.631			-1.126
129201.000			5.630			-1.126
129301.000			5.631			-1.126
129401.000			5.631			-1.126
129500.000			5.630			-1.126
129600.000			5.629			-1.126
129701.000			5.630			-1.126
129800.000			5.629			-1.126
129900.000			5.631			-1.126
130002.000			5.631			-1.126
130101.000			5.631			-1.126
130200.000			5.631			-1.126
130301.000			5.630			-1.126
130400.000			5.629			-1.126
130500.000			5.629			-1.126
130601.000			5.630			-1.126
130700.000			5.629			-1.126
130801.000			5.629			-1.126
130902.000			5.630			-1.126
131001.000			5.630			-1.126
131101.000			5.629			-1.126
131200.000			5.628			-1.126
131300.000			5.628			-1.126
131401.000			5.628			-1.126
131500.000			5.628			-1.126
131600.000			5.628			-1.126
131702.000			5.628			-1.126
131801.000			5.628			-1.126
131901.000			5.628			-1.126
132001.000			5.628			-1.126
132100.000			5.627			-1.125
132200.000			5.628			-1.126
132301.000			5.628			-1.126
132400.000			5.627			-1.125
132500.000			5.628			-1.126
132602.000			5.627			-1.125
132701.000			5.626			-1.125
132801.000			5.627			-1.125
132901.000			5.627			-1.125
133000.000			5.627			-1.125
133100.000			5.627			-1.125
133201.000			5.626			-1.125
133300.000			5.625			-1.125
133400.000			5.627			-1.125
133502.000			5.626			-1.125
133601.000			5.626			-1.125
133701.000			5.626			-1.125
133801.000			5.626			-1.125
133900.000			5.626			-1.125
134000.000			5.625			-1.125
134101.000			5.626			-1.125
134200.000			5.626			-1.125
134301.000			5.626			-1.125
134400.000			5.625			-1.125
134501.000			5.625			-1.125
134602.000			5.625			-1.125
134700.000			5.625			-1.125
134800.000			5.625			-1.125
134901.000			5.625			-1.125
135000.000			5.625			-1.125
135100.000			5.625			-1.125
135201.000			5.625			-1.125
135300.000			5.625			-1.125
135401.000			5.625			-1.125
135502.000			5.625			-1.125
135600.000			5.625			-1.125
135700.000			5.625			-1.125
135801.000			5.624			-1.125
135900.000			5.625			-1.125
136000.000			5.625			-1.125
136101.000			5.624			-1.125
136200.000			5.624			-1.125
136301.000			5.624			-1.125
136402.000			5.624			-1.125
136500.000			5.624			-1.125
136600.000			5.623			-1.125
136701.000			5.623			-1.125
136800.000			5.624			-1.125
136900.000			5.625			-1.125
137001.000			5.625			-1.125
137100.000			5.623			-1.125
137201.000			5.623			-1.125
137302.000			5.624			-1.125
137400.000			5.623			-1.125
137501.000			5.622			-1.124
137600.000			5.623			-1.125
137700.000			5.623			-1.125
137801.000			5.623			-1.125
137900.000			5.623			-1.125
138000.000			5.623			-1.125
138102.000			5.622			-1.124
138201.000			5.621			-1.124
138300.000			5.622			-1.124
138401.000			5.622			-1.124
138500.000			5.622			-1.124
138600.000			5.622			-1.124
138701.000			5.622			-1.124
138800.000			5.623			-1.125
138900.000			5.621			-1.124
139002.000			5.622			-1.124
139101.000			5.622			-1.124
139201.000			5.622			-1.124
139301.000			5.621			-1.124
139400.000			5.622			-1.124
139500.000			5.622			-1.124
139601.000			5.621			-1.124
139700.000			5.621			-1.124
139800.000			5.621			-1.124
139902.000			5.621			-1.124
140001.000			5.621			-1.124
140101.000			5.621			-1.124
140201.000			5.621			-1.124
140300.000			5.620			-1.124
140400.000			5.620			-1.124
140501.000			5.620			-1.124
140600.000			5.620			-1.124
140701.000			5.619			-1.124
140801.000			5.619			-1.124
140901.000			5.620			-1.124
141002.000			5.620			-1.124
141100.000			5.620			-1.124
141200.000			5.619			-1.124
141301.000			5.618			-1.124
141400.000			5.619			-1.124
141500.000			5.619			-1.124
141601.000			5.619			-1.124
141701.000			5.619			-1.124
141801.000			5.619			-1.124
141902.000			5.619			-1.124
142000.000			5.618			-1.124
142100.000			5.618			-1.124
142201.000			5.619			-1.124
142300.000			5.618			-1.124
142400.000			5.618			-1.124
142501.000			5.618			-1.124
142601.000			5.618			-1.124
142701.000			5.617			-1.123
142802.000			5.616			-1.123
142900.000			5.617			-1.123
143000.000			5.617			-1.123
143101.000			5.617			-1.123
143200.000			5.617			-1.123
143300.000			5.616			-1.123
143401.000			5.617			-1.123
143500.000			5.617			-1.123
143601.000			5.616			-1.123
143702.000			5.616			-1.123
143800.000			5.617			-1.123
143901.000			5.617			-1.123
144000.000			5.616			-1.123
144100.000			5.616			-1.123
144201.000			5.616			-1.123
144300.000			5.616			-1.123
144400.000			5.616			-1.123
144502.000			5.616			-1.123
144601.000			5.615			-1.123
144700.000			5.615			-1.123
144801.000			5.615			-1.123
144900.000			5.615			-1.123
145000.000			5.614			-1.123
145101.000			5.614			-1.123
145200.000			5.614			-1.123
145300.000			5.615			-1.123
145402.000			5.614			-1.123
145501.000			5.614			-1.123
145600.000			5.614			-1.123
145701.000			5.614			-1.123
145800.000			5.614			-1.123
145900.000			5.614			-1.123
146001.000			5.614			-1.123
146100.000			5.614			-1.123
146200.000			5.613			-1.123
146302.000			5.613			-1.123
146401.000			5.614			-1.123
146500.000			5.614			-1.123
146601.000			5.614			-1.123
146700.000			5.613			-1.123
146800.000			5.613			-1.123
146901.000			5.614			-1.123
147000.000			5.614			-1.123
147101.000			5.614			-1.123
147201.000			5.614			-1.123
147301.000			5.613			-1.123
147401.000			5.612			-1.122
147500.000			5.611			-1.122
147600.000			5.611			-1.122
147701.000			5.612			-1.122
147800.000			5.613			-1.123
147900.000			5.613			-1.123
148001.000			5.612			-1.122
148101.000			5.613			-1.123
148201.000			5.613			-1.123
148301.000			5.613			-1.123
148400.000			5.612			-1.122
148500.000			5.612			-1.122
148601.000			5.612			-1.122
148700.000			5.612			-1.122
148800.000			5.611			-1.122
148901.000			5.611			-1.122
149001.000			5.612			-1.122
149101.000			5.612			-1.122
149201.000			5.613			-1.123
149300.000			5.611			-1.122
149400.000			5.612			-1.122
149501.000			5.612			-1.122
149600.000			5.611			-1.122
149700.000			5.611			-1.122
149801.000			5.611			-1.122
149901.000			5.610			-1.122
150001.000			5.610			-1.122
150102.000			5.610			-1.122
150200.000			5.610			-1.122
150301.000			5.611			-1.122
150400.000			5.612			-1.122
150500.000			5.611			-1.122
150601.000			5.611			-1.122
150700.000			5.610			-1.122
150801.000			5.609			-1.122
150902.000			5.610			-1.122
151001.000			5.611			-1.122
151100.000			5.611			-1.122
151201.000			5.610			-1.122
151300.000			5.609			-1.122
151400.000			5.608			-1.122
151501.000			5.608			-1.122
151600.000			5.609			-1.122
151701.000			5.609			-1.122
151802.000			5.608			-1.122
151901.000			5.609			-1.122
152000.000			5.608			-1.122
152101.000			5.608			-1.122
152200.000			5.608			-1.122
152300.000			5.609			-1.122
152401.000			5.608			-1.122
152500.000			5.609			-1.122
152601.000			5.608			-1.122
152702.000			5.609			-1.122
152801.000			5.608			-1.122
152900.000			5.607			-1.121
153001.000			5.607			-1.121
153100.000			5.607			-1.121
153200.000			5.608			-1.122
153301.000			5.608			-1.122
153400.000			5.608			-1.122
153502.000			5.608			-1.122
153601.000			5.607			-1.121
153701.000			5.607			-1.121
153801.000			5.607			-1.121
153900.000			5.606			-1.121
154000.000			5.607			-1.121
154101.000			5.607			-1.121
154200.000			5.608			-1.122
154300.000			5.607			-1.121
154402.000			5.607			-1.121
154501.000			5.606			-1.121
154601.000			5.606			-1.121
154701.000			5.605			-1.121
154800.000			5.606			-1.121
154900.000			5.606			-1.121
155001.000			5.606			-1.121
155100.000			5.606			-1.121
155200.000			5.606			-1.121
155302.000			5.606			-1.121
155401.000			5.606			-1.121
155501.000			5.605			-1.121
155601.000			5.604			-1.121
155700.000			5.604			-1.121
155800.000			5.606			-1.121
155901.000			5.605			-1.121
156000.000			5.604			-1.121
156100.000			5.604			-1.121
156202.000			5.605			-1.121
156301.000			5.606			-1.121
156401.000			5.605			-1.121
156501.000			5.605			-1.121
156600.000			5.604			-1.121
156701.000			5.605			-1.121
156800.000			5.604			-1.121
156900.000			5.605			-1.121
157001.000			5.604			-1.121
157100.000			5.603			-1.121
157201.000			5.602			-1.120
157302.000			5.603			-1.121
157400.000			5.603			-1.121
157500.000			5.603			-1.121
157601.000			5.604			-1.121
157700.000			5.605			-1.121
157800.000			5.603			-1.121
157901.000			5.602			-1.120
158000.000			5.603			-1.121
158101.000			5.603			-1.121
158202.000			5.603			-1.121
158300.000			5.603			-1.121
158400.000			5.603			-1.121
158501.000			5.603			-1.121
158600.000			5.604			-1.121
158700.000			5.604			-1.121
158801.000			5.603			-1.121
158900.000			5.602			-1.120
159001.000			5.603			-1.121
159102.000			5.603			-1.121
159200.000			5.602			-1.120
159300.000			5.602			-1.120
159401.000			5.601			-1.120
159500.000			5.602			-1.120
159600.000			5.603			-1.121
159701.000			5.603			-1.121
159800.000			5.603			-1.121
159902.000			5.602			-1.120
160001.000			5.601			-1.120
160101.000			5.601			-1.120
160201.000			5.602			-1.120
160300.000			5.602			-1.120
160400.000			5.601			-1.120
160501.000			5.600			-1.120
160600.000			5.602			-1.120
160700.000			5.601			-1.120
160802.000			5.601			-1.120
160901.000			5.601			-1.120
161001.000			5.600			-1.120
161101.000			5.600			-1.120
161200.000			5.600			-1.120
161300.000			5.600			-1.120
161401.000			5.600			-1.120
161500.000			5.600			-1.120
161600.000			5.600			-1.120
161702.000			5.600			-1.120
161801.000			5.601			-1.120
161901.000			5.600			-1.120
162001.000			5.600			-1.120
162100.000			5.600			-1.120
162200.000			5.600			-1.120
162301.000			5.599			-1.120
162400.000			5.599			-1.120
162500.000			5.599			-1.120
162602.000			5.600			-1.120
162701.000			5.599			-1.120
162801.000			5.599			-1.120
162901.000			5.599			-1.120
163000.000			5.599			-1.120
163101.000			5.598			-1.120
163200.000			5.599			-1.120
163300.000			5.599			-1.120
163401.000			5.599			-1.120
163500.000			5.598			-1.120
163601.000			5.598			-1.120
163702.000			5.597			-1.119
163801.000			5.597			-1.119
163900.000			5.598			-1.120
164001.000			5.597			-1.119
164100.000			5.597			-1.119
164200.000			5.598			-1.120
164301.000			5.598			-1.120
164400.000			5.597			-1.119
164500.000			5.597			-1.119
164602.000			5.598			-1.120
164701.000			5.598			-1.120
164800.000			5.598			-1.120
164901.000			5.598			-1.120
165000.000			5.598			-1.120
165100.000			5.598			-1.120
165201.000			5.598			-1.120
165300.000			5.597			-1.119
165400.000			5.596			-1.119
165502.000			5.596			-1.119
165601.000			5.596			-1.119
165701.000			5.597			-1.119
165801.000			5.597			-1.119
165900.000			5.596			-1.119
166000.000			5.597			-1.119
166101.000			5.598			-1.120
166200.000			5.597			-1.119
166301.000			5.595			-1.119
166400.000			5.595			-1.119
166501.000			5.596			-1.119
166602.000			5.596			-1.119
166701.000			5.596			-1.119
166800.000			5.596			-1.119
166901.000			5.596			-1.119
167000.000			5.595			-1.119
167100.000			5.596			-1.119
167201.000			5.596			-1.119
167300.000			5.595			-1.119
167401.000			5.595			-1.119
167502.000			5.596			-1.119
167601.000			5.596			-1.119
167700.000			5.595			-1.119
167801.000			5.594			-1.119
167900.000			5.594			-1.119
168000.000			5.595			-1.119
168101.000			5.595			-1.119
168200.000			5.595			-1.119
168300.000			5.594			-1.119
168402.000			5.594			-1.119
168501.000			5.594			-1.119
168601.000			5.594			-1.119
168701.000			5.594			-1.119
168800.000			5.594			-1.119
168900.000			5.594			-1.119
169001.000			5.594			-1.119
169100.000			5.594			-1.119
169200.000			5.593			-1.119
169301.000			5.593			-1.119
169401.000			5.594			-1.119
169502.000			5.593			-1.119
169601.000			5.593			-1.119
169700.000			5.593			-1.119
169801.000			5.593			-1.119
169900.000			5.593			-1.119
170000.000			5.593			-1.119
170101.000			5.593			-1.119
170200.000			5.593			-1.119
170300.000			5.593			-1.119
170402.000			5.593			-1.119
170501.000			5.592			-1.118
170600.000			5.592			-1.118
170701.000			5.593			-1.119
170800.000			5.592			-1.118
170900.000			5.593			-1.119
171001.000			5.592			-1.118
171100.000			5.591			-1.118
171200.000			5.591			-1.118
171302.000			5.592			-1.118
171401.000			5.592			-1.118
171500.000			5.592			-1.118
171601.000			5.591			-1.118
171700.000			5.591			-1.118
171800.000			5.591			-1.118
171901.000			5.592			-1.118
172000.000			5.592			-1.118
172100.000			5.591			-1.118
172202.000			5.591			-1.118
172301.000			5.590			-1.118
172400.000			5.591			-1.118
172501.000			5.590			-1.118
172600.000			5.591			-1.118
172701.000			5.591			-1.118
172800.000			5.590			-1.118
172900.000			5.590			-1.118
173001.000			5.589			-1.118
173101.000			5.590			-1.118
173201.000			5.590			-1.118
173302.000			5.590			-1.118
173400.000			5.589			-1.118
173500.000			5.590			-1.118
173601.000			5.590			-1.118
173700.000			5.589			-1.118
173800.000			5.589			-1.118
173901.000			5.590			-1.118
174000.000			5.591			-1.118
174101.000			5.590			-1.118
174202.000			5.589			-1.118
174301.000			5.589			-1.118
174400.000			5.590			-1.118
174501.000			5.590			-1.118
174600.000			5.589			-1.118
174700.000			5.589			-1.118
174801.000			5.589			-1.118
174900.000			5.589			-1.118
175000.000			5.589			-1.118
175102.000			5.589			-1.118
175201.000			5.589			-1.118
175300.000			5.589			-1.118
175401.000			5.589			-1.118
175500.000			5.589			-1.118
175600.000			5.588			-1.118
175701.000			5.588			-1.118
175800.000			5.588			-1.118
175901.000			5.587			-1.117
176001.000			5.587			-1.117
176101.000			5.588			-1.118
176202.000			5.587			-1.117
176300.000			5.587			-1.117
176400.000			5.588			-1.118
176501.000			5.588			-1.118
176600.000			5.588			-1.118
176700.000			5.588			-1.118
176801.000			5.588			-1.118
176900.000			5.588			-1.118
177001.000			5.587			-1.117
177102.000			5.586			-1.117
177201.000			5.587			-1.117
177300.000			5.587			-1.117
177401.000			5.586			-1.117
177500.000			5.586			-1.117
177600.000			5.586			-1.117
177701.000			5.587			-1.117
177800.000			5.587			-1.117
177900.000			5.586			-1.117
178002.000			5.586			-1.117
178101.000			5.586			-1.117
178201.000			5.586			-1.117
178301.000			5.586			-1.117
178400.000			5.587			-1.117
178500.000			5.587			-1.117
178601.000			5.587			-1.117
178700.000			5.586			-1.117
178800.000			5.585			-1.117
178901.000			5.586			-1.117
179001.000			5.586			-1.117
179102.000			5.585			-1.117
179201.000			5.586			-1.117
179300.000			5.585			-1.117
179401.000			5.585			-1.117
179500.000			5.585			-1.117
179600.000			5.585			-1.117
179701.000			5.584			-1.117
179800.000			5.585			-1.117
179900.000			5.584			-1.117
180002.000			5.585			-1.117
180101.000			5.584			-1.117
180200.000			5.584			-1.117
180301.000			5.585			-1.117
180400.000			5.585			-1.117
180500.000			5.584			-1.117
180601.000			5.583			-1.117
180700.000			5.584			-1.117
180800.000			5.584			-1.117
180902.000			5.585			-1.117
181001.000			5.585			-1.117
181101.000			5.584			-1.117
181201.000			5.585			-1.117
181300.000			5.583			-1.117
181400.000			5.583			-1.117
181501.000			5.583			-1.117
181600.000			5.583			-1.117
181700.000			5.583			-1.117
181801.000			5.584			-1.117
181901.000			5.584			-1.117
182001.000			5.582			-1.116
182101.000			5.582			-1.116
182200.000			5.583			-1.117
182301.000			5.583			-1.117
182400.000			5.583			-1.117
182500.000			5.582			-1.116
182601.000			5.582			-1.116
182700.000			5.582			-1.116
182801.000			5.583			-1.117
182902.000			5.582			-1.116
183001.000			5.582			-1.116
183100.000			5.583			-1.117
183201.000			5.583			-1.117
183300.000			5.582			-1.116
183400.000			5.582			-1.116
183501.000			5.582			-1.116
183600.000			5.581			-1.116
183700.000			5.581			-1.116
183802.000			5.582			-1.116
183901.000			5.581			-1.116
184000.000			5.582			-1.116
184101.000			5.582			-1.116
184200.000			5.581			-1.116
184300.000			5.580			-1.116
184401.000			5.580			-1.116
184500.000			5.581			-1.116
184600.000			5.581			-1.116
184702.000			5.580			-1.116
184801.000			5.580			-1.116
184900.000			5.581			-1.116
185001.000			5.580			-1.116
185100.000			5.581			-1.116
185200.000			5.582			-1.116
185301.000			5.581			-1.116
185400.000			5.581			-1.116
185501.000			5.580			-1.116
185601.000			5.579			-1.116
185701.000			5.580			-1.116
185802.000			5.580			-1.116
185900.000			5.580			-1.116
186000.000			5.580			-1.116
186101.000			5.581			-1.116
186200.000			5.581			-1.116
186300.000			5.580			-1.116
186401.000			5.579			-1.116
186500.000			5.579			-1.116
186601.000			5.579			-1.116
186702.000			5.579			-1.116
186801.000			5.580			-1.116
186900.000			5.580			-1.116
187001.000			5.579			-1.116
187100.000			5.578			-1.116
187200.000			5.579			-1.116
187301.000			5.579			-1.116
187400.000			5.579			-1.116
187500.000			5.578			-1.116
187602.000			5.579			-1.116
187701.000			5.579			-1.116
187801.000			5.579			-1.116
187901.000			5.579			-1.116
188000.000			5.578			-1.116
188100.000			5.578			-1.116
188201.000			5.578			-1.116
188300.000			5.577			-1.115
188400.000			5.578			-1.116
188501.000			5.578			-1.116
188601.000			5.579			-1.116
188702.000			5.579			-1.116
188801.000			5.578			-1.116
188900.000			5.577			-1.115
189001.000			5.578			-1.116
189100.000			5.577			-1.115
189200.000			5.578			-1.116
189301.000			5.577			-1.115
189400.000			5.577			-1.115
189500.000			5.576			-1.115
189602.000			5.576			-1.115
189701.000			5.577			-1.115
189801.000			5.576			-1.115
189901.000			5.577			-1.115
190000.000			5.577			-1.115
190100.000			5.577			-1.115
190201.000			5.577			-1.115
190300.000			5.577			-1.115
190400.000			5.577			-1.115
190501.000			5.577			-1.115
190601.000			5.576			-1.115
190701.000			5.575			-1.115
190801.000			5.576			-1.115
190900.000			5.577			-1.115
191000.000			5.575			-1.115
191101.000			5.576			-1.115
191200.000			5.576			-1.115
191300.000			5.575			-1.115
191401.000			5.575			-1.115
191501.000			5.576			-1.115
191601.000			5.575			-1.115
191701.000			5.576			-1.115
191800.000			5.576			-1.115
191901.000			5.576			-1.115
192000.000			5.575			-1.115
192100.000			5.576			-1.115
192201.000			5.577			-1.115
192300.000			5.575			-1.115
192400.000			5.574			-1.115
192502.000			5.574			-1.115
192601.000			5.574			-1.115
192700.000			5.574			-1.115
192801.000			5.575			-1.115
192900.000			5.574			-1.115
193000.000			5.574			-1.115
193101.000			5.575			-1.115
193200.000			5.576			-1.115
193300.000			5.575			-1.115
193402.000			5.573			-1.115
193501.000			5.574			-1.115
193600.000			5.573			-1.115
193701.000			5.573			-1.115
193800.000			5.574			-1.115
193900.000			5.574			-1.115
194001.000			5.575			-1.115
194100.000			5.574			-1.115
194200.000			5.573			-1.115
194302.000			5.574			-1.115
194401.000			5.574			-1.115
194501.000			5.573			-1.115
194601.000			5.573			-1.115
194700.000			5.574			-1.115
194800.000			5.575			-1.115
194901.000			5.572			-1.114
195000.000			5.573			-1.115
195101.000			5.573			-1.115
195200.000			5.573			-1.115
195301.000			5.573			-1.115
195402.000			5.573			-1.115
195500.000			5.573			-1.115
195600.000			5.573			-1.115
195701.000			5.573			-1.115
195800.000			5.573			-1.115
195900.000			5.572			-1.114
196001.000			5.571			-1.114
196100.000			5.572			-1.114
196201.000			5.571			-1.114
196302.000			5.572			-1.114
196401.000			5.573			-1.115
196500.000			5.572			-1.114
196601.000			5.572			-1.114
196700.000			5.571			-1.114
196800.000			5.571			-1.114
196901.000			5.571			-1.114
197000.000			5.571			-1.114
197100.000			5.572			-1.114
197202.000			5.572			-1.114
197301.000			5.571			-1.114
197401.000			5.572			-1.114
197501.000			5.571			-1.114
197600.000			5.570			-1.114
197700.000			5.570			-1.114
197801.000			5.571			-1.114
197900.000			5.571			-1.114
198000.000			5.572			-1.114
198101.000			5.572			-1.114
198201.000			5.572			-1.114
198302.000			5.571			-1.114
198400.000			5.570			-1.114
198500.000			5.570			-1.114
198601.000			5.569			-1.114
198700.000			5.570			-1.114
198800.000			5.571			-1.114
198901.000			5.571			-1.114
199000.000			5.571			-1.114
199100.000			5.571			-1.114
199202.000			5.571			-1.114
199301.000			5.571			-1.114
199400.000			5.570			-1.114
199501.000			5.571			-1.114
199600.000			5.570			-1.114
199700.000			5.571			-1.114
199801.000			5.571			-1.114
199900.000			5.571			-1.114
200000.000			5.571			-1.114
200102.000			5.571			-1.114
200201.000			5.571			-1.114
200301.000			5.570			-1.114
200401.000			5.569			-1.114
200500.000			5.570			-1.114
200600.000			5.571			-1.114
200701.000			5.570			-1.114
200800.000			5.568			-1.114
200900.000			5.568			-1.114
201002.000			5.569			-1.114
201101.000			5.569			-1.114
201201.000			5.569			-1.114
201301.000			5.569			-1.114
201400.000			5.569			-1.114
201501.000			5.569			-1.114
201600.000			5.568			-1.114
201700.000			5.568			-1.114
201801.000			5.568			-1.114
201901.000			5.569			-1.114
202001.000			5.568			-1.114
202102.000			5.568			-1.114
202200.000			5.569			-1.114
202300.000			5.568			-1.114
202401.000			5.566			-1.113
202500.000			5.567			-1.113
202600.000			5.568			-1.114
202701.000			5.568			-1.114
202800.000			5.567			-1.113
202901.000			5.568			-1.114
203002.000			5.568			-1.114
203100.000			5.567			-1.113
203200.000			5.566			-1.113
203301.000			5.567			-1.113
203400.000			5.568			-1.114
203500.000			5.567			-1.113
203601.000			5.566			-1.113
203700.000			5.568			-1.114
203801.000			5.568			-1.114
203902.000			5.568			-1.114
204000.000			5.568			-1.114
204100.000			5.566			-1.113
204201.000			5.567			-1.113
204300.000			5.567			-1.113
204400.000			5.567			-1.113
204501.000			5.567			-1.113
204600.000			5.567			-1.113
204702.000			5.567			-1.113
204801.000			5.567			-1.113
204901.000			5.567			-1.113
205001.000			5.567			-1.113
205100.000			5.565			-1.113
205200.000			5.565			-1.113
205301.000			5.567			-1.113
205400.000			5.566			-1.113
205500.000			5.566			-1.113
205602.000			5.566			-1.113
205701.000			5.565			-1.113
205801.000			5.566			-1.113
205901.000			5.566			-1.113
206000.000			5.566			-1.113
206100.000			5.565			-1.113
206201.000			5.564			-1.113
206300.000			5.566			-1.113
206400.000			5.567			-1.113
206501.000			5.566			-1.113
206601.000			5.565			-1.113
206701.000			5.565			-1.113
206801.000			5.565			-1.113
206900.000			5.565			-1.113
207000.000			5.565			-1.113
207101.000			5.565			-1.113
207200.000			5.566			-1.113
207300.000			5.566			-1.113
207401.000			5.566			-1.113
207501.000			5.566			-1.113
207601.000			5.565			-1.113
207701.000			5.565			-1.113
207800.000			5.565			-1.113
207901.000			5.564			-1.113
208000.000			5.565			-1.113
208100.000			5.564			-1.113
208201.000			5.565			-1.113
208300.000			5.565			-1.113
208401.000			5.565			-1.113
208502.000			5.564			-1.113
208601.000			5.564			-1.113
208700.000			5.564			-1.113
208801.000			5.564			-1.113
208900.000			5.564			-1.113
209000.000			5.564			-1.113
209101.000			5.565			-1.113
209200.000			5.564			-1.113
209301.000			5.563			-1.113
209402.000			5.563			-1.113
209501.000			5.564			-1.113
209600.000			5.563			-1.113
209701.000			5.563			-1.113
209800.000			5.564			-1.113
209900.000			5.563			-1.113
210001.000			5.563			-1.113
210100.000			5.562			-1.112
210200.000			5.563			-1.113
210302.000			5.563			-1.113
210401.000			5.562			-1.112
210500.000			5.563			-1.113
210601.000			5.561			-1.112
210700.000			5.562			-1.112
210800.000			5.562			-1.112
210901.000			5.562			-1.112
211000.000			5.562			-1.112
211101.000			5.561			-1.112
211201.000			5.562			-1.112
211301.000			5.562			-1.112
211401.000			5.562			-1.112
211500.000			5.561			-1.112
211600.000			5.561			-1.112
211701.000			5.561			-1.112
211800.000			5.562			-1.112
211900.000			5.563			-1.113
212001.000			5.562			-1.112
212101.000			5.561			-1.112
212201.000			5.560			-1.112
212301.000			5.560			-1.112
212400.000			5.561			-1.112
212500.000			5.561			-1.112
212601.000			5.561			-1.112
212700.000			5.562			-1.112
212800.000			5.562			-1.112
212902.000			5.561			-1.112
213001.000			5.561			-1.112
213101.000			5.561			-1.112
213201.000			5.560			-1.112
213300.000			5.560			-1.112
213400.000			5.560			-1.112
213501.000			5.560			-1.112
213600.000			5.560			-1.112
213700.000			5.560			-1.112
213802.000			5.561			-1.112
213901.000			5.560			-1.112
214001.000			5.560			-1.112
214101.000			5.559			-1.112
214200.000			5.560			-1.112
214301.000			5.560			-1.112
214400.000			5.559			-1.112
214500.000			5.559			-1.112
214601.000			5.559			-1.112
214701.000			5.560			-1.112
214801.000			5.560			-1.112
214902.000			5.559			-1.112
215000.000			5.560			-1.112
215100.000			5.560			-1.112
215201.000			5.559			-1.112
215300.000			5.558			-1.112
215400.000			5.559			-1.112
215501.000			5.559			-1.112
215600.000			5.559			-1.112
215701.000			5.560			-1.112
215802.000			5.559			-1.112
215900.000			5.559			-1.112
216000.000			5.559			-1.112
216101.000			5.558			-1.112
216200.000			5.559			-1.112
216300.000			5.559			-1.112
216401.000			5.558			-1.112
216500.000			5.558			-1.112
216601.000			5.559			-1.112
216702.000			5.559			-1.112
216801.000			5.558			-1.112
216900.000			5.558			-1.112
217001.000			5.559			-1.112
217100.000			5.557			-1.111
217200.000			5.558			-1.112
217301.000			5.557			-1.111
217400.000			5.558			-1.112
217502.000			5.558			-1.112
217601.000			5.557			-1.111
217701.000			5.558			-1.112
217801.000			5.559			-1.112
217900.000			5.558			-1.112
218000.000			5.558			-1.112
218101.000			5.558			-1.112
218200.000			5.556			-1.111
218300.000			5.556			-1.111
218401.000			5.557			-1.111
218501.000			5.557			-1.111
218601.000			5.556			-1.111
218701.000			5.556			-1.111
218800.000			5.557			-1.111
218900.000			5.558			-1.112
219001.000			5.557			-1.111
219100.000			5.557			-1.111
219200.000			5.557			-1.111
219301.000			5.556			-1.111
219401.000			5.556			-1.111
219501.000			5.556			-1.111
219601.000			5.556			-1.111
219700.000			5.556			-1.111
219800.000			5.556			-1.111
219901.000			5.556			-1.111
220000.000			5.557			-1.111
220100.000			5.556			-1.111
220201.000			5.556			-1.111
220301.000			5.556			-1.111
220401.000			5.556			-1.111
220502.000			5.556			-1.111
220600.000			5.556			-1.111
220701.000			5.557			-1.111
220800.000			5.556			-1.111
220900.000			5.555			-1.111
221001.000			5.557			-1.111
221100.000			5.556			-1.111
221201.000			5.556			-1.111
221302.000			5.557			-1.111
221401.000			5.556			-1.111
221500.000			5.555			-1.111
221601.000			5.555			-1.111
221700.000			5.555			-1.111
221800.000			5.555			-1.111
221901.000			5.556			-1.111
222000.000			5.556			-1.111
222101.000			5.556			-1.111
222202.000			5.556			-1.111
222301.000			5.555			-1.111
222400.000			5.555			-1.111
222501.000			5.555			-1.111
222600.000			5.555			-1.111
222700.000			5.554			-1.111
222801.000			5.554			-1.111
222900.000			5.555			-1.111
223001.000			5.555			-1.111
223102.000			5.554			-1.111
223201.000			5.553			-1.111
223300.000			5.554			-1.111
223401.000			5.554			-1.111
223500.000			5.555			-1.111
223600.000			5.555			-1.111
223701.000			5.555			-1.111
223800.000			5.554			-1.111
223901.000			5.554			-1.111
224001.000			5.554			-1.111
224101.000			5.554			-1.111
224201.000			5.554			-1.111
224300.000			5.553			-1.111
224400.000			5.554			-1.111
224501.000			5.554			-1.111
224600.000			5.553			-1.111
224700.000			5.554			-1.111
224801.000			5.553			-1.111
224901.000			5.554			-1.111
225001.000			5.554			-1.111
225101.000			5.554			-1.111
225200.000			5.554			-1.111
225300.000			5.553			-1.111
225401.000			5.553			-1.111
225500.000			5.553			-1.111
225600.000			5.552			-1.110
225701.000			5.553			-1.111
225801.000			5.553			-1.111
225901.000			5.553			-1.111
226001.000			5.553			-1.111
226100.000			5.552			-1.110
226200.000			5.551			-1.110
226301.000			5.552			-1.110
226400.000			5.552			-1.110
226500.000			5.552			-1.110
226601.000			5.552			-1.110
226701.000			5.552			-1.110
226801.000			5.552			-1.110
226901.000			5.551			-1.110
227000.000			5.552			-1.110
227101.000			5.552			-1.110
227200.000			5.552			-1.110
227300.000			5.552			-1.110
227401.000			5.552			-1.110
227500.000			5.551			-1.110
227601.000			5.551			-1.110
227702.000			5.552			-1.110
227801.000			5.551			-1.110
227900.000			5.551			-1.110
228001.000			5.551			-1.110
228100.000			5.551			-1.110
228200.000			5.551			-1.110
228301.000			5.551			-1.110
228400.000			5.551			-1.110
228501.000			5.552			-1.110
228602.000			5.551			-1.110
228701.000			5.550			-1.110
228800.000			5.551			-1.110
228901.000			5.550			-1.110
229000.000			5.550			-1.110
229100.000			5.550			-1.110
229201.000			5.550			-1.110
229300.000			5.550			-1.110
229401.000			5.550			-1.110
229502.000			5.550			-1.110
229601.000			5.550			-1.110
229700.000			5.550			-1.110
229801.000			5.549			-1.110
229900.000			5.550			-1.110
230000.000			5.550			-1.110
230101.000			5.550			-1.110
230200.000			5.549			-1.110
230301.000			5.549			-1.110
230401.000			5.549			-1.110
230501.000			5.550			-1.110
230601.000			5.550			-1.110
230700.000			5.550			-1.110
230800.000			5.549			-1.110
230901.000			5.548			-1.110
231000.000			5.549			-1.110
231100.000			5.549			-1.110
231201.000			5.549			-1.110
231301.000			5.549			-1.110
231401.000			5.549			-1.110
231501.000			5.550			-1.110
231600.000			5.549			-1.110
231700.000			5.549			-1.110
231801.000			5.549			-1.110
231900.000			5.548			-1.110
232000.000			5.549			-1.110
232101.000			5.549			-1.110
232201.000			5.549			-1.110
232301.000			5.549			-1.110
232401.000			5.549			-1.110
232500.000			5.549			-1.110
232600.000			5.548			-1.110
232701.000			5.548			-1.110
232800.000			5.549			-1.110
232900.000			5.548			-1.110
233001.000			5.547			-1.109
233101.000			5.548			-1.110
233201.000			5.548			-1.110
233301.000			5.547			-1.109
233400.000			5.548			-1.110
233501.000			5.548			-1.110
233600.000			5.548			-1.110
233700.000			5.547			-1.109
233801.000			5.547			-1.109
233900.000			5.547			-1.109
234001.000			5.546			-1.109
234102.000			5.547			-1.109
234201.000			5.547			-1.109
234300.000			5.548			-1.110
234401.000			5.547			-1.109
234500.000			5.547			-1.109
234600.000			5.547			-1.109
234701.000			5.548			-1.110
234800.000			5.548			-1.110
234900.000			5.547			-1.109
235002.000			5.547			-1.109
235101.000			5.547			-1.109
235200.000			5.547			-1.109
235301.000			5.547			-1.109
235400.000			5.547			-1.109
235500.000			5.547			-1.109
235601.000			5.547			-1.109
235700.000			5.547			-1.109
235800.000			5.546			-1.109
235902.000			5.546			-1.109
236001.000			5.546			-1.109
236100.000			5.546			-1.109
236201.000			5.546			-1.109
236300.000			5.547			-1.109
236400.000			5.546			-1.109
236501.000			5.546			-1.109
236600.000			5.546			-1.109
236701.000			5.546			-1.109
236801.000			5.545			-1.109
236901.000			5.546			-1.109
237002.000			5.546			-1.109
237100.000			5.545			-1.109
237200.000			5.546			-1.109
237301.000			5.546			-1.109
237400.000			5.546			-1.109
237500.000			5.545			-1.109
237601.000			5.545			-1.109
237700.000			5.544			-1.109
237801.000			5.545			-1.109
237902.000			5.545			-1.109
238000.000			5.544			-1.109
238100.000			5.544			-1.109
238201.000			5.544			-1.109
238300.000			5.546			-1.109
238400.000			5.546			-1.109
238501.000			5.545			-1.109
238600.000			5.545			-1.109
238701.000			5.545			-1.109
238802.000			5.545			-1.109
238901.000			5.544			-1.109
239000.000			5.544			-1.109
239101.000			5.544			-1.109
239200.000			5.544			-1.109
239300.000			5.545			-1.109
239401.000			5.544			-1.109
239500.000			5.543			-1.109
239600.000			5.544			-1.109
239702.000			5.544			-1.109
239801.000			5.544			-1.109
239901.000			5.544			-1.109
240000.000			5.543			-1.109
240100.000			5.544			-1.109
240201.000			5.543			-1.109
240300.000			5.543			-1.109
240400.000			5.543			-1.109
240501.000			5.543			-1.109
240601.000			5.542			-1.108
240701.000			5.542			-1.108
240801.000			5.543			-1.109
240900.000			5.543			-1.109
241000.000			5.542			-1.108
241101.000			5.542			-1.108
241200.000			5.543			-1.109
241300.000			5.543			-1.109
241401.000			5.542			-1.108
241501.000			5.542			-1.108
241601.000			5.543			-1.109
241701.000			5.542			-1.108
241800.000			5.543			-1.109
241900.000			5.543			-1.109
242001.000			5.543			-1.109
242100.000			5.544			-1.109
242200.000			5.542			-1.108
242301.000			5.542			-1.108
242401.000			5.542			-1.108
242501.000			5.542			-1.108
242601.000			5.542			-1.108
242700.000			5.542			-1.108
242800.000			5.541			-1.108
242901.000			5.542			-1.108
243000.000			5.542			-1.108
243101.000			5.542			-1.108
243200.000			5.542			-1.108
243301.000			5.541			-1.108
243402.000			5.541			-1.108
243500.000			5.542			-1.108
243600.000			5.542			-1.108
243701.000			5.541			-1.108
243800.000			5.542			-1.108
243900.000			5.542			-1.108
244001.000			5.541			-1.108
244100.000			5.541			-1.108
244201.000			5.541			-1.108
244302.000			5.541			-1.108
244400.000			5.542			-1.108
244500.000			5.542			-1.108
244601.000			5.540			-1.108
244700.000			5.541			-1.108
244800.000			5.541			-1.108
244901.000			5.541			-1.108
245000.000			5.541			-1.108
245101.000			5.542			-1.108
245202.000			5.540			-1.108
245300.000			5.540			-1.108
245400.000			5.540			-1.108
245501.000			5.540			-1.108
245600.000			5.541			-1.108
245700.000			5.541			-1.108
245801.000			5.540			-1.108
245900.000			5.539			-1.108
246001.000			5.540			-1.108
246102.000			5.540			-1.108
246200.000			5.540			-1.108
246301.000			5.539			-1.108
246400.000			5.539			-1.108
246500.000			5.540			-1.108
246601.000			5.540			-1.108
246700.000			5.540			-1.108
246800.000			5.539			-1.108
246902.000			5.539			-1.108
247001.000			5.539			-1.108
247101.000			5.539			-1.108
247201.000			5.539			-1.108
247300.000			5.539			-1.108
247400.000			5.538			-1.108
247501.000			5.540			-1.108
247600.000			5.540			-1.108
247700.000			5.539			-1.108
247801.000			5.539			-1.108
247901.000			5.539			-1.108
248001.000			5.539			-1.108
248101.000			5.538			-1.108
248200.000			5.538			-1.108
248300.000			5.537			-1.107
248401.000			5.538			-1.108
248500.000			5.538			-1.108
248600.000			5.538			-1.108
248701.000			5.538			-1.108
248801.000			5.539			-1.108
248901.000			5.539			-1.108
249002.000			5.538			-1.108
249100.000			5.538			-1.108
249200.000			5.539			-1.108
249301.000			5.538			-1.108
249400.000			5.538			-1.108
249501.000			5.538			-1.108
249600.000			5.537			-1.107
249700.000			5.538			-1.108
249802.000			5.537			-1.107
249901.000			5.537			-1.107
250000.000			5.537			-1.107
250101.000			5.538			-1.108
250200.000			5.538			-1.108
250300.000			5.538			-1.108
250401.000			5.537			-1.107
250500.000			5.537			-1.107
250600.000			5.537			-1.107
250702.000			5.537			-1.107
250801.000			5.536			-1.107
250901.000			5.537			-1.107
251001.000			5.537			-1.107
251100.000			5.536			-1.107
251200.000			5.535			-1.107
251301.000			5.536			-1.107
251400.000			5.537			-1.107
251500.000			5.536			-1.107
251602.000			5.536			-1.107
251701.000			5.536			-1.107
251801.000			5.535			-1.107
251901.000			5.536			-1.107
252000.000			5.537			-1.107
252100.000			5.536			-1.107
252201.000			5.536			-1.107
252300.000			5.536			-1.107
252400.000			5.536			-1.107
252502.000			5.536			-1.107
252601.000			5.535			-1.107
252702.000			5.535			-1.107
252800.000			5.536			-1.107
252900.000			5.537			-1.107
253001.000			5.536			-1.107
253100.000			5.536			-1.107
253200.000			5.535			-1.107
253301.000			5.534			-1.107
253400.000			5.535			-1.107
253501.000			5.535			-1.107
253602.000			5.536			-1.107
253700.000			5.535			-1.107
253800.000			5.534			-1.107
253901.000			5.535			-1.107
254000.000			5.535			-1.107
254100.000			5.535			-1.107
254201.000			5.535			-1.107
254300.000			5.535			-1.107
254401.000			5.534			-1.107
254502.000			5.534			-1.107
254600.000			5.535			-1.107
254700.000			5.535			-1.107
254801.000			5.534			-1.107
254900.000			5.533			-1.107
255000.000			5.534			-1.107
255101.000			5.535			-1.107
255200.000			5.535			-1.107
255301.000			5.534			-1.107
255402.000			5.534			-1.107
255501.000			5.534			-1.107
255600.000			5.533			-1.107
255701.000			5.534			-1.107
255800.000			5.534			-1.107
255901.000			5.534			-1.107
256000.000			5.534			-1.107
256100.000			5.534			-1.107
256201.000			5.535			-1.107
256301.000			5.533			-1.107
256401.000			5.534			-1.107
256501.000			5.533			-1.107
256600.000			5.533			-1.107
256700.000			5.533			-1.107
256801.000			5.534			-1.107
256900.000			5.534			-1.107
257000.000			5.534			-1.107
257101.000			5.533			-1.107
257201.000			5.532			-1.106
257301.000			5.533			-1.107
257401.000			5.533			-1.107
257500.000			5.533			-1.107
257600.000			5.533			-1.107
257701.000			5.533			-1.107
257800.000			5.533			-1.107
257900.000			5.533			-1.107
258001.000			5.533			-1.107
258101.000			5.533			-1.107
258201.000			5.533			-1.107
258301.000			5.533			-1.107
258400.000			5.533			-1.107
258500.000			5.533			-1.107
258601.000			5.532			-1.106
258700.000			5.531			-1.106
258800.000			5.532			-1.106
258901.000			5.533			-1.107
259001.000			5.533			-1.107
259102.000			5.532			-1.106
259201.000			5.531			-1.106
259300.000			5.531			-1.106
259401.000			5.532			-1.106
259500.000			5.532			-1.106
259600.000			5.531			-1.106
259701.000			5.531			-1.106
259800.000			5.532			-1.106
259900.000			5.531			-1.106
260002.000			5.531			-1.106
260101.000			5.531			-1.106
260200.000			5.531			-1.106
260301.000			5.531			-1.106
260400.000			5.531			-1.106
260500.000			5.531			-1.106
260601.000			5.531			-1.106
260700.000			5.531			-1.106
260800.000			5.531			-1.106
260902.000			5.530			-1.106
261001.000			5.530			-1.106
261100.000			5.531			-1.106
261201.000			5.531			-1.106
261300.000			5.531			-1.106
261400.000			5.530			-1.106
261501.000			5.530			-1.106
261600.000			5.531			-1.106
261701.000			5.531			-1.106
261802.000			5.531			-1.106
261901.000			5.532			-1.106
262000.000			5.532			-1.106
262101.000			5.530			-1.106
262200.000			5.531			-1.106
262301.000			5.531			-1.106
262400.000			5.531			-1.106
262500.000			5.531			-1.106
262602.000			5.530			-1.106
262701.000			5.529			-1.106
262801.000			5.530			-1.106
262901.000			5.530			-1.106
263000.000			5.530			-1.106
263100.000			5.529			-1.106
263201.000			5.529			-1.106
263300.000			5.530			-1.106
263400.000			5.531			-1.106
263502.000			5.531			-1.106
263601.000			5.531			-1.106
263701.000			5.530			-1.106
263801.000			5.529			-1.106
263900.000			5.530			-1.106
264000.000			5.530			-1.106
264101.000			5.529			-1.106
264200.000			5.529			-1.106
264300.000			5.529			-1.106
264401.000			5.529			-1.106
264501.000			5.530			-1.106
264601.000			5.530			-1.106
264701.000			5.529			-1.106
264800.000			5.528			-1.106
264900.000			5.529			-1.106
265001.000			5.529			-1.106
265100.000			5.529			-1.106
265200.000			5.530			-1.106
265301.000			5.529			-1.106
265401.000			5.529			-1.106
265502.000			5.530			-1.106
265601.000			5.529			-1.106
265700.000			5.528			-1.106
265801.000			5.529			-1.106
265900.000			5.529			-1.106
266000.000			5.528			-1.106
266101.000			5.529			-1.106
266200.000			5.530			-1.106
266300.000			5.528			-1.106
266402.000			5.528			-1.106
266501.000			5.528			-1.106
266600.000			5.528			-1.106
266701.000			5.527			-1.105
266800.000			5.527			-1.105
266900.000			5.527			-1.105
267001.000			5.526			-1.105
267100.000			5.527			-1.105
267200.000			5.528			-1.106
267302.000			5.528			-1.106
267401.000			5.528			-1.106
267500.000			5.527			-1.105
267601.000			5.527			-1.105
267700.000			5.527			-1.105
267800.000			5.527			-1.105
267901.000			5.527			-1.105
268000.000			5.527			-1.105
268100.000			5.527			-1.105
268202.000			5.526			-1.105
268301.000			5.526			-1.105
268401.000			5.526			-1.105
268501.000			5.527			-1.105
268600.000			5.527			-1.105
268701.000			5.527			-1.105
268800.000			5.527			-1.105
268900.000			5.527			-1.105
269001.000			5.527			-1.105
269100.000			5.527			-1.105
269201.000			5.528			-1.106
269302.000			5.528			-1.106
269400.000			5.526			-1.105
269500.000			5.526			-1.105
269601.000			5.526			-1.105
269700.000			5.526			-1.105
269800.000			5.526			-1.105
269901.000			5.526			-1.105
270000.000			5.527			-1.105
270101.000			5.526			-1.105
270202.000			5.526			-1.105
270301.000			5.526			-1.105
270400.000			5.526			-1.105
270501.000			5.525			-1.105
270600.000			5.526			-1.105
270700.000			5.526			-1.105
270801.000			5.526			-1.105
270900.000			5.526			-1.105
271001.000			5.526			-1.105
271102.000			5.526			-1.105
271201.000			5.526			-1.105
271300.000			5.524			-1.105
271401.000			5.525			-1.105
271500.000			5.526			-1.105
271600.000			5.525			-1.105
271701.000			5.524			-1.105
271800.000			5.525			-1.105
271901.000			5.526			-1.105
272001.000			5.526			-1.105
272101.000			5.526			-1.105
272201.000			5.526			-1.105
272300.000			5.525			-1.105
272400.000			5.525			-1.105
272501.000			5.525			-1.105
272600.000			5.525			-1.105
272700.000			5.525			-1.105
272801.000			5.525			-1.105
272901.000			5.525			-1.105
273001.000			5.525			-1.105
273101.000			5.524			-1.105
273200.000			5.523			-1.105
273300.000			5.524			-1.105
273401.000			5.524			-1.105
273500.000			5.524			-1.105
273600.000			5.525			-1.105
273701.000			5.525			-1.105
273801.000			5.525			-1.105
273901.000			5.524			-1.105
274001.000			5.524			-1.105
274100.000			5.524			-1.105
274200.000			5.524			-1.105
274301.000			5.524			-1.105
274400.000			5.523			-1.105
274500.000			5.523			-1.105
274601.000			5.524			-1.105
274701.000			5.524			-1.105
274801.000			5.524			-1.105
274902.000			5.524			-1.105
275000.000			5.524			-1.105
275101.000			5.525			-1.105
275200.000			5.523			-1.105
275300.000			5.523			-1.105
275401.000			5.523			-1.105
275500.000			5.522			-1.104
275600.000			5.523			-1.105
275702.000			5.523			-1.105
275801.000			5.522			-1.104
275900.000			5.522			-1.104
276001.000			5.523			-1.105
276100.000			5.523			-1.105
276200.000			5.523			-1.105
276301.000			5.523			-1.105
276400.000			5.523			-1.105
276500.000			5.523			-1.105
276602.000			5.522			-1.104
276701.000			5.522			-1.104
276800.000			5.522			-1.104
276901.000			5.523			-1.105
277000.000			5.523			-1.105
277100.000			5.523			-1.105
277201.000			5.522			-1.104
277300.000			5.523			-1.105
277400.000			5.522			-1.104
277502.000			5.522			-1.104
277601.000			5.522			-1.104
277700.000			5.523			-1.105
277801.000			5.523			-1.105
277900.000			5.522			-1.104
278000.000			5.521			-1.104
278101.000			5.521			-1.104
278200.000			5.522			-1.104
278301.000			5.522			-1.104
278401.000			5.521			-1.104
278501.000			5.521			-1.104
278601.000			5.522			-1.104
278700.000			5.522			-1.104
278800.000			5.522			-1.104
278901.000			5.521			-1.104
279000.000			5.522			-1.104
279100.000			5.521			-1.104
279201.000			5.521			-1.104
279301.000			5.521			-1.104
279401.000			5.521			-1.104
279502.000			5.520			-1.104
279600.000			5.521			-1.104
279700.000			5.522			-1.104
279801.000			5.521			-1.104
279900.000			5.520			-1.104
280000.000			5.521			-1.104
280101.000			5.522			-1.104
280200.000			5.521			-1.104
280301.000			5.520			-1.104
280402.000			5.521			-1.104
280500.000			5.521			-1.104
280600.000			5.520			-1.104
280701.000			5.521			-1.104
280800.000			5.521			-1.104
280900.000			5.520			-1.104
281001.000			5.520			-1.104
281100.000			5.520			-1.104
281201.000			5.519			-1.104
281302.000			5.520			-1.104
281400.000			5.521			-1.104
281501.000			5.519			-1.104
281600.000			5.519			-1.104
281700.000			5.520			-1.104
281801.000			5.519			-1.104
281900.000			5.519			-1.104
282000.000			5.519			-1.104
282102.000			5.520			-1.104
282201.000			5.520			-1.104
282300.000			5.519			-1.104
282401.000			5.519			-1.104
282500.000			5.520			-1.104
282600.000			5.519			-1.104
282701.000			5.518			-1.104
282800.000			5.520			-1.104
282900.000			5.519			-1.104
283002.000			5.518			-1.104
283101.000			5.518			-1.104
283201.000			5.518			-1.104
283301.000			5.519			-1.104
283400.000			5.519			-1.104
283500.000			5.519			-1.104
283601.000			5.519			-1.104
283700.000			5.519			-1.104
283800.000			5.518			-1.104
283901.000			5.518			-1.104
284001.000			5.518			-1.104
284101.000			5.518			-1.104
284201.000			5.518			-1.104
284300.000			5.518			-1.104
284400.000			5.518			-1.104
284501.000			5.518			-1.104
284600.000			5.518			-1.104
284701.000			5.518			-1.104
284800.000			5.519			-1.104
284901.000			5.518			-1.104
285002.000			5.518			-1.104
285101.000			5.517			-1.103
285200.000			5.518			-1.104
285301.000			5.518			-1.104
285400.000			5.518			-1.104
285500.000			5.519			-1.104
285601.000			5.519			-1.104
285700.000			5.518			-1.104
285800.000			5.517			-1.103
285902.000			5.517			-1.103
286001.000			5.517			-1.103
286100.000			5.518			-1.104
286201.000			5.518			-1.104
286300.000			5.517			-1.103
286400.000			5.517			-1.103
286501.000			5.518			-1.104
286600.000			5.518			-1.104
286700.000			5.517			-1.103
286802.000			5.518			-1.104
286901.000			5.517			-1.103
287001.000			5.517			-1.103
287101.000			5.516			-1.103
287200.000			5.517			-1.103
287300.000			5.517			-1.103
287401.000			5.517			-1.103
287500.000			5.516			-1.103
287600.000			5.517			-1.103
287702.000			5.517			-1.103
287801.000			5.516			-1.103
287902.000			5.516			-1.103
288000.000			5.516			-1.103
288100.000			5.516			-1.103
288201.000			5.516			-1.103
288300.000			5.516			-1.103
288400.000			5.517			-1.103
288501.000			5.518			-1.104
288600.000			5.517			-1.103
288701.000			5.516			-1.103
288802.000			5.517			-1.103
288901.000			5.517			-1.103
289000.000			5.517			-1.103
289101.000			5.515			-1.103
289200.000			5.516			-1.103
289300.000			5.516			-1.103
289401.000			5.516			-1.103
289500.000			5.517			-1.103
289600.000			5.516			-1.103
289702.000			5.516			-1.103
289801.000			5.516			-1.103
289900.000			5.516			-1.103
290001.000			5.517			-1.103
290100.000			5.515			-1.103
290200.000			5.516			-1.103
290301.000			5.516			-1.103
290400.000			5.516			-1.103
290500.000			5.517			-1.103
290602.000			5.515			-1.103
290701.000			5.515			-1.103
290800.000			5.515			-1.103
290901.000			5.516			-1.103
291000.000			5.516			-1.103
291101.000			5.517			-1.103
291200.000			5.515			-1.103
291300.000			5.514			-1.103
291401.000			5.515			-1.103
291501.000			5.514			-1.103
291601.000			5.514			-1.103
291701.000			5.514			-1.103
291800.000			5.514			-1.103
291900.000			5.514			-1.103
292001.000			5.515			-1.103
292100.000			5.515			-1.103
292200.000			5.515			-1.103
292301.000			5.515			-1.103
292401.000			5.515			-1.103
292501.000			5.514			-1.103
292602.000			5.514			-1.103
292700.000			5.515			-1.103
292800.000			5.514			-1.103
292901.000			5.515			-1.103
293000.000			5.514			-1.103
293100.000			5.514			-1.103
293201.000			5.514			-1.103
293301.000			5.514			-1.103
293401.000			5.514			-1.103
293502.000			5.514			-1.103
293600.000			5.514			-1.103
293700.000			5.515			-1.103
293801.000			5.514			-1.103
293900.000			5.514			-1.103
294000.000			5.514			-1.103
294101.000			5.514			-1.103
294200.000			5.514			-1.103
294302.000			5.514			-1.103
294401.000			5.514			-1.103
294501.000			5.513			-1.103
294601.000			5.514			-1.103
294700.000			5.513			-1.103
294800.000			5.513			-1.103
294901.000			5.513			-1.103
295000.000			5.513			-1.103
295100.000			5.513			-1.103
295202.000			5.514			-1.103
295301.000			5.513			-1.103
295401.000			5.514			-1.103
295501.000			5.512			-1.102
295600.000			5.512			-1.102
295700.000			5.513			-1.103
295801.000			5.514			-1.103
295900.000			5.514			-1.103
296000.000			5.513			-1.103
296102.000			5.512			-1.102
296201.000			5.513			-1.103
296301.000			5.513			-1.103
296401.000			5.513			-1.103
296500.000			5.513			-1.103
296600.000			5.513			-1.103
296701.000			5.513			-1.103
296800.000			5.511			-1.102
296900.000			5.511			-1.102
297001.000			5.512			-1.102
297101.000			5.512			-1.102
297201.000			5.512			-1.102
297301.000			5.512			-1.102
297400.000			5.512			-1.102
297501.000			5.512			-1.102
297600.000			5.512			-1.102
297700.000			5.512			-1.102
297801.000			5.512			-1.102
297900.000			5.512			-1.102
298001.000			5.512			-1.102
298102.000			5.512			-1.102
298201.000			5.512			-1.102
298300.000			5.510			-1.102
298401.000			5.512			-1.102
298500.000			5.511			-1.102
298600.000			5.512			-1.102
298701.000			5.511			-1.102
298800.000			5.512			-1.102
298900.000			5.512			-1.102
299002.000			5.510			-1.102
299101.000			5.511			-1.102
299200.000			5.512			-1.102
299301.000			5.511			-1.102
299400.000			5.511			-1.102
299500.000			5.510			-1.102
299601.000			5.510			-1.102
299700.000			5.511			-1.102
299800.000			5.512			-1.102
299902.000			5.511			-1.102
