# Acquired on 26/01/2024 13:54:20 
# SPIDER: Creep_5mm_HM077x145x38AB-2
# CREEP MEASUREMENT

# time [ms]		force [N]		stiffness [N/mm]
1.000			-17.810			-3.562
105.000			-18.334			-3.667
204.000			-18.462			-3.692
305.000			-18.412			-3.682
404.000			-18.357			-3.671
504.000			-18.281			-3.656
605.000			-18.252			-3.650
704.000			-18.225			-3.645
804.000			-18.201			-3.640
905.000			-18.179			-3.636
1004.000			-18.158			-3.632
1104.000			-18.138			-3.628
1204.000			-18.104			-3.621
1304.000			-18.087			-3.617
1404.000			-18.073			-3.615
1505.000			-18.059			-3.612
1604.000			-18.045			-3.609
1704.000			-18.033			-3.607
1805.000			-18.021			-3.604
1903.000			-17.999			-3.600
2004.000			-17.987			-3.597
2105.000			-17.976			-3.595
2204.000			-17.966			-3.593
2304.000			-17.957			-3.591
2404.000			-17.946			-3.589
2504.000			-17.938			-3.588
2604.000			-17.920			-3.584
2705.000			-17.912			-3.582
2804.000			-17.904			-3.581
2905.000			-17.896			-3.579
3004.000			-17.887			-3.577
3103.000			-17.878			-3.576
3205.000			-17.870			-3.574
3304.000			-17.863			-3.573
3404.000			-17.851			-3.570
3505.000			-17.844			-3.569
3604.000			-17.837			-3.567
3704.000			-17.830			-3.566
3804.000			-17.823			-3.565
3904.000			-17.817			-3.563
4004.000			-17.812			-3.562
4105.000			-17.800			-3.560
4204.000			-17.793			-3.559
4304.000			-17.788			-3.558
4405.000			-17.782			-3.556
4503.000			-17.776			-3.555
4604.000			-17.771			-3.554
4705.000			-17.766			-3.553
4804.000			-17.756			-3.551
4904.000			-17.750			-3.550
5004.000			-17.746			-3.549
5104.000			-17.741			-3.548
5204.000			-17.736			-3.547
5305.000			-17.731			-3.546
5404.000			-17.727			-3.545
5504.000			-17.717			-3.543
5605.000			-17.712			-3.542
5703.000			-17.708			-3.542
5804.000			-17.704			-3.541
5905.000			-17.701			-3.540
6004.000			-17.696			-3.539
6105.000			-17.692			-3.538
6204.000			-17.688			-3.538
6304.000			-17.679			-3.536
6404.000			-17.675			-3.535
6504.000			-17.671			-3.534
6604.000			-17.667			-3.533
6705.000			-17.663			-3.533
6804.000			-17.659			-3.532
6903.000			-17.655			-3.531
7005.000			-17.648			-3.530
7104.000			-17.645			-3.529
7204.000			-17.641			-3.528
7305.000			-17.637			-3.527
7404.000			-17.633			-3.527
7504.000			-17.631			-3.526
7604.000			-17.626			-3.525
7704.000			-17.620			-3.524
7804.000			-17.618			-3.524
7905.000			-17.613			-3.523
8004.000			-17.610			-3.522
8104.000			-17.607			-3.521
8205.000			-17.604			-3.521
8303.000			-17.600			-3.520
8404.000			-17.595			-3.519
8505.000			-17.591			-3.518
8604.000			-17.588			-3.518
8704.000			-17.585			-3.517
8805.000			-17.583			-3.517
8904.000			-17.580			-3.516
9003.000			-17.577			-3.515
9105.000			-17.574			-3.515
9204.000			-17.567			-3.513
9305.000			-17.565			-3.513
9404.000			-17.562			-3.512
9503.000			-17.559			-3.512
9605.000			-17.556			-3.511
9704.000			-17.553			-3.511
9804.000			-17.551			-3.510
9905.000			-17.547			-3.509
10004.000			-17.544			-3.509
10104.000			-17.540			-3.508
10204.000			-17.537			-3.507
10304.000			-17.536			-3.507
10404.000			-17.534			-3.507
10505.000			-17.530			-3.506
10604.000			-17.525			-3.505
10704.000			-17.521			-3.504
10805.000			-17.519			-3.504
10903.000			-17.518			-3.504
11004.000			-17.515			-3.503
11105.000			-17.512			-3.502
11204.000			-17.509			-3.502
11304.000			-17.505			-3.501
11405.000			-17.502			-3.500
11504.000			-17.500			-3.500
11603.000			-17.498			-3.500
11705.000			-17.496			-3.499
11804.000			-17.493			-3.499
11904.000			-17.491			-3.498
12005.000			-17.489			-3.498
12104.000			-17.484			-3.497
12204.000			-17.481			-3.496
12304.000			-17.480			-3.496
12404.000			-17.479			-3.496
12505.000			-17.476			-3.495
12604.000			-17.473			-3.495
12704.000			-17.471			-3.494
12805.000			-17.467			-3.493
12904.000			-17.465			-3.493
13003.000			-17.464			-3.493
13105.000			-17.461			-3.492
13204.000			-17.458			-3.492
13304.000			-17.456			-3.491
13405.000			-17.455			-3.491
13504.000			-17.451			-3.490
13604.000			-17.448			-3.490
13704.000			-17.446			-3.489
13804.000			-17.444			-3.489
13904.000			-17.442			-3.488
14005.000			-17.440			-3.488
14104.000			-17.438			-3.488
14204.000			-17.436			-3.487
14305.000			-17.433			-3.487
14403.000			-17.430			-3.486
14504.000			-17.428			-3.486
14605.000			-17.426			-3.485
14704.000			-17.424			-3.485
14804.000			-17.421			-3.484
14904.000			-17.420			-3.484
15004.000			-17.418			-3.484
15104.000			-17.416			-3.483
15205.000			-17.414			-3.483
15304.000			-17.412			-3.482
15404.000			-17.409			-3.482
15505.000			-17.408			-3.482
15603.000			-17.406			-3.481
15705.000			-17.402			-3.480
15804.000			-17.402			-3.480
15904.000			-17.400			-3.480
16005.000			-17.397			-3.479
16104.000			-17.395			-3.479
16204.000			-17.394			-3.479
16304.000			-17.391			-3.478
16404.000			-17.387			-3.477
16504.000			-17.387			-3.477
16605.000			-17.385			-3.477
16704.000			-17.383			-3.477
16804.000			-17.381			-3.476
16905.000			-17.379			-3.476
17003.000			-17.377			-3.475
17104.000			-17.376			-3.475
17205.000			-17.373			-3.475
17304.000			-17.371			-3.474
17404.000			-17.370			-3.474
17505.000			-17.369			-3.474
17604.000			-17.365			-3.473
17703.000			-17.364			-3.473
17805.000			-17.363			-3.473
17904.000			-17.360			-3.472
18004.000			-17.358			-3.472
18105.000			-17.356			-3.471
18204.000			-17.355			-3.471
18304.000			-17.353			-3.471
18404.000			-17.351			-3.470
18504.000			-17.351			-3.470
18604.000			-17.346			-3.469
18705.000			-17.345			-3.469
18804.000			-17.344			-3.469
18903.000			-17.342			-3.468
19004.000			-17.342			-3.468
19103.000			-17.340			-3.468
19205.000			-17.338			-3.468
19304.000			-17.336			-3.467
19404.000			-17.333			-3.467
19505.000			-17.331			-3.466
19604.000			-17.329			-3.466
19704.000			-17.327			-3.465
19804.000			-17.326			-3.465
19904.000			-17.326			-3.465
20004.000			-17.325			-3.465
20105.000			-17.321			-3.464
20204.000			-17.320			-3.464
20303.000			-17.319			-3.464
20405.000			-17.317			-3.463
20504.000			-17.316			-3.463
20604.000			-17.315			-3.463
20705.000			-17.312			-3.462
20804.000			-17.309			-3.462
20904.000			-17.309			-3.462
21004.000			-17.308			-3.462
21104.000			-17.305			-3.461
21204.000			-17.304			-3.461
21305.000			-17.303			-3.461
21404.000			-17.301			-3.460
21503.000			-17.300			-3.460
21605.000			-17.298			-3.460
21704.000			-17.296			-3.459
21804.000			-17.295			-3.459
21905.000			-17.294			-3.459
22004.000			-17.291			-3.458
22105.000			-17.290			-3.458
22203.000			-17.288			-3.458
22304.000			-17.287			-3.457
22405.000			-17.286			-3.457
22504.000			-17.284			-3.457
22604.000			-17.284			-3.457
22705.000			-17.283			-3.457
22804.000			-17.281			-3.456
22903.000			-17.279			-3.456
23005.000			-17.276			-3.455
23104.000			-17.275			-3.455
23204.000			-17.275			-3.455
23305.000			-17.273			-3.455
23404.000			-17.271			-3.454
23504.000			-17.270			-3.454
23604.000			-17.270			-3.454
23704.000			-17.267			-3.453
23804.000			-17.266			-3.453
23905.000			-17.265			-3.453
24004.000			-17.265			-3.453
24104.000			-17.263			-3.453
24205.000			-17.261			-3.452
24303.000			-17.259			-3.452
24404.000			-17.258			-3.452
24505.000			-17.257			-3.451
24604.000			-17.254			-3.451
24704.000			-17.253			-3.451
24805.000			-17.252			-3.450
24904.000			-17.252			-3.450
25003.000			-17.251			-3.450
25105.000			-17.247			-3.449
25204.000			-17.247			-3.449
25305.000			-17.245			-3.449
25404.000			-17.244			-3.449
25504.000			-17.244			-3.449
25605.000			-17.242			-3.448
25703.000			-17.242			-3.448
25804.000			-17.240			-3.448
25905.000			-17.238			-3.448
26004.000			-17.237			-3.447
26104.000			-17.236			-3.447
26204.000			-17.234			-3.447
26304.000			-17.233			-3.447
26404.000			-17.232			-3.446
26505.000			-17.231			-3.446
26604.000			-17.228			-3.446
26704.000			-17.228			-3.446
26805.000			-17.226			-3.445
26903.000			-17.225			-3.445
27004.000			-17.224			-3.445
27105.000			-17.224			-3.445
27204.000			-17.223			-3.445
27304.000			-17.221			-3.444
27405.000			-17.219			-3.444
27504.000			-17.217			-3.443
27603.000			-17.216			-3.443
27705.000			-17.216			-3.443
27804.000			-17.214			-3.443
27904.000			-17.214			-3.443
28005.000			-17.211			-3.442
28104.000			-17.210			-3.442
28204.000			-17.209			-3.442
28304.000			-17.208			-3.442
28404.000			-17.207			-3.441
28505.000			-17.207			-3.441
28604.000			-17.205			-3.441
28704.000			-17.203			-3.441
28805.000			-17.202			-3.440
28904.000			-17.201			-3.440
29003.000			-17.200			-3.440
29105.000			-17.199			-3.440
29204.000			-17.197			-3.439
29304.000			-17.195			-3.439
29405.000			-17.195			-3.439
29503.000			-17.193			-3.439
29604.000			-17.193			-3.439
29705.000			-17.192			-3.438
29804.000			-17.190			-3.438
29904.000			-17.190			-3.438
30005.000			-17.189			-3.438
30104.000			-17.188			-3.438
30203.000			-17.185			-3.437
30305.000			-17.184			-3.437
30404.000			-17.184			-3.437
30504.000			-17.183			-3.437
30605.000			-17.181			-3.436
30704.000			-17.180			-3.436
30804.000			-17.181			-3.436
30904.000			-17.179			-3.436
31004.000			-17.177			-3.435
31104.000			-17.175			-3.435
31205.000			-17.176			-3.435
31304.000			-17.176			-3.435
31404.000			-17.174			-3.435
31505.000			-17.172			-3.434
31603.000			-17.172			-3.434
31705.000			-17.169			-3.434
31804.000			-17.168			-3.434
31904.000			-17.168			-3.434
32005.000			-17.166			-3.433
32104.000			-17.165			-3.433
32204.000			-17.164			-3.433
32304.000			-17.164			-3.433
32404.000			-17.162			-3.432
32504.000			-17.161			-3.432
32605.000			-17.160			-3.432
32704.000			-17.160			-3.432
32804.000			-17.159			-3.432
32905.000			-17.157			-3.431
33003.000			-17.157			-3.431
33104.000			-17.155			-3.431
33205.000			-17.153			-3.431
33304.000			-17.153			-3.431
33404.000			-17.153			-3.431
33504.000			-17.152			-3.430
33604.000			-17.152			-3.430
33704.000			-17.151			-3.430
33805.000			-17.149			-3.430
33904.000			-17.147			-3.429
34004.000			-17.145			-3.429
34105.000			-17.144			-3.429
34203.000			-17.145			-3.429
34304.000			-17.143			-3.429
34405.000			-17.141			-3.428
34504.000			-17.141			-3.428
34604.000			-17.140			-3.428
34705.000			-17.139			-3.428
34804.000			-17.138			-3.428
34903.000			-17.138			-3.428
35004.000			-17.137			-3.427
35104.000			-17.135			-3.427
35205.000			-17.134			-3.427
35304.000			-17.133			-3.427
35404.000			-17.132			-3.426
35505.000			-17.131			-3.426
35603.000			-17.131			-3.426
35704.000			-17.131			-3.426
35805.000			-17.130			-3.426
35904.000			-17.128			-3.426
36004.000			-17.127			-3.425
36104.000			-17.127			-3.425
36204.000			-17.126			-3.425
36303.000			-17.124			-3.425
36405.000			-17.122			-3.424
36504.000			-17.121			-3.424
36604.000			-17.120			-3.424
36705.000			-17.119			-3.424
36803.000			-17.119			-3.424
36904.000			-17.118			-3.424
37005.000			-17.118			-3.424
37104.000			-17.118			-3.424
37204.000			-17.116			-3.423
37305.000			-17.115			-3.423
37404.000			-17.115			-3.423
37503.000			-17.113			-3.423
37605.000			-17.113			-3.423
37704.000			-17.112			-3.422
37804.000			-17.110			-3.422
37905.000			-17.110			-3.422
38004.000			-17.108			-3.422
38105.000			-17.106			-3.421
38203.000			-17.106			-3.421
38304.000			-17.105			-3.421
38405.000			-17.104			-3.421
38504.000			-17.103			-3.421
38604.000			-17.102			-3.420
38704.000			-17.102			-3.420
38804.000			-17.101			-3.420
38904.000			-17.099			-3.420
39005.000			-17.100			-3.420
39104.000			-17.098			-3.420
39204.000			-17.097			-3.419
39305.000			-17.096			-3.419
39403.000			-17.096			-3.419
39504.000			-17.095			-3.419
39605.000			-17.094			-3.419
39704.000			-17.093			-3.419
39804.000			-17.093			-3.419
39905.000			-17.090			-3.418
40004.000			-17.090			-3.418
40103.000			-17.089			-3.418
40205.000			-17.089			-3.418
40304.000			-17.088			-3.418
40404.000			-17.086			-3.417
40505.000			-17.085			-3.417
40604.000			-17.084			-3.417
40704.000			-17.083			-3.417
40804.000			-17.084			-3.417
40904.000			-17.082			-3.416
41004.000			-17.082			-3.416
41105.000			-17.081			-3.416
41204.000			-17.080			-3.416
41305.000			-17.079			-3.416
41404.000			-17.078			-3.416
41503.000			-17.076			-3.415
41605.000			-17.076			-3.415
41704.000			-17.075			-3.415
41804.000			-17.075			-3.415
41905.000			-17.073			-3.415
42004.000			-17.073			-3.415
42104.000			-17.072			-3.414
42204.000			-17.071			-3.414
42304.000			-17.071			-3.414
42404.000			-17.070			-3.414
42505.000			-17.070			-3.414
42604.000			-17.068			-3.414
42703.000			-17.067			-3.413
42805.000			-17.066			-3.413
42904.000			-17.066			-3.413
43004.000			-17.065			-3.413
43105.000			-17.064			-3.413
43204.000			-17.064			-3.413
43304.000			-17.062			-3.412
43404.000			-17.062			-3.412
43504.000			-17.061			-3.412
43604.000			-17.059			-3.412
43705.000			-17.060			-3.412
43804.000			-17.059			-3.412
43904.000			-17.059			-3.412
44005.000			-17.057			-3.411
44103.000			-17.056			-3.411
44204.000			-17.055			-3.411
44305.000			-17.054			-3.411
44404.000			-17.055			-3.411
44505.000			-17.054			-3.411
44604.000			-17.053			-3.411
44704.000			-17.052			-3.410
44804.000			-17.050			-3.410
44904.000			-17.049			-3.410
45004.000			-17.049			-3.410
45105.000			-17.049			-3.410
45204.000			-17.048			-3.410
45304.000			-17.047			-3.409
45405.000			-17.045			-3.409
45503.000			-17.045			-3.409
45604.000			-17.044			-3.409
45705.000			-17.044			-3.409
45804.000			-17.043			-3.409
45904.000			-17.041			-3.408
46004.000			-17.041			-3.408
46104.000			-17.040			-3.408
46204.000			-17.040			-3.408
46305.000			-17.039			-3.408
46404.000			-17.038			-3.408
46504.000			-17.038			-3.408
46605.000			-17.037			-3.407
46703.000			-17.035			-3.407
46804.000			-17.034			-3.407
46905.000			-17.035			-3.407
47004.000			-17.034			-3.407
47104.000			-17.033			-3.407
47205.000			-17.032			-3.406
47304.000			-17.031			-3.406
47403.000			-17.031			-3.406
47505.000			-17.031			-3.406
47604.000			-17.030			-3.406
47705.000			-17.028			-3.406
47804.000			-17.027			-3.405
47904.000			-17.027			-3.405
48005.000			-17.027			-3.405
48103.000			-17.026			-3.405
48204.000			-17.025			-3.405
48305.000			-17.024			-3.405
48404.000			-17.023			-3.405
48504.000			-17.023			-3.405
48604.000			-17.023			-3.405
48704.000			-17.022			-3.404
48803.000			-17.022			-3.404
48905.000			-17.021			-3.404
49004.000			-17.019			-3.404
49104.000			-17.017			-3.403
49205.000			-17.017			-3.403
49303.000			-17.017			-3.403
49404.000			-17.016			-3.403
49505.000			-17.015			-3.403
49604.000			-17.014			-3.403
49704.000			-17.014			-3.403
49805.000			-17.012			-3.402
49904.000			-17.013			-3.403
50003.000			-17.012			-3.402
50105.000			-17.010			-3.402
50204.000			-17.010			-3.402
50304.000			-17.009			-3.402
50405.000			-17.009			-3.402
50504.000			-17.008			-3.402
50604.000			-17.006			-3.401
50704.000			-17.006			-3.401
50804.000			-17.007			-3.401
50905.000			-17.006			-3.401
51004.000			-17.005			-3.401
51104.000			-17.004			-3.401
51204.000			-17.003			-3.401
51304.000			-17.003			-3.401
51404.000			-17.002			-3.400
51505.000			-17.001			-3.400
51604.000			-17.000			-3.400
51704.000			-16.999			-3.400
51805.000			-16.998			-3.400
51903.000			-16.998			-3.400
52004.000			-16.998			-3.400
52105.000			-16.996			-3.399
52204.000			-16.995			-3.399
52304.000			-16.994			-3.399
52405.000			-16.995			-3.399
52504.000			-16.994			-3.399
52603.000			-16.994			-3.399
52705.000			-16.992			-3.398
52803.000			-16.992			-3.398
52904.000			-16.992			-3.398
53005.000			-16.991			-3.398
53104.000			-16.990			-3.398
53204.000			-16.989			-3.398
53304.000			-16.989			-3.398
53404.000			-16.988			-3.398
53503.000			-16.987			-3.397
53605.000			-16.986			-3.397
53704.000			-16.986			-3.397
53804.000			-16.986			-3.397
53905.000			-16.986			-3.397
54004.000			-16.985			-3.397
54105.000			-16.984			-3.397
54203.000			-16.983			-3.397
54304.000			-16.984			-3.397
54405.000			-16.983			-3.397
54504.000			-16.982			-3.396
54604.000			-16.981			-3.396
54705.000			-16.980			-3.396
54804.000			-16.980			-3.396
54903.000			-16.978			-3.396
55005.000			-16.977			-3.395
55104.000			-16.977			-3.395
55204.000			-16.977			-3.395
55305.000			-16.975			-3.395
55404.000			-16.977			-3.395
55504.000			-16.976			-3.395
55604.000			-16.975			-3.395
55704.000			-16.974			-3.395
55804.000			-16.973			-3.395
55905.000			-16.972			-3.394
56004.000			-16.971			-3.394
56104.000			-16.970			-3.394
56205.000			-16.970			-3.394
56303.000			-16.969			-3.394
56404.000			-16.969			-3.394
56505.000			-16.969			-3.394
56604.000			-16.968			-3.394
56704.000			-16.967			-3.393
56805.000			-16.966			-3.393
56904.000			-16.967			-3.393
57003.000			-16.966			-3.393
57105.000			-16.964			-3.393
57204.000			-16.964			-3.393
57305.000			-16.964			-3.393
57404.000			-16.963			-3.393
57504.000			-16.962			-3.392
57605.000			-16.962			-3.392
57703.000			-16.962			-3.392
57804.000			-16.961			-3.392
57905.000			-16.960			-3.392
58004.000			-16.958			-3.392
58104.000			-16.959			-3.392
58205.000			-16.958			-3.392
58304.000			-16.958			-3.392
58403.000			-16.958			-3.392
58505.000			-16.957			-3.391
58604.000			-16.955			-3.391
58704.000			-16.954			-3.391
58805.000			-16.954			-3.391
58904.000			-16.953			-3.391
59004.000			-16.953			-3.391
59104.000			-16.953			-3.391
59204.000			-16.952			-3.390
59304.000			-16.951			-3.390
59405.000			-16.949			-3.390
59504.000			-16.949			-3.390
59604.000			-16.949			-3.390
59705.000			-16.948			-3.390
59803.000			-16.948			-3.390
59904.000			-16.948			-3.390
60005.000			-16.947			-3.389
60104.000			-16.946			-3.389
60204.000			-16.945			-3.389
60305.000			-16.944			-3.389
60404.000			-16.944			-3.389
60503.000			-16.944			-3.389
60604.000			-16.944			-3.389
60704.000			-16.942			-3.388
60805.000			-16.943			-3.389
60904.000			-16.942			-3.388
61004.000			-16.941			-3.388
61105.000			-16.940			-3.388
61203.000			-16.940			-3.388
61304.000			-16.939			-3.388
61405.000			-16.939			-3.388
61504.000			-16.937			-3.387
61604.000			-16.936			-3.387
61705.000			-16.935			-3.387
61804.000			-16.935			-3.387
61903.000			-16.936			-3.387
62005.000			-16.935			-3.387
62104.000			-16.935			-3.387
62204.000			-16.934			-3.387
62305.000			-16.933			-3.387
62404.000			-16.933			-3.387
62504.000			-16.932			-3.386
62604.000			-16.931			-3.386
62704.000			-16.932			-3.386
62804.000			-16.931			-3.386
62905.000			-16.930			-3.386
63004.000			-16.929			-3.386
63104.000			-16.929			-3.386
63205.000			-16.929			-3.386
63303.000			-16.928			-3.386
63404.000			-16.926			-3.385
63505.000			-16.926			-3.385
63604.000			-16.926			-3.385
63705.000			-16.925			-3.385
63804.000			-16.924			-3.385
63904.000			-16.923			-3.385
64004.000			-16.923			-3.385
64104.000			-16.923			-3.385
64204.000			-16.923			-3.385
64305.000			-16.923			-3.385
64404.000			-16.921			-3.384
64504.000			-16.920			-3.384
64605.000			-16.920			-3.384
64703.000			-16.919			-3.384
64804.000			-16.919			-3.384
64905.000			-16.918			-3.384
65004.000			-16.918			-3.384
65104.000			-16.916			-3.383
65205.000			-16.916			-3.383
65304.000			-16.916			-3.383
65403.000			-16.916			-3.383
65505.000			-16.915			-3.383
65604.000			-16.915			-3.383
65704.000			-16.915			-3.383
65805.000			-16.914			-3.383
65904.000			-16.914			-3.383
66004.000			-16.913			-3.383
66104.000			-16.912			-3.382
66204.000			-16.912			-3.382
66304.000			-16.912			-3.382
66405.000			-16.911			-3.382
66504.000			-16.910			-3.382
66604.000			-16.909			-3.382
66705.000			-16.909			-3.382
66803.000			-16.909			-3.382
66905.000			-16.908			-3.382
67004.000			-16.908			-3.382
67104.000			-16.908			-3.382
67205.000			-16.907			-3.381
67304.000			-16.906			-3.381
67404.000			-16.905			-3.381
67504.000			-16.903			-3.381
67604.000			-16.904			-3.381
67704.000			-16.904			-3.381
67805.000			-16.903			-3.381
67904.000			-16.903			-3.381
68004.000			-16.903			-3.381
68105.000			-16.903			-3.381
68203.000			-16.901			-3.380
68304.000			-16.900			-3.380
68405.000			-16.899			-3.380
68504.000			-16.900			-3.380
68604.000			-16.899			-3.380
68705.000			-16.898			-3.380
68804.000			-16.897			-3.379
68903.000			-16.896			-3.379
69005.000			-16.896			-3.379
69103.000			-16.897			-3.379
69204.000			-16.897			-3.379
69305.000			-16.896			-3.379
69404.000			-16.894			-3.379
69504.000			-16.894			-3.379
69605.000			-16.894			-3.379
69704.000			-16.893			-3.379
69803.000			-16.893			-3.379
69905.000			-16.892			-3.378
70004.000			-16.892			-3.378
70105.000			-16.892			-3.378
70204.000			-16.890			-3.378
70304.000			-16.890			-3.378
70405.000			-16.889			-3.378
70503.000			-16.889			-3.378
70604.000			-16.889			-3.378
70705.000			-16.888			-3.378
70804.000			-16.888			-3.378
70904.000			-16.887			-3.377
71005.000			-16.886			-3.377
71104.000			-16.885			-3.377
71203.000			-16.885			-3.377
71305.000			-16.885			-3.377
71404.000			-16.884			-3.377
71504.000			-16.883			-3.377
71605.000			-16.885			-3.377
71704.000			-16.883			-3.377
71804.000			-16.883			-3.377
71904.000			-16.882			-3.376
72004.000			-16.883			-3.377
72104.000			-16.881			-3.376
72205.000			-16.880			-3.376
72304.000			16.993			3.399
72404.000			136.262			27.252
72505.000			-16.878			-3.376
72603.000			-16.878			-3.376
72704.000			-16.878			-3.376
72805.000			-16.878			-3.376
72904.000			-16.878			-3.376
73004.000			-16.877			-3.375
73105.000			-16.877			-3.375
73204.000			-16.875			-3.375
73303.000			-16.875			-3.375
73404.000			-16.875			-3.375
73504.000			-16.875			-3.375
73605.000			-16.875			-3.375
73704.000			-16.874			-3.375
73804.000			-16.871			-3.374
73905.000			-16.871			-3.374
74003.000			-16.871			-3.374
74104.000			-16.871			-3.374
74205.000			-16.870			-3.374
74304.000			-16.869			-3.374
74404.000			-16.869			-3.374
74505.000			-16.869			-3.374
74604.000			-16.868			-3.374
74703.000			-16.867			-3.373
74805.000			-16.867			-3.373
74903.000			-16.867			-3.373
75004.000			-16.867			-3.373
75105.000			-16.866			-3.373
75204.000			-16.866			-3.373
75304.000			-16.863			-3.373
75405.000			-16.863			-3.373
75504.000			-16.864			-3.373
75603.000			-16.863			-3.373
75705.000			-16.863			-3.373
75804.000			-16.862			-3.372
75904.000			-16.861			-3.372
76005.000			-16.861			-3.372
76104.000			-16.861			-3.372
76204.000			-16.861			-3.372
76304.000			-16.861			-3.372
76404.000			-16.860			-3.372
76505.000			-16.859			-3.372
76604.000			-16.859			-3.372
76704.000			-16.858			-3.372
76805.000			-16.857			-3.371
76904.000			-16.857			-3.371
77003.000			-16.857			-3.371
77105.000			-16.857			-3.371
77204.000			-16.857			-3.371
77304.000			-16.856			-3.371
77405.000			-16.855			-3.371
77504.000			-16.854			-3.371
77604.000			-16.853			-3.371
77704.000			-16.852			-3.370
77804.000			-16.852			-3.370
77904.000			-16.853			-3.371
78005.000			-16.853			-3.371
78104.000			-16.851			-3.370
78204.000			-16.851			-3.370
78305.000			-16.850			-3.370
78403.000			-16.851			-3.370
78504.000			-16.851			-3.370
78605.000			-16.849			-3.370
78704.000			-16.849			-3.370
78804.000			-16.849			-3.370
78905.000			-16.848			-3.370
79004.000			-16.847			-3.369
79104.000			-16.845			-3.369
79205.000			-16.846			-3.369
79303.000			-16.847			-3.369
79404.000			-16.846			-3.369
79505.000			-16.845			-3.369
79604.000			-16.844			-3.369
79705.000			-16.844			-3.369
79804.000			-16.842			-3.368
79904.000			-16.843			-3.369
80004.000			-16.843			-3.369
80104.000			-16.842			-3.368
80204.000			-16.842			-3.368
80305.000			-16.841			-3.368
80404.000			-16.840			-3.368
80504.000			-16.839			-3.368
80605.000			-16.840			-3.368
80703.000			-16.839			-3.368
80804.000			-16.839			-3.368
80905.000			-16.839			-3.368
81004.000			-16.838			-3.368
81104.000			-16.838			-3.368
81205.000			-16.837			-3.367
81304.000			-16.836			-3.367
81403.000			-16.835			-3.367
81505.000			-16.834			-3.367
81604.000			-16.835			-3.367
81704.000			-16.835			-3.367
81805.000			-16.834			-3.367
81904.000			-16.834			-3.367
82004.000			-16.833			-3.367
82104.000			-16.834			-3.367
82204.000			-16.833			-3.367
82304.000			-16.832			-3.366
82405.000			-16.831			-3.366
82504.000			-16.830			-3.366
82604.000			-16.829			-3.366
82705.000			-16.830			-3.366
82803.000			-16.830			-3.366
82905.000			-16.830			-3.366
83004.000			-16.830			-3.366
83104.000			-16.829			-3.366
83205.000			-16.828			-3.366
83304.000			-16.828			-3.366
83404.000			-16.828			-3.366
83504.000			-16.827			-3.365
83604.000			-16.827			-3.365
83704.000			-16.827			-3.365
83805.000			-16.827			-3.365
83904.000			-16.825			-3.365
84004.000			-16.824			-3.365
84105.000			-16.823			-3.365
84203.000			-16.823			-3.365
84304.000			-16.822			-3.364
84405.000			-16.824			-3.365
84504.000			-16.824			-3.365
84604.000			-16.823			-3.365
84705.000			-16.821			-3.364
84804.000			-16.822			-3.364
84903.000			-16.822			-3.364
85005.000			-16.821			-3.364
85104.000			-16.821			-3.364
85204.000			-16.820			-3.364
85305.000			-16.819			-3.364
85404.000			-16.818			-3.364
85504.000			-16.817			-3.363
85604.000			-16.817			-3.363
85704.000			-16.817			-3.363
85803.000			-16.817			-3.363
85905.000			-16.817			-3.363
86004.000			-16.817			-3.363
86105.000			-16.816			-3.363
86204.000			-16.815			-3.363
86304.000			-16.816			-3.363
86405.000			-16.815			-3.363
86503.000			-16.813			-3.363
86604.000			-16.813			-3.363
86705.000			-16.813			-3.363
86804.000			-16.813			-3.363
86904.000			-16.811			-3.362
87005.000			-16.810			-3.362
87104.000			-16.811			-3.362
87203.000			-16.811			-3.362
87305.000			-16.810			-3.362
87404.000			-16.809			-3.362
87504.000			-16.809			-3.362
87605.000			-16.809			-3.362
87704.000			-16.809			-3.362
87804.000			-16.809			-3.362
87904.000			-16.808			-3.362
88004.000			-16.806			-3.361
88104.000			-16.807			-3.361
88205.000			-16.808			-3.362
88304.000			-16.805			-3.361
88404.000			-16.805			-3.361
88505.000			-16.805			-3.361
88603.000			-16.805			-3.361
88704.000			-16.805			-3.361
88805.000			-16.805			-3.361
88904.000			-16.804			-3.361
89004.000			-16.803			-3.361
89105.000			-16.802			-3.360
89204.000			-16.802			-3.360
89303.000			-16.802			-3.360
89404.000			-16.801			-3.360
89504.000			-16.801			-3.360
89605.000			-16.801			-3.360
89704.000			-16.801			-3.360
89804.000			-16.800			-3.360
89905.000			-16.799			-3.360
90003.000			-16.799			-3.360
90104.000			-16.799			-3.360
90205.000			-16.798			-3.360
90304.000			-16.796			-3.359
90404.000			-16.797			-3.359
90505.000			-16.796			-3.359
90604.000			-16.797			-3.359
90703.000			-16.796			-3.359
90805.000			-16.795			-3.359
90904.000			-16.795			-3.359
91004.000			-16.796			-3.359
91105.000			-16.795			-3.359
91204.000			-16.794			-3.359
91304.000			-16.793			-3.359
91405.000			-16.792			-3.358
91504.000			-16.792			-3.358
91603.000			-16.791			-3.358
91705.000			-16.791			-3.358
91804.000			-16.791			-3.358
91904.000			-16.790			-3.358
92005.000			-16.790			-3.358
92104.000			-16.790			-3.358
92204.000			-16.789			-3.358
92304.000			-16.789			-3.358
92404.000			-16.788			-3.358
92505.000			-16.788			-3.358
92604.000			-16.788			-3.358
92704.000			-16.787			-3.357
92805.000			-16.788			-3.358
92904.000			-16.786			-3.357
93003.000			-16.786			-3.357
93105.000			-16.785			-3.357
93204.000			-16.785			-3.357
93304.000			-16.786			-3.357
93405.000			-16.784			-3.357
93504.000			-16.784			-3.357
93604.000			-16.785			-3.357
93704.000			-16.783			-3.357
93804.000			-16.783			-3.357
93904.000			-16.783			-3.357
94005.000			-16.782			-3.356
94104.000			-16.782			-3.356
94204.000			-16.782			-3.356
94305.000			-16.781			-3.356
94404.000			-16.780			-3.356
94504.000			-16.780			-3.356
94604.000			-16.780			-3.356
94704.000			-16.780			-3.356
94804.000			-16.779			-3.356
94905.000			-16.778			-3.356
95004.000			-16.778			-3.356
95104.000			-16.778			-3.356
95205.000			-16.777			-3.355
95303.000			-16.777			-3.355
95404.000			-16.778			-3.356
95505.000			-16.777			-3.355
95604.000			-16.777			-3.355
95705.000			-16.775			-3.355
95804.000			-16.775			-3.355
95904.000			-16.775			-3.355
96004.000			-16.774			-3.355
96104.000			-16.774			-3.355
96204.000			-16.775			-3.355
96305.000			-16.773			-3.355
96404.000			-16.773			-3.355
96504.000			-16.773			-3.355
96605.000			-16.773			-3.355
96703.000			-16.772			-3.354
96804.000			-16.771			-3.354
96904.000			-16.771			-3.354
97004.000			-16.771			-3.354
97104.000			-16.770			-3.354
97205.000			-16.771			-3.354
97304.000			-16.770			-3.354
97404.000			-16.769			-3.354
97505.000			-16.769			-3.354
97603.000			-16.769			-3.354
97704.000			-16.769			-3.354
97805.000			-16.767			-3.353
97904.000			-16.766			-3.353
98004.000			-16.767			-3.353
98105.000			-16.766			-3.353
98204.000			-16.766			-3.353
98303.000			-16.765			-3.353
98405.000			-16.765			-3.353
98504.000			-16.764			-3.353
98604.000			-16.764			-3.353
98705.000			-16.764			-3.353
98804.000			-16.763			-3.353
98905.000			-16.763			-3.353
99003.000			-16.763			-3.353
99104.000			-16.763			-3.353
99205.000			-16.763			-3.353
99304.000			-16.762			-3.352
99404.000			-16.761			-3.352
99505.000			-16.761			-3.352
99604.000			-16.760			-3.352
99703.000			-16.761			-3.352
99805.000			-16.761			-3.352
99903.000			-16.760			-3.352
100004.000			-16.759			-3.352
100105.000			-16.758			-3.352
100204.000			-16.758			-3.352
100304.000			-16.758			-3.352
100405.000			-16.758			-3.352
100504.000			-16.758			-3.352
100603.000			-16.756			-3.351
100705.000			-16.756			-3.351
100804.000			-16.756			-3.351
100904.000			-16.755			-3.351
101005.000			-16.754			-3.351
101104.000			-16.753			-3.351
101204.000			-16.753			-3.351
101304.000			-16.752			-3.350
101404.000			-16.752			-3.350
101504.000			-16.751			-3.350
101605.000			-16.750			-3.350
101704.000			-16.750			-3.350
101804.000			-16.750			-3.350
101905.000			-16.749			-3.350
102003.000			-16.749			-3.350
102105.000			-16.747			-3.349
102204.000			-16.747			-3.349
102304.000			-16.747			-3.349
102405.000			-16.747			-3.349
102504.000			-16.747			-3.349
102604.000			-16.746			-3.349
102704.000			-16.746			-3.349
102804.000			-16.746			-3.349
102904.000			-16.745			-3.349
103005.000			-16.745			-3.349
103104.000			-16.745			-3.349
103204.000			-16.744			-3.349
103305.000			-16.744			-3.349
103403.000			-16.743			-3.349
103504.000			-16.742			-3.348
103604.000			-16.743			-3.349
103704.000			-16.743			-3.349
103804.000			-16.743			-3.349
103905.000			-16.742			-3.348
104004.000			-16.742			-3.348
104104.000			-16.742			-3.348
104205.000			-16.741			-3.348
104303.000			-16.741			-3.348
104404.000			-16.741			-3.348
104505.000			-16.741			-3.348
104604.000			-16.741			-3.348
104704.000			-16.740			-3.348
104805.000			-16.741			-3.348
104904.000			-16.740			-3.348
105003.000			-16.738			-3.348
105105.000			-16.738			-3.348
105204.000			-16.738			-3.348
105305.000			-16.739			-3.348
105404.000			-16.738			-3.348
105504.000			-16.737			-3.347
105605.000			-16.736			-3.347
105703.000			-16.737			-3.347
105804.000			-16.737			-3.347
105905.000			-16.737			-3.347
106004.000			-16.736			-3.347
106104.000			-16.737			-3.347
106205.000			-16.736			-3.347
106304.000			-16.735			-3.347
106404.000			-16.734			-3.347
106505.000			-16.735			-3.347
106603.000			-16.734			-3.347
106704.000			-16.734			-3.347
106805.000			-16.734			-3.347
106904.000			-16.733			-3.347
107004.000			-16.732			-3.346
107105.000			-16.731			-3.346
107204.000			-16.731			-3.346
107303.000			-16.731			-3.346
107405.000			-16.731			-3.346
107504.000			-16.731			-3.346
107604.000			-16.730			-3.346
107705.000			-16.729			-3.346
107804.000			-16.728			-3.346
107904.000			-16.728			-3.346
108004.000			-16.727			-3.345
108104.000			-16.727			-3.345
108204.000			-16.726			-3.345
108305.000			-16.725			-3.345
108404.000			-16.725			-3.345
108505.000			-16.725			-3.345
108604.000			-16.723			-3.345
108703.000			-16.723			-3.345
108805.000			-16.724			-3.345
108904.000			-16.724			-3.345
109004.000			-16.724			-3.345
109105.000			-16.723			-3.345
109204.000			-16.723			-3.345
109304.000			-16.722			-3.344
109404.000			-16.722			-3.344
109504.000			-16.721			-3.344
109603.000			-16.721			-3.344
109705.000			-16.720			-3.344
109804.000			-16.720			-3.344
109904.000			-16.721			-3.344
110005.000			-16.720			-3.344
110104.000			-16.720			-3.344
110204.000			-16.719			-3.344
110304.000			-16.719			-3.344
110404.000			-16.718			-3.344
110504.000			-16.718			-3.344
110605.000			-16.719			-3.344
110704.000			-16.718			-3.344
110804.000			-16.718			-3.344
110905.000			-16.717			-3.343
111003.000			-16.717			-3.343
111104.000			-16.717			-3.343
111205.000			-16.717			-3.343
111304.000			-16.717			-3.343
111404.000			-16.718			-3.344
111505.000			-16.717			-3.343
111604.000			-16.716			-3.343
111703.000			-16.716			-3.343
111804.000			-16.716			-3.343
111904.000			-16.717			-3.343
112005.000			-16.715			-3.343
112104.000			-16.714			-3.343
112204.000			-16.715			-3.343
112305.000			-16.715			-3.343
112403.000			-16.715			-3.343
112504.000			-16.714			-3.343
112605.000			-16.713			-3.343
112704.000			-16.713			-3.343
112804.000			-16.713			-3.343
112905.000			-16.713			-3.343
113004.000			-16.713			-3.343
113103.000			-16.712			-3.342
113205.000			-16.712			-3.342
113304.000			-16.711			-3.342
113404.000			-16.711			-3.342
113505.000			-16.711			-3.342
113604.000			-16.710			-3.342
113704.000			-16.711			-3.342
113804.000			-16.711			-3.342
113904.000			-16.710			-3.342
114004.000			-16.710			-3.342
114105.000			-16.710			-3.342
114204.000			-16.709			-3.342
114304.000			-16.710			-3.342
114405.000			-16.710			-3.342
114503.000			-16.710			-3.342
114604.000			-16.709			-3.342
114705.000			-16.708			-3.342
114804.000			-16.707			-3.341
114905.000			-16.707			-3.341
115004.000			-16.706			-3.341
115104.000			-16.707			-3.341
115205.000			-16.707			-3.341
115304.000			-16.706			-3.341
115403.000			-16.705			-3.341
115505.000			-16.706			-3.341
115604.000			-16.706			-3.341
115704.000			-16.705			-3.341
115805.000			-16.704			-3.341
115904.000			-16.704			-3.341
116004.000			-16.703			-3.341
116104.000			-16.704			-3.341
116204.000			-16.703			-3.341
116304.000			-16.703			-3.341
116405.000			-16.703			-3.341
116504.000			-16.703			-3.341
116604.000			-16.701			-3.340
116705.000			-16.701			-3.340
116803.000			-16.701			-3.340
116904.000			-16.701			-3.340
117005.000			-16.700			-3.340
117104.000			-16.700			-3.340
117204.000			-16.700			-3.340
117305.000			-16.699			-3.340
117404.000			-16.699			-3.340
117503.000			-16.699			-3.340
117605.000			-16.698			-3.340
117704.000			-16.699			-3.340
117804.000			-16.698			-3.340
117905.000			-16.698			-3.340
118004.000			-16.697			-3.339
118105.000			-16.697			-3.339
118204.000			-16.697			-3.339
118304.000			-16.696			-3.339
118404.000			-16.695			-3.339
118504.000			-16.696			-3.339
118604.000			-16.696			-3.339
118705.000			-16.695			-3.339
118804.000			-16.693			-3.339
118904.000			-16.693			-3.339
119005.000			-16.694			-3.339
119103.000			-16.694			-3.339
119204.000			-16.693			-3.339
119305.000			-16.693			-3.339
119404.000			-16.692			-3.338
119504.000			-16.692			-3.338
119605.000			-16.692			-3.338
119704.000			-16.692			-3.338
119804.000			-16.691			-3.338
119905.000			-16.690			-3.338
120003.000			-16.691			-3.338
120104.000			-16.691			-3.338
120205.000			-16.690			-3.338
120304.000			-16.690			-3.338
120404.000			-16.690			-3.338
120505.000			-16.690			-3.338
120604.000			-16.689			-3.338
120703.000			-16.688			-3.338
120805.000			-16.689			-3.338
120904.000			-16.689			-3.338
121004.000			-16.688			-3.338
121105.000			-16.688			-3.337
121204.000			-16.688			-3.338
121305.000			-16.687			-3.337
121403.000			-16.687			-3.337
121504.000			-16.686			-3.337
121605.000			-16.685			-3.337
121704.000			-16.685			-3.337
121804.000			-16.685			-3.337
121905.000			-16.685			-3.337
122004.000			-16.684			-3.337
122104.000			-16.685			-3.337
122205.000			-16.685			-3.337
122303.000			-16.684			-3.337
122404.000			-16.684			-3.337
122505.000			-16.683			-3.337
122604.000			-16.683			-3.337
122704.000			-16.684			-3.337
122805.000			-16.683			-3.337
122904.000			-16.682			-3.336
123003.000			-16.682			-3.336
123105.000			-16.682			-3.336
123204.000			-16.681			-3.336
123304.000			-16.681			-3.336
123405.000			-16.680			-3.336
123504.000			-16.680			-3.336
123604.000			-16.680			-3.336
123704.000			-16.681			-3.336
123804.000			-16.679			-3.336
123904.000			-16.679			-3.336
124005.000			-16.678			-3.336
124104.000			-16.679			-3.336
124204.000			-16.678			-3.336
124305.000			-16.678			-3.336
124404.000			-16.678			-3.336
124505.000			-16.677			-3.335
124603.000			-16.677			-3.335
124704.000			-16.677			-3.335
124805.000			-16.676			-3.335
124904.000			-16.676			-3.335
125004.000			-16.675			-3.335
125105.000			-16.675			-3.335
125204.000			-16.676			-3.335
125303.000			-16.674			-3.335
125405.000			-16.674			-3.335
125504.000			-16.674			-3.335
125604.000			-16.674			-3.335
125705.000			-16.675			-3.335
125804.000			-16.674			-3.335
125904.000			-16.672			-3.334
126004.000			-16.672			-3.334
126104.000			-16.672			-3.334
126204.000			-16.672			-3.334
126305.000			-16.673			-3.335
126404.000			-16.672			-3.334
126504.000			-16.670			-3.334
126605.000			-16.670			-3.334
126704.000			-16.671			-3.334
126804.000			-16.669			-3.334
126904.000			-16.671			-3.334
127004.000			-16.671			-3.334
127104.000			-16.670			-3.334
127205.000			-16.670			-3.334
127304.000			-16.669			-3.334
127404.000			-16.669			-3.334
127505.000			-16.669			-3.334
127603.000			-16.668			-3.334
127705.000			-16.668			-3.334
127804.000			-16.668			-3.334
127904.000			-16.668			-3.334
128005.000			-16.667			-3.333
128104.000			-16.667			-3.333
128204.000			-16.666			-3.333
128305.000			-16.665			-3.333
128404.000			-16.665			-3.333
128503.000			-16.665			-3.333
128605.000			-16.666			-3.333
128704.000			-16.665			-3.333
128804.000			-16.664			-3.333
128905.000			-16.663			-3.333
129004.000			-16.663			-3.333
129104.000			-16.663			-3.333
129204.000			-16.663			-3.333
129304.000			-16.662			-3.332
129404.000			-16.662			-3.332
129505.000			-16.662			-3.332
129604.000			-16.662			-3.332
129704.000			-16.662			-3.332
129805.000			-16.661			-3.332
129904.000			-16.661			-3.332
130004.000			-16.661			-3.332
130104.000			-16.660			-3.332
130204.000			-16.660			-3.332
130304.000			-16.659			-3.332
130405.000			-16.659			-3.332
130504.000			-16.658			-3.332
130604.000			-16.658			-3.332
130705.000			-16.658			-3.332
130803.000			-16.658			-3.332
130905.000			-16.658			-3.332
131004.000			-16.658			-3.332
131104.000			-16.657			-3.331
131205.000			-16.656			-3.331
131304.000			-16.657			-3.331
131404.000			-16.657			-3.331
131504.000			-16.655			-3.331
131604.000			-16.655			-3.331
131703.000			-16.655			-3.331
131805.000			-16.655			-3.331
131904.000			-16.655			-3.331
132004.000			-16.655			-3.331
132105.000			-16.655			-3.331
132204.000			-16.654			-3.331
132304.000			-16.654			-3.331
132404.000			-16.653			-3.331
132504.000			-16.653			-3.331
132603.000			-16.653			-3.331
132705.000			-16.653			-3.331
132804.000			-16.652			-3.330
132904.000			-16.652			-3.330
133005.000			-16.652			-3.330
133104.000			-16.652			-3.330
133204.000			-16.651			-3.330
133304.000			-16.650			-3.330
133404.000			-16.649			-3.330
133504.000			-16.650			-3.330
133605.000			-16.650			-3.330
133704.000			-16.649			-3.330
133804.000			-16.649			-3.330
133905.000			-16.650			-3.330
134004.000			-16.649			-3.330
134105.000			-16.648			-3.330
134203.000			-16.648			-3.330
134304.000			-16.647			-3.329
134405.000			-16.647			-3.329
134504.000			-16.648			-3.330
134604.000			-16.648			-3.330
134705.000			-16.647			-3.329
134804.000			-16.646			-3.329
134904.000			-16.646			-3.329
135005.000			-16.646			-3.329
135103.000			-16.645			-3.329
135204.000			-16.645			-3.329
135305.000			-16.645			-3.329
135404.000			-16.645			-3.329
135504.000			-16.644			-3.329
135605.000			-16.644			-3.329
135704.000			-16.644			-3.329
135804.000			-16.645			-3.329
135905.000			-16.644			-3.329
136003.000			-16.643			-3.329
136104.000			-16.643			-3.329
136205.000			-16.644			-3.329
136304.000			-16.642			-3.328
136404.000			-16.641			-3.328
136505.000			-16.642			-3.328
136604.000			-16.642			-3.328
136704.000			-16.641			-3.328
136805.000			-16.642			-3.328
136903.000			-16.641			-3.328
137004.000			-16.641			-3.328
137105.000			-16.640			-3.328
137204.000			-16.640			-3.328
137305.000			-16.639			-3.328
137404.000			-16.639			-3.328
137504.000			-16.639			-3.328
137605.000			-16.638			-3.328
137704.000			-16.638			-3.328
137803.000			-16.638			-3.328
137905.000			-16.638			-3.328
138004.000			-16.638			-3.328
138104.000			-16.638			-3.328
138205.000			-16.638			-3.328
138304.000			-16.638			-3.328
138404.000			-16.637			-3.327
138505.000			-16.636			-3.327
138604.000			-16.636			-3.327
138703.000			-16.636			-3.327
138805.000			-16.636			-3.327
138904.000			-16.636			-3.327
139004.000			-16.635			-3.327
139105.000			-16.634			-3.327
139204.000			-16.633			-3.327
139304.000			-16.634			-3.327
139405.000			-16.635			-3.327
139504.000			-16.633			-3.327
139603.000			-16.633			-3.327
139705.000			-16.633			-3.327
139804.000			-16.633			-3.327
139904.000			-16.632			-3.326
140005.000			-16.632			-3.326
140104.000			-16.632			-3.326
140204.000			-16.632			-3.326
140305.000			-16.632			-3.326
140404.000			-16.631			-3.326
140503.000			-16.631			-3.326
140604.000			-16.630			-3.326
140704.000			-16.630			-3.326
140805.000			-16.629			-3.326
140904.000			-16.630			-3.326
141004.000			-16.631			-3.326
141105.000			-16.630			-3.326
141204.000			-16.629			-3.326
141304.000			-16.630			-3.326
141404.000			-16.628			-3.326
141504.000			-16.628			-3.326
141604.000			-16.629			-3.326
141705.000			-16.627			-3.325
141804.000			-16.627			-3.325
141904.000			-16.627			-3.325
142005.000			-16.627			-3.325
142103.000			-16.626			-3.325
142204.000			-16.627			-3.325
142304.000			-16.627			-3.325
142404.000			-16.627			-3.325
142504.000			-16.626			-3.325
142605.000			-16.625			-3.325
142704.000			-16.626			-3.325
142804.000			-16.625			-3.325
142905.000			-16.624			-3.325
143003.000			-16.624			-3.325
143104.000			-16.624			-3.325
143205.000			-16.623			-3.325
143304.000			-16.623			-3.325
143404.000			-16.623			-3.325
143505.000			-16.623			-3.325
143604.000			-16.623			-3.325
143705.000			-16.623			-3.325
143804.000			-16.622			-3.324
143903.000			-16.622			-3.324
144005.000			-16.622			-3.324
144104.000			-16.621			-3.324
144204.000			-16.621			-3.324
144305.000			-16.621			-3.324
144404.000			-16.620			-3.324
144504.000			-16.620			-3.324
144605.000			-16.620			-3.324
144704.000			-16.620			-3.324
144803.000			-16.620			-3.324
144905.000			-16.619			-3.324
145004.000			-16.619			-3.324
145104.000			-16.618			-3.324
145205.000			-16.617			-3.323
145304.000			-16.617			-3.323
145404.000			-16.618			-3.324
145505.000			-16.619			-3.324
145604.000			-16.618			-3.324
145703.000			-16.616			-3.323
145805.000			-16.616			-3.323
145904.000			-16.617			-3.323
146004.000			-16.616			-3.323
146105.000			-16.616			-3.323
146204.000			-16.617			-3.323
146304.000			-16.616			-3.323
146405.000			-16.615			-3.323
146504.000			-16.616			-3.323
146603.000			-16.615			-3.323
146705.000			-16.615			-3.323
146804.000			-16.615			-3.323
146905.000			-16.614			-3.323
147004.000			-16.614			-3.323
147104.000			-16.614			-3.323
147205.000			-16.614			-3.323
147304.000			-16.613			-3.323
147404.000			-16.613			-3.323
147504.000			-16.612			-3.322
147604.000			-16.613			-3.323
147704.000			-16.613			-3.323
147805.000			-16.612			-3.322
147904.000			-16.610			-3.322
148004.000			-16.610			-3.322
148105.000			-16.610			-3.322
148204.000			-16.610			-3.322
148304.000			-16.609			-3.322
148404.000			-16.610			-3.322
148504.000			-16.609			-3.322
148604.000			-16.609			-3.322
148705.000			-16.609			-3.322
148804.000			-16.609			-3.322
148904.000			-16.608			-3.322
149005.000			-16.608			-3.322
149104.000			-16.608			-3.322
149204.000			-16.607			-3.321
149304.000			-16.607			-3.321
149404.000			-16.607			-3.321
149504.000			-16.607			-3.321
149605.000			-16.607			-3.321
149704.000			-16.608			-3.322
149804.000			-16.608			-3.322
149905.000			-16.607			-3.321
150004.000			-16.607			-3.321
150105.000			-16.605			-3.321
150203.000			-16.605			-3.321
150304.000			-16.605			-3.321
150405.000			-16.605			-3.321
150504.000			-16.605			-3.321
150604.000			-16.606			-3.321
150705.000			-16.605			-3.321
150804.000			-16.604			-3.321
150904.000			-16.603			-3.321
151005.000			-16.602			-3.320
151103.000			-16.602			-3.320
151204.000			-16.602			-3.320
151305.000			-16.603			-3.321
151404.000			-16.603			-3.321
151504.000			-16.602			-3.320
151605.000			-16.601			-3.320
151704.000			-16.602			-3.320
151803.000			-16.602			-3.320
151905.000			-16.601			-3.320
152003.000			-16.601			-3.320
152104.000			-16.600			-3.320
152205.000			-16.601			-3.320
152304.000			-16.600			-3.320
152404.000			-16.600			-3.320
152505.000			-16.599			-3.320
152604.000			-16.599			-3.320
152703.000			-16.599			-3.320
152805.000			-16.599			-3.320
152903.000			-16.599			-3.320
153004.000			-16.598			-3.320
153105.000			-16.598			-3.320
153204.000			-16.597			-3.319
153305.000			-16.597			-3.319
153404.000			-16.597			-3.319
153504.000			-16.597			-3.319
153604.000			-16.596			-3.319
153704.000			-16.597			-3.319
153803.000			-16.597			-3.319
153905.000			-16.596			-3.319
154004.000			-16.597			-3.319
154104.000			-16.596			-3.319
154205.000			-16.594			-3.319
154304.000			-16.595			-3.319
154404.000			-16.595			-3.319
154505.000			-16.595			-3.319
154604.000			-16.594			-3.319
154703.000			-16.595			-3.319
154805.000			-16.595			-3.319
154904.000			-16.594			-3.319
155004.000			-16.593			-3.319
155105.000			-16.593			-3.319
155204.000			-16.593			-3.319
155304.000			-16.592			-3.318
155405.000			-16.591			-3.318
155504.000			-16.592			-3.318
155603.000			-16.591			-3.318
155705.000			-16.592			-3.318
155804.000			-16.592			-3.318
155904.000			-16.591			-3.318
156005.000			-16.592			-3.318
156104.000			-16.591			-3.318
156204.000			-16.591			-3.318
156305.000			-16.591			-3.318
156404.000			-16.590			-3.318
156503.000			-16.589			-3.318
156604.000			-16.589			-3.318
156703.000			-16.589			-3.318
156805.000			-16.589			-3.318
156904.000			-16.589			-3.318
157004.000			-16.589			-3.318
157105.000			-16.589			-3.318
157204.000			-16.588			-3.318
157304.000			-16.587			-3.317
157405.000			-16.588			-3.318
157504.000			-16.588			-3.318
157603.000			-16.588			-3.318
157705.000			-16.587			-3.317
157804.000			-16.587			-3.317
157904.000			-16.586			-3.317
158005.000			-16.586			-3.317
158104.000			-16.585			-3.317
158204.000			-16.585			-3.317
158305.000			-16.586			-3.317
158404.000			-16.584			-3.317
158503.000			-16.584			-3.317
158605.000			-16.585			-3.317
158703.000			-16.585			-3.317
158804.000			-16.584			-3.317
158905.000			-16.583			-3.317
159004.000			-16.585			-3.317
159104.000			-16.584			-3.317
159205.000			-16.584			-3.317
159304.000			-16.584			-3.317
159404.000			-16.583			-3.317
159505.000			-16.582			-3.316
159603.000			-16.581			-3.316
159705.000			-16.581			-3.316
159804.000			-16.582			-3.316
159904.000			-16.582			-3.316
160005.000			-16.582			-3.316
160104.000			-16.581			-3.316
160204.000			-16.581			-3.316
160305.000			-16.579			-3.316
160404.000			-16.580			-3.316
160503.000			-16.580			-3.316
160605.000			-16.580			-3.316
160704.000			-16.580			-3.316
160804.000			-16.579			-3.316
160905.000			-16.578			-3.316
161004.000			-16.578			-3.316
161104.000			-16.578			-3.316
161205.000			-16.579			-3.316
161304.000			-16.578			-3.316
161403.000			-16.578			-3.316
161505.000			-16.578			-3.316
161604.000			-16.577			-3.315
161704.000			-16.576			-3.315
161805.000			-16.577			-3.315
161904.000			-16.576			-3.315
162004.000			-16.576			-3.315
162105.000			-16.576			-3.315
162204.000			-16.577			-3.315
162303.000			-16.576			-3.315
162405.000			-16.575			-3.315
162503.000			-16.575			-3.315
162604.000			-16.574			-3.315
162705.000			-16.574			-3.315
162804.000			-16.574			-3.315
162905.000			-16.574			-3.315
163004.000			-16.573			-3.315
163104.000			-16.574			-3.315
163204.000			-16.573			-3.315
163304.000			-16.573			-3.315
163403.000			-16.573			-3.315
163505.000			-16.573			-3.315
163604.000			-16.572			-3.314
163704.000			-16.572			-3.314
163805.000			-16.572			-3.314
163904.000			-16.572			-3.314
164004.000			-16.571			-3.314
164104.000			-16.572			-3.314
164204.000			-16.571			-3.314
164303.000			-16.571			-3.314
164405.000			-16.570			-3.314
164504.000			-16.570			-3.314
164604.000			-16.570			-3.314
164705.000			-16.570			-3.314
164804.000			-16.570			-3.314
164904.000			-16.569			-3.314
165004.000			-16.569			-3.314
165104.000			-16.569			-3.314
165203.000			-16.568			-3.314
165305.000			-16.568			-3.314
165404.000			-16.568			-3.314
165504.000			-16.567			-3.313
165605.000			-16.567			-3.313
165704.000			-16.568			-3.314
165804.000			-16.567			-3.313
165905.000			-16.568			-3.314
166004.000			-16.567			-3.313
166103.000			-16.567			-3.313
166204.000			-16.567			-3.313
166304.000			-16.566			-3.313
166405.000			-16.566			-3.313
166504.000			-16.566			-3.313
166604.000			-16.567			-3.313
166705.000			-16.565			-3.313
166804.000			-16.565			-3.313
166904.000			-16.566			-3.313
167004.000			-16.564			-3.313
167104.000			-16.564			-3.313
167203.000			-16.564			-3.313
167305.000			-16.565			-3.313
167404.000			-16.564			-3.313
167504.000			-16.563			-3.313
167605.000			-16.562			-3.312
167704.000			-16.563			-3.313
167804.000			-16.562			-3.312
167905.000			-16.562			-3.312
168004.000			-16.563			-3.313
168103.000			-16.562			-3.312
168205.000			-16.562			-3.312
168304.000			-16.562			-3.312
168404.000			-16.561			-3.312
168505.000			-16.561			-3.312
168604.000			-16.561			-3.312
168704.000			-16.561			-3.312
168805.000			-16.560			-3.312
168904.000			-16.560			-3.312
169003.000			-16.560			-3.312
169105.000			-16.560			-3.312
169204.000			-16.559			-3.312
169305.000			-16.559			-3.312
169404.000			-16.559			-3.312
169504.000			-16.559			-3.312
169605.000			-16.558			-3.312
169704.000			-16.558			-3.312
169804.000			-16.558			-3.312
169904.000			-16.558			-3.312
170004.000			-16.558			-3.312
170103.000			-16.558			-3.312
170205.000			-16.558			-3.312
170304.000			-16.557			-3.311
170404.000			-16.556			-3.311
170505.000			-16.555			-3.311
170604.000			-16.556			-3.311
170704.000			-16.556			-3.311
170804.000			-16.555			-3.311
170904.000			-16.556			-3.311
171003.000			-16.555			-3.311
171105.000			-16.555			-3.311
171204.000			-16.555			-3.311
171304.000			-16.554			-3.311
171405.000			-16.555			-3.311
171504.000			-16.555			-3.311
171604.000			-16.554			-3.311
171704.000			-16.554			-3.311
171804.000			-16.552			-3.310
171903.000			-16.553			-3.311
172005.000			-16.554			-3.311
172104.000			-16.554			-3.311
172204.000			-16.554			-3.311
172305.000			-16.553			-3.311
172404.000			-16.552			-3.310
172505.000			-16.552			-3.310
172603.000			-16.553			-3.311
172704.000			-16.552			-3.310
172805.000			-16.551			-3.310
172904.000			-16.551			-3.310
173004.000			-16.550			-3.310
173105.000			-16.552			-3.310
173204.000			-16.551			-3.310
173304.000			-16.550			-3.310
173405.000			-16.550			-3.310
173503.000			-16.550			-3.310
173604.000			-16.550			-3.310
173705.000			-16.549			-3.310
173804.000			-16.550			-3.310
173904.000			-16.550			-3.310
174005.000			-16.548			-3.310
174104.000			-16.548			-3.310
174204.000			-16.547			-3.309
174305.000			-16.547			-3.309
174403.000			-16.547			-3.309
174504.000			-16.547			-3.309
174605.000			-16.546			-3.309
174704.000			-16.547			-3.309
174804.000			-16.547			-3.309
174905.000			-16.547			-3.309
175004.000			-16.547			-3.309
175104.000			-16.547			-3.309
175205.000			-16.547			-3.309
175303.000			-16.546			-3.309
175404.000			-16.545			-3.309
175504.000			-16.546			-3.309
175604.000			-16.545			-3.309
175705.000			-16.544			-3.309
175804.000			-16.543			-3.309
175904.000			-16.544			-3.309
176005.000			-16.544			-3.309
176104.000			-16.544			-3.309
176203.000			-16.543			-3.309
176305.000			-16.543			-3.309
176404.000			-16.544			-3.309
176504.000			-16.543			-3.309
176605.000			-16.542			-3.308
176704.000			-16.542			-3.308
176804.000			-16.542			-3.308
176905.000			-16.542			-3.308
177004.000			-16.542			-3.308
177103.000			-16.541			-3.308
177205.000			-16.541			-3.308
177303.000			-16.540			-3.308
177404.000			-16.539			-3.308
177505.000			-16.540			-3.308
177604.000			-16.539			-3.308
177704.000			-16.539			-3.308
177805.000			-16.538			-3.308
177904.000			-16.538			-3.308
178004.000			-16.537			-3.307
178105.000			-16.539			-3.308
178203.000			-16.539			-3.308
178304.000			-16.539			-3.308
178405.000			-16.538			-3.308
178504.000			-16.536			-3.307
178604.000			-16.537			-3.307
178705.000			-16.536			-3.307
178804.000			-16.536			-3.307
178905.000			-16.536			-3.307
179004.000			-16.535			-3.307
179103.000			-16.535			-3.307
179205.000			-16.534			-3.307
179303.000			-16.534			-3.307
179404.000			-16.534			-3.307
179505.000			-16.535			-3.307
179604.000			-16.534			-3.307
179704.000			-16.534			-3.307
179805.000			-16.533			-3.307
179904.000			-16.533			-3.307
180004.000			-16.533			-3.307
180105.000			-16.534			-3.307
180203.000			-16.533			-3.307
180304.000			-16.532			-3.306
180405.000			-16.532			-3.306
180504.000			-16.532			-3.306
180604.000			-16.532			-3.306
180705.000			-16.532			-3.306
180804.000			-16.532			-3.306
180903.000			-16.532			-3.306
181005.000			-16.532			-3.306
181103.000			-16.531			-3.306
181204.000			-16.531			-3.306
181305.000			-16.531			-3.306
181404.000			-16.530			-3.306
181504.000			-16.530			-3.306
181605.000			-16.530			-3.306
181704.000			-16.530			-3.306
181803.000			-16.531			-3.306
181905.000			-16.531			-3.306
182004.000			-16.530			-3.306
182105.000			-16.529			-3.306
182204.000			-16.529			-3.306
182304.000			-16.531			-3.306
182405.000			-16.530			-3.306
182504.000			-16.529			-3.306
182604.000			-16.529			-3.306
182704.000			-16.529			-3.306
182804.000			-16.529			-3.306
182903.000			-16.529			-3.306
183005.000			-16.528			-3.306
183104.000			-16.528			-3.306
183204.000			-16.528			-3.306
183305.000			-16.528			-3.306
183404.000			-16.528			-3.306
183504.000			-16.526			-3.305
183604.000			-16.527			-3.305
183704.000			-16.528			-3.306
183803.000			-16.527			-3.305
183905.000			-16.526			-3.305
184004.000			-16.526			-3.305
184104.000			-16.526			-3.305
184205.000			-16.525			-3.305
184304.000			-16.526			-3.305
184404.000			-16.526			-3.305
184504.000			-16.525			-3.305
184604.000			-16.525			-3.305
184703.000			-16.526			-3.305
184805.000			-16.525			-3.305
184904.000			-16.524			-3.305
185004.000			-16.523			-3.305
185105.000			-16.524			-3.305
185204.000			-16.524			-3.305
185305.000			-16.525			-3.305
185403.000			-16.524			-3.305
185504.000			-16.523			-3.305
185605.000			-16.524			-3.305
185704.000			-16.524			-3.305
185804.000			-16.523			-3.305
185905.000			-16.523			-3.305
186004.000			-16.524			-3.305
186104.000			-16.523			-3.305
186205.000			-16.522			-3.304
186303.000			-16.522			-3.304
186404.000			-16.522			-3.304
186505.000			-16.521			-3.304
186604.000			-16.521			-3.304
186704.000			-16.521			-3.304
186805.000			-16.521			-3.304
186904.000			-16.521			-3.304
187004.000			-16.521			-3.304
187105.000			-16.520			-3.304
187203.000			-16.521			-3.304
187304.000			-16.521			-3.304
187405.000			-16.520			-3.304
187504.000			-16.519			-3.304
187604.000			-16.520			-3.304
187705.000			-16.520			-3.304
187804.000			-16.518			-3.304
187904.000			-16.518			-3.304
188005.000			-16.518			-3.304
188103.000			-16.517			-3.303
188204.000			-16.518			-3.304
188304.000			-16.518			-3.304
188404.000			-16.518			-3.304
188505.000			-16.517			-3.303
188604.000			-16.516			-3.303
188704.000			-16.516			-3.303
188805.000			-16.516			-3.303
188904.000			-16.516			-3.303
189004.000			-16.517			-3.303
189105.000			-16.516			-3.303
189203.000			-16.516			-3.303
189304.000			-16.515			-3.303
189405.000			-16.515			-3.303
189504.000			-16.515			-3.303
189604.000			-16.515			-3.303
189705.000			-16.515			-3.303
189804.000			-16.516			-3.303
189904.000			-16.516			-3.303
190005.000			-16.514			-3.303
190103.000			-16.513			-3.303
190204.000			-16.514			-3.303
190305.000			-16.514			-3.303
190404.000			-16.514			-3.303
190504.000			-16.513			-3.303
190605.000			-16.513			-3.303
190704.000			-16.512			-3.302
190803.000			-16.513			-3.303
190905.000			-16.512			-3.302
191003.000			-16.512			-3.302
191104.000			-16.511			-3.302
191205.000			-16.511			-3.302
191304.000			-16.512			-3.302
191404.000			-16.511			-3.302
191505.000			-16.512			-3.302
191604.000			-16.511			-3.302
191703.000			-16.511			-3.302
191804.000			-16.509			-3.302
191903.000			-16.509			-3.302
192005.000			-16.510			-3.302
192104.000			-16.509			-3.302
192204.000			-16.508			-3.302
192305.000			-16.509			-3.302
192404.000			-16.509			-3.302
192504.000			-16.508			-3.302
192604.000			-16.508			-3.302
192704.000			-16.508			-3.302
192803.000			-16.509			-3.302
192905.000			-16.507			-3.301
193004.000			-16.508			-3.302
193104.000			-16.509			-3.302
193205.000			-16.508			-3.302
193304.000			-16.508			-3.302
193404.000			-16.507			-3.301
193504.000			-16.506			-3.301
193604.000			-16.507			-3.301
193703.000			-16.507			-3.301
193805.000			-16.506			-3.301
193904.000			-16.505			-3.301
194004.000			-16.506			-3.301
194105.000			-16.506			-3.301
194204.000			-16.505			-3.301
194304.000			-16.505			-3.301
194404.000			-16.505			-3.301
194504.000			-16.505			-3.301
194603.000			-16.505			-3.301
194705.000			-16.504			-3.301
194804.000			-16.504			-3.301
194905.000			-16.505			-3.301
195004.000			-16.504			-3.301
195104.000			-16.504			-3.301
195205.000			-16.504			-3.301
195303.000			-16.503			-3.301
195404.000			-16.503			-3.301
195504.000			-16.504			-3.301
195604.000			-16.504			-3.301
195704.000			-16.502			-3.300
195805.000			-16.502			-3.300
195904.000			-16.502			-3.300
196004.000			-16.502			-3.300
196105.000			-16.501			-3.300
196203.000			-16.502			-3.300
196304.000			-16.502			-3.300
196404.000			-16.501			-3.300
196504.000			-16.502			-3.300
196604.000			-16.501			-3.300
196705.000			-16.501			-3.300
196804.000			-16.501			-3.300
196904.000			-16.500			-3.300
197005.000			-16.501			-3.300
197104.000			-16.500			-3.300
197204.000			-16.499			-3.300
197304.000			-16.500			-3.300
197404.000			-16.500			-3.300
197504.000			-16.499			-3.300
197605.000			-16.499			-3.300
197704.000			-16.498			-3.300
197804.000			-16.498			-3.300
197905.000			-16.498			-3.300
198004.000			-16.498			-3.300
198105.000			-16.497			-3.299
198204.000			-16.496			-3.299
198304.000			-16.497			-3.299
198404.000			-16.497			-3.299
198504.000			-16.497			-3.299
198604.000			-16.497			-3.299
198705.000			-16.497			-3.299
198804.000			-16.496			-3.299
198904.000			-16.496			-3.299
199005.000			-16.496			-3.299
199104.000			-16.496			-3.299
199204.000			-16.495			-3.299
199304.000			-16.495			-3.299
199404.000			-16.495			-3.299
199503.000			-16.495			-3.299
199605.000			-16.495			-3.299
199704.000			-16.495			-3.299
199804.000			-16.493			-3.299
199905.000			-16.495			-3.299
200004.000			-16.494			-3.299
200104.000			-16.493			-3.299
200205.000			-16.492			-3.298
200304.000			-16.493			-3.299
200403.000			-16.493			-3.299
200505.000			-16.493			-3.299
200604.000			-16.492			-3.298
200704.000			-16.492			-3.298
200805.000			-16.492			-3.298
200904.000			-16.493			-3.299
201004.000			-16.493			-3.299
201104.000			-16.492			-3.298
201204.000			-16.491			-3.298
201303.000			-16.490			-3.298
201404.000			-16.490			-3.298
201504.000			-16.491			-3.298
201605.000			-16.491			-3.298
201704.000			-16.490			-3.298
201804.000			-16.490			-3.298
201905.000			-16.491			-3.298
202003.000			-16.491			-3.298
202104.000			-16.490			-3.298
202204.000			-16.489			-3.298
202304.000			-16.488			-3.298
202404.000			-16.489			-3.298
202505.000			-16.488			-3.298
202604.000			-16.488			-3.298
202704.000			-16.488			-3.298
202805.000			-16.487			-3.297
202903.000			-16.487			-3.297
203004.000			-16.488			-3.298
203104.000			-16.488			-3.298
203204.000			-16.488			-3.298
203304.000			-16.487			-3.297
203405.000			-16.487			-3.297
203504.000			-16.486			-3.297
203604.000			-16.487			-3.297
203705.000			-16.487			-3.297
203803.000			-16.486			-3.297
203904.000			-16.486			-3.297
204005.000			-16.486			-3.297
204104.000			-16.485			-3.297
204204.000			-16.486			-3.297
204305.000			-16.487			-3.297
204404.000			-16.486			-3.297
204505.000			-16.486			-3.297
204604.000			-16.485			-3.297
204703.000			-16.485			-3.297
204805.000			-16.485			-3.297
204904.000			-16.484			-3.297
205004.000			-16.484			-3.297
205105.000			-16.485			-3.297
205204.000			-16.485			-3.297
205304.000			-16.484			-3.297
205405.000			-16.484			-3.297
205504.000			-16.484			-3.297
205603.000			-16.485			-3.297
205705.000			-16.483			-3.297
205804.000			-16.482			-3.296
205904.000			-16.482			-3.296
206005.000			-16.481			-3.296
206104.000			-16.482			-3.296
206204.000			-16.482			-3.296
206305.000			-16.481			-3.296
206404.000			-16.481			-3.296
206503.000			-16.480			-3.296
206605.000			-16.482			-3.296
206704.000			-16.482			-3.296
206804.000			-16.481			-3.296
206905.000			-16.481			-3.296
207004.000			-16.480			-3.296
207104.000			-16.480			-3.296
207205.000			-16.480			-3.296
207304.000			-16.480			-3.296
207403.000			-16.479			-3.296
207505.000			-16.479			-3.296
207604.000			-16.479			-3.296
207705.000			-16.479			-3.296
207804.000			-16.479			-3.296
207904.000			-16.480			-3.296
208005.000			-16.479			-3.296
208104.000			-16.479			-3.296
208204.000			-16.478			-3.296
208304.000			-16.478			-3.296
208404.000			-16.478			-3.296
208503.000			-16.477			-3.295
208605.000			-16.477			-3.295
208704.000			-16.476			-3.295
208804.000			-16.476			-3.295
208905.000			-16.477			-3.295
209004.000			-16.475			-3.295
209104.000			-16.476			-3.295
209204.000			-16.476			-3.295
209304.000			-16.476			-3.295
209403.000			-16.476			-3.295
209505.000			-16.476			-3.295
209604.000			-16.476			-3.295
209704.000			-16.475			-3.295
209805.000			-16.475			-3.295
209904.000			-16.475			-3.295
210004.000			-16.474			-3.295
210104.000			-16.474			-3.295
210204.000			-16.475			-3.295
210303.000			-16.474			-3.295
210405.000			-16.474			-3.295
210504.000			-16.474			-3.295
210604.000			-16.474			-3.295
210705.000			-16.473			-3.295
210804.000			-16.474			-3.295
210905.000			-16.474			-3.295
211003.000			-16.473			-3.295
211104.000			-16.472			-3.294
211205.000			-16.472			-3.294
211304.000			-16.472			-3.294
211404.000			-16.472			-3.294
211505.000			-16.472			-3.294
211604.000			-16.472			-3.294
211704.000			-16.472			-3.294
211805.000			-16.471			-3.294
211903.000			-16.471			-3.294
212004.000			-16.470			-3.294
212105.000			-16.470			-3.294
212204.000			-16.470			-3.294
212304.000			-16.470			-3.294
212405.000			-16.470			-3.294
212504.000			-16.470			-3.294
212603.000			-16.470			-3.294
212705.000			-16.469			-3.294
212803.000			-16.470			-3.294
212904.000			-16.469			-3.294
213005.000			-16.468			-3.294
213104.000			-16.469			-3.294
213204.000			-16.468			-3.294
213305.000			-16.470			-3.294
213404.000			-16.469			-3.294
213503.000			-16.468			-3.294
213605.000			-16.468			-3.294
213703.000			-16.467			-3.293
213804.000			-16.468			-3.294
213905.000			-16.467			-3.293
214004.000			-16.467			-3.293
214105.000			-16.467			-3.293
214204.000			-16.466			-3.293
214304.000			-16.466			-3.293
214404.000			-16.466			-3.293
214504.000			-16.467			-3.293
214603.000			-16.467			-3.293
214705.000			-16.466			-3.293
214804.000			-16.466			-3.293
214904.000			-16.465			-3.293
215005.000			-16.464			-3.293
215104.000			-16.464			-3.293
215204.000			-16.465			-3.293
215304.000			-16.465			-3.293
215404.000			-16.464			-3.293
215503.000			-16.464			-3.293
215605.000			-16.464			-3.293
215704.000			-16.463			-3.293
215804.000			-16.463			-3.293
215905.000			-16.463			-3.293
216004.000			-16.462			-3.292
216104.000			-16.464			-3.293
216204.000			-16.463			-3.293
216304.000			-16.463			-3.293
216403.000			-16.463			-3.293
216505.000			-16.462			-3.292
216604.000			-16.463			-3.293
216704.000			-16.462			-3.292
216805.000			-16.460			-3.292
216904.000			-16.461			-3.292
217004.000			-16.461			-3.292
217104.000			-16.461			-3.292
217204.000			-16.462			-3.292
217303.000			-16.462			-3.292
217404.000			-16.460			-3.292
217504.000			-16.461			-3.292
217605.000			-16.460			-3.292
217704.000			-16.460			-3.292
217804.000			-16.461			-3.292
217905.000			-16.461			-3.292
218003.000			-16.460			-3.292
218104.000			-16.460			-3.292
218204.000			-16.459			-3.292
218304.000			-16.459			-3.292
218404.000			-16.458			-3.292
218505.000			-16.459			-3.292
218604.000			-16.458			-3.292
218704.000			-16.458			-3.292
218805.000			-16.458			-3.292
218903.000			-16.458			-3.292
219004.000			-16.459			-3.292
219104.000			-16.458			-3.292
219204.000			-16.457			-3.291
219304.000			-16.457			-3.291
219405.000			-16.458			-3.292
219504.000			-16.457			-3.291
219604.000			-16.456			-3.291
219705.000			-16.456			-3.291
219804.000			-16.456			-3.291
219904.000			-16.456			-3.291
220004.000			-16.456			-3.291
220104.000			-16.456			-3.291
220204.000			-16.456			-3.291
220305.000			-16.455			-3.291
220404.000			-16.454			-3.291
220505.000			-16.455			-3.291
220604.000			-16.455			-3.291
220703.000			-16.455			-3.291
220805.000			-16.454			-3.291
220903.000			-16.455			-3.291
221004.000			-16.455			-3.291
221105.000			-16.454			-3.291
221204.000			-16.453			-3.291
221304.000			-16.452			-3.290
221405.000			-16.453			-3.291
221504.000			-16.453			-3.291
221603.000			-16.453			-3.291
221705.000			-16.453			-3.291
221804.000			-16.453			-3.291
221904.000			-16.453			-3.291
222005.000			-16.452			-3.290
222104.000			-16.451			-3.290
222204.000			-16.451			-3.290
222305.000			-16.452			-3.290
222404.000			-16.452			-3.290
222503.000			-16.452			-3.290
222605.000			-16.451			-3.290
222704.000			-16.451			-3.290
222804.000			-16.451			-3.290
222905.000			-16.450			-3.290
223004.000			-16.450			-3.290
223104.000			-16.451			-3.290
223204.000			-16.450			-3.290
223304.000			-16.449			-3.290
223403.000			-16.449			-3.290
223505.000			-16.450			-3.290
223604.000			-16.450			-3.290
223705.000			-16.449			-3.290
223804.000			-16.449			-3.290
223904.000			-16.449			-3.290
224005.000			-16.450			-3.290
224103.000			-16.450			-3.290
224204.000			-16.449			-3.290
224305.000			-16.448			-3.290
224404.000			-16.448			-3.290
224504.000			-16.448			-3.290
224605.000			-16.447			-3.289
224704.000			-16.447			-3.289
224804.000			-16.448			-3.290
224905.000			-16.447			-3.289
225003.000			-16.448			-3.290
225104.000			-16.448			-3.290
225204.000			-16.447			-3.289
225304.000			-16.447			-3.289
225404.000			-16.447			-3.289
225505.000			-16.446			-3.289
225604.000			-16.445			-3.289
225704.000			-16.445			-3.289
225805.000			-16.446			-3.289
225903.000			-16.447			-3.289
226004.000			-16.446			-3.289
226105.000			-16.445			-3.289
226204.000			-16.445			-3.289
226304.000			-16.444			-3.289
226405.000			-16.444			-3.289
226504.000			-16.445			-3.289
226604.000			-16.445			-3.289
226705.000			-16.444			-3.289
226803.000			-16.444			-3.289
226905.000			-16.443			-3.289
227004.000			-16.443			-3.289
227104.000			-16.445			-3.289
227205.000			-16.444			-3.289
227304.000			-16.444			-3.289
227404.000			-16.444			-3.289
227505.000			-16.443			-3.289
227604.000			-16.442			-3.288
227703.000			-16.443			-3.289
227805.000			-16.442			-3.288
227904.000			-16.442			-3.288
228004.000			-16.442			-3.288
228105.000			-16.442			-3.288
228204.000			-16.442			-3.288
228304.000			-16.442			-3.288
228405.000			-16.441			-3.288
228504.000			-16.440			-3.288
228603.000			-16.442			-3.288
228705.000			-16.442			-3.288
228804.000			-16.442			-3.288
228904.000			-16.441			-3.288
229005.000			-16.440			-3.288
229104.000			-16.440			-3.288
229204.000			-16.440			-3.288
229305.000			-16.439			-3.288
229404.000			-16.440			-3.288
229503.000			-16.439			-3.288
229605.000			-16.439			-3.288
229704.000			-16.440			-3.288
229804.000			-16.439			-3.288
229905.000			-16.439			-3.288
230004.000			-16.438			-3.288
230105.000			-16.438			-3.288
230204.000			-16.437			-3.287
230304.000			-16.438			-3.288
230404.000			-16.438			-3.288
230504.000			-16.439			-3.288
230604.000			-16.438			-3.288
230705.000			-16.437			-3.287
230804.000			-16.438			-3.288
230904.000			-16.437			-3.287
231005.000			-16.438			-3.288
231104.000			-16.436			-3.287
231204.000			-16.437			-3.287
231304.000			-16.437			-3.287
231404.000			-16.436			-3.287
231504.000			-16.436			-3.287
231605.000			-16.436			-3.287
231704.000			-16.435			-3.287
231804.000			-16.435			-3.287
231905.000			-16.435			-3.287
232003.000			-16.435			-3.287
232104.000			-16.436			-3.287
232205.000			-16.434			-3.287
232304.000			-16.435			-3.287
232404.000			-16.434			-3.287
232505.000			-16.435			-3.287
232604.000			-16.434			-3.287
232704.000			-16.434			-3.287
232805.000			-16.434			-3.287
232903.000			-16.433			-3.287
233004.000			-16.433			-3.287
233105.000			-16.432			-3.286
233204.000			-16.433			-3.287
233305.000			-16.434			-3.287
233404.000			-16.433			-3.287
233504.000			-16.432			-3.286
233604.000			-16.432			-3.286
233704.000			-16.432			-3.286
233803.000			-16.432			-3.286
233905.000			-16.432			-3.286
234004.000			-16.431			-3.286
234104.000			-16.431			-3.286
234205.000			-16.432			-3.286
234304.000			-16.433			-3.287
234404.000			-16.432			-3.286
234504.000			-16.432			-3.286
234604.000			-16.430			-3.286
234704.000			-16.431			-3.286
234805.000			-16.431			-3.286
234904.000			-16.430			-3.286
235004.000			-16.430			-3.286
235105.000			-16.429			-3.286
235204.000			-16.429			-3.286
235304.000			-16.429			-3.286
235404.000			-16.429			-3.286
235504.000			-16.429			-3.286
235604.000			-16.429			-3.286
235705.000			-16.429			-3.286
235804.000			-16.428			-3.286
235904.000			-16.429			-3.286
236005.000			-16.428			-3.286
236104.000			-16.427			-3.285
236204.000			-16.428			-3.286
236304.000			-16.427			-3.285
236404.000			-16.427			-3.285
236505.000			-16.427			-3.285
236604.000			-16.427			-3.285
236704.000			-16.427			-3.285
236805.000			-16.426			-3.285
236904.000			-16.426			-3.285
237004.000			-16.426			-3.285
237105.000			-16.426			-3.285
237203.000			-16.425			-3.285
237304.000			-16.426			-3.285
237405.000			-16.426			-3.285
237504.000			-16.426			-3.285
237604.000			-16.425			-3.285
237705.000			-16.425			-3.285
237804.000			-16.425			-3.285
237904.000			-16.425			-3.285
238005.000			-16.425			-3.285
238103.000			-16.425			-3.285
238204.000			-16.425			-3.285
238305.000			-16.425			-3.285
238404.000			-16.424			-3.285
238504.000			-16.424			-3.285
238605.000			-16.424			-3.285
238704.000			-16.422			-3.284
238804.000			-16.422			-3.284
238905.000			-16.423			-3.285
239003.000			-16.424			-3.285
239104.000			-16.424			-3.285
239205.000			-16.423			-3.285
239304.000			-16.422			-3.284
239404.000			-16.421			-3.284
239505.000			-16.422			-3.284
239604.000			-16.421			-3.284
239705.000			-16.421			-3.284
239804.000			-16.422			-3.284
239903.000			-16.422			-3.284
240005.000			-16.421			-3.284
240104.000			-16.421			-3.284
240204.000			-16.420			-3.284
240305.000			-16.421			-3.284
240404.000			-16.421			-3.284
240504.000			-16.422			-3.284
240604.000			-16.421			-3.284
240704.000			-16.420			-3.284
240803.000			-16.419			-3.284
240905.000			-16.420			-3.284
241004.000			-16.420			-3.284
241104.000			-16.419			-3.284
241205.000			-16.420			-3.284
241304.000			-16.420			-3.284
241404.000			-16.419			-3.284
241504.000			-16.419			-3.284
241604.000			-16.418			-3.284
241703.000			-16.418			-3.284
241805.000			-16.418			-3.284
241904.000			-16.418			-3.284
242004.000			-16.417			-3.283
242105.000			-16.417			-3.283
242204.000			-16.417			-3.283
242304.000			-16.417			-3.283
242404.000			-16.417			-3.283
242504.000			-16.417			-3.283
242603.000			-16.416			-3.283
242705.000			-16.415			-3.283
242804.000			-16.415			-3.283
242905.000			-16.415			-3.283
243004.000			-16.416			-3.283
243104.000			-16.415			-3.283
243205.000			-16.415			-3.283
243303.000			-16.417			-3.283
243404.000			-16.416			-3.283
243505.000			-16.416			-3.283
243604.000			-16.415			-3.283
243704.000			-16.415			-3.283
243805.000			-16.415			-3.283
243904.000			-16.415			-3.283
244004.000			-16.415			-3.283
244105.000			-16.414			-3.283
244203.000			-16.414			-3.283
244304.000			-16.414			-3.283
244405.000			-16.414			-3.283
244504.000			-16.413			-3.283
244604.000			-16.413			-3.283
244705.000			-16.413			-3.283
244804.000			-16.413			-3.283
244903.000			-16.414			-3.283
245005.000			-16.414			-3.283
245104.000			-16.413			-3.283
245204.000			-16.412			-3.282
245305.000			-16.411			-3.282
245404.000			-16.412			-3.282
245504.000			-16.412			-3.282
245605.000			-16.412			-3.282
245704.000			-16.412			-3.282
245803.000			-16.413			-3.283
245905.000			-16.412			-3.282
246004.000			-16.411			-3.282
246105.000			-16.410			-3.282
246204.000			-16.411			-3.282
246304.000			-16.411			-3.282
246405.000			-16.411			-3.282
246504.000			-16.411			-3.282
246604.000			-16.411			-3.282
246704.000			-16.411			-3.282
246804.000			-16.411			-3.282
246904.000			-16.411			-3.282
247005.000			-16.410			-3.282
247104.000			-16.410			-3.282
247204.000			-16.410			-3.282
247305.000			-16.410			-3.282
247404.000			-16.409			-3.282
247504.000			-16.409			-3.282
247604.000			-16.410			-3.282
247704.000			-16.409			-3.282
247804.000			-16.409			-3.282
247905.000			-16.408			-3.282
248004.000			-16.408			-3.282
248104.000			-16.408			-3.282
248205.000			-16.407			-3.281
248304.000			-16.407			-3.281
248404.000			-16.408			-3.282
248504.000			-16.409			-3.282
248604.000			-16.409			-3.282
248704.000			-16.409			-3.282
248805.000			-16.409			-3.282
248904.000			-16.406			-3.281
249004.000			-16.407			-3.281
249105.000			-16.406			-3.281
249204.000			-16.407			-3.281
249305.000			-16.408			-3.282
249403.000			-16.407			-3.281
249504.000			-16.406			-3.281
249605.000			-16.405			-3.281
249704.000			-16.405			-3.281
249804.000			-16.407			-3.281
249905.000			-16.406			-3.281
250004.000			-16.405			-3.281
250104.000			-16.405			-3.281
250205.000			-16.405			-3.281
250303.000			-16.406			-3.281
250404.000			-16.405			-3.281
250505.000			-16.406			-3.281
250604.000			-16.405			-3.281
250704.000			-16.403			-3.281
250805.000			-16.404			-3.281
250904.000			-16.404			-3.281
251003.000			-16.404			-3.281
251105.000			-16.403			-3.281
251204.000			-16.404			-3.281
251304.000			-16.403			-3.281
251405.000			-16.403			-3.281
251504.000			-16.403			-3.281
251604.000			-16.402			-3.280
251705.000			-16.403			-3.281
251804.000			-16.404			-3.281
251903.000			-16.403			-3.281
252005.000			-16.402			-3.280
252104.000			-16.401			-3.280
252204.000			-16.401			-3.280
252305.000			-16.402			-3.280
252404.000			-16.402			-3.280
252505.000			-16.402			-3.280
252603.000			-16.401			-3.280
252704.000			-16.401			-3.280
252805.000			-16.401			-3.280
252904.000			-16.401			-3.280
253004.000			-16.401			-3.280
253105.000			-16.400			-3.280
253204.000			-16.400			-3.280
253304.000			-16.401			-3.280
253405.000			-16.400			-3.280
253503.000			-16.400			-3.280
253604.000			-16.400			-3.280
253705.000			-16.400			-3.280
253804.000			-16.400			-3.280
253904.000			-16.399			-3.280
254005.000			-16.399			-3.280
254104.000			-16.399			-3.280
254204.000			-16.399			-3.280
254305.000			-16.399			-3.280
254403.000			-16.399			-3.280
254504.000			-16.398			-3.280
254605.000			-16.398			-3.280
254704.000			-16.398			-3.280
254804.000			-16.398			-3.280
254905.000			-16.396			-3.279
255004.000			-16.397			-3.279
255104.000			-16.397			-3.279
255205.000			-16.398			-3.280
255303.000			-16.397			-3.279
255404.000			-16.397			-3.279
255504.000			-16.397			-3.279
255604.000			-16.396			-3.279
255705.000			-16.397			-3.279
255804.000			-16.396			-3.279
255904.000			-16.396			-3.279
256005.000			-16.397			-3.279
256104.000			-16.396			-3.279
256204.000			-16.396			-3.279
256305.000			-16.396			-3.279
256403.000			-16.394			-3.279
256504.000			-16.394			-3.279
256605.000			-16.395			-3.279
256704.000			-16.395			-3.279
256804.000			-16.394			-3.279
256905.000			-16.395			-3.279
257004.000			-16.394			-3.279
257104.000			-16.395			-3.279
257205.000			-16.394			-3.279
257303.000			-16.394			-3.279
257404.000			-16.394			-3.279
257505.000			-16.393			-3.279
257604.000			-16.394			-3.279
257704.000			-16.393			-3.279
257805.000			-16.393			-3.279
257904.000			-16.393			-3.279
258004.000			-16.393			-3.279
258105.000			-16.393			-3.279
258203.000			-16.392			-3.278
258304.000			-16.391			-3.278
258405.000			-16.391			-3.278
258504.000			-16.392			-3.278
258604.000			-16.392			-3.278
258705.000			-16.391			-3.278
258804.000			-16.391			-3.278
258905.000			-16.392			-3.278
259004.000			-16.391			-3.278
259103.000			-16.390			-3.278
259205.000			-16.390			-3.278
259303.000			-16.390			-3.278
259404.000			-16.391			-3.278
259505.000			-16.390			-3.278
259604.000			-16.390			-3.278
259704.000			-16.390			-3.278
259805.000			-16.391			-3.278
259904.000			-16.391			-3.278
260003.000			-16.389			-3.278
260105.000			-16.389			-3.278
260203.000			-16.389			-3.278
260304.000			-16.389			-3.278
260405.000			-16.390			-3.278
260504.000			-16.389			-3.278
260604.000			-16.390			-3.278
260705.000			-16.389			-3.278
260804.000			-16.389			-3.278
260904.000			-16.388			-3.278
261005.000			-16.388			-3.278
261103.000			-16.388			-3.278
261204.000			-16.387			-3.277
261305.000			-16.388			-3.278
261404.000			-16.388			-3.278
261504.000			-16.387			-3.277
261605.000			-16.387			-3.277
261704.000			-16.386			-3.277
261804.000			-16.387			-3.277
261905.000			-16.387			-3.277
262003.000			-16.386			-3.277
262105.000			-16.386			-3.277
262204.000			-16.385			-3.277
262304.000			-16.386			-3.277
262405.000			-16.388			-3.278
262504.000			-16.387			-3.277
262604.000			-16.385			-3.277
262705.000			-16.385			-3.277
262804.000			-16.385			-3.277
262903.000			-16.385			-3.277
263005.000			-16.385			-3.277
263104.000			-16.385			-3.277
263204.000			-16.384			-3.277
263305.000			-16.385			-3.277
263404.000			-16.385			-3.277
263504.000			-16.383			-3.277
263605.000			-16.383			-3.277
263704.000			-16.383			-3.277
263803.000			-16.383			-3.277
263905.000			-16.382			-3.276
264004.000			-16.382			-3.276
264104.000			-16.382			-3.276
264205.000			-16.383			-3.277
264304.000			-16.383			-3.277
264404.000			-16.382			-3.276
264505.000			-16.381			-3.276
264604.000			-16.381			-3.276
264703.000			-16.381			-3.276
264805.000			-16.380			-3.276
264904.000			-16.380			-3.276
265004.000			-16.380			-3.276
265105.000			-16.380			-3.276
265204.000			-16.380			-3.276
265305.000			-16.381			-3.276
265404.000			-16.380			-3.276
265504.000			-16.380			-3.276
265604.000			-16.379			-3.276
265704.000			-16.380			-3.276
265804.000			-16.380			-3.276
265905.000			-16.380			-3.276
266004.000			-16.379			-3.276
266104.000			-16.379			-3.276
266205.000			-16.379			-3.276
266304.000			17.008			3.402
266404.000			30.838			6.168
266504.000			-16.378			-3.276
266604.000			-16.378			-3.276
266704.000			-16.379			-3.276
266805.000			-16.379			-3.276
266904.000			-16.378			-3.276
267004.000			-16.378			-3.276
267105.000			-16.377			-3.275
267204.000			-16.379			-3.276
267304.000			-16.378			-3.276
267404.000			-16.378			-3.276
267504.000			-16.378			-3.276
267603.000			-16.378			-3.276
267705.000			-16.380			-3.276
267804.000			-16.377			-3.275
267904.000			-16.377			-3.275
268005.000			-16.378			-3.276
268104.000			-16.378			-3.276
268204.000			-16.378			-3.276
268304.000			-16.377			-3.275
268404.000			-16.376			-3.275
268503.000			-16.376			-3.275
268604.000			-16.376			-3.275
268704.000			-16.376			-3.275
268805.000			-16.375			-3.275
268904.000			-16.376			-3.275
269004.000			-16.375			-3.275
269105.000			-16.375			-3.275
269204.000			-16.376			-3.275
269304.000			-16.376			-3.275
269404.000			-16.375			-3.275
269504.000			-16.376			-3.275
269604.000			-16.376			-3.275
269705.000			-16.375			-3.275
269804.000			-16.375			-3.275
269904.000			-16.374			-3.275
270005.000			-16.375			-3.275
270104.000			-16.375			-3.275
270204.000			-16.374			-3.275
270304.000			-16.375			-3.275
270404.000			-16.375			-3.275
270504.000			-16.373			-3.275
270605.000			-16.374			-3.275
270704.000			-16.374			-3.275
270804.000			-16.374			-3.275
270905.000			-16.374			-3.275
271004.000			-16.374			-3.275
271104.000			-16.372			-3.274
271204.000			-16.372			-3.274
271304.000			-16.373			-3.275
271404.000			-16.373			-3.275
271505.000			-16.374			-3.275
271604.000			-16.372			-3.274
271705.000			-16.371			-3.274
271804.000			-16.371			-3.274
271904.000			-16.371			-3.274
272005.000			-16.372			-3.274
272103.000			-16.373			-3.275
272204.000			-16.371			-3.274
272305.000			-16.372			-3.274
272404.000			-16.371			-3.274
272504.000			-16.372			-3.274
272605.000			-16.372			-3.274
272704.000			-16.371			-3.274
272803.000			-16.371			-3.274
272905.000			-16.370			-3.274
273004.000			-16.370			-3.274
273104.000			-16.370			-3.274
273205.000			-16.370			-3.274
273304.000			-16.370			-3.274
273404.000			-16.369			-3.274
273505.000			-16.370			-3.274
273604.000			-16.370			-3.274
273703.000			-16.369			-3.274
273805.000			-16.368			-3.274
273903.000			-16.368			-3.274
274004.000			-16.369			-3.274
274105.000			-16.370			-3.274
274204.000			-16.369			-3.274
274304.000			-16.369			-3.274
274405.000			-16.368			-3.274
274504.000			-16.367			-3.273
274603.000			-16.368			-3.274
274705.000			-16.368			-3.274
274803.000			-16.368			-3.274
274905.000			-16.367			-3.273
275004.000			-16.367			-3.273
275104.000			-16.367			-3.273
275205.000			-16.367			-3.273
275304.000			-16.367			-3.273
275404.000			-16.367			-3.273
275505.000			-16.367			-3.273
275604.000			-16.367			-3.273
275703.000			-16.366			-3.273
275805.000			-16.366			-3.273
275904.000			-16.366			-3.273
276004.000			-16.365			-3.273
276105.000			-16.365			-3.273
276204.000			-16.366			-3.273
276304.000			-16.365			-3.273
276405.000			-16.365			-3.273
276504.000			-16.365			-3.273
276603.000			-16.365			-3.273
276705.000			-16.364			-3.273
276804.000			-16.364			-3.273
276904.000			-16.364			-3.273
277005.000			-16.364			-3.273
277104.000			-16.365			-3.273
277204.000			-16.365			-3.273
277305.000			-16.364			-3.273
277404.000			-16.363			-3.273
277503.000			-16.363			-3.273
277605.000			-16.363			-3.273
277704.000			-16.364			-3.273
277804.000			-16.364			-3.273
277905.000			-16.363			-3.273
278004.000			-16.363			-3.273
278105.000			-16.363			-3.273
278204.000			-16.364			-3.273
278304.000			-16.363			-3.273
278404.000			-16.362			-3.272
278504.000			-16.362			-3.272
278603.000			-16.362			-3.272
278705.000			-16.361			-3.272
278804.000			-16.360			-3.272
278904.000			-16.361			-3.272
279005.000			-16.362			-3.272
279104.000			-16.361			-3.272
279204.000			-16.361			-3.272
279304.000			-16.361			-3.272
279404.000			-16.361			-3.272
279504.000			-16.361			-3.272
279605.000			-16.360			-3.272
279704.000			-16.360			-3.272
279804.000			-16.359			-3.272
279905.000			-16.360			-3.272
280004.000			-16.359			-3.272
280104.000			-16.360			-3.272
280204.000			-16.360			-3.272
280304.000			-16.359			-3.272
280404.000			-16.358			-3.272
280505.000			-16.360			-3.272
280604.000			-16.360			-3.272
280704.000			-16.359			-3.272
280805.000			-16.360			-3.272
280904.000			-16.359			-3.272
281004.000			-16.359			-3.272
281104.000			-16.359			-3.272
281204.000			-16.359			-3.272
281303.000			-16.359			-3.272
281404.000			-16.358			-3.272
281504.000			-16.357			-3.271
281605.000			-16.358			-3.272
281704.000			-16.358			-3.272
281804.000			-16.358			-3.272
281905.000			-16.357			-3.271
282003.000			-16.356			-3.271
282104.000			-16.357			-3.271
282205.000			-16.357			-3.271
282304.000			-16.356			-3.271
282404.000			-16.356			-3.271
282505.000			-16.356			-3.271
282604.000			-16.356			-3.271
282704.000			-16.356			-3.271
282805.000			-16.356			-3.271
282903.000			-16.356			-3.271
283004.000			-16.356			-3.271
283105.000			-16.356			-3.271
283204.000			-16.355			-3.271
283304.000			-16.355			-3.271
283405.000			-16.357			-3.271
283504.000			-16.356			-3.271
283604.000			-16.355			-3.271
283705.000			-16.354			-3.271
283803.000			-16.355			-3.271
283904.000			-16.355			-3.271
284005.000			-16.355			-3.271
284104.000			-16.355			-3.271
284204.000			-16.353			-3.271
284305.000			-16.353			-3.271
284404.000			-16.354			-3.271
284505.000			-16.353			-3.271
284604.000			-16.352			-3.270
284703.000			-16.353			-3.271
284805.000			-16.354			-3.271
284903.000			-16.354			-3.271
285004.000			-16.352			-3.270
285105.000			-16.353			-3.271
285204.000			-16.352			-3.270
285304.000			-16.352			-3.270
285405.000			-16.352			-3.270
285504.000			-16.352			-3.270
285603.000			-16.351			-3.270
285705.000			-16.351			-3.270
285803.000			-16.352			-3.270
285904.000			-16.352			-3.270
286005.000			-16.352			-3.270
286104.000			-16.351			-3.270
286204.000			-16.352			-3.270
286305.000			-16.351			-3.270
286404.000			-16.351			-3.270
286503.000			-16.351			-3.270
286605.000			-16.351			-3.270
286704.000			-16.351			-3.270
286804.000			-16.351			-3.270
286905.000			-16.350			-3.270
287004.000			-16.350			-3.270
287104.000			-16.350			-3.270
287205.000			-16.351			-3.270
287304.000			-16.350			-3.270
287403.000			-16.349			-3.270
287505.000			-16.348			-3.270
287604.000			-16.349			-3.270
287705.000			-16.349			-3.270
287804.000			-16.349			-3.270
287904.000			-16.349			-3.270
288005.000			-16.349			-3.270
288104.000			-16.349			-3.270
288204.000			-16.349			-3.270
288304.000			-16.349			-3.270
288404.000			-16.347			-3.269
288503.000			-16.347			-3.269
288605.000			-16.348			-3.270
288704.000			-16.348			-3.270
288804.000			-16.347			-3.269
288905.000			-16.347			-3.269
289004.000			-16.347			-3.269
289104.000			-16.347			-3.269
289204.000			-16.346			-3.269
289304.000			-16.345			-3.269
289403.000			-16.347			-3.269
289505.000			-16.347			-3.269
289604.000			-16.346			-3.269
289704.000			-16.347			-3.269
289805.000			-16.347			-3.269
289904.000			-16.347			-3.269
290004.000			-16.346			-3.269
290105.000			-16.345			-3.269
290204.000			-16.345			-3.269
290303.000			-16.344			-3.269
290405.000			-16.345			-3.269
290504.000			-16.344			-3.269
290604.000			-16.345			-3.269
290705.000			-16.345			-3.269
290804.000			-16.344			-3.269
290905.000			-16.344			-3.269
291004.000			-16.343			-3.269
291104.000			-16.344			-3.269
291204.000			-16.345			-3.269
291304.000			-16.345			-3.269
291404.000			-16.344			-3.269
291505.000			-16.344			-3.269
291604.000			-16.343			-3.269
291704.000			-16.344			-3.269
291805.000			-16.344			-3.269
291904.000			-16.343			-3.269
292004.000			-16.342			-3.268
292104.000			-16.343			-3.269
292204.000			-16.343			-3.269
292304.000			-16.342			-3.268
292405.000			-16.343			-3.269
292504.000			-16.342			-3.268
292604.000			-16.342			-3.268
292705.000			-16.342			-3.268
292804.000			-16.342			-3.268
292904.000			-16.342			-3.268
293004.000			-16.342			-3.268
293104.000			-16.343			-3.269
293204.000			-16.341			-3.268
293305.000			-16.341			-3.268
293404.000			-16.342			-3.268
293504.000			-16.342			-3.268
293605.000			-16.341			-3.268
293704.000			-16.340			-3.268
293804.000			-16.340			-3.268
293904.000			-16.340			-3.268
294004.000			-16.339			-3.268
294105.000			-16.340			-3.268
294204.000			-16.341			-3.268
294304.000			-16.340			-3.268
294405.000			-16.339			-3.268
294504.000			-16.339			-3.268
294604.000			-16.340			-3.268
294705.000			-16.339			-3.268
294803.000			-16.339			-3.268
294904.000			-16.339			-3.268
295005.000			-16.339			-3.268
295104.000			-16.339			-3.268
295204.000			-16.339			-3.268
295305.000			-16.339			-3.268
295404.000			-16.338			-3.268
295504.000			-16.338			-3.268
295605.000			-16.339			-3.268
295703.000			-16.339			-3.268
295804.000			-16.338			-3.268
295905.000			-16.339			-3.268
296004.000			-16.338			-3.268
296104.000			-16.337			-3.267
296205.000			-16.338			-3.268
296304.000			-16.338			-3.268
296404.000			-16.337			-3.267
296505.000			-16.337			-3.267
296603.000			-16.337			-3.267
296704.000			-16.337			-3.267
296804.000			-16.337			-3.267
296904.000			-16.336			-3.267
297004.000			-16.337			-3.267
297105.000			-16.336			-3.267
297204.000			-16.335			-3.267
297305.000			-16.335			-3.267
297404.000			-16.336			-3.267
297503.000			-16.335			-3.267
297605.000			-16.335			-3.267
297703.000			-16.337			-3.267
297804.000			-16.336			-3.267
297905.000			-16.335			-3.267
298004.000			-16.334			-3.267
298104.000			-16.333			-3.267
298205.000			-16.334			-3.267
298304.000			-16.334			-3.267
298404.000			-16.334			-3.267
298505.000			-16.335			-3.267
298603.000			-16.335			-3.267
298704.000			-16.335			-3.267
298805.000			-16.334			-3.267
298904.000			-16.333			-3.267
299004.000			-16.335			-3.267
299105.000			-16.333			-3.267
299204.000			-16.332			-3.266
299304.000			-16.333			-3.267
299405.000			-16.332			-3.266
299503.000			-16.332			-3.266
299604.000			-16.332			-3.266
299705.000			-16.332			-3.266
299804.000			-16.332			-3.266
299904.000			-16.331			-3.266
