# Acquired on 10/01/2024 10:46:49 
# SPIDER: Creep_-10mm_07714532C-2
# CREEP MEASUREMENT

# time [ms]		force [N]		stiffness [N/mm]
0.000			30.406			-3.041
101.000			31.485			-3.148
201.000			31.808			-3.181
301.000			31.686			-3.169
401.000			31.536			-3.154
500.000			31.427			-3.143
600.000			31.259			-3.126
701.000			31.192			-3.119
800.000			31.131			-3.113
900.000			31.076			-3.108
1002.000			31.026			-3.103
1101.000			30.981			-3.098
1200.000			30.938			-3.094
1301.000			30.860			-3.086
1400.000			30.825			-3.083
1500.000			30.792			-3.079
1601.000			30.761			-3.076
1701.000			30.732			-3.073
1801.000			30.703			-3.070
1901.000			30.677			-3.068
2000.000			30.651			-3.065
2100.000			30.603			-3.060
2201.000			30.580			-3.058
2300.000			30.558			-3.056
2400.000			30.536			-3.054
2502.000			30.514			-3.051
2600.000			30.494			-3.049
2700.000			30.475			-3.048
2801.000			30.439			-3.044
2900.000			30.422			-3.042
3001.000			30.405			-3.040
3100.000			30.388			-3.039
3201.000			30.372			-3.037
3302.000			30.357			-3.036
3400.000			30.340			-3.034
3500.000			30.311			-3.031
3601.000			30.297			-3.030
3700.000			30.283			-3.028
3800.000			30.269			-3.027
3902.000			30.256			-3.026
4001.000			30.243			-3.024
4100.000			30.231			-3.023
4201.000			30.217			-3.022
4300.000			30.194			-3.019
4400.000			30.181			-3.018
4501.000			30.170			-3.017
4600.000			30.159			-3.016
4701.000			30.148			-3.015
4802.000			30.137			-3.014
4900.000			30.126			-3.013
5000.000			30.106			-3.011
5101.000			30.095			-3.010
5200.000			30.084			-3.008
5300.000			30.074			-3.007
5402.000			30.064			-3.006
5501.000			30.054			-3.005
5600.000			30.046			-3.005
5701.000			30.026			-3.003
5800.000			30.018			-3.002
5900.000			30.010			-3.001
6001.000			30.001			-3.000
6100.000			29.992			-2.999
6202.000			29.983			-2.998
6301.000			29.976			-2.998
6400.000			29.960			-2.996
6501.000			29.951			-2.995
6600.000			29.942			-2.994
6700.000			29.934			-2.993
6801.000			29.926			-2.993
6900.000			29.918			-2.992
7001.000			29.911			-2.991
7102.000			29.905			-2.990
7200.000			29.890			-2.989
7300.000			29.882			-2.988
7401.000			29.874			-2.987
7500.000			29.867			-2.987
7600.000			29.861			-2.986
7701.000			29.855			-2.985
7801.000			29.848			-2.985
7901.000			29.833			-2.983
8001.000			29.827			-2.983
8100.000			29.820			-2.982
8200.000			29.815			-2.982
8301.000			29.808			-2.981
8400.000			29.802			-2.980
8500.000			29.795			-2.980
8602.000			29.783			-2.978
8701.000			29.776			-2.978
8800.000			29.771			-2.977
8901.000			29.766			-2.977
9000.000			29.759			-2.976
9100.000			29.754			-2.975
9201.000			29.747			-2.975
9300.000			29.741			-2.974
9402.000			29.730			-2.973
9501.000			29.724			-2.972
9600.000			29.719			-2.972
9701.000			29.714			-2.971
9800.000			29.709			-2.971
9900.000			29.703			-2.970
10001.000			29.696			-2.970
10100.000			29.685			-2.969
10201.000			29.681			-2.968
10302.000			29.675			-2.968
10400.000			29.669			-2.967
10500.000			29.665			-2.967
10601.000			29.661			-2.966
10700.000			29.655			-2.966
10800.000			29.646			-2.965
10901.000			29.640			-2.964
11001.000			29.636			-2.964
11101.000			29.631			-2.963
11201.000			29.626			-2.963
11300.000			29.621			-2.962
11400.000			29.617			-2.962
11501.000			29.612			-2.961
11600.000			29.602			-2.960
11700.000			29.599			-2.960
11802.000			29.594			-2.959
11901.000			29.590			-2.959
12000.000			29.584			-2.958
12101.000			29.580			-2.958
12200.000			29.576			-2.958
12300.000			29.566			-2.957
12401.000			29.562			-2.956
12500.000			29.558			-2.956
12602.000			29.553			-2.955
12701.000			29.550			-2.955
12800.000			29.545			-2.955
12901.000			29.541			-2.954
13000.000			29.533			-2.953
13100.000			29.529			-2.953
13201.000			29.525			-2.953
13300.000			29.521			-2.952
13401.000			29.516			-2.952
13502.000			29.512			-2.951
13600.000			29.508			-2.951
13700.000			29.503			-2.950
13801.000			29.497			-2.950
13900.000			29.492			-2.949
14000.000			29.489			-2.949
14101.000			29.486			-2.949
14201.000			29.483			-2.948
14301.000			29.479			-2.948
14401.000			29.474			-2.947
14500.000			29.466			-2.947
14600.000			29.463			-2.946
14701.000			29.459			-2.946
14800.000			29.456			-2.946
14900.000			29.453			-2.945
15002.000			29.450			-2.945
15101.000			29.446			-2.945
15200.000			29.437			-2.944
15301.000			29.434			-2.943
15400.000			29.432			-2.943
15500.000			29.427			-2.943
15601.000			29.424			-2.942
15700.000			29.420			-2.942
15802.000			29.417			-2.942
15901.000			29.413			-2.941
16000.000			29.406			-2.941
16101.000			29.403			-2.940
16200.000			29.400			-2.940
16300.000			29.398			-2.940
16401.000			29.394			-2.939
16500.000			29.391			-2.939
16601.000			29.389			-2.939
16702.000			29.381			-2.938
16800.000			29.377			-2.938
16900.000			29.375			-2.937
17001.000			29.371			-2.937
17100.000			29.368			-2.937
17200.000			29.365			-2.937
17301.000			29.362			-2.936
17401.000			29.355			-2.935
17501.000			29.351			-2.935
17601.000			29.348			-2.935
17700.000			29.345			-2.935
17800.000			29.343			-2.934
17901.000			29.340			-2.934
18000.000			29.337			-2.934
18100.000			29.331			-2.933
18202.000			29.328			-2.933
18301.000			29.325			-2.933
18401.000			29.322			-2.932
18501.000			29.319			-2.932
18600.000			29.315			-2.932
18700.000			29.313			-2.931
18801.000			29.310			-2.931
18900.000			29.304			-2.930
19001.000			29.302			-2.930
19101.000			29.299			-2.930
19201.000			29.296			-2.930
19301.000			29.294			-2.929
19400.000			29.291			-2.929
19500.000			29.288			-2.929
19601.000			29.283			-2.928
19700.000			29.280			-2.928
19800.000			29.278			-2.928
19902.000			29.276			-2.928
20001.000			29.273			-2.927
20100.000			29.271			-2.927
20201.000			29.267			-2.927
20300.000			29.262			-2.926
20400.000			29.259			-2.926
20501.000			29.257			-2.926
20601.000			29.253			-2.925
20701.000			29.251			-2.925
20802.000			29.249			-2.925
20900.000			29.245			-2.925
21000.000			29.243			-2.924
21101.000			29.238			-2.924
21200.000			29.234			-2.923
21300.000			29.231			-2.923
21402.000			29.229			-2.923
21501.000			29.226			-2.923
21600.000			29.223			-2.922
21701.000			29.222			-2.922
21800.000			29.217			-2.922
21900.000			29.214			-2.921
22001.000			29.211			-2.921
22100.000			29.209			-2.921
22202.000			29.207			-2.921
22301.000			29.205			-2.920
22400.000			29.201			-2.920
22501.000			29.197			-2.920
22600.000			29.195			-2.919
22700.000			29.192			-2.919
22801.000			29.189			-2.919
22900.000			29.187			-2.919
23001.000			29.186			-2.919
23102.000			29.183			-2.918
23200.000			29.180			-2.918
23300.000			29.176			-2.918
23401.000			29.174			-2.917
23500.000			29.172			-2.917
23600.000			29.169			-2.917
23701.000			29.166			-2.917
23801.000			29.164			-2.916
23901.000			29.162			-2.916
24001.000			29.157			-2.916
24100.000			29.155			-2.916
24200.000			29.153			-2.915
24301.000			29.152			-2.915
24400.000			29.149			-2.915
24500.000			29.147			-2.915
24602.000			29.145			-2.914
24701.000			29.139			-2.914
24800.000			29.136			-2.914
24901.000			29.134			-2.913
25000.000			29.132			-2.913
25100.000			29.131			-2.913
25201.000			29.129			-2.913
25300.000			29.126			-2.913
25402.000			29.121			-2.912
25501.000			29.120			-2.912
25601.000			29.117			-2.912
25701.000			29.115			-2.912
25800.000			29.113			-2.911
25900.000			29.111			-2.911
26001.000			29.109			-2.911
26100.000			29.106			-2.911
26201.000			29.101			-2.910
26302.000			29.100			-2.910
26400.000			29.099			-2.910
26500.000			29.098			-2.910
26601.000			29.095			-2.909
26700.000			29.094			-2.909
26800.000			29.091			-2.909
26901.000			29.087			-2.909
27001.000			29.085			-2.908
27101.000			29.083			-2.908
27202.000			29.081			-2.908
27300.000			29.079			-2.908
27400.000			29.077			-2.908
27501.000			29.076			-2.908
27600.000			29.074			-2.907
27700.000			29.072			-2.907
27801.000			29.069			-2.907
27901.000			29.066			-2.907
28001.000			29.064			-2.906
28101.000			29.063			-2.906
28200.000			29.061			-2.906
28300.000			29.058			-2.906
28401.000			29.054			-2.905
28500.000			29.053			-2.905
28601.000			29.051			-2.905
28701.000			29.050			-2.905
28801.000			29.046			-2.905
28901.000			29.045			-2.904
29000.000			29.044			-2.904
29100.000			29.040			-2.904
29201.000			29.038			-2.904
29300.000			29.035			-2.903
29400.000			29.033			-2.903
29502.000			29.032			-2.903
29601.000			29.030			-2.903
29700.000			29.028			-2.903
29801.000			29.025			-2.902
29900.000			29.024			-2.902
30000.000			29.022			-2.902
30101.000			29.020			-2.902
30200.000			29.018			-2.902
30301.000			29.016			-2.902
30402.000			29.013			-2.901
30500.000			29.012			-2.901
30600.000			29.008			-2.901
30701.000			29.006			-2.901
30800.000			29.004			-2.900
30900.000			29.004			-2.900
31002.000			29.001			-2.900
31101.000			29.000			-2.900
31201.000			28.997			-2.900
31301.000			28.993			-2.899
31400.000			28.991			-2.899
31500.000			28.990			-2.899
31601.000			28.989			-2.899
31700.000			28.987			-2.899
31801.000			28.986			-2.899
31901.000			28.984			-2.898
32001.000			28.978			-2.898
32101.000			28.977			-2.898
32200.000			28.976			-2.898
32300.000			28.975			-2.897
32401.000			28.972			-2.897
32500.000			28.970			-2.897
32600.000			28.968			-2.897
32702.000			28.965			-2.897
32801.000			28.963			-2.896
32901.000			28.963			-2.896
33001.000			28.961			-2.896
33100.000			28.960			-2.896
33200.000			28.958			-2.896
33301.000			28.955			-2.896
33400.000			28.954			-2.895
33500.000			28.950			-2.895
33602.000			28.949			-2.895
33701.000			28.947			-2.895
33800.000			28.946			-2.895
33901.000			28.945			-2.894
34000.000			28.942			-2.894
34100.000			28.941			-2.894
34201.000			28.938			-2.894
34300.000			28.936			-2.894
34401.000			28.936			-2.894
34502.000			28.934			-2.893
34600.000			28.931			-2.893
34700.000			28.929			-2.893
34801.000			28.928			-2.893
34900.000			28.926			-2.893
35001.000			28.924			-2.892
35100.000			28.923			-2.892
35201.000			28.921			-2.892
35302.000			28.919			-2.892
35400.000			28.918			-2.892
35500.000			28.916			-2.892
35601.000			28.914			-2.891
35700.000			28.912			-2.891
35800.000			28.910			-2.891
35901.000			28.909			-2.891
36001.000			28.907			-2.891
36101.000			28.905			-2.890
36201.000			28.903			-2.890
36300.000			28.902			-2.890
36400.000			28.898			-2.890
36501.000			28.897			-2.890
36600.000			28.896			-2.890
36700.000			28.895			-2.889
36802.000			28.893			-2.889
36901.000			28.892			-2.889
37000.000			28.890			-2.889
37101.000			28.887			-2.889
37200.000			28.885			-2.888
37300.000			28.884			-2.888
37401.000			28.882			-2.888
37500.000			28.881			-2.888
37600.000			28.880			-2.888
37702.000			28.878			-2.888
37801.000			28.876			-2.888
37900.000			28.874			-2.887
38001.000			28.872			-2.887
38100.000			28.871			-2.887
38201.000			28.870			-2.887
38300.000			28.867			-2.887
38400.000			28.866			-2.887
38502.000			28.865			-2.887
38601.000			28.862			-2.886
38700.000			28.861			-2.886
38801.000			28.859			-2.886
38900.000			28.858			-2.886
39000.000			28.857			-2.886
39101.000			28.856			-2.886
39200.000			28.855			-2.885
39301.000			28.852			-2.885
39402.000			28.850			-2.885
39500.000			28.849			-2.885
39600.000			28.848			-2.885
39701.000			28.846			-2.885
39800.000			28.844			-2.884
39900.000			28.843			-2.884
40001.000			28.842			-2.884
40100.000			28.840			-2.884
40201.000			28.839			-2.884
40302.000			28.838			-2.884
40400.000			28.836			-2.884
40500.000			28.835			-2.883
40601.000			28.833			-2.883
40700.000			28.832			-2.883
40800.000			28.831			-2.883
40901.000			28.828			-2.883
41001.000			28.826			-2.883
41101.000			28.825			-2.883
41201.000			28.824			-2.882
41300.000			28.823			-2.882
41401.000			28.821			-2.882
41500.000			28.819			-2.882
41600.000			28.817			-2.882
41701.000			28.815			-2.881
41801.000			28.815			-2.881
41901.000			28.814			-2.881
42001.000			28.812			-2.881
42100.000			28.810			-2.881
42200.000			28.808			-2.881
42301.000			28.807			-2.881
42400.000			28.806			-2.881
42500.000			28.805			-2.881
42602.000			28.803			-2.880
42701.000			28.801			-2.880
42800.000			28.800			-2.880
42901.000			28.799			-2.880
43000.000			28.795			-2.879
43100.000			28.795			-2.879
43201.000			28.794			-2.879
43300.000			28.792			-2.879
43400.000			28.791			-2.879
43502.000			28.790			-2.879
43601.000			28.790			-2.879
43700.000			28.787			-2.879
43801.000			28.785			-2.879
43900.000			28.784			-2.878
44000.000			28.782			-2.878
44101.000			28.781			-2.878
44200.000			28.780			-2.878
44301.000			28.779			-2.878
44402.000			28.777			-2.878
44500.000			28.775			-2.877
44601.000			28.773			-2.877
44700.000			28.773			-2.877
44800.000			28.772			-2.877
44901.000			28.770			-2.877
45000.000			28.768			-2.877
45101.000			28.767			-2.877
45202.000			28.766			-2.877
45301.000			28.765			-2.877
45400.000			28.764			-2.876
45501.000			28.762			-2.876
45600.000			28.762			-2.876
45700.000			28.760			-2.876
45801.000			28.758			-2.876
45900.000			28.756			-2.876
46001.000			28.755			-2.875
46102.000			28.754			-2.875
46200.000			28.753			-2.875
46300.000			28.752			-2.875
46401.000			28.750			-2.875
46500.000			28.748			-2.875
46600.000			28.745			-2.874
46701.000			28.743			-2.874
46801.000			28.743			-2.874
46901.000			28.743			-2.874
47001.000			28.741			-2.874
47100.000			28.740			-2.874
47200.000			28.740			-2.874
47301.000			28.738			-2.874
47400.000			28.735			-2.874
47500.000			28.734			-2.873
47602.000			28.733			-2.873
47701.000			28.732			-2.873
47801.000			28.730			-2.873
47900.000			28.728			-2.873
48000.000			28.727			-2.873
48101.000			28.724			-2.872
48200.000			28.724			-2.872
48300.000			28.723			-2.872
48402.000			28.723			-2.872
48501.000			28.720			-2.872
48601.000			28.719			-2.872
48701.000			28.719			-2.872
48800.000			28.716			-2.872
48900.000			28.715			-2.871
49001.000			28.714			-2.871
49100.000			28.713			-2.871
49200.000			28.712			-2.871
49302.000			28.711			-2.871
49401.000			28.710			-2.871
49500.000			28.709			-2.871
49601.000			28.705			-2.871
49700.000			28.705			-2.870
49800.000			28.703			-2.870
49901.000			28.701			-2.870
50000.000			28.701			-2.870
50101.000			28.701			-2.870
50202.000			28.699			-2.870
50300.000			28.696			-2.870
50400.000			28.696			-2.870
50501.000			28.695			-2.869
50600.000			28.694			-2.869
50700.000			28.693			-2.869
50801.000			28.692			-2.869
50901.000			28.691			-2.869
51002.000			28.689			-2.869
51100.000			28.687			-2.869
51200.000			28.686			-2.869
51301.000			28.685			-2.869
51400.000			28.684			-2.868
51500.000			28.682			-2.868
51601.000			28.681			-2.868
51701.000			28.679			-2.868
51801.000			28.678			-2.868
51901.000			28.676			-2.868
52000.000			28.676			-2.868
52100.000			28.676			-2.868
52201.000			28.674			-2.867
52300.000			28.672			-2.867
52400.000			28.672			-2.867
52502.000			28.670			-2.867
52601.000			28.668			-2.867
52700.000			28.667			-2.867
52801.000			28.666			-2.867
52900.000			28.665			-2.867
53000.000			28.664			-2.866
53101.000			28.663			-2.866
53200.000			28.661			-2.866
53301.000			28.660			-2.866
53402.000			28.658			-2.866
53500.000			28.658			-2.866
53600.000			28.657			-2.866
53701.000			28.655			-2.866
53800.000			28.655			-2.865
53900.000			28.652			-2.865
54001.000			28.652			-2.865
54101.000			28.650			-2.865
54202.000			28.649			-2.865
54300.000			28.648			-2.865
54400.000			28.648			-2.865
54501.000			28.647			-2.865
54600.000			28.646			-2.865
54700.000			28.643			-2.864
54801.000			28.642			-2.864
54901.000			28.641			-2.864
55001.000			28.640			-2.864
55101.000			28.640			-2.864
55200.000			28.639			-2.864
55300.000			28.636			-2.864
55401.000			28.635			-2.863
55500.000			28.634			-2.863
55600.000			28.634			-2.863
55702.000			28.632			-2.863
55801.000			28.631			-2.863
55900.000			28.630			-2.863
56001.000			28.629			-2.863
56100.000			28.628			-2.863
56200.000			28.626			-2.863
56301.000			28.626			-2.863
56400.000			28.626			-2.863
56501.000			28.624			-2.862
56602.000			28.623			-2.862
56701.000			28.622			-2.862
56800.000			28.621			-2.862
56901.000			28.620			-2.862
57000.000			28.619			-2.862
57100.000			28.618			-2.862
57201.000			28.616			-2.862
57301.000			28.615			-2.862
57402.000			28.615			-2.861
57501.000			28.614			-2.861
57600.000			28.612			-2.861
57701.000			28.611			-2.861
57800.000			28.609			-2.861
57900.000			28.609			-2.861
58001.000			28.607			-2.861
58100.000			28.606			-2.861
58201.000			28.606			-2.861
58302.000			28.603			-2.860
58400.000			28.603			-2.860
58500.000			28.602			-2.860
58601.000			28.601			-2.860
58700.000			28.599			-2.860
58800.000			28.598			-2.860
58901.000			28.598			-2.860
59001.000			28.597			-2.860
59101.000			28.596			-2.860
59201.000			28.595			-2.860
59300.000			28.594			-2.859
59400.000			28.592			-2.859
59501.000			28.592			-2.859
59600.000			28.591			-2.859
59700.000			28.590			-2.859
59802.000			28.587			-2.859
59901.000			28.586			-2.859
60001.000			28.585			-2.858
60101.000			28.585			-2.859
60200.000			28.584			-2.858
60300.000			28.583			-2.858
60401.000			28.582			-2.858
60500.000			28.580			-2.858
60601.000			28.578			-2.858
60701.000			28.578			-2.858
60801.000			28.578			-2.858
60901.000			28.577			-2.858
61000.000			28.576			-2.858
61100.000			28.575			-2.858
61201.000			28.574			-2.857
61300.000			28.572			-2.857
61400.000			28.571			-2.857
61502.000			28.571			-2.857
61601.000			28.570			-2.857
61700.000			28.569			-2.857
61801.000			28.568			-2.857
61900.000			28.568			-2.857
62000.000			28.565			-2.856
62101.000			28.564			-2.856
62200.000			28.564			-2.856
62301.000			28.563			-2.856
62402.000			28.562			-2.856
62500.000			28.559			-2.856
62600.000			28.559			-2.856
62701.000			28.559			-2.856
62800.000			28.558			-2.856
62900.000			28.556			-2.856
63001.000			28.556			-2.856
63101.000			28.555			-2.855
63201.000			28.553			-2.855
63301.000			28.553			-2.855
63400.000			28.552			-2.855
63500.000			28.549			-2.855
63601.000			28.548			-2.855
63700.000			28.548			-2.855
63801.000			28.547			-2.855
63901.000			28.546			-2.855
64001.000			28.545			-2.855
64101.000			28.545			-2.855
64200.000			28.544			-2.854
64300.000			28.542			-2.854
64401.000			28.541			-2.854
64500.000			28.541			-2.854
64600.000			28.540			-2.854
64702.000			28.539			-2.854
64801.000			28.538			-2.854
64901.000			28.534			-2.853
65001.000			28.534			-2.853
65100.000			28.534			-2.853
65200.000			28.533			-2.853
65301.000			28.532			-2.853
65400.000			28.531			-2.853
65500.000			28.530			-2.853
65602.000			28.529			-2.853
65701.000			28.528			-2.853
65800.000			28.528			-2.853
65901.000			28.527			-2.853
66000.000			28.526			-2.853
66100.000			28.526			-2.853
66201.000			28.524			-2.852
66300.000			28.523			-2.852
66401.000			28.522			-2.852
66502.000			28.521			-2.852
66600.000			28.520			-2.852
66700.000			28.520			-2.852
66801.000			28.519			-2.852
66900.000			28.517			-2.852
67001.000			28.517			-2.852
67100.000			28.515			-2.852
67201.000			28.514			-2.851
67302.000			28.513			-2.851
67400.000			28.512			-2.851
67500.000			28.512			-2.851
67601.000			28.511			-2.851
67700.000			28.510			-2.851
67800.000			28.508			-2.851
67901.000			28.507			-2.851
68001.000			28.506			-2.851
68101.000			28.506			-2.851
68202.000			28.505			-2.851
68300.000			28.504			-2.850
68400.000			28.503			-2.850
68501.000			28.502			-2.850
68600.000			28.501			-2.850
68700.000			28.500			-2.850
68801.000			28.498			-2.850
68901.000			28.499			-2.850
69001.000			28.499			-2.850
69101.000			28.497			-2.850
69200.000			28.496			-2.850
69300.000			28.495			-2.849
69401.000			28.493			-2.849
69500.000			28.492			-2.849
69600.000			28.492			-2.849
69702.000			28.490			-2.849
69801.000			28.491			-2.849
69901.000			28.489			-2.849
70001.000			28.488			-2.849
70100.000			28.487			-2.849
70201.000			28.486			-2.849
70300.000			28.485			-2.848
70400.000			28.485			-2.848
70501.000			28.484			-2.848
70601.000			28.483			-2.848
70701.000			28.483			-2.848
70801.000			28.481			-2.848
70900.000			28.479			-2.848
71000.000			28.477			-2.848
71101.000			28.478			-2.848
71200.000			28.478			-2.848
71300.000			28.478			-2.848
71402.000			28.476			-2.848
71501.000			28.474			-2.847
71600.000			28.473			-2.847
71701.000			28.472			-2.847
71800.000			28.472			-2.847
71900.000			28.472			-2.847
72001.000			28.471			-2.847
72100.000			28.470			-2.847
72201.000			28.468			-2.847
72302.000			28.466			-2.847
72401.000			28.466			-2.847
72500.000			28.464			-2.846
72601.000			28.466			-2.847
72700.000			28.466			-2.847
72800.000			28.464			-2.846
72901.000			28.463			-2.846
73000.000			28.460			-2.846
73101.000			28.460			-2.846
73202.000			28.461			-2.846
73300.000			28.460			-2.846
73401.000			28.459			-2.846
73500.000			28.457			-2.846
73600.000			28.457			-2.846
73701.000			28.454			-2.845
73800.000			28.454			-2.845
73901.000			28.453			-2.845
74002.000			28.453			-2.845
74101.000			28.452			-2.845
74200.000			28.452			-2.845
74301.000			28.451			-2.845
74400.000			28.448			-2.845
74500.000			28.448			-2.845
74601.000			28.447			-2.845
74700.000			28.446			-2.845
74801.000			28.446			-2.845
74902.000			28.445			-2.844
75000.000			28.445			-2.844
75100.000			28.443			-2.844
75201.000			28.442			-2.844
75300.000			28.441			-2.844
75400.000			28.440			-2.844
75501.000			28.439			-2.844
75601.000			28.439			-2.844
75701.000			28.438			-2.844
75801.000			28.437			-2.844
75900.000			28.437			-2.844
76000.000			28.436			-2.844
76101.000			28.434			-2.843
76200.000			28.433			-2.843
76300.000			28.433			-2.843
76402.000			28.432			-2.843
76501.000			28.432			-2.843
76602.000			28.430			-2.843
76700.000			28.429			-2.843
76800.000			28.429			-2.843
76901.000			28.428			-2.843
77000.000			28.427			-2.843
77100.000			28.427			-2.843
77201.000			28.427			-2.843
77301.000			28.425			-2.842
77401.000			28.424			-2.842
77501.000			28.424			-2.842
77600.000			28.423			-2.842
77700.000			28.421			-2.842
77801.000			28.421			-2.842
77900.000			28.420			-2.842
78000.000			28.418			-2.842
78102.000			28.418			-2.842
78201.000			28.418			-2.842
78300.000			28.418			-2.842
78401.000			28.417			-2.842
78500.000			28.415			-2.841
78600.000			28.414			-2.841
78701.000			28.414			-2.841
78800.000			28.412			-2.841
78900.000			28.411			-2.841
79002.000			28.411			-2.841
79101.000			28.411			-2.841
79200.000			28.410			-2.841
79301.000			28.409			-2.841
79400.000			28.408			-2.841
79500.000			28.408			-2.841
79601.000			28.406			-2.841
79700.000			28.405			-2.841
79802.000			28.405			-2.840
79901.000			28.404			-2.840
80000.000			28.404			-2.840
80101.000			28.403			-2.840
80200.000			28.403			-2.840
80300.000			28.401			-2.840
80401.000			28.399			-2.840
80500.000			28.398			-2.840
80601.000			28.398			-2.840
80702.000			28.398			-2.840
80800.000			28.397			-2.840
80900.000			28.397			-2.840
81001.000			28.395			-2.840
81100.000			28.394			-2.839
81200.000			28.393			-2.839
81301.000			28.393			-2.839
81401.000			28.393			-2.839
81501.000			28.391			-2.839
81601.000			28.390			-2.839
81700.000			28.390			-2.839
81800.000			28.389			-2.839
81901.000			28.388			-2.839
82000.000			28.388			-2.839
82100.000			28.386			-2.839
82201.000			28.387			-2.839
82301.000			28.387			-2.839
82401.000			28.385			-2.838
82501.000			28.384			-2.838
82600.000			28.382			-2.838
82700.000			28.381			-2.838
82801.000			28.381			-2.838
82900.000			28.381			-2.838
83001.000			28.381			-2.838
83101.000			28.381			-2.838
83201.000			28.379			-2.838
83302.000			28.378			-2.838
83400.000			28.376			-2.838
83500.000			28.376			-2.838
83601.000			28.375			-2.838
83700.000			28.374			-2.837
83800.000			28.374			-2.837
83901.000			28.372			-2.837
84001.000			28.371			-2.837
84101.000			28.371			-2.837
84201.000			28.371			-2.837
84300.000			28.370			-2.837
84400.000			28.370			-2.837
84501.000			28.369			-2.837
84600.000			28.369			-2.837
84700.000			28.366			-2.837
84802.000			28.366			-2.837
84901.000			28.366			-2.837
85000.000			28.365			-2.837
85101.000			28.364			-2.836
85200.000			28.363			-2.836
85300.000			28.363			-2.836
85401.000			28.362			-2.836
85500.000			28.361			-2.836
85601.000			28.360			-2.836
85702.000			28.360			-2.836
85801.000			28.359			-2.836
85900.000			28.358			-2.836
86001.000			28.358			-2.836
86100.000			28.356			-2.836
86201.000			28.356			-2.836
86300.000			28.355			-2.836
86400.000			28.354			-2.835
86502.000			28.354			-2.835
86601.000			28.352			-2.835
86700.000			28.351			-2.835
86801.000			28.350			-2.835
86900.000			28.350			-2.835
87000.000			28.348			-2.835
87101.000			28.348			-2.835
87200.000			28.348			-2.835
87301.000			28.348			-2.835
87402.000			28.348			-2.835
87501.000			28.348			-2.835
87600.000			28.346			-2.835
87701.000			28.346			-2.835
87800.000			28.343			-2.834
87900.000			28.342			-2.834
88001.000			28.342			-2.834
88100.000			28.341			-2.834
88201.000			28.341			-2.834
88302.000			28.341			-2.834
88400.000			28.340			-2.834
88500.000			28.340			-2.834
88601.000			28.339			-2.834
88700.000			28.338			-2.834
88800.000			28.338			-2.834
88901.000			28.336			-2.834
89001.000			28.335			-2.834
89101.000			28.335			-2.834
89201.000			28.335			-2.834
89300.000			28.335			-2.833
89401.000			28.334			-2.833
89500.000			28.333			-2.833
89600.000			28.333			-2.833
89701.000			28.331			-2.833
89801.000			28.330			-2.833
89901.000			28.330			-2.833
90002.000			28.329			-2.833
90100.000			28.329			-2.833
90200.000			28.329			-2.833
90301.000			28.329			-2.833
90400.000			28.327			-2.833
90500.000			28.327			-2.833
90601.000			28.327			-2.833
90701.000			28.326			-2.833
90801.000			28.324			-2.832
90901.000			28.323			-2.832
91000.000			28.322			-2.832
91100.000			28.322			-2.832
91201.000			28.321			-2.832
91300.000			28.320			-2.832
91400.000			28.319			-2.832
91502.000			28.319			-2.832
91601.000			28.319			-2.832
91700.000			28.318			-2.832
91801.000			28.318			-2.832
91900.000			28.318			-2.832
92000.000			28.317			-2.832
92101.000			28.316			-2.832
92200.000			28.315			-2.832
92301.000			28.315			-2.831
92402.000			28.314			-2.831
92500.000			28.313			-2.831
92601.000			28.312			-2.831
92700.000			28.312			-2.831
92800.000			28.312			-2.831
92901.000			28.311			-2.831
93000.000			28.310			-2.831
93101.000			28.309			-2.831
93202.000			28.308			-2.831
93300.000			28.308			-2.831
93400.000			28.306			-2.831
93501.000			28.306			-2.831
93600.000			28.306			-2.831
93700.000			28.306			-2.831
93801.000			28.304			-2.830
93901.000			28.304			-2.830
94001.000			28.304			-2.830
94102.000			28.304			-2.830
94200.000			28.301			-2.830
94300.000			28.299			-2.830
94401.000			28.298			-2.830
94500.000			28.299			-2.830
94600.000			28.298			-2.830
94701.000			28.296			-2.830
94801.000			28.297			-2.830
94901.000			28.296			-2.830
95001.000			28.296			-2.830
95100.000			28.295			-2.829
95200.000			28.293			-2.829
95301.000			28.294			-2.829
95400.000			28.294			-2.829
95500.000			28.292			-2.829
95602.000			28.291			-2.829
95701.000			28.292			-2.829
95802.000			28.291			-2.829
95900.000			28.290			-2.829
96000.000			28.289			-2.829
96101.000			28.289			-2.829
96200.000			28.288			-2.829
96300.000			28.287			-2.829
96401.000			28.286			-2.829
96501.000			28.284			-2.828
96601.000			28.284			-2.828
96701.000			28.284			-2.828
96800.000			28.284			-2.828
96900.000			28.283			-2.828
97001.000			28.283			-2.828
97100.000			28.281			-2.828
97200.000			28.279			-2.828
97302.000			28.279			-2.828
97401.000			28.278			-2.828
97501.000			28.278			-2.828
97601.000			28.278			-2.828
97700.000			28.277			-2.828
97800.000			28.277			-2.828
97901.000			28.276			-2.828
98000.000			28.276			-2.828
98100.000			28.275			-2.827
98202.000			28.273			-2.827
98301.000			28.273			-2.827
98400.000			28.272			-2.827
98501.000			28.272			-2.827
98600.000			28.271			-2.827
98700.000			28.270			-2.827
98801.000			28.269			-2.827
98900.000			28.268			-2.827
99001.000			28.268			-2.827
99101.000			28.268			-2.827
99201.000			28.268			-2.827
99301.000			28.266			-2.827
99400.000			28.266			-2.827
99500.000			28.265			-2.826
99601.000			28.264			-2.826
99700.000			28.264			-2.826
99800.000			28.263			-2.826
99901.000			28.262			-2.826
100001.000			28.261			-2.826
100101.000			28.261			-2.826
100201.000			28.260			-2.826
100300.000			28.259			-2.826
100400.000			28.259			-2.826
100501.000			28.260			-2.826
100600.000			28.259			-2.826
100700.000			28.258			-2.826
100802.000			28.258			-2.826
100901.000			28.256			-2.826
101000.000			28.256			-2.826
101101.000			28.255			-2.826
101200.000			28.256			-2.826
101300.000			28.255			-2.825
101401.000			28.253			-2.825
101500.000			28.253			-2.825
101601.000			28.253			-2.825
101702.000			28.251			-2.825
101801.000			28.250			-2.825
101900.000			28.250			-2.825
102001.000			28.249			-2.825
102100.000			28.249			-2.825
102201.000			28.247			-2.825
102300.000			28.248			-2.825
102400.000			28.247			-2.825
102502.000			28.247			-2.825
102601.000			28.248			-2.825
102700.000			28.246			-2.825
102801.000			28.246			-2.825
102900.000			28.244			-2.824
103000.000			28.244			-2.824
103101.000			28.242			-2.824
103200.000			28.241			-2.824
103301.000			28.240			-2.824
103402.000			28.241			-2.824
103500.000			28.241			-2.824
103600.000			28.241			-2.824
103701.000			28.239			-2.824
103800.000			28.239			-2.824
103900.000			28.238			-2.824
104001.000			28.238			-2.824
104101.000			28.237			-2.824
104201.000			28.236			-2.824
104301.000			28.236			-2.824
104400.000			28.235			-2.823
104500.000			28.235			-2.823
104601.000			28.234			-2.823
104700.000			28.233			-2.823
104800.000			28.233			-2.823
104902.000			28.232			-2.823
105001.000			28.231			-2.823
105101.000			28.231			-2.823
105201.000			28.229			-2.823
105300.000			28.229			-2.823
105401.000			28.229			-2.823
105500.000			28.229			-2.823
105600.000			28.228			-2.823
105701.000			28.228			-2.823
105801.000			28.226			-2.823
105901.000			28.226			-2.823
106001.000			28.225			-2.823
106100.000			28.225			-2.823
106200.000			28.225			-2.822
106301.000			28.223			-2.822
106400.000			28.222			-2.822
106500.000			28.223			-2.822
106602.000			28.221			-2.822
106701.000			28.221			-2.822
106800.000			28.220			-2.822
106901.000			28.220			-2.822
107000.000			28.219			-2.822
107100.000			28.219			-2.822
107201.000			28.219			-2.822
107300.000			28.218			-2.822
107400.000			28.217			-2.822
107502.000			28.217			-2.822
107601.000			28.216			-2.822
107700.000			28.215			-2.822
107801.000			28.215			-2.821
107900.000			28.214			-2.821
108000.000			28.213			-2.821
108101.000			28.212			-2.821
108200.000			28.212			-2.821
108301.000			28.211			-2.821
108402.000			28.211			-2.821
108500.000			28.210			-2.821
108601.000			28.210			-2.821
108700.000			28.209			-2.821
108800.000			28.208			-2.821
108901.000			28.208			-2.821
109000.000			28.207			-2.821
109101.000			28.206			-2.821
109202.000			28.206			-2.821
109301.000			28.206			-2.821
109400.000			28.205			-2.821
109501.000			28.204			-2.820
109600.000			28.204			-2.820
109700.000			28.203			-2.820
109801.000			28.202			-2.820
109900.000			28.201			-2.820
110001.000			28.201			-2.820
110102.000			28.201			-2.820
110200.000			28.200			-2.820
110300.000			28.200			-2.820
110401.000			28.200			-2.820
110500.000			28.199			-2.820
110600.000			28.198			-2.820
110701.000			28.197			-2.820
110801.000			28.197			-2.820
110901.000			28.197			-2.820
111001.000			28.194			-2.819
111100.000			28.194			-2.819
111200.000			28.194			-2.819
111301.000			28.194			-2.819
111400.000			28.193			-2.819
111500.000			28.192			-2.819
111602.000			28.191			-2.819
111701.000			28.190			-2.819
111802.000			28.190			-2.819
111900.000			28.190			-2.819
112000.000			28.190			-2.819
112101.000			28.189			-2.819
112200.000			28.188			-2.819
112300.000			28.189			-2.819
112401.000			28.187			-2.819
112501.000			28.185			-2.819
112601.000			28.185			-2.818
112701.000			28.186			-2.819
112800.000			28.185			-2.819
112900.000			28.184			-2.818
113001.000			28.183			-2.818
113100.000			28.183			-2.818
113200.000			28.182			-2.818
113302.000			28.182			-2.818
113401.000			28.180			-2.818
113501.000			28.180			-2.818
113601.000			28.180			-2.818
113700.000			28.178			-2.818
113800.000			28.178			-2.818
113901.000			28.177			-2.818
114000.000			28.175			-2.818
114100.000			28.176			-2.818
114202.000			28.176			-2.818
114301.000			28.175			-2.817
114400.000			28.174			-2.817
114501.000			28.175			-2.818
114600.000			28.173			-2.817
114700.000			28.173			-2.817
114801.000			28.172			-2.817
114900.000			28.171			-2.817
115001.000			28.171			-2.817
115101.000			28.172			-2.817
115201.000			28.171			-2.817
115301.000			28.170			-2.817
115400.000			28.169			-2.817
115500.000			28.169			-2.817
115601.000			28.169			-2.817
115700.000			28.168			-2.817
115800.000			28.167			-2.817
115902.000			28.166			-2.817
116001.000			28.165			-2.817
116100.000			28.165			-2.817
116201.000			28.165			-2.816
116300.000			28.164			-2.816
116400.000			28.163			-2.816
116501.000			28.164			-2.816
116600.000			28.164			-2.816
116700.000			28.163			-2.816
116802.000			28.161			-2.816
116901.000			28.161			-2.816
117000.000			28.161			-2.816
117101.000			28.160			-2.816
117200.000			28.160			-2.816
117300.000			28.160			-2.816
117401.000			28.159			-2.816
117500.000			28.158			-2.816
117601.000			28.156			-2.816
117702.000			28.155			-2.816
117800.000			28.156			-2.816
117900.000			28.156			-2.816
118001.000			28.155			-2.816
118100.000			28.154			-2.815
118201.000			28.154			-2.815
118300.000			28.153			-2.815
118400.000			28.152			-2.815
118502.000			28.152			-2.815
118601.000			28.151			-2.815
118700.000			28.150			-2.815
118801.000			28.151			-2.815
118900.000			28.150			-2.815
119000.000			28.148			-2.815
119101.000			28.148			-2.815
119200.000			28.149			-2.815
119301.000			28.148			-2.815
119402.000			28.147			-2.815
119501.000			28.147			-2.815
119600.000			28.146			-2.815
119701.000			28.145			-2.815
119800.000			28.145			-2.814
119900.000			28.143			-2.814
120001.000			28.144			-2.814
120100.000			28.144			-2.814
120201.000			28.144			-2.814
120302.000			28.142			-2.814
120400.000			28.141			-2.814
120500.000			28.140			-2.814
120601.000			28.139			-2.814
120700.000			28.139			-2.814
120800.000			28.139			-2.814
120901.000			28.138			-2.814
121001.000			28.138			-2.814
121101.000			28.137			-2.814
121201.000			28.136			-2.814
121300.000			28.136			-2.814
121401.000			28.135			-2.813
121500.000			28.134			-2.813
121600.000			28.134			-2.813
121701.000			28.134			-2.813
121801.000			28.133			-2.813
121901.000			28.133			-2.813
122002.000			28.132			-2.813
122100.000			28.131			-2.813
122200.000			28.131			-2.813
122301.000			28.131			-2.813
122400.000			28.130			-2.813
122500.000			28.129			-2.813
122601.000			28.129			-2.813
122701.000			28.130			-2.813
122801.000			28.129			-2.813
122901.000			28.129			-2.813
123000.000			28.127			-2.813
123100.000			28.125			-2.813
123201.000			28.126			-2.813
123300.000			28.126			-2.813
123400.000			28.125			-2.813
123502.000			28.124			-2.812
123601.000			28.124			-2.812
123700.000			28.124			-2.812
123801.000			28.124			-2.812
123900.000			28.123			-2.812
124000.000			28.121			-2.812
124101.000			28.120			-2.812
124200.000			28.120			-2.812
124301.000			28.120			-2.812
124402.000			28.119			-2.812
124501.000			28.119			-2.812
124601.000			28.119			-2.812
124700.000			28.118			-2.812
124800.000			28.118			-2.812
124901.000			28.118			-2.812
125000.000			28.118			-2.812
125100.000			28.116			-2.812
125202.000			28.115			-2.812
125301.000			28.115			-2.811
125400.000			28.115			-2.811
125501.000			28.114			-2.811
125600.000			28.113			-2.811
125700.000			28.113			-2.811
125801.000			28.113			-2.811
125900.000			28.112			-2.811
126001.000			28.112			-2.811
126102.000			28.111			-2.811
126201.000			28.111			-2.811
126300.000			28.110			-2.811
126401.000			28.109			-2.811
126500.000			28.108			-2.811
126600.000			28.108			-2.811
126701.000			28.108			-2.811
126800.000			28.108			-2.811
126901.000			28.108			-2.811
127002.000			28.106			-2.811
127100.000			28.106			-2.811
127200.000			28.105			-2.810
127301.000			28.104			-2.810
127400.000			28.104			-2.810
127500.000			28.104			-2.810
127601.000			28.104			-2.810
127701.000			28.103			-2.810
127802.000			28.102			-2.810
127901.000			28.101			-2.810
128000.000			28.102			-2.810
128101.000			28.101			-2.810
128200.000			28.100			-2.810
128300.000			28.101			-2.810
128401.000			28.099			-2.810
128500.000			28.097			-2.810
128601.000			28.097			-2.810
128702.000			28.097			-2.810
128800.000			28.096			-2.810
128900.000			28.096			-2.810
129001.000			28.096			-2.810
129100.000			28.095			-2.810
129200.000			28.095			-2.809
129301.000			28.093			-2.809
129401.000			28.094			-2.809
129501.000			28.094			-2.809
129602.000			28.093			-2.809
129700.000			28.093			-2.809
129800.000			28.092			-2.809
129901.000			28.092			-2.809
130000.000			28.092			-2.809
130100.000			28.090			-2.809
130201.000			28.090			-2.809
130301.000			28.090			-2.809
130401.000			28.089			-2.809
130501.000			28.088			-2.809
130600.000			28.087			-2.809
130700.000			28.088			-2.809
130801.000			28.087			-2.809
130900.000			28.086			-2.809
131001.000			28.085			-2.809
131101.000			28.086			-2.809
131201.000			28.086			-2.809
131302.000			28.085			-2.808
131400.000			28.084			-2.808
131500.000			28.083			-2.808
131601.000			28.083			-2.808
131700.000			28.083			-2.808
131800.000			28.082			-2.808
131901.000			28.082			-2.808
132001.000			28.081			-2.808
132101.000			28.080			-2.808
132202.000			28.080			-2.808
132300.000			28.078			-2.808
132400.000			28.079			-2.808
132501.000			28.079			-2.808
132600.000			28.078			-2.808
132700.000			28.077			-2.808
132801.000			28.077			-2.808
132900.000			28.075			-2.808
133001.000			28.075			-2.807
133102.000			28.076			-2.808
133200.000			28.075			-2.808
133300.000			28.074			-2.807
133401.000			28.074			-2.807
133500.000			28.073			-2.807
133600.000			28.073			-2.807
133701.000			28.072			-2.807
133800.000			28.071			-2.807
133901.000			28.070			-2.807
134002.000			28.070			-2.807
134100.000			28.070			-2.807
134201.000			28.070			-2.807
134300.000			28.070			-2.807
134400.000			28.068			-2.807
134501.000			28.068			-2.807
134600.000			28.067			-2.807
134700.000			28.067			-2.807
134802.000			28.066			-2.807
134901.000			28.067			-2.807
135001.000			28.066			-2.807
135101.000			28.065			-2.806
135200.000			28.064			-2.806
135300.000			28.064			-2.806
135401.000			28.063			-2.806
135500.000			28.063			-2.806
135600.000			28.064			-2.806
135702.000			28.062			-2.806
135801.000			28.062			-2.806
135901.000			28.061			-2.806
136001.000			28.061			-2.806
136100.000			28.060			-2.806
136200.000			28.060			-2.806
136301.000			28.059			-2.806
136400.000			28.059			-2.806
136500.000			28.059			-2.806
136602.000			28.059			-2.806
136701.000			28.059			-2.806
136801.000			28.058			-2.806
136901.000			28.057			-2.806
137000.000			28.057			-2.806
137100.000			28.057			-2.806
137201.000			28.056			-2.806
137300.000			28.055			-2.805
137401.000			28.055			-2.806
137500.000			28.055			-2.805
137601.000			28.054			-2.805
137702.000			28.053			-2.805
137801.000			28.053			-2.805
137900.000			28.053			-2.805
138001.000			28.051			-2.805
138100.000			28.052			-2.805
138200.000			28.051			-2.805
138301.000			28.050			-2.805
138400.000			28.050			-2.805
138500.000			28.050			-2.805
138602.000			28.049			-2.805
138701.000			28.048			-2.805
138800.000			28.049			-2.805
138901.000			28.048			-2.805
139000.000			28.048			-2.805
139100.000			28.047			-2.805
139201.000			28.046			-2.805
139300.000			28.046			-2.805
139400.000			28.046			-2.805
139502.000			28.045			-2.805
139601.000			28.044			-2.804
139700.000			28.043			-2.804
139801.000			28.044			-2.804
139900.000			28.043			-2.804
140000.000			28.042			-2.804
140101.000			28.042			-2.804
140200.000			28.042			-2.804
140300.000			28.041			-2.804
140402.000			28.041			-2.804
140501.000			28.040			-2.804
140601.000			28.040			-2.804
140700.000			28.039			-2.804
140800.000			28.039			-2.804
140901.000			28.038			-2.804
141000.000			28.039			-2.804
141100.000			28.038			-2.804
141201.000			28.037			-2.804
141301.000			28.036			-2.804
141401.000			28.036			-2.804
141502.000			28.035			-2.804
141600.000			28.036			-2.804
141700.000			28.034			-2.803
141801.000			28.034			-2.803
141900.000			28.034			-2.803
142000.000			28.034			-2.803
142101.000			28.033			-2.803
142201.000			28.032			-2.803
142301.000			28.032			-2.803
142402.000			28.032			-2.803
142500.000			28.031			-2.803
142600.000			28.030			-2.803
142701.000			28.031			-2.803
142800.000			28.030			-2.803
142900.000			28.029			-2.803
143001.000			28.029			-2.803
143101.000			28.028			-2.803
143201.000			28.027			-2.803
143302.000			28.028			-2.803
143400.000			28.028			-2.803
143500.000			28.027			-2.803
143601.000			28.026			-2.803
143700.000			28.026			-2.803
143801.000			28.026			-2.803
143900.000			28.025			-2.802
144000.000			28.025			-2.802
144102.000			28.024			-2.802
144201.000			28.024			-2.802
144300.000			28.022			-2.802
144401.000			28.022			-2.802
144500.000			28.022			-2.802
144600.000			28.021			-2.802
144701.000			28.020			-2.802
144800.000			28.020			-2.802
144900.000			28.021			-2.802
145002.000			28.020			-2.802
145101.000			28.019			-2.802
145200.000			28.019			-2.802
145301.000			28.018			-2.802
145400.000			28.018			-2.802
145500.000			28.017			-2.802
145601.000			28.016			-2.802
145700.000			28.015			-2.802
145800.000			28.016			-2.802
145902.000			28.015			-2.801
146001.000			28.015			-2.801
146101.000			28.014			-2.801
146201.000			28.014			-2.801
146300.000			28.013			-2.801
146400.000			28.013			-2.801
146501.000			28.014			-2.801
146600.000			28.013			-2.801
146700.000			28.012			-2.801
146802.000			28.011			-2.801
146901.000			28.011			-2.801
147002.000			28.011			-2.801
147100.000			28.010			-2.801
147200.000			28.009			-2.801
147301.000			28.009			-2.801
147400.000			28.010			-2.801
147500.000			28.009			-2.801
147601.000			28.008			-2.801
147700.000			28.008			-2.801
147801.000			28.007			-2.801
147902.000			28.008			-2.801
148000.000			28.008			-2.801
148100.000			28.007			-2.801
148201.000			28.007			-2.801
148300.000			28.006			-2.801
148400.000			28.004			-2.800
148501.000			28.004			-2.800
148600.000			28.004			-2.800
148701.000			28.003			-2.800
148802.000			28.003			-2.800
148901.000			28.004			-2.800
149000.000			28.002			-2.800
149101.000			28.002			-2.800
149200.000			28.002			-2.800
149300.000			28.002			-2.800
149401.000			28.001			-2.800
149500.000			28.001			-2.800
149601.000			28.001			-2.800
149702.000			28.000			-2.800
149801.000			28.000			-2.800
149900.000			27.999			-2.800
150001.000			27.999			-2.800
150100.000			27.998			-2.800
150201.000			27.998			-2.800
150300.000			27.998			-2.800
150400.000			27.998			-2.800
150501.000			27.998			-2.800
150601.000			27.997			-2.800
150701.000			27.997			-2.800
150802.000			27.996			-2.800
150900.000			27.995			-2.800
151000.000			27.994			-2.799
151101.000			27.994			-2.799
151200.000			27.995			-2.800
151300.000			27.995			-2.799
151401.000			27.994			-2.799
151500.000			27.993			-2.799
151601.000			27.992			-2.799
151702.000			27.991			-2.799
151800.000			27.991			-2.799
151900.000			27.991			-2.799
152001.000			27.991			-2.799
152100.000			27.990			-2.799
152200.000			27.989			-2.799
152301.000			27.989			-2.799
152400.000			27.989			-2.799
152500.000			27.988			-2.799
152602.000			27.988			-2.799
152701.000			27.987			-2.799
152800.000			27.987			-2.799
152901.000			27.987			-2.799
153000.000			27.987			-2.799
153100.000			27.985			-2.799
153201.000			27.985			-2.798
153300.000			27.986			-2.799
153401.000			27.986			-2.799
153501.000			27.986			-2.799
153601.000			27.985			-2.799
153702.000			27.984			-2.798
153800.000			27.985			-2.798
153900.000			27.985			-2.798
154001.000			27.984			-2.798
154100.000			27.982			-2.798
154200.000			27.982			-2.798
154301.000			27.982			-2.798
154400.000			27.982			-2.798
154501.000			27.981			-2.798
154602.000			27.981			-2.798
154701.000			27.981			-2.798
154800.000			27.981			-2.798
154901.000			27.979			-2.798
155000.000			27.979			-2.798
155100.000			27.978			-2.798
155201.000			27.978			-2.798
155300.000			27.978			-2.798
155400.000			27.978			-2.798
155502.000			27.978			-2.798
155601.000			27.977			-2.798
155701.000			27.976			-2.798
155801.000			27.974			-2.797
155900.000			27.974			-2.797
156000.000			27.974			-2.797
156101.000			27.974			-2.797
156200.000			27.974			-2.797
156300.000			27.974			-2.797
156401.000			27.973			-2.797
156501.000			27.972			-2.797
156602.000			27.972			-2.797
156701.000			27.971			-2.797
156800.000			27.971			-2.797
156901.000			27.971			-2.797
157000.000			27.970			-2.797
157100.000			27.971			-2.797
157201.000			27.970			-2.797
157300.000			27.969			-2.797
157400.000			27.969			-2.797
157502.000			27.968			-2.797
157601.000			27.968			-2.797
157700.000			27.967			-2.797
157801.000			27.966			-2.797
157900.000			27.967			-2.797
158000.000			27.966			-2.797
158101.000			27.964			-2.796
158200.000			27.964			-2.796
158300.000			27.965			-2.796
158401.000			27.964			-2.796
158501.000			27.963			-2.796
158601.000			27.963			-2.796
158701.000			27.962			-2.796
158800.000			27.961			-2.796
158900.000			27.961			-2.796
159001.000			27.961			-2.796
159100.000			27.961			-2.796
159200.000			27.959			-2.796
159301.000			27.959			-2.796
159400.000			27.960			-2.796
159501.000			27.959			-2.796
159602.000			27.958			-2.796
159701.000			27.958			-2.796
159801.000			27.958			-2.796
159900.000			27.957			-2.796
160000.000			27.957			-2.796
160101.000			27.957			-2.796
160200.000			27.957			-2.796
160300.000			27.956			-2.796
160401.000			27.955			-2.795
160501.000			27.955			-2.795
160601.000			27.955			-2.795
160701.000			27.954			-2.795
160800.000			27.953			-2.795
160900.000			27.953			-2.795
161001.000			27.952			-2.795
161100.000			27.953			-2.795
161200.000			27.952			-2.795
161301.000			27.952			-2.795
161401.000			27.952			-2.795
161501.000			27.952			-2.795
161602.000			27.951			-2.795
161700.000			27.950			-2.795
161800.000			27.950			-2.795
161901.000			27.949			-2.795
162000.000			27.949			-2.795
162100.000			27.950			-2.795
162201.000			27.948			-2.795
162300.000			27.948			-2.795
162401.000			27.947			-2.795
162502.000			27.947			-2.795
162601.000			27.947			-2.795
162700.000			27.947			-2.795
162801.000			27.946			-2.795
162900.000			27.944			-2.794
163001.000			27.944			-2.794
163100.000			27.944			-2.794
163200.000			27.943			-2.794
163301.000			27.943			-2.794
163401.000			27.943			-2.794
163501.000			27.941			-2.794
163602.000			27.942			-2.794
163700.000			27.941			-2.794
163800.000			27.942			-2.794
163901.000			27.942			-2.794
164000.000			27.940			-2.794
164100.000			27.940			-2.794
164201.000			27.940			-2.794
164300.000			27.939			-2.794
164401.000			27.940			-2.794
164502.000			27.939			-2.794
164601.000			27.938			-2.794
164700.000			27.938			-2.794
164801.000			27.938			-2.794
164900.000			27.938			-2.794
165000.000			27.937			-2.794
165101.000			27.936			-2.794
165200.000			27.936			-2.794
165300.000			27.936			-2.794
165402.000			27.935			-2.793
165501.000			27.934			-2.793
165600.000			27.933			-2.793
165701.000			27.934			-2.793
165800.000			27.932			-2.793
165900.000			27.931			-2.793
166001.000			27.932			-2.793
166100.000			27.931			-2.793
166201.000			27.930			-2.793
166301.000			27.931			-2.793
166401.000			27.931			-2.793
166502.000			27.931			-2.793
166600.000			27.930			-2.793
166700.000			27.930			-2.793
166801.000			27.930			-2.793
166900.000			27.929			-2.793
167000.000			27.928			-2.793
167101.000			27.927			-2.793
167200.000			27.927			-2.793
167301.000			27.925			-2.793
167402.000			27.926			-2.793
167501.000			27.926			-2.793
167600.000			27.925			-2.793
167701.000			27.925			-2.793
167800.000			27.925			-2.792
167900.000			27.924			-2.792
168001.000			27.924			-2.792
168100.000			27.924			-2.792
168200.000			27.924			-2.792
168302.000			27.922			-2.792
168401.000			27.922			-2.792
168501.000			27.922			-2.792
168601.000			27.922			-2.792
168700.000			27.921			-2.792
168800.000			27.920			-2.792
168901.000			27.921			-2.792
169000.000			27.920			-2.792
169100.000			27.919			-2.792
169201.000			27.918			-2.792
169301.000			27.918			-2.792
169402.000			27.919			-2.792
169501.000			27.918			-2.792
169600.000			27.917			-2.792
169701.000			27.916			-2.792
169800.000			27.917			-2.792
169900.000			27.916			-2.792
170001.000			27.916			-2.792
170100.000			27.916			-2.792
170200.000			27.916			-2.792
170302.000			27.915			-2.792
170401.000			27.914			-2.791
170500.000			27.914			-2.791
170601.000			27.914			-2.791
170700.000			27.913			-2.791
170800.000			27.913			-2.791
170901.000			27.913			-2.791
171000.000			27.911			-2.791
171100.000			27.911			-2.791
171202.000			27.911			-2.791
171301.000			27.911			-2.791
171400.000			27.911			-2.791
171501.000			27.910			-2.791
171600.000			27.910			-2.791
171700.000			27.910			-2.791
171801.000			27.909			-2.791
171900.000			27.909			-2.791
172000.000			27.909			-2.791
172102.000			27.908			-2.791
172201.000			27.906			-2.791
172301.000			27.907			-2.791
172401.000			27.906			-2.791
172500.000			27.907			-2.791
172601.000			27.907			-2.791
172700.000			27.907			-2.791
172800.000			27.906			-2.791
172901.000			27.905			-2.791
173000.000			27.904			-2.790
173101.000			27.905			-2.791
173202.000			27.903			-2.790
173301.000			27.902			-2.790
173400.000			27.903			-2.790
173501.000			27.903			-2.790
173600.000			27.902			-2.790
173700.000			27.902			-2.790
173801.000			27.903			-2.790
173900.000			27.901			-2.790
174000.000			27.900			-2.790
174102.000			27.901			-2.790
174201.000			27.900			-2.790
174300.000			27.900			-2.790
174401.000			27.900			-2.790
174500.000			27.899			-2.790
174600.000			27.899			-2.790
174701.000			27.898			-2.790
174800.000			27.897			-2.790
174900.000			27.897			-2.790
175002.000			27.897			-2.790
175101.000			27.897			-2.790
175201.000			27.897			-2.790
175301.000			27.895			-2.789
175400.000			27.896			-2.790
175500.000			27.897			-2.790
175601.000			27.896			-2.790
175700.000			27.895			-2.790
175801.000			27.895			-2.789
175900.000			27.894			-2.789
176001.000			27.893			-2.789
176102.000			27.894			-2.789
176201.000			27.894			-2.789
176300.000			27.894			-2.789
176401.000			27.893			-2.789
176500.000			27.892			-2.789
176600.000			27.893			-2.789
176701.000			27.892			-2.789
176800.000			27.890			-2.789
176900.000			27.890			-2.789
177002.000			27.889			-2.789
177101.000			27.890			-2.789
177201.000			27.890			-2.789
177301.000			27.889			-2.789
177400.000			27.889			-2.789
177500.000			27.887			-2.789
177601.000			27.887			-2.789
177700.000			27.887			-2.789
177800.000			27.886			-2.789
177901.000			27.886			-2.789
178000.000			27.886			-2.789
178101.000			27.886			-2.789
178202.000			27.885			-2.788
178300.000			27.885			-2.788
178400.000			27.884			-2.788
178501.000			27.884			-2.788
178600.000			27.885			-2.788
178700.000			27.884			-2.788
178801.000			27.883			-2.788
178900.000			27.883			-2.788
179001.000			27.882			-2.788
179101.000			27.881			-2.788
179201.000			27.882			-2.788
179302.000			27.881			-2.788
179400.000			27.881			-2.788
179500.000			27.880			-2.788
179601.000			27.879			-2.788
179700.000			27.880			-2.788
179800.000			27.879			-2.788
179901.000			27.880			-2.788
180000.000			27.879			-2.788
180101.000			27.878			-2.788
180202.000			27.878			-2.788
180301.000			27.877			-2.788
180400.000			27.877			-2.788
180501.000			27.877			-2.788
180600.000			27.876			-2.788
180700.000			27.876			-2.788
180801.000			27.876			-2.788
180900.000			27.875			-2.788
181000.000			27.875			-2.788
181102.000			27.876			-2.788
181201.000			27.874			-2.787
181301.000			27.874			-2.787
181401.000			27.874			-2.787
181500.000			27.873			-2.787
181600.000			27.874			-2.787
181701.000			27.874			-2.787
181800.000			27.874			-2.787
181900.000			27.872			-2.787
182001.000			27.872			-2.787
182101.000			27.872			-2.787
182202.000			27.871			-2.787
182301.000			27.870			-2.787
182400.000			27.870			-2.787
182501.000			27.871			-2.787
182600.000			27.871			-2.787
182700.000			27.871			-2.787
182801.000			27.870			-2.787
182900.000			27.870			-2.787
183000.000			27.868			-2.787
183102.000			27.868			-2.787
183201.000			27.868			-2.787
183300.000			27.867			-2.787
183401.000			27.867			-2.787
183500.000			27.867			-2.787
183600.000			27.867			-2.787
183701.000			27.866			-2.787
183800.000			27.865			-2.787
183900.000			27.865			-2.787
184001.000			27.865			-2.786
184101.000			27.866			-2.787
184201.000			27.864			-2.786
184301.000			27.863			-2.786
184400.000			27.863			-2.786
184500.000			27.862			-2.786
184601.000			27.863			-2.786
184700.000			27.863			-2.786
184800.000			27.862			-2.786
184901.000			27.861			-2.786
185000.000			27.861			-2.786
185101.000			27.861			-2.786
185202.000			27.861			-2.786
185300.000			27.860			-2.786
185401.000			27.859			-2.786
185500.000			27.859			-2.786
185600.000			27.858			-2.786
185701.000			27.858			-2.786
185800.000			27.857			-2.786
185900.000			27.857			-2.786
186001.000			27.857			-2.786
186101.000			27.856			-2.786
186201.000			27.856			-2.786
186301.000			27.855			-2.785
186400.000			27.856			-2.786
186500.000			27.855			-2.786
186601.000			27.854			-2.785
186700.000			27.853			-2.785
186800.000			27.854			-2.785
186901.000			27.854			-2.785
187001.000			27.854			-2.785
187101.000			27.854			-2.785
187202.000			27.853			-2.785
187300.000			27.852			-2.785
187400.000			27.852			-2.785
187501.000			27.853			-2.785
187600.000			27.852			-2.785
187700.000			27.852			-2.785
187801.000			27.851			-2.785
187900.000			27.851			-2.785
188001.000			27.850			-2.785
188102.000			27.850			-2.785
188201.000			27.849			-2.785
188300.000			27.848			-2.785
188401.000			27.848			-2.785
188500.000			27.848			-2.785
188601.000			27.847			-2.785
188700.000			27.847			-2.785
188800.000			27.846			-2.785
188901.000			27.846			-2.785
189001.000			27.846			-2.785
189101.000			27.846			-2.785
189202.000			27.845			-2.785
189300.000			27.844			-2.784
189400.000			27.844			-2.784
189501.000			27.845			-2.784
189600.000			27.844			-2.784
189700.000			27.843			-2.784
189801.000			27.843			-2.784
189900.000			27.842			-2.784
190000.000			27.841			-2.784
190102.000			27.842			-2.784
190201.000			27.843			-2.784
190300.000			27.843			-2.784
190401.000			27.841			-2.784
190500.000			27.842			-2.784
190600.000			27.841			-2.784
190701.000			27.841			-2.784
190800.000			27.840			-2.784
190900.000			27.839			-2.784
191002.000			27.839			-2.784
191101.000			27.838			-2.784
191200.000			27.839			-2.784
191301.000			27.839			-2.784
191400.000			27.837			-2.784
191500.000			27.836			-2.784
191601.000			27.836			-2.784
191700.000			27.836			-2.784
191801.000			27.836			-2.784
191901.000			27.836			-2.784
192001.000			27.837			-2.784
192102.000			27.836			-2.784
192200.000			27.834			-2.783
192300.000			27.835			-2.783
192401.000			27.833			-2.783
192500.000			27.833			-2.783
192600.000			27.834			-2.783
192701.000			27.833			-2.783
192800.000			27.832			-2.783
192901.000			27.832			-2.783
193002.000			27.831			-2.783
193101.000			27.831			-2.783
193200.000			27.831			-2.783
193301.000			27.831			-2.783
193400.000			27.831			-2.783
193500.000			27.831			-2.783
193601.000			27.829			-2.783
193700.000			27.829			-2.783
193800.000			27.828			-2.783
193902.000			27.829			-2.783
194001.000			27.829			-2.783
194101.000			27.828			-2.783
194201.000			27.827			-2.783
194300.000			27.827			-2.783
194400.000			27.828			-2.783
194501.000			27.827			-2.783
194600.000			27.826			-2.783
194700.000			27.825			-2.782
194801.000			27.825			-2.783
194901.000			27.826			-2.783
195002.000			27.826			-2.783
195101.000			27.824			-2.782
195200.000			27.824			-2.782
195301.000			27.824			-2.782
195400.000			27.824			-2.782
195500.000			27.824			-2.782
195601.000			27.823			-2.782
195700.000			27.822			-2.782
195800.000			27.821			-2.782
195902.000			27.822			-2.782
196001.000			27.822			-2.782
196100.000			27.822			-2.782
196201.000			27.822			-2.782
196300.000			27.822			-2.782
196400.000			27.821			-2.782
196501.000			27.819			-2.782
196600.000			27.819			-2.782
196700.000			27.819			-2.782
196801.000			27.819			-2.782
196901.000			27.820			-2.782
197001.000			27.819			-2.782
197101.000			27.819			-2.782
197200.000			27.818			-2.782
197300.000			27.818			-2.782
197401.000			27.818			-2.782
197500.000			27.816			-2.782
197600.000			27.815			-2.782
197701.000			27.815			-2.781
197801.000			27.814			-2.781
197901.000			27.814			-2.781
198002.000			27.815			-2.781
198100.000			27.813			-2.781
198201.000			27.813			-2.781
198300.000			27.814			-2.781
198400.000			27.814			-2.781
198501.000			27.813			-2.781
198600.000			27.812			-2.781
198700.000			27.812			-2.781
198802.000			27.812			-2.781
198901.000			27.812			-2.781
199001.000			27.810			-2.781
199101.000			27.811			-2.781
199200.000			27.812			-2.781
199300.000			27.810			-2.781
199401.000			27.810			-2.781
199500.000			27.809			-2.781
199600.000			27.809			-2.781
199701.000			27.809			-2.781
199801.000			27.809			-2.781
199901.000			27.808			-2.781
200002.000			27.808			-2.781
200100.000			27.810			-2.781
200200.000			27.808			-2.781
200301.000			27.808			-2.781
200400.000			27.808			-2.781
200500.000			27.806			-2.781
200601.000			27.806			-2.781
200700.000			27.806			-2.781
200801.000			27.806			-2.781
200902.000			27.806			-2.781
201000.000			27.805			-2.781
201100.000			27.805			-2.780
201201.000			27.803			-2.780
201300.000			27.804			-2.780
201401.000			27.804			-2.780
201500.000			27.803			-2.780
201600.000			27.804			-2.780
201702.000			27.803			-2.780
201801.000			27.803			-2.780
201900.000			27.802			-2.780
202001.000			27.801			-2.780
202100.000			27.802			-2.780
202200.000			27.802			-2.780
202301.000			27.801			-2.780
202400.000			27.800			-2.780
202500.000			27.799			-2.780
202602.000			27.799			-2.780
202701.000			27.800			-2.780
202801.000			27.799			-2.780
202901.000			27.799			-2.780
203000.000			27.799			-2.780
203100.000			27.798			-2.780
203201.000			27.798			-2.780
203300.000			27.799			-2.780
203400.000			27.797			-2.780
203501.000			27.797			-2.780
203601.000			27.797			-2.780
203701.000			27.796			-2.780
203801.000			27.795			-2.780
203900.000			27.795			-2.779
204000.000			27.795			-2.779
204101.000			27.795			-2.780
204200.000			27.795			-2.779
204300.000			27.794			-2.779
204401.000			27.793			-2.779
204501.000			27.792			-2.779
204602.000			27.794			-2.779
204701.000			27.794			-2.779
204800.000			27.793			-2.779
204901.000			27.792			-2.779
205000.000			27.792			-2.779
205100.000			27.793			-2.779
205201.000			27.792			-2.779
205300.000			27.791			-2.779
205400.000			27.791			-2.779
205502.000			27.789			-2.779
205601.000			27.788			-2.779
205700.000			27.788			-2.779
205801.000			27.789			-2.779
205900.000			27.789			-2.779
206000.000			27.789			-2.779
206101.000			27.788			-2.779
206200.000			27.788			-2.779
206300.000			27.788			-2.779
206401.000			27.788			-2.779
206501.000			27.787			-2.779
206601.000			27.787			-2.779
206701.000			27.786			-2.779
206800.000			27.787			-2.779
206900.000			27.785			-2.779
207001.000			27.785			-2.779
207100.000			27.784			-2.778
207200.000			27.784			-2.778
207301.000			27.785			-2.778
207401.000			27.784			-2.778
207501.000			27.784			-2.778
207602.000			27.783			-2.778
207700.000			27.783			-2.778
207801.000			27.783			-2.778
207900.000			27.783			-2.778
208000.000			27.782			-2.778
208101.000			27.781			-2.778
208200.000			27.782			-2.778
208300.000			27.782			-2.778
208402.000			27.781			-2.778
208501.000			27.779			-2.778
208601.000			27.780			-2.778
208701.000			27.780			-2.778
208800.000			27.780			-2.778
208900.000			27.780			-2.778
209001.000			27.779			-2.778
209100.000			27.778			-2.778
209200.000			27.778			-2.778
209301.000			27.780			-2.778
209401.000			27.779			-2.778
209501.000			27.777			-2.778
209601.000			27.777			-2.778
209700.000			27.777			-2.778
209800.000			27.777			-2.778
209901.000			27.777			-2.778
210000.000			27.776			-2.778
210100.000			27.776			-2.778
210201.000			27.776			-2.778
210300.000			27.775			-2.778
210401.000			27.775			-2.777
210502.000			27.774			-2.777
210600.000			27.774			-2.777
210700.000			27.774			-2.777
210801.000			27.774			-2.777
210900.000			27.773			-2.777
211001.000			27.772			-2.777
211100.000			27.773			-2.777
211200.000			27.772			-2.777
211302.000			27.773			-2.777
211401.000			27.773			-2.777
211501.000			27.773			-2.777
211601.000			27.772			-2.777
211700.000			27.771			-2.777
211800.000			27.770			-2.777
211901.000			27.771			-2.777
212000.000			27.771			-2.777
212100.000			27.771			-2.777
212202.000			27.769			-2.777
212301.000			27.769			-2.777
212401.000			27.769			-2.777
212501.000			27.768			-2.777
212600.000			27.768			-2.777
212700.000			27.768			-2.777
212801.000			27.767			-2.777
212900.000			27.768			-2.777
213000.000			27.767			-2.777
213101.000			27.766			-2.777
213201.000			27.766			-2.777
213301.000			27.766			-2.777
213402.000			27.765			-2.777
213500.000			27.766			-2.777
213600.000			27.765			-2.776
213701.000			27.765			-2.776
213800.000			27.766			-2.777
213900.000			27.765			-2.776
214001.000			27.764			-2.776
214100.000			27.764			-2.776
214202.000			27.764			-2.776
214301.000			27.763			-2.776
214400.000			27.763			-2.776
214501.000			27.763			-2.776
214600.000			27.761			-2.776
214700.000			27.761			-2.776
214801.000			27.761			-2.776
214900.000			27.761			-2.776
215000.000			27.761			-2.776
215102.000			27.761			-2.776
215201.000			27.761			-2.776
215301.000			27.760			-2.776
215401.000			27.760			-2.776
215500.000			27.761			-2.776
215600.000			27.759			-2.776
215701.000			27.758			-2.776
215800.000			27.758			-2.776
215900.000			27.758			-2.776
216001.000			27.758			-2.776
216101.000			27.759			-2.776
216201.000			27.758			-2.776
216301.000			27.757			-2.776
216400.000			27.757			-2.776
216500.000			27.756			-2.776
216601.000			27.755			-2.776
216700.000			27.756			-2.776
216800.000			27.757			-2.776
216901.000			27.757			-2.776
217000.000			27.756			-2.776
217101.000			27.755			-2.775
217202.000			27.754			-2.775
217300.000			27.755			-2.775
217401.000			27.754			-2.775
217500.000			27.753			-2.775
217600.000			27.754			-2.775
217701.000			27.754			-2.775
217800.000			27.755			-2.775
217900.000			27.753			-2.775
218002.000			27.752			-2.775
218101.000			27.752			-2.775
218201.000			27.752			-2.775
218301.000			27.752			-2.775
218400.000			27.751			-2.775
218500.000			27.750			-2.775
218601.000			27.751			-2.775
218700.000			27.751			-2.775
218800.000			27.751			-2.775
218901.000			27.751			-2.775
219001.000			27.750			-2.775
219101.000			27.749			-2.775
219201.000			27.749			-2.775
219300.000			27.748			-2.775
219400.000			27.748			-2.775
219501.000			27.748			-2.775
219600.000			27.749			-2.775
219700.000			27.749			-2.775
219801.000			27.748			-2.775
219901.000			27.747			-2.775
220001.000			27.747			-2.775
220102.000			27.747			-2.775
220200.000			27.747			-2.775
220300.000			27.746			-2.775
220401.000			27.746			-2.775
220500.000			27.745			-2.775
220601.000			27.745			-2.775
220700.000			27.745			-2.774
220800.000			27.744			-2.774
220902.000			27.744			-2.774
221001.000			27.744			-2.774
221100.000			27.744			-2.774
221201.000			27.743			-2.774
221300.000			27.743			-2.774
221400.000			27.742			-2.774
221501.000			27.742			-2.774
221600.000			27.742			-2.774
221700.000			27.741			-2.774
221802.000			27.741			-2.774
221901.000			27.742			-2.774
222000.000			27.742			-2.774
222101.000			27.741			-2.774
222200.000			27.740			-2.774
222300.000			27.740			-2.774
222401.000			27.740			-2.774
222500.000			27.740			-2.774
222600.000			27.740			-2.774
222702.000			27.739			-2.774
222801.000			27.739			-2.774
222900.000			27.740			-2.774
223001.000			27.739			-2.774
223100.000			27.738			-2.774
223200.000			27.738			-2.774
223301.000			27.739			-2.774
223400.000			27.739			-2.774
223500.000			27.738			-2.774
223602.000			27.737			-2.774
223701.000			27.736			-2.774
223801.000			27.737			-2.774
223900.000			27.737			-2.774
224000.000			27.737			-2.774
224101.000			27.736			-2.774
224200.000			27.736			-2.774
224300.000			27.735			-2.774
224401.000			27.735			-2.774
224501.000			27.734			-2.773
224601.000			27.734			-2.773
224702.000			27.733			-2.773
224800.000			27.734			-2.773
224900.000			27.734			-2.773
225001.000			27.733			-2.773
225100.000			27.732			-2.773
225200.000			27.732			-2.773
225301.000			27.732			-2.773
225400.000			27.732			-2.773
225501.000			27.732			-2.773
225602.000			27.731			-2.773
225701.000			27.731			-2.773
225800.000			27.730			-2.773
225901.000			27.729			-2.773
226000.000			27.730			-2.773
226100.000			27.730			-2.773
226201.000			27.730			-2.773
226300.000			27.728			-2.773
226400.000			27.729			-2.773
226502.000			27.728			-2.773
226601.000			27.728			-2.773
226700.000			27.728			-2.773
226801.000			27.727			-2.773
226900.000			27.728			-2.773
227001.000			27.728			-2.773
227100.000			27.727			-2.773
227200.000			27.726			-2.773
227301.000			27.726			-2.773
227401.000			27.726			-2.773
227501.000			27.725			-2.773
227602.000			27.725			-2.772
227700.000			27.724			-2.772
227800.000			27.724			-2.772
227901.000			27.725			-2.772
228000.000			27.724			-2.772
228100.000			27.724			-2.772
228201.000			27.723			-2.772
228300.000			27.722			-2.772
228401.000			27.722			-2.772
228502.000			27.722			-2.772
228600.000			27.722			-2.772
228700.000			27.721			-2.772
228801.000			27.720			-2.772
228900.000			27.720			-2.772
229000.000			27.719			-2.772
229101.000			27.720			-2.772
229200.000			27.721			-2.772
229301.000			27.720			-2.772
229402.000			27.718			-2.772
229501.000			27.718			-2.772
229600.000			27.718			-2.772
229701.000			27.719			-2.772
229800.000			27.718			-2.772
229900.000			27.718			-2.772
230001.000			27.716			-2.772
230100.000			27.717			-2.772
230201.000			27.716			-2.772
230301.000			27.717			-2.772
230401.000			27.716			-2.772
230501.000			27.716			-2.772
230600.000			27.716			-2.772
230700.000			27.715			-2.772
230801.000			27.715			-2.771
230900.000			27.714			-2.771
231000.000			27.715			-2.772
231101.000			27.716			-2.772
231201.000			27.713			-2.771
231301.000			27.713			-2.771
231401.000			27.713			-2.771
231500.000			27.713			-2.771
231600.000			27.713			-2.771
231701.000			27.713			-2.771
231800.000			27.712			-2.771
231900.000			27.711			-2.771
232001.000			27.712			-2.771
232101.000			27.711			-2.771
232201.000			27.711			-2.771
232301.000			27.711			-2.771
232400.000			27.710			-2.771
232500.000			27.710			-2.771
232601.000			27.710			-2.771
232700.000			27.709			-2.771
232800.000			27.708			-2.771
232901.000			27.708			-2.771
233001.000			27.709			-2.771
233101.000			27.708			-2.771
233202.000			27.708			-2.771
233300.000			27.708			-2.771
233401.000			27.707			-2.771
233500.000			27.706			-2.771
233600.000			27.706			-2.771
233701.000			27.707			-2.771
233800.000			27.705			-2.771
233900.000			27.705			-2.770
234002.000			27.705			-2.770
234101.000			27.705			-2.771
234200.000			27.706			-2.771
234301.000			27.705			-2.771
234400.000			27.704			-2.770
234500.000			27.704			-2.770
234601.000			27.704			-2.770
234700.000			27.704			-2.770
234800.000			27.703			-2.770
234902.000			27.703			-2.770
235001.000			27.702			-2.770
235100.000			27.702			-2.770
235201.000			27.701			-2.770
235300.000			27.701			-2.770
235400.000			27.701			-2.770
235501.000			27.701			-2.770
235600.000			27.701			-2.770
235700.000			27.701			-2.770
235802.000			27.700			-2.770
235901.000			27.700			-2.770
236000.000			27.699			-2.770
236101.000			27.699			-2.770
236200.000			27.698			-2.770
236300.000			27.699			-2.770
236401.000			27.699			-2.770
236500.000			27.698			-2.770
236601.000			27.698			-2.770
236700.000			27.697			-2.770
236801.000			27.698			-2.770
236902.000			27.697			-2.770
237000.000			27.695			-2.770
237100.000			27.696			-2.770
237201.000			27.696			-2.770
237300.000			27.696			-2.770
237400.000			27.695			-2.770
237501.000			27.695			-2.769
237600.000			27.695			-2.770
237700.000			27.694			-2.769
237802.000			27.693			-2.769
237901.000			27.694			-2.769
238000.000			27.693			-2.769
238101.000			27.694			-2.769
238200.000			27.692			-2.769
238300.000			27.692			-2.769
238401.000			27.691			-2.769
238500.000			27.692			-2.769
238600.000			27.692			-2.769
238702.000			27.692			-2.769
238801.000			27.692			-2.769
238901.000			27.692			-2.769
239001.000			27.690			-2.769
239100.000			27.690			-2.769
239200.000			27.690			-2.769
239301.000			27.689			-2.769
239400.000			27.689			-2.769
239500.000			27.689			-2.769
239601.000			27.690			-2.769
239701.000			27.688			-2.769
239802.000			27.689			-2.769
239901.000			27.688			-2.769
240000.000			27.688			-2.769
240101.000			27.687			-2.769
240200.000			27.687			-2.769
240300.000			27.686			-2.769
240401.000			27.686			-2.769
240500.000			27.687			-2.769
240600.000			27.687			-2.769
240702.000			27.686			-2.769
240801.000			27.686			-2.769
240901.000			27.685			-2.769
241001.000			27.686			-2.769
241100.000			27.686			-2.769
241200.000			27.684			-2.768
241301.000			27.684			-2.768
241400.000			27.683			-2.768
241500.000			27.684			-2.768
241601.000			27.684			-2.768
241701.000			27.683			-2.768
241801.000			27.684			-2.768
241901.000			27.684			-2.768
242000.000			27.683			-2.768
242100.000			27.683			-2.768
242201.000			27.683			-2.768
242300.000			27.682			-2.768
242400.000			27.682			-2.768
242501.000			27.682			-2.768
242601.000			27.680			-2.768
242701.000			27.680			-2.768
242802.000			27.680			-2.768
242900.000			27.681			-2.768
243001.000			27.681			-2.768
243100.000			27.681			-2.768
243200.000			27.681			-2.768
243301.000			27.679			-2.768
243400.000			27.680			-2.768
243500.000			27.680			-2.768
243602.000			27.680			-2.768
243701.000			27.679			-2.768
243800.000			27.679			-2.768
243901.000			27.678			-2.768
244000.000			27.678			-2.768
244100.000			27.678			-2.768
244201.000			27.677			-2.768
244300.000			27.677			-2.768
244400.000			27.676			-2.768
244501.000			27.677			-2.768
244601.000			27.677			-2.768
244701.000			27.677			-2.768
244801.000			27.676			-2.768
244900.000			27.676			-2.768
245000.000			27.675			-2.768
245101.000			27.675			-2.768
245200.000			27.675			-2.767
245300.000			27.674			-2.767
245401.000			27.675			-2.767
245501.000			27.674			-2.767
245601.000			27.674			-2.767
245702.000			27.673			-2.767
245800.000			27.672			-2.767
245900.000			27.673			-2.767
246001.000			27.674			-2.767
246100.000			27.672			-2.767
246201.000			27.671			-2.767
246300.000			27.672			-2.767
246400.000			27.671			-2.767
246502.000			27.671			-2.767
246601.000			27.672			-2.767
246700.000			27.672			-2.767
246801.000			27.671			-2.767
246900.000			27.670			-2.767
247000.000			27.670			-2.767
247101.000			27.670			-2.767
247200.000			27.669			-2.767
247300.000			27.669			-2.767
247401.000			27.668			-2.767
247501.000			27.668			-2.767
247601.000			27.668			-2.767
247701.000			27.668			-2.767
247800.000			27.667			-2.767
247900.000			27.667			-2.767
248001.000			27.667			-2.767
248100.000			27.667			-2.767
248200.000			27.666			-2.767
248301.000			27.666			-2.767
248401.000			27.665			-2.767
248501.000			27.665			-2.766
248602.000			27.664			-2.766
248700.000			27.665			-2.766
248800.000			27.665			-2.766
248901.000			27.664			-2.766
249000.000			27.664			-2.766
249100.000			27.663			-2.766
249201.000			27.663			-2.766
249300.000			27.664			-2.766
249402.000			27.663			-2.766
249501.000			27.663			-2.766
249601.000			27.662			-2.766
249701.000			27.663			-2.766
249800.000			27.662			-2.766
249900.000			27.661			-2.766
250001.000			27.661			-2.766
250100.000			27.661			-2.766
250200.000			27.661			-2.766
250301.000			27.661			-2.766
250401.000			27.660			-2.766
250501.000			27.660			-2.766
250601.000			27.658			-2.766
250700.000			27.658			-2.766
250800.000			27.660			-2.766
250901.000			27.660			-2.766
251000.000			27.659			-2.766
251100.000			27.658			-2.766
251201.000			27.658			-2.766
251301.000			27.657			-2.766
251401.000			27.658			-2.766
251502.000			27.658			-2.766
251600.000			27.657			-2.766
251700.000			27.656			-2.766
251801.000			27.656			-2.766
251900.000			27.656			-2.766
252000.000			27.656			-2.766
252101.000			27.655			-2.766
252200.000			27.655			-2.766
252301.000			27.655			-2.766
252402.000			27.653			-2.765
252501.000			27.653			-2.765
252601.000			27.655			-2.766
252700.000			27.655			-2.766
252800.000			27.654			-2.765
252901.000			27.654			-2.765
253000.000			27.654			-2.765
253100.000			27.653			-2.765
253201.000			27.652			-2.765
253301.000			27.653			-2.765
253401.000			27.653			-2.765
253501.000			27.653			-2.765
253600.000			27.653			-2.765
253700.000			27.652			-2.765
253801.000			27.652			-2.765
253900.000			27.652			-2.765
254000.000			27.652			-2.765
254101.000			27.652			-2.765
254201.000			27.651			-2.765
254301.000			27.651			-2.765
254402.000			27.652			-2.765
254500.000			27.651			-2.765
254600.000			27.651			-2.765
254701.000			27.649			-2.765
254800.000			27.649			-2.765
254900.000			27.649			-2.765
255001.000			27.649			-2.765
255100.000			27.649			-2.765
255201.000			27.648			-2.765
255302.000			27.648			-2.765
255400.000			27.649			-2.765
255500.000			27.648			-2.765
255601.000			27.648			-2.765
255700.000			27.648			-2.765
255801.000			27.647			-2.765
255900.000			27.647			-2.765
256000.000			27.648			-2.765
256101.000			27.648			-2.765
256201.000			27.646			-2.765
256301.000			27.646			-2.765
256401.000			27.646			-2.765
256500.000			27.646			-2.765
256600.000			27.647			-2.765
256701.000			27.646			-2.765
256800.000			27.645			-2.765
256900.000			27.645			-2.765
257001.000			27.644			-2.764
257101.000			27.645			-2.765
257201.000			27.644			-2.764
257302.000			27.643			-2.764
257400.000			27.643			-2.764
257500.000			27.643			-2.764
257601.000			27.642			-2.764
257700.000			27.642			-2.764
257800.000			27.642			-2.764
257901.000			27.642			-2.764
258000.000			27.641			-2.764
258101.000			27.642			-2.764
258202.000			27.641			-2.764
258301.000			27.641			-2.764
258400.000			27.641			-2.764
258501.000			27.641			-2.764
258600.000			27.641			-2.764
258700.000			27.640			-2.764
258801.000			27.640			-2.764
258900.000			27.639			-2.764
259001.000			27.639			-2.764
259101.000			27.638			-2.764
259201.000			27.638			-2.764
259301.000			27.638			-2.764
259400.000			27.637			-2.764
259500.000			27.638			-2.764
259601.000			27.638			-2.764
259700.000			27.638			-2.764
259800.000			27.638			-2.764
259901.000			27.637			-2.764
260001.000			27.637			-2.764
260101.000			27.636			-2.764
260202.000			27.636			-2.764
260300.000			27.636			-2.764
260400.000			27.635			-2.764
260501.000			27.636			-2.764
260600.000			27.636			-2.764
260700.000			27.635			-2.764
260801.000			27.635			-2.763
260901.000			27.636			-2.764
261001.000			27.634			-2.763
261102.000			27.634			-2.763
261200.000			27.634			-2.763
261300.000			27.634			-2.763
261401.000			27.634			-2.763
261500.000			27.634			-2.763
261600.000			27.633			-2.763
261701.000			27.634			-2.763
261800.000			27.633			-2.763
261901.000			27.632			-2.763
262002.000			27.632			-2.763
262101.000			27.632			-2.763
262201.000			27.631			-2.763
262300.000			27.630			-2.763
262400.000			27.630			-2.763
262501.000			27.630			-2.763
262600.000			27.630			-2.763
262700.000			27.630			-2.763
262802.000			27.630			-2.763
262901.000			27.630			-2.763
263001.000			27.630			-2.763
263101.000			27.630			-2.763
263200.000			27.629			-2.763
263300.000			27.628			-2.763
263401.000			27.627			-2.763
263500.000			27.628			-2.763
263600.000			27.627			-2.763
263701.000			27.626			-2.763
263801.000			27.627			-2.763
263901.000			27.627			-2.763
264002.000			27.627			-2.763
264100.000			27.627			-2.763
264200.000			27.626			-2.763
264301.000			27.626			-2.763
264400.000			27.625			-2.763
264500.000			27.625			-2.763
264601.000			27.625			-2.762
264701.000			27.624			-2.762
264801.000			27.624			-2.762
264902.000			27.624			-2.762
265000.000			27.623			-2.762
265100.000			27.624			-2.762
265201.000			27.624			-2.762
265300.000			27.624			-2.762
265401.000			27.622			-2.762
265500.000			27.620			-2.762
265600.000			27.621			-2.762
265702.000			27.621			-2.762
265801.000			27.622			-2.762
265900.000			27.622			-2.762
266001.000			27.621			-2.762
266100.000			27.620			-2.762
266200.000			27.619			-2.762
266301.000			27.619			-2.762
266400.000			27.620			-2.762
266500.000			27.620			-2.762
266602.000			27.619			-2.762
266701.000			27.618			-2.762
266801.000			27.619			-2.762
266901.000			27.618			-2.762
267000.000			27.618			-2.762
267100.000			27.619			-2.762
267201.000			27.617			-2.762
267300.000			27.617			-2.762
267400.000			27.618			-2.762
267501.000			27.616			-2.762
267601.000			27.615			-2.761
267701.000			27.615			-2.762
267802.000			27.615			-2.762
267900.000			27.616			-2.762
268000.000			27.617			-2.762
268101.000			27.617			-2.762
268200.000			27.616			-2.762
268300.000			27.615			-2.762
268401.000			27.614			-2.761
268500.000			27.614			-2.761
268602.000			27.614			-2.761
268701.000			27.614			-2.761
268800.000			27.613			-2.761
268901.000			27.613			-2.761
269000.000			27.613			-2.761
269100.000			27.613			-2.761
269201.000			27.613			-2.761
269300.000			27.613			-2.761
269400.000			27.613			-2.761
269502.000			27.612			-2.761
269601.000			27.612			-2.761
269701.000			27.611			-2.761
269801.000			27.612			-2.761
269900.000			27.611			-2.761
270000.000			27.611			-2.761
270101.000			27.612			-2.761
270200.000			27.610			-2.761
270300.000			27.610			-2.761
270401.000			27.609			-2.761
270501.000			27.609			-2.761
270601.000			27.608			-2.761
270701.000			27.608			-2.761
270800.000			27.608			-2.761
270900.000			27.608			-2.761
271001.000			27.608			-2.761
271100.000			27.608			-2.761
271200.000			27.608			-2.761
271301.000			27.608			-2.761
271401.000			27.607			-2.761
271501.000			27.606			-2.761
271601.000			27.606			-2.761
271700.000			27.606			-2.761
271801.000			27.607			-2.761
271900.000			27.606			-2.761
272000.000			27.605			-2.760
272101.000			27.604			-2.760
272200.000			27.605			-2.761
272300.000			27.605			-2.760
272402.000			27.604			-2.760
272501.000			27.604			-2.760
272600.000			27.604			-2.760
272701.000			27.604			-2.760
272800.000			27.604			-2.760
272900.000			27.603			-2.760
273001.000			27.603			-2.760
273100.000			27.603			-2.760
273200.000			27.603			-2.760
273302.000			27.602			-2.760
273401.000			27.603			-2.760
273500.000			27.604			-2.760
273601.000			27.603			-2.760
273700.000			27.601			-2.760
273800.000			27.602			-2.760
273901.000			27.601			-2.760
274000.000			27.600			-2.760
274100.000			27.600			-2.760
274202.000			27.601			-2.760
274301.000			27.600			-2.760
274400.000			27.600			-2.760
274501.000			27.600			-2.760
274600.000			27.600			-2.760
274700.000			27.599			-2.760
274801.000			27.598			-2.760
274900.000			27.598			-2.760
275001.000			27.598			-2.760
275101.000			27.599			-2.760
275201.000			27.598			-2.760
275302.000			27.597			-2.760
275400.000			27.597			-2.760
275500.000			27.598			-2.760
275601.000			27.598			-2.760
275700.000			27.596			-2.760
275800.000			27.596			-2.760
275901.000			27.596			-2.760
276000.000			27.597			-2.760
276100.000			27.597			-2.760
276202.000			27.596			-2.760
276301.000			27.595			-2.760
276400.000			27.595			-2.760
276501.000			27.595			-2.760
276600.000			27.596			-2.760
276700.000			27.596			-2.760
276801.000			27.594			-2.759
276900.000			27.594			-2.759
277000.000			27.595			-2.759
277102.000			27.595			-2.759
277201.000			27.594			-2.759
277301.000			27.593			-2.759
277401.000			27.592			-2.759
277500.000			27.593			-2.759
277600.000			27.593			-2.759
277701.000			27.592			-2.759
277800.000			27.592			-2.759
277900.000			27.593			-2.759
278001.000			27.593			-2.759
278101.000			27.591			-2.759
278202.000			27.591			-2.759
278301.000			27.591			-2.759
278400.000			27.590			-2.759
278501.000			27.590			-2.759
278600.000			27.590			-2.759
278700.000			27.590			-2.759
278801.000			27.590			-2.759
278900.000			27.590			-2.759
279000.000			27.590			-2.759
279102.000			27.590			-2.759
279201.000			27.589			-2.759
279301.000			27.588			-2.759
279401.000			27.588			-2.759
279500.000			27.587			-2.759
279600.000			27.587			-2.759
279701.000			27.588			-2.759
279800.000			27.587			-2.759
279900.000			27.588			-2.759
280001.000			27.588			-2.759
280101.000			27.588			-2.759
280201.000			27.588			-2.759
280302.000			27.587			-2.759
280400.000			27.586			-2.759
280500.000			27.586			-2.759
280601.000			27.586			-2.759
280700.000			27.585			-2.759
280800.000			27.584			-2.758
280901.000			27.584			-2.758
281000.000			27.584			-2.758
281101.000			27.584			-2.758
281202.000			27.584			-2.758
281300.000			27.585			-2.758
281401.000			27.584			-2.758
281500.000			27.583			-2.758
281600.000			27.583			-2.758
281701.000			27.582			-2.758
281800.000			27.583			-2.758
281900.000			27.583			-2.758
282002.000			27.582			-2.758
282101.000			27.582			-2.758
282201.000			27.582			-2.758
282301.000			27.582			-2.758
282400.000			27.582			-2.758
282500.000			27.581			-2.758
282601.000			27.581			-2.758
282700.000			27.581			-2.758
282800.000			27.580			-2.758
282901.000			27.580			-2.758
283001.000			27.579			-2.758
283101.000			27.579			-2.758
283201.000			27.579			-2.758
283300.000			27.579			-2.758
283400.000			27.579			-2.758
283501.000			27.578			-2.758
283600.000			27.578			-2.758
283700.000			27.578			-2.758
283801.000			27.577			-2.758
283900.000			27.577			-2.758
284001.000			27.577			-2.758
284102.000			27.577			-2.758
284201.000			27.578			-2.758
284300.000			27.577			-2.758
284401.000			27.576			-2.758
284500.000			27.576			-2.758
284601.000			27.576			-2.758
284700.000			27.575			-2.757
284800.000			27.574			-2.757
284901.000			27.575			-2.757
285001.000			27.574			-2.757
285101.000			27.574			-2.757
285201.000			27.574			-2.757
285300.000			27.574			-2.757
285400.000			27.573			-2.757
285501.000			27.573			-2.757
285600.000			27.574			-2.757
285700.000			27.574			-2.757
285801.000			27.573			-2.757
285900.000			27.572			-2.757
286001.000			27.571			-2.757
286102.000			27.571			-2.757
286200.000			27.571			-2.757
286300.000			27.571			-2.757
286401.000			27.571			-2.757
286500.000			27.571			-2.757
286600.000			27.571			-2.757
286701.000			27.570			-2.757
286800.000			27.570			-2.757
286901.000			27.570			-2.757
287002.000			27.570			-2.757
287101.000			27.569			-2.757
287200.000			27.569			-2.757
287301.000			27.569			-2.757
287400.000			27.568			-2.757
287500.000			27.567			-2.757
287601.000			27.568			-2.757
287700.000			27.568			-2.757
287801.000			27.569			-2.757
287900.000			27.567			-2.757
288001.000			27.566			-2.757
288102.000			27.567			-2.757
288200.000			27.566			-2.757
288300.000			27.565			-2.757
288401.000			27.565			-2.757
288500.000			27.566			-2.757
288600.000			27.567			-2.757
288701.000			27.566			-2.757
288800.000			27.566			-2.757
288900.000			27.566			-2.757
289002.000			27.565			-2.756
289101.000			27.564			-2.756
289200.000			27.564			-2.756
289301.000			27.565			-2.757
289400.000			27.564			-2.756
289500.000			27.564			-2.756
289601.000			27.564			-2.756
289700.000			27.563			-2.756
289800.000			27.563			-2.756
289902.000			27.564			-2.756
290001.000			27.563			-2.756
290101.000			27.562			-2.756
290201.000			27.561			-2.756
290300.000			27.561			-2.756
290400.000			27.562			-2.756
290501.000			27.561			-2.756
290600.000			27.561			-2.756
290700.000			27.561			-2.756
290801.000			27.561			-2.756
290901.000			27.561			-2.756
291002.000			27.560			-2.756
291101.000			27.560			-2.756
291200.000			27.560			-2.756
291301.000			27.560			-2.756
291400.000			27.560			-2.756
291500.000			27.559			-2.756
291601.000			27.560			-2.756
291700.000			27.560			-2.756
291801.000			27.558			-2.756
291902.000			27.560			-2.756
292001.000			27.560			-2.756
292100.000			27.559			-2.756
292201.000			27.558			-2.756
292300.000			27.557			-2.756
292400.000			27.558			-2.756
292501.000			27.560			-2.756
292600.000			27.559			-2.756
292700.000			27.558			-2.756
292802.000			27.558			-2.756
292901.000			27.558			-2.756
293001.000			27.557			-2.756
293101.000			27.557			-2.756
293200.000			27.556			-2.756
293300.000			27.556			-2.756
293401.000			27.556			-2.756
293500.000			27.556			-2.756
293600.000			27.556			-2.756
293701.000			27.556			-2.756
293801.000			27.556			-2.756
293901.000			27.555			-2.756
294001.000			27.556			-2.756
294100.000			27.555			-2.756
294201.000			27.555			-2.755
294300.000			27.555			-2.755
294400.000			27.555			-2.756
294501.000			27.555			-2.756
294600.000			27.555			-2.755
294700.000			27.554			-2.755
294802.000			27.554			-2.755
294901.000			27.554			-2.755
295000.000			27.555			-2.755
295101.000			27.554			-2.755
295200.000			27.553			-2.755
295300.000			27.552			-2.755
295401.000			27.551			-2.755
295500.000			27.551			-2.755
295600.000			27.551			-2.755
295702.000			27.551			-2.755
295801.000			27.551			-2.755
295901.000			27.552			-2.755
296001.000			27.551			-2.755
296100.000			27.551			-2.755
296200.000			27.551			-2.755
296301.000			27.551			-2.755
296400.000			27.550			-2.755
296500.000			27.551			-2.755
296601.000			27.550			-2.755
296701.000			27.549			-2.755
296801.000			27.549			-2.755
296902.000			27.549			-2.755
297000.000			27.549			-2.755
297100.000			27.548			-2.755
297201.000			27.548			-2.755
297300.000			27.547			-2.755
297401.000			27.547			-2.755
297500.000			27.546			-2.755
297600.000			27.546			-2.755
297702.000			27.546			-2.755
297801.000			27.547			-2.755
297900.000			27.547			-2.755
298001.000			27.548			-2.755
298100.000			27.546			-2.755
298200.000			27.545			-2.755
298301.000			27.545			-2.755
298400.000			27.546			-2.755
298500.000			27.544			-2.754
298601.000			27.544			-2.754
298701.000			27.545			-2.754
298801.000			27.544			-2.754
298901.000			27.544			-2.754
299000.000			27.543			-2.754
299100.000			27.544			-2.754
299201.000			27.544			-2.754
299300.000			27.542			-2.754
299400.000			27.542			-2.754
299501.000			27.542			-2.754
299601.000			27.542			-2.754
299701.000			27.543			-2.754
299802.000			27.542			-2.754
299900.000			27.541			-2.754
