# Acquired on 25/01/2024 12:30:22 
# SPIDER: Creep_5mm_GRPCNT1454A-1
# CREEP MEASUREMENT

# time [ms]		force [N]		stiffness [N/mm]
0.000			-12.348			-2.470
103.000			-12.738			-2.548
205.000			-12.781			-2.556
304.000			-12.678			-2.536
404.000			-12.584			-2.517
505.000			-12.453			-2.491
604.000			-12.401			-2.480
704.000			-12.356			-2.471
805.000			-12.316			-2.463
904.000			-12.279			-2.456
1004.000			-12.246			-2.449
1103.000			-12.217			-2.443
1204.000			-12.164			-2.433
1305.000			-12.140			-2.428
1404.000			-12.117			-2.423
1504.000			-12.097			-2.419
1604.000			-12.078			-2.416
1704.000			-12.059			-2.412
1804.000			-12.041			-2.408
1905.000			-12.008			-2.402
2004.000			-11.993			-2.399
2104.000			-11.979			-2.396
2205.000			-11.965			-2.393
2303.000			-11.951			-2.390
2404.000			-11.939			-2.388
2505.000			-11.926			-2.385
2604.000			-11.903			-2.381
2704.000			-11.890			-2.378
2805.000			-11.880			-2.376
2904.000			-11.870			-2.374
3003.000			-11.860			-2.372
3105.000			-11.850			-2.370
3204.000			-11.841			-2.368
3304.000			-11.832			-2.366
3405.000			-11.814			-2.363
3503.000			-11.806			-2.361
3604.000			-11.798			-2.360
3705.000			-11.789			-2.358
3804.000			-11.781			-2.356
3904.000			-11.774			-2.355
4005.000			-11.766			-2.353
4104.000			-11.750			-2.350
4203.000			-11.744			-2.349
4305.000			-11.738			-2.348
4404.000			-11.731			-2.346
4505.000			-11.724			-2.345
4604.000			-11.717			-2.343
4703.000			-11.711			-2.342
4805.000			-11.698			-2.340
4904.000			-11.693			-2.339
5004.000			-11.688			-2.338
5105.000			-11.681			-2.336
5204.000			-11.675			-2.335
5304.000			-11.670			-2.334
5404.000			-11.664			-2.333
5504.000			-11.654			-2.331
5604.000			-11.649			-2.330
5705.000			-11.644			-2.329
5804.000			-11.638			-2.328
5904.000			-11.634			-2.327
6005.000			-11.629			-2.326
6104.000			-11.625			-2.325
6204.000			-11.620			-2.324
6305.000			-11.610			-2.322
6404.000			-11.607			-2.321
6504.000			-11.602			-2.320
6604.000			-11.598			-2.320
6704.000			-11.594			-2.319
6804.000			-11.590			-2.318
6905.000			-11.585			-2.317
7004.000			-11.576			-2.315
7104.000			-11.572			-2.314
7205.000			-11.568			-2.314
7303.000			-11.564			-2.313
7404.000			-11.560			-2.312
7505.000			-11.557			-2.311
7604.000			-11.553			-2.311
7705.000			-11.545			-2.309
7803.000			-11.542			-2.308
7904.000			-11.539			-2.308
8005.000			-11.535			-2.307
8104.000			-11.531			-2.306
8204.000			-11.528			-2.306
8305.000			-11.524			-2.305
8404.000			-11.517			-2.303
8503.000			-11.515			-2.303
8605.000			-11.512			-2.302
8704.000			-11.508			-2.302
8804.000			-11.504			-2.301
8905.000			-11.501			-2.300
9003.000			-11.498			-2.300
9104.000			-11.494			-2.299
9205.000			-11.489			-2.298
9304.000			-11.486			-2.297
9404.000			-11.482			-2.296
9505.000			-11.478			-2.296
9604.000			-11.476			-2.295
9703.000			-11.475			-2.295
9805.000			-11.471			-2.294
9904.000			-11.465			-2.293
10004.000			-11.463			-2.293
10105.000			-11.460			-2.292
10204.000			-11.458			-2.292
10304.000			-11.455			-2.291
10404.000			-11.452			-2.290
10504.000			-11.449			-2.290
10604.000			-11.443			-2.289
10704.000			-11.442			-2.288
10804.000			-11.439			-2.288
10903.000			-11.436			-2.287
11004.000			-11.433			-2.287
11104.000			-11.431			-2.286
11205.000			-11.429			-2.286
11304.000			-11.423			-2.285
11404.000			-11.420			-2.284
11505.000			-11.418			-2.284
11603.000			-11.416			-2.283
11704.000			-11.415			-2.283
11805.000			-11.412			-2.282
11904.000			-11.410			-2.282
12004.000			-11.408			-2.282
12105.000			-11.403			-2.281
12204.000			-11.400			-2.280
12303.000			-11.397			-2.279
12405.000			-11.395			-2.279
12504.000			-11.394			-2.279
12604.000			-11.392			-2.278
12705.000			-11.390			-2.278
12804.000			-11.385			-2.277
12904.000			-11.383			-2.277
13004.000			-11.380			-2.276
13104.000			-11.379			-2.276
13204.000			-11.377			-2.275
13305.000			-11.374			-2.275
13404.000			-11.372			-2.274
13503.000			-11.368			-2.274
13605.000			-11.366			-2.273
13704.000			-11.363			-2.273
13804.000			-11.362			-2.272
13905.000			-11.360			-2.272
14004.000			-11.359			-2.272
14105.000			-11.356			-2.271
14203.000			-11.354			-2.271
14304.000			-11.351			-2.270
14405.000			-11.349			-2.270
14504.000			-11.346			-2.269
14604.000			-11.345			-2.269
14705.000			-11.344			-2.269
14804.000			-11.342			-2.268
14903.000			-11.339			-2.268
15005.000			-11.337			-2.267
15104.000			-11.335			-2.267
15204.000			-11.334			-2.267
15305.000			-11.330			-2.266
15403.000			-11.327			-2.265
15504.000			-11.326			-2.265
15605.000			-11.324			-2.265
15704.000			-11.321			-2.264
15804.000			-11.321			-2.264
15905.000			-11.318			-2.264
16004.000			-11.317			-2.263
16103.000			-11.315			-2.263
16205.000			-11.312			-2.262
16304.000			-11.311			-2.262
16404.000			-11.308			-2.262
16505.000			-11.306			-2.261
16604.000			-11.305			-2.261
16704.000			-11.303			-2.261
16804.000			-11.301			-2.260
16904.000			-11.298			-2.260
17004.000			-11.297			-2.259
17104.000			-11.297			-2.259
17204.000			-11.293			-2.259
17305.000			-11.292			-2.258
17404.000			-11.290			-2.258
17503.000			-11.289			-2.258
17605.000			-11.287			-2.257
17704.000			-11.285			-2.257
17804.000			-11.284			-2.257
17905.000			-11.282			-2.256
18003.000			-11.281			-2.256
18104.000			-11.278			-2.256
18205.000			-11.277			-2.255
18304.000			-11.275			-2.255
18404.000			-11.273			-2.255
18505.000			-11.272			-2.254
18604.000			-11.269			-2.254
18703.000			-11.268			-2.254
18805.000			-11.266			-2.253
18904.000			-11.265			-2.253
19004.000			-11.264			-2.253
19105.000			-11.263			-2.253
19204.000			-11.261			-2.252
19304.000			-11.257			-2.251
19404.000			-11.255			-2.251
19504.000			-11.255			-2.251
19604.000			-11.254			-2.251
19705.000			-11.252			-2.250
19804.000			-11.251			-2.250
19904.000			-11.250			-2.250
20005.000			-11.248			-2.250
20103.000			-11.246			-2.249
20204.000			-11.245			-2.249
20305.000			-11.242			-2.248
20404.000			-11.241			-2.248
20505.000			-11.240			-2.248
20603.000			-11.239			-2.248
20704.000			-11.238			-2.248
20805.000			-11.235			-2.247
20904.000			-11.234			-2.247
21004.000			-11.232			-2.246
21105.000			-11.231			-2.246
21204.000			-11.230			-2.246
21303.000			-11.228			-2.246
21405.000			-11.228			-2.246
21504.000			-11.224			-2.245
21604.000			-11.224			-2.245
21705.000			-11.222			-2.244
21804.000			-11.221			-2.244
21904.000			-11.220			-2.244
22004.000			-11.218			-2.244
22104.000			-11.216			-2.243
22204.000			-11.214			-2.243
22305.000			-11.213			-2.243
22404.000			-11.212			-2.242
22503.000			-11.211			-2.242
22605.000			-11.210			-2.242
22704.000			-11.208			-2.242
22804.000			-11.207			-2.241
22905.000			-11.207			-2.241
23004.000			-11.205			-2.241
23104.000			-11.203			-2.241
23204.000			-11.202			-2.240
23304.000			-11.200			-2.240
23404.000			-11.198			-2.240
23504.000			-11.197			-2.239
23604.000			-11.196			-2.239
23703.000			-11.194			-2.239
23804.000			-11.194			-2.239
23904.000			-11.193			-2.239
24005.000			-11.191			-2.238
24104.000			-11.190			-2.238
24204.000			-11.188			-2.238
24305.000			-11.187			-2.237
24403.000			-11.186			-2.237
24504.000			-11.185			-2.237
24605.000			-11.184			-2.237
24704.000			-11.182			-2.236
24804.000			-11.182			-2.236
24905.000			-11.180			-2.236
25004.000			-11.179			-2.236
25103.000			-11.177			-2.235
25205.000			-11.176			-2.235
25304.000			-11.175			-2.235
25404.000			-11.174			-2.235
25505.000			-11.174			-2.235
25604.000			-11.172			-2.234
25704.000			-11.171			-2.234
25804.000			-11.170			-2.234
25904.000			-11.168			-2.234
26004.000			-11.167			-2.233
26105.000			-11.165			-2.233
26204.000			-11.164			-2.233
26303.000			-11.164			-2.233
26405.000			-11.163			-2.233
26504.000			-11.163			-2.233
26604.000			-11.160			-2.232
26705.000			-11.159			-2.232
26804.000			-11.158			-2.232
26905.000			-11.157			-2.231
27003.000			-11.156			-2.231
27104.000			-11.154			-2.231
27205.000			-11.154			-2.231
27304.000			-11.151			-2.230
27404.000			-11.150			-2.230
27505.000			-11.151			-2.230
27604.000			-11.150			-2.230
27703.000			-11.147			-2.229
27805.000			-11.147			-2.229
27904.000			-11.147			-2.229
28004.000			-11.146			-2.229
28105.000			-11.143			-2.229
28204.000			-11.142			-2.228
28304.000			-11.141			-2.228
28404.000			-11.141			-2.228
28504.000			-11.140			-2.228
28604.000			-11.139			-2.228
28705.000			-11.137			-2.227
28804.000			-11.135			-2.227
28903.000			-11.135			-2.227
29005.000			-11.133			-2.227
29104.000			-11.133			-2.227
29204.000			-11.133			-2.227
29305.000			-11.131			-2.226
29404.000			-11.130			-2.226
29504.000			-11.129			-2.226
29604.000			-11.128			-2.226
29704.000			-11.126			-2.225
29804.000			-11.126			-2.225
29904.000			-11.125			-2.225
30004.000			-11.124			-2.225
30105.000			-11.123			-2.225
30204.000			-11.120			-2.224
30303.000			-11.119			-2.224
30405.000			-11.120			-2.224
30504.000			-11.118			-2.224
30604.000			-11.116			-2.223
30705.000			-11.116			-2.223
30803.000			-11.117			-2.223
30904.000			-11.116			-2.223
31005.000			-11.113			-2.223
31104.000			-11.113			-2.223
31204.000			-11.112			-2.222
31305.000			-11.112			-2.222
31404.000			-11.111			-2.222
31503.000			-11.110			-2.222
31605.000			-11.109			-2.222
31704.000			-11.107			-2.221
31804.000			-11.107			-2.221
31905.000			-11.105			-2.221
32003.000			-11.105			-2.221
32104.000			-11.104			-2.221
32205.000			-11.104			-2.221
32304.000			-11.102			-2.220
32404.000			-11.100			-2.220
32505.000			-11.099			-2.220
32604.000			-11.100			-2.220
32703.000			-11.099			-2.220
32805.000			-11.097			-2.219
32904.000			-11.096			-2.219
33004.000			-11.096			-2.219
33105.000			-11.094			-2.219
33204.000			-11.092			-2.218
33305.000			-11.091			-2.218
33403.000			-11.091			-2.218
33504.000			-11.090			-2.218
33605.000			-11.090			-2.218
33704.000			-11.090			-2.218
33804.000			-11.089			-2.218
33904.000			-11.088			-2.218
34004.000			-11.087			-2.217
34103.000			-11.086			-2.217
34205.000			-11.084			-2.217
34304.000			-11.084			-2.217
34404.000			-11.084			-2.217
34505.000			-11.082			-2.216
34603.000			-11.081			-2.216
34704.000			-11.080			-2.216
34805.000			-11.079			-2.216
34904.000			-11.077			-2.215
35004.000			-11.078			-2.216
35105.000			-11.077			-2.215
35204.000			-11.076			-2.215
35303.000			-11.075			-2.215
35405.000			-11.075			-2.215
35504.000			-11.075			-2.215
35604.000			-11.073			-2.215
35705.000			-11.073			-2.215
35804.000			-11.071			-2.214
35904.000			-11.071			-2.214
36004.000			-11.069			-2.214
36104.000			-11.069			-2.214
36204.000			-11.068			-2.214
36304.000			-11.067			-2.213
36404.000			-11.067			-2.213
36503.000			-11.065			-2.213
36604.000			-11.064			-2.213
36704.000			-11.065			-2.213
36805.000			-11.065			-2.213
36904.000			-11.063			-2.213
37004.000			-11.062			-2.212
37105.000			-11.061			-2.212
37203.000			-11.060			-2.212
37304.000			-11.059			-2.212
37405.000			-11.058			-2.212
37504.000			-11.056			-2.211
37604.000			-11.056			-2.211
37705.000			-11.056			-2.211
37804.000			-11.055			-2.211
37903.000			-11.054			-2.211
38005.000			-11.054			-2.211
38104.000			-11.054			-2.211
38204.000			-11.052			-2.210
38305.000			-11.051			-2.210
38404.000			-11.051			-2.210
38504.000			-11.051			-2.210
38604.000			-11.050			-2.210
38704.000			-11.049			-2.210
38804.000			-11.048			-2.210
38905.000			-11.047			-2.209
39004.000			-11.046			-2.209
39103.000			-11.045			-2.209
39205.000			-11.044			-2.209
39304.000			-11.044			-2.209
39404.000			-11.044			-2.209
39505.000			-11.042			-2.208
39604.000			-11.041			-2.208
39705.000			-11.040			-2.208
39803.000			-11.039			-2.208
39904.000			-11.040			-2.208
40005.000			-11.040			-2.208
40104.000			-11.038			-2.208
40204.000			-11.038			-2.208
40305.000			-11.038			-2.208
40404.000			-11.035			-2.207
40503.000			-11.034			-2.207
40605.000			-11.035			-2.207
40704.000			-11.034			-2.207
40804.000			-11.033			-2.207
40905.000			-11.033			-2.207
41003.000			-11.032			-2.206
41104.000			-11.032			-2.206
41205.000			-11.029			-2.206
41304.000			-11.029			-2.206
41404.000			-11.028			-2.206
41505.000			-11.027			-2.205
41604.000			-11.026			-2.205
41703.000			-11.026			-2.205
41805.000			-11.024			-2.205
41904.000			-11.024			-2.205
42004.000			-11.022			-2.204
42105.000			-11.021			-2.204
42203.000			-11.021			-2.204
42304.000			-11.021			-2.204
42405.000			-11.020			-2.204
42504.000			-11.020			-2.204
42604.000			-11.018			-2.204
42704.000			-11.019			-2.204
42804.000			-11.018			-2.204
42903.000			-11.017			-2.203
43004.000			-11.015			-2.203
43104.000			-11.016			-2.203
43205.000			-11.015			-2.203
43304.000			-11.014			-2.203
43403.000			-11.012			-2.202
43505.000			-11.012			-2.202
43604.000			-11.011			-2.202
43704.000			-11.012			-2.202
43805.000			-11.011			-2.202
43904.000			-11.010			-2.202
44004.000			-11.010			-2.202
44104.000			-11.009			-2.202
44204.000			-11.008			-2.202
44304.000			-11.007			-2.201
44405.000			-11.007			-2.201
44504.000			-11.006			-2.201
44603.000			-11.006			-2.201
44705.000			-11.004			-2.201
44804.000			-11.004			-2.201
44904.000			-11.004			-2.201
45005.000			-11.003			-2.201
45104.000			-11.002			-2.200
45204.000			-11.002			-2.200
45304.000			-11.002			-2.200
45404.000			-11.001			-2.200
45504.000			-11.001			-2.200
45605.000			-10.999			-2.200
45704.000			-10.998			-2.200
45804.000			-10.997			-2.199
45905.000			-10.997			-2.199
46003.000			-10.996			-2.199
46105.000			-10.996			-2.199
46204.000			-10.995			-2.199
46304.000			-10.994			-2.199
46405.000			-10.994			-2.199
46504.000			-10.994			-2.199
46604.000			-10.993			-2.199
46704.000			-10.992			-2.198
46804.000			-10.991			-2.198
46904.000			-10.991			-2.198
47005.000			-10.991			-2.198
47104.000			-10.990			-2.198
47204.000			-10.989			-2.198
47305.000			-10.988			-2.198
47403.000			-10.988			-2.198
47504.000			-10.988			-2.198
47605.000			-10.987			-2.197
47704.000			-10.985			-2.197
47804.000			-10.984			-2.197
47905.000			-10.985			-2.197
48004.000			-10.985			-2.197
48103.000			-10.984			-2.197
48205.000			-10.982			-2.196
48304.000			-10.981			-2.196
48404.000			-10.980			-2.196
48505.000			-10.980			-2.196
48604.000			-10.980			-2.196
48704.000			-10.980			-2.196
48804.000			-10.979			-2.196
48904.000			-10.978			-2.196
49004.000			-10.978			-2.196
49104.000			-10.978			-2.196
49204.000			-10.977			-2.195
49305.000			-10.976			-2.195
49404.000			-10.975			-2.195
49503.000			-10.975			-2.195
49605.000			-10.974			-2.195
49704.000			-10.974			-2.195
49804.000			-10.973			-2.195
49905.000			-10.972			-2.194
50004.000			-10.972			-2.194
50104.000			-10.970			-2.194
50204.000			-10.970			-2.194
50304.000			-10.970			-2.194
50404.000			-10.970			-2.194
50505.000			-10.968			-2.194
50604.000			-10.967			-2.193
50704.000			-10.967			-2.193
50805.000			-10.967			-2.193
50903.000			-10.966			-2.193
51004.000			-10.966			-2.193
51105.000			-10.965			-2.193
51204.000			-10.965			-2.193
51304.000			-10.964			-2.193
51404.000			-10.964			-2.193
51504.000			-10.963			-2.193
51603.000			-10.963			-2.193
51705.000			-10.962			-2.192
51804.000			-10.961			-2.192
51904.000			-10.960			-2.192
52005.000			-10.960			-2.192
52103.000			-10.959			-2.192
52204.000			-10.958			-2.192
52305.000			-10.958			-2.192
52404.000			-10.957			-2.191
52505.000			-10.957			-2.191
52604.000			-10.957			-2.191
52704.000			-10.956			-2.191
52804.000			-10.956			-2.191
52904.000			-10.955			-2.191
53004.000			-10.953			-2.191
53105.000			-10.954			-2.191
53204.000			-10.954			-2.191
53304.000			-10.954			-2.191
53405.000			-10.953			-2.191
53503.000			-10.952			-2.190
53604.000			-10.951			-2.190
53705.000			-10.951			-2.190
53804.000			-10.950			-2.190
53904.000			-10.949			-2.190
54005.000			-10.950			-2.190
54104.000			-10.950			-2.190
54203.000			-10.948			-2.190
54305.000			-10.948			-2.190
54404.000			-10.947			-2.189
54504.000			-10.947			-2.189
54605.000			-10.946			-2.189
54704.000			-10.945			-2.189
54804.000			-10.944			-2.189
54904.000			-10.944			-2.189
55004.000			-10.944			-2.189
55104.000			-10.943			-2.189
55205.000			-10.942			-2.188
55304.000			-10.942			-2.188
55404.000			-10.943			-2.189
55505.000			-10.942			-2.188
55603.000			-10.942			-2.188
55705.000			-10.941			-2.188
55804.000			-10.940			-2.188
55904.000			-10.939			-2.188
56005.000			-10.939			-2.188
56104.000			-10.938			-2.188
56204.000			-10.938			-2.188
56304.000			-10.937			-2.187
56404.000			-10.937			-2.187
56504.000			-10.936			-2.187
56605.000			-10.935			-2.187
56704.000			-10.935			-2.187
56804.000			-10.935			-2.187
56905.000			-10.935			-2.187
57003.000			-10.934			-2.187
57104.000			-10.933			-2.187
57205.000			-10.933			-2.187
57304.000			-10.933			-2.187
57404.000			-10.933			-2.187
57504.000			-10.932			-2.186
57604.000			-10.932			-2.186
57703.000			-10.931			-2.186
57805.000			-10.930			-2.186
57904.000			-10.929			-2.186
58004.000			-10.928			-2.186
58105.000			-10.928			-2.186
58203.000			-10.927			-2.185
58304.000			-10.927			-2.185
58405.000			-10.928			-2.186
58504.000			-10.927			-2.185
58604.000			-10.926			-2.185
58704.000			-10.925			-2.185
58804.000			-10.926			-2.185
58903.000			-10.926			-2.185
59004.000			-10.925			-2.185
59104.000			-10.923			-2.185
59205.000			-10.924			-2.185
59304.000			-10.924			-2.185
59404.000			-10.922			-2.184
59505.000			-10.922			-2.184
59603.000			-10.921			-2.184
59704.000			-10.921			-2.184
59805.000			-10.920			-2.184
59904.000			-10.920			-2.184
60004.000			-10.921			-2.184
60105.000			-10.919			-2.184
60204.000			-10.919			-2.184
60303.000			-10.918			-2.184
60405.000			-10.917			-2.183
60504.000			-10.916			-2.183
60604.000			-10.916			-2.183
60705.000			-10.915			-2.183
60804.000			-10.915			-2.183
60904.000			-10.914			-2.183
61004.000			-10.914			-2.183
61104.000			-10.914			-2.183
61204.000			-10.913			-2.183
61305.000			-10.914			-2.183
61404.000			-10.912			-2.182
61503.000			-10.911			-2.182
61605.000			-10.909			-2.182
61704.000			-10.911			-2.182
61804.000			-10.910			-2.182
61905.000			-10.910			-2.182
62004.000			-10.910			-2.182
62105.000			-10.909			-2.182
62203.000			-10.909			-2.182
62304.000			-10.909			-2.182
62405.000			-10.908			-2.182
62504.000			-10.908			-2.182
62604.000			-10.907			-2.181
62705.000			-10.907			-2.181
62804.000			-10.906			-2.181
62903.000			-10.906			-2.181
63005.000			-10.905			-2.181
63104.000			-10.905			-2.181
63204.000			-10.905			-2.181
63305.000			-10.904			-2.181
63404.000			-10.903			-2.181
63504.000			-10.902			-2.180
63604.000			-10.902			-2.180
63704.000			-10.902			-2.180
63804.000			-10.903			-2.181
63905.000			-10.901			-2.180
64004.000			-10.900			-2.180
64103.000			-10.900			-2.180
64205.000			-10.900			-2.180
64304.000			-10.898			-2.180
64404.000			-10.898			-2.180
64505.000			-10.897			-2.179
64604.000			-10.897			-2.179
64704.000			-10.897			-2.179
64804.000			-10.897			-2.179
64904.000			-10.897			-2.179
65003.000			-10.896			-2.179
65105.000			-10.897			-2.179
65204.000			-10.894			-2.179
65305.000			-10.894			-2.179
65404.000			-10.894			-2.179
65504.000			-10.893			-2.179
65605.000			-10.893			-2.179
65703.000			-10.892			-2.178
65804.000			-10.892			-2.178
65905.000			-10.891			-2.178
66004.000			-10.891			-2.178
66104.000			-10.890			-2.178
66205.000			-10.891			-2.178
66304.000			-10.890			-2.178
66403.000			-10.890			-2.178
66505.000			-10.890			-2.178
66604.000			-10.889			-2.178
66704.000			-10.889			-2.178
66805.000			-10.888			-2.178
66904.000			-10.887			-2.177
67004.000			-10.886			-2.177
67104.000			-10.886			-2.177
67204.000			-10.885			-2.177
67304.000			-10.886			-2.177
67405.000			-10.885			-2.177
67504.000			-10.884			-2.177
67604.000			-10.884			-2.177
67705.000			-10.884			-2.177
67803.000			-10.883			-2.177
67904.000			-10.883			-2.177
68005.000			-10.883			-2.177
68104.000			-10.882			-2.176
68204.000			-10.882			-2.176
68304.000			-10.881			-2.176
68404.000			-10.880			-2.176
68503.000			-10.881			-2.176
68604.000			-10.880			-2.176
68704.000			-10.879			-2.176
68805.000			-10.880			-2.176
68904.000			-10.879			-2.176
69004.000			-10.878			-2.176
69105.000			-10.878			-2.176
69204.000			-10.878			-2.176
69304.000			-10.877			-2.175
69404.000			-10.876			-2.175
69504.000			-10.876			-2.175
69604.000			-10.876			-2.175
69705.000			-10.876			-2.175
69804.000			-10.874			-2.175
69904.000			-10.874			-2.175
70005.000			-10.873			-2.175
70103.000			-10.874			-2.175
70204.000			-10.874			-2.175
70305.000			-10.875			-2.175
70404.000			-10.874			-2.175
70504.000			-10.871			-2.174
70605.000			-10.871			-2.174
70704.000			-10.871			-2.174
70803.000			-10.871			-2.174
70905.000			-10.870			-2.174
71004.000			-10.869			-2.174
71104.000			-10.870			-2.174
71205.000			-10.869			-2.174
71304.000			-10.868			-2.174
71404.000			-10.868			-2.174
71503.000			-10.868			-2.174
71604.000			-10.867			-2.173
71705.000			-10.868			-2.174
71804.000			-10.868			-2.174
71904.000			-10.866			-2.173
72005.000			-10.865			-2.173
72104.000			-10.866			-2.173
72203.000			-10.865			-2.173
72305.000			-10.865			-2.173
72404.000			-10.865			-2.173
72504.000			-10.864			-2.173
72605.000			-10.863			-2.173
72704.000			-10.863			-2.173
72804.000			-10.863			-2.173
72904.000			-10.862			-2.172
73004.000			-10.862			-2.172
73104.000			-10.862			-2.172
73205.000			-10.861			-2.172
73304.000			-10.861			-2.172
73404.000			-10.862			-2.172
73505.000			-10.861			-2.172
73603.000			-10.860			-2.172
73704.000			-10.860			-2.172
73805.000			-10.859			-2.172
73904.000			-10.859			-2.172
74004.000			-10.859			-2.172
74105.000			-10.859			-2.172
74204.000			-10.858			-2.172
74303.000			-10.856			-2.171
74405.000			-10.857			-2.171
74504.000			-10.856			-2.171
74604.000			-10.855			-2.171
74705.000			-10.856			-2.171
74804.000			-10.855			-2.171
74905.000			-10.856			-2.171
75003.000			-10.855			-2.171
75104.000			-10.853			-2.171
75205.000			-10.853			-2.171
75304.000			-10.853			-2.171
75404.000			-10.853			-2.171
75504.000			-10.852			-2.170
75604.000			-10.851			-2.170
75703.000			-10.851			-2.170
75805.000			-10.851			-2.170
75904.000			-10.850			-2.170
76004.000			-10.851			-2.170
76105.000			-10.851			-2.170
76204.000			-10.849			-2.170
76304.000			-10.849			-2.170
76404.000			-10.850			-2.170
76504.000			-10.849			-2.170
76604.000			-10.849			-2.170
76705.000			-10.848			-2.170
76804.000			-10.847			-2.169
76904.000			-10.845			-2.169
77005.000			-10.845			-2.169
77103.000			-10.845			-2.169
77204.000			-10.846			-2.169
77305.000			-10.846			-2.169
77404.000			-10.846			-2.169
77504.000			-10.845			-2.169
77605.000			-10.845			-2.169
77704.000			-10.845			-2.169
77803.000			-10.843			-2.169
77905.000			-10.843			-2.169
78004.000			-10.842			-2.168
78105.000			-10.842			-2.168
78204.000			-10.843			-2.169
78304.000			-10.841			-2.168
78405.000			-10.842			-2.168
78503.000			-10.841			-2.168
78604.000			-10.841			-2.168
78705.000			-10.841			-2.168
78804.000			-10.841			-2.168
78904.000			-10.840			-2.168
79005.000			-10.840			-2.168
79104.000			-10.839			-2.168
79203.000			-10.838			-2.168
79305.000			-10.838			-2.168
79404.000			-10.837			-2.167
79504.000			-10.837			-2.167
79605.000			-10.837			-2.167
79704.000			-10.836			-2.167
79804.000			-10.835			-2.167
79904.000			-10.834			-2.167
80004.000			-10.835			-2.167
80104.000			-10.836			-2.167
80205.000			-10.835			-2.167
80304.000			-10.834			-2.167
80404.000			-10.835			-2.167
80505.000			-10.832			-2.166
80603.000			-10.833			-2.167
80704.000			-10.833			-2.167
80805.000			-10.833			-2.167
80904.000			-10.832			-2.166
81004.000			-10.833			-2.167
81104.000			-10.833			-2.167
81204.000			-10.832			-2.166
81303.000			-10.831			-2.166
81404.000			-10.832			-2.166
81504.000			-10.831			-2.166
81605.000			-10.829			-2.166
81704.000			-10.828			-2.166
81804.000			-10.828			-2.166
81905.000			-10.828			-2.166
82003.000			-10.828			-2.166
82104.000			-10.828			-2.166
82205.000			-10.827			-2.165
82304.000			-10.828			-2.166
82404.000			-10.828			-2.166
82504.000			-10.826			-2.165
82604.000			-10.825			-2.165
82703.000			-10.825			-2.165
82805.000			-10.825			-2.165
82904.000			-10.825			-2.165
83004.000			-10.824			-2.165
83105.000			-10.824			-2.165
83204.000			-10.823			-2.165
83304.000			-10.822			-2.164
83405.000			-10.822			-2.164
83504.000			-10.823			-2.165
83604.000			-10.823			-2.165
83705.000			-10.822			-2.164
83804.000			-10.822			-2.164
83903.000			-10.821			-2.164
84005.000			-10.820			-2.164
84104.000			-10.820			-2.164
84204.000			-10.820			-2.164
84305.000			-10.821			-2.164
84404.000			-10.821			-2.164
84505.000			-10.820			-2.164
84603.000			-10.818			-2.164
84704.000			-10.818			-2.164
84805.000			-10.818			-2.164
84904.000			-10.817			-2.163
85004.000			-10.815			-2.163
85105.000			-10.814			-2.163
85204.000			-10.814			-2.163
85303.000			-10.814			-2.163
85405.000			-10.813			-2.163
85504.000			-10.813			-2.163
85604.000			-10.812			-2.162
85705.000			-10.812			-2.162
85804.000			-10.811			-2.162
85904.000			-10.811			-2.162
86004.000			-10.811			-2.162
86104.000			-10.811			-2.162
86204.000			-10.812			-2.162
86305.000			-10.812			-2.162
86404.000			-10.811			-2.162
86504.000			-10.812			-2.162
86605.000			-10.812			-2.162
86703.000			-10.812			-2.162
86804.000			-10.812			-2.162
86905.000			-10.812			-2.162
87004.000			-10.811			-2.162
87104.000			-10.809			-2.162
87205.000			-10.809			-2.162
87304.000			-10.809			-2.162
87403.000			-10.808			-2.162
87505.000			-10.808			-2.162
87604.000			-10.808			-2.162
87705.000			-10.808			-2.162
87804.000			-10.808			-2.162
87904.000			-10.807			-2.161
88005.000			-10.807			-2.161
88103.000			-10.808			-2.162
88204.000			-10.807			-2.161
88305.000			-10.806			-2.161
88404.000			-10.804			-2.161
88504.000			-10.806			-2.161
88605.000			-10.805			-2.161
88704.000			-10.805			-2.161
88803.000			-10.804			-2.161
88905.000			-10.804			-2.161
89004.000			-10.803			-2.161
89104.000			-10.803			-2.161
89205.000			-10.804			-2.161
89304.000			-10.803			-2.161
89404.000			-10.803			-2.161
89504.000			-10.802			-2.160
89604.000			-10.801			-2.160
89704.000			-10.802			-2.160
89805.000			-10.801			-2.160
89904.000			-10.801			-2.160
90004.000			-10.800			-2.160
90105.000			-10.800			-2.160
90203.000			-10.800			-2.160
90304.000			-10.800			-2.160
90405.000			-10.799			-2.160
90504.000			-10.799			-2.160
90604.000			-10.799			-2.160
90704.000			-10.798			-2.160
90804.000			-10.798			-2.160
90903.000			-10.797			-2.159
91004.000			-10.797			-2.159
91104.000			-10.797			-2.159
91205.000			-10.797			-2.159
91304.000			-10.797			-2.159
91404.000			-10.796			-2.159
91505.000			-10.795			-2.159
91603.000			-10.795			-2.159
91704.000			-10.796			-2.159
91805.000			-10.794			-2.159
91904.000			-10.794			-2.159
92004.000			-10.794			-2.159
92105.000			-10.794			-2.159
92204.000			-10.794			-2.159
92303.000			-10.793			-2.159
92405.000			-10.791			-2.158
92504.000			-10.791			-2.158
92604.000			-10.792			-2.158
92705.000			-10.791			-2.158
92804.000			-10.792			-2.158
92904.000			-10.791			-2.158
93004.000			-10.790			-2.158
93104.000			-10.789			-2.158
93204.000			-10.789			-2.158
93305.000			-10.790			-2.158
93404.000			-10.789			-2.158
93504.000			-10.788			-2.158
93605.000			-10.789			-2.158
93703.000			-10.788			-2.158
93804.000			-10.788			-2.158
93905.000			-10.788			-2.158
94004.000			-10.789			-2.158
94105.000			-10.788			-2.158
94204.000			-10.787			-2.157
94304.000			-10.787			-2.157
94404.000			-10.786			-2.157
94504.000			-10.786			-2.157
94604.000			-10.785			-2.157
94705.000			-10.786			-2.157
94804.000			-10.786			-2.157
94904.000			-10.786			-2.157
95005.000			-10.786			-2.157
95103.000			-10.785			-2.157
95204.000			-10.784			-2.157
95305.000			-10.784			-2.157
95404.000			-10.784			-2.157
95504.000			-10.784			-2.157
95605.000			-10.783			-2.157
95704.000			-10.783			-2.157
95803.000			-10.782			-2.156
95905.000			-10.782			-2.156
96004.000			-10.782			-2.156
96104.000			-10.782			-2.156
96205.000			-10.782			-2.156
96304.000			-10.782			-2.156
96404.000			-10.782			-2.156
96504.000			-10.781			-2.156
96604.000			-10.780			-2.156
96704.000			-10.780			-2.156
96805.000			-10.780			-2.156
96904.000			-10.779			-2.156
97004.000			-10.779			-2.156
97105.000			-10.780			-2.156
97203.000			-10.779			-2.156
97305.000			-10.779			-2.156
97404.000			-10.779			-2.156
97504.000			-10.778			-2.156
97605.000			-10.778			-2.156
97704.000			-10.777			-2.155
97804.000			-10.776			-2.155
97905.000			-10.777			-2.155
98004.000			-10.775			-2.155
98103.000			-10.775			-2.155
98205.000			-10.776			-2.155
98304.000			-10.776			-2.155
98404.000			-10.775			-2.155
98505.000			-10.774			-2.155
98604.000			-10.774			-2.155
98704.000			-10.775			-2.155
98804.000			-10.775			-2.155
98904.000			-10.774			-2.155
99004.000			-10.773			-2.155
99105.000			-10.773			-2.155
99204.000			-10.774			-2.155
99304.000			-10.773			-2.155
99405.000			-10.772			-2.154
99503.000			-10.771			-2.154
99604.000			-10.771			-2.154
99705.000			-10.771			-2.154
99804.000			-10.772			-2.154
99904.000			-10.771			-2.154
100005.000			-10.772			-2.154
100104.000			-10.772			-2.154
100203.000			-10.770			-2.154
100305.000			-10.770			-2.154
100404.000			-10.770			-2.154
100505.000			-10.769			-2.154
100604.000			-10.769			-2.154
100704.000			-10.769			-2.154
100805.000			-10.768			-2.154
100903.000			-10.768			-2.154
101004.000			-10.768			-2.154
101105.000			-10.768			-2.154
101204.000			-10.767			-2.153
101304.000			-10.767			-2.153
101405.000			-10.767			-2.153
101504.000			-10.767			-2.153
101604.000			-10.765			-2.153
101705.000			-10.765			-2.153
101803.000			-10.765			-2.153
101904.000			-10.765			-2.153
102005.000			-10.765			-2.153
102104.000			-10.765			-2.153
102204.000			-10.765			-2.153
102305.000			-10.765			-2.153
102404.000			-10.763			-2.153
102503.000			-10.764			-2.153
102605.000			-10.764			-2.153
102704.000			-10.764			-2.153
102804.000			-10.763			-2.153
102905.000			-10.764			-2.153
103004.000			-10.762			-2.152
103104.000			-10.761			-2.152
103204.000			-10.761			-2.152
103304.000			-10.762			-2.152
103404.000			-10.762			-2.152
103504.000			-10.762			-2.152
103604.000			-10.761			-2.152
103705.000			-10.761			-2.152
103804.000			-10.759			-2.152
103903.000			-10.760			-2.152
104005.000			-10.760			-2.152
104104.000			-10.759			-2.152
104204.000			-10.759			-2.152
104305.000			-10.758			-2.152
104404.000			-10.758			-2.152
104504.000			-10.759			-2.152
104604.000			-10.758			-2.152
104704.000			-10.759			-2.152
104804.000			-10.758			-2.152
104905.000			-10.756			-2.151
105004.000			-10.756			-2.151
105104.000			-10.756			-2.151
105205.000			-10.757			-2.151
105303.000			-10.757			-2.151
105404.000			-10.756			-2.151
105505.000			-10.756			-2.151
105604.000			-10.756			-2.151
105704.000			-10.756			-2.151
105805.000			-10.755			-2.151
105904.000			-10.754			-2.151
106003.000			-10.755			-2.151
106105.000			-10.754			-2.151
106204.000			-10.753			-2.151
106304.000			-10.753			-2.151
106405.000			-10.754			-2.151
106504.000			-10.753			-2.151
106604.000			-10.753			-2.151
106703.000			-10.753			-2.151
106804.000			-10.753			-2.151
106905.000			-10.752			-2.150
107004.000			-10.753			-2.151
107104.000			-10.753			-2.151
107205.000			-10.751			-2.150
107304.000			-10.750			-2.150
107403.000			-10.750			-2.150
107505.000			-10.750			-2.150
107604.000			-10.750			-2.150
107704.000			-10.750			-2.150
107805.000			-10.750			-2.150
107904.000			-10.750			-2.150
108004.000			-10.750			-2.150
108104.000			-10.749			-2.150
108204.000			-10.748			-2.150
108303.000			-10.748			-2.150
108405.000			-10.748			-2.150
108504.000			-10.747			-2.149
108604.000			-10.747			-2.149
108705.000			-10.746			-2.149
108804.000			-10.746			-2.149
108904.000			-10.747			-2.149
109004.000			-10.746			-2.149
109104.000			-10.746			-2.149
109204.000			-10.745			-2.149
109305.000			-10.746			-2.149
109404.000			-10.746			-2.149
109504.000			-10.745			-2.149
109605.000			-10.745			-2.149
109703.000			-10.745			-2.149
109804.000			-10.746			-2.149
109905.000			-10.745			-2.149
110004.000			-10.744			-2.149
110105.000			-10.743			-2.149
110204.000			-10.742			-2.148
110304.000			-10.745			-2.149
110404.000			-10.743			-2.149
110504.000			-10.742			-2.148
110604.000			-10.741			-2.148
110705.000			-10.741			-2.148
110804.000			-10.742			-2.148
110904.000			-10.742			-2.148
111005.000			-10.741			-2.148
111103.000			-10.741			-2.148
111204.000			-10.741			-2.148
111305.000			-10.741			-2.148
111404.000			-10.741			-2.148
111504.000			-10.741			-2.148
111605.000			-10.739			-2.148
111704.000			-10.739			-2.148
111803.000			-10.739			-2.148
111905.000			-10.740			-2.148
112004.000			-10.739			-2.148
112104.000			-10.739			-2.148
112205.000			-10.738			-2.148
112304.000			-10.737			-2.147
112404.000			-10.737			-2.147
112504.000			-10.737			-2.147
112604.000			-10.737			-2.147
112704.000			-10.737			-2.147
112805.000			-10.736			-2.147
112904.000			-10.736			-2.147
113004.000			-10.736			-2.147
113105.000			-10.737			-2.147
113203.000			-10.735			-2.147
113305.000			-10.735			-2.147
113404.000			-10.735			-2.147
113504.000			-10.734			-2.147
113605.000			-10.734			-2.147
113704.000			-10.734			-2.147
113804.000			-10.735			-2.147
113904.000			-10.735			-2.147
114004.000			-10.733			-2.147
114104.000			-10.733			-2.147
114205.000			-10.733			-2.147
114304.000			-10.732			-2.146
114404.000			-10.733			-2.147
114505.000			-10.732			-2.146
114603.000			-10.732			-2.146
114704.000			-10.732			-2.146
114805.000			-10.732			-2.146
114904.000			-10.731			-2.146
115004.000			-10.731			-2.146
115105.000			-10.731			-2.146
115204.000			-10.731			-2.146
115303.000			-10.730			-2.146
115405.000			-10.730			-2.146
115504.000			-10.730			-2.146
115604.000			-10.731			-2.146
115705.000			-10.730			-2.146
115804.000			-10.729			-2.146
115904.000			-10.729			-2.146
116004.000			-10.729			-2.146
116104.000			-10.728			-2.146
116204.000			-10.727			-2.145
116304.000			-10.728			-2.146
116404.000			-10.727			-2.145
116505.000			-10.726			-2.145
116604.000			-10.727			-2.145
116703.000			-10.726			-2.145
116805.000			-10.726			-2.145
116904.000			-10.725			-2.145
117004.000			-10.726			-2.145
117105.000			-10.725			-2.145
117204.000			-10.725			-2.145
117304.000			-10.725			-2.145
117404.000			-10.725			-2.145
117504.000			-10.725			-2.145
117604.000			-10.724			-2.145
117705.000			-10.723			-2.145
117804.000			-10.722			-2.144
117904.000			-10.723			-2.145
118005.000			-10.723			-2.145
118103.000			-10.724			-2.145
118204.000			-10.724			-2.145
118305.000			-10.722			-2.144
118404.000			-10.722			-2.144
118504.000			-10.723			-2.145
118605.000			-10.722			-2.144
118704.000			-10.723			-2.145
118803.000			-10.722			-2.144
118905.000			-10.721			-2.144
119004.000			-10.721			-2.144
119104.000			-10.720			-2.144
119205.000			-10.720			-2.144
119304.000			-10.721			-2.144
119404.000			-10.720			-2.144
119503.000			-10.720			-2.144
119604.000			-10.719			-2.144
119705.000			-10.719			-2.144
119804.000			-10.720			-2.144
119904.000			-10.720			-2.144
120005.000			-10.720			-2.144
120104.000			-10.719			-2.144
120203.000			-10.719			-2.144
120305.000			-10.719			-2.144
120404.000			-10.718			-2.144
120504.000			-10.718			-2.144
120605.000			-10.717			-2.143
120704.000			-10.717			-2.143
120804.000			-10.716			-2.143
120904.000			-10.717			-2.143
121004.000			-10.716			-2.143
121104.000			-10.716			-2.143
121205.000			-10.716			-2.143
121304.000			-10.716			-2.143
121404.000			-10.716			-2.143
121505.000			-10.716			-2.143
121603.000			-10.716			-2.143
121704.000			-10.715			-2.143
121805.000			-10.715			-2.143
121904.000			-10.715			-2.143
122004.000			-10.714			-2.143
122105.000			-10.713			-2.143
122204.000			-10.713			-2.143
122303.000			-10.713			-2.143
122405.000			-10.713			-2.143
122504.000			-10.713			-2.143
122604.000			-10.713			-2.143
122705.000			-10.712			-2.142
122804.000			-10.712			-2.142
122905.000			-10.712			-2.142
123003.000			-10.711			-2.142
123104.000			-10.711			-2.142
123205.000			-10.712			-2.142
123304.000			-10.711			-2.142
123404.000			-10.712			-2.142
123504.000			-10.712			-2.142
123604.000			-10.710			-2.142
123703.000			-10.710			-2.142
123805.000			-10.710			-2.142
123904.000			-10.710			-2.142
124004.000			-10.710			-2.142
124105.000			-10.710			-2.142
124203.000			-10.710			-2.142
124304.000			-10.709			-2.142
124405.000			-10.708			-2.142
124504.000			-10.709			-2.142
124604.000			-10.709			-2.142
124705.000			-10.708			-2.142
124804.000			-10.709			-2.142
124904.000			-10.708			-2.142
125005.000			-10.707			-2.141
125103.000			-10.707			-2.141
125204.000			-10.706			-2.141
125305.000			-10.706			-2.141
125404.000			-10.706			-2.141
125504.000			-10.707			-2.141
125604.000			-10.705			-2.141
125704.000			-10.704			-2.141
125803.000			-10.704			-2.141
125905.000			-10.704			-2.141
126004.000			-10.705			-2.141
126105.000			-10.706			-2.141
126204.000			-10.704			-2.141
126304.000			-10.704			-2.141
126405.000			-10.704			-2.141
126503.000			-10.703			-2.141
126604.000			-10.703			-2.141
126705.000			-10.703			-2.141
126804.000			-10.703			-2.141
126904.000			-10.703			-2.141
127005.000			-10.702			-2.140
127104.000			-10.701			-2.140
127203.000			-10.701			-2.140
127305.000			-10.702			-2.140
127404.000			-10.702			-2.140
127504.000			-10.701			-2.140
127605.000			-10.701			-2.140
127704.000			-10.700			-2.140
127804.000			-10.700			-2.140
127904.000			-10.700			-2.140
128004.000			-10.701			-2.140
128104.000			-10.700			-2.140
128205.000			-10.699			-2.140
128304.000			-10.699			-2.140
128404.000			-10.700			-2.140
128505.000			-10.699			-2.140
128603.000			-10.698			-2.140
128704.000			-10.698			-2.140
128805.000			-10.699			-2.140
128904.000			-10.699			-2.140
129004.000			-10.698			-2.140
129104.000			-10.699			-2.140
129204.000			-10.698			-2.140
129303.000			-10.697			-2.139
129404.000			-10.696			-2.139
129503.000			-10.696			-2.139
129605.000			-10.696			-2.139
129704.000			-10.697			-2.139
129804.000			-10.697			-2.139
129905.000			-10.696			-2.139
130004.000			-10.695			-2.139
130104.000			-10.697			-2.139
130204.000			-10.696			-2.139
130304.000			-10.695			-2.139
130404.000			-10.694			-2.139
130505.000			-10.695			-2.139
130604.000			-10.694			-2.139
130704.000			-10.695			-2.139
130805.000			-10.695			-2.139
130903.000			-10.694			-2.139
131004.000			-10.693			-2.139
131105.000			-10.694			-2.139
131204.000			-10.694			-2.139
131304.000			-10.693			-2.139
131405.000			-10.694			-2.139
131504.000			-10.694			-2.139
131603.000			-10.693			-2.139
131705.000			-10.692			-2.138
131804.000			-10.694			-2.139
131904.000			-10.693			-2.139
132005.000			-10.692			-2.138
132104.000			-10.691			-2.138
132204.000			-10.692			-2.138
132304.000			-10.691			-2.138
132404.000			-10.692			-2.138
132503.000			-10.692			-2.138
132604.000			-10.692			-2.138
132704.000			-10.692			-2.138
132805.000			-10.691			-2.138
132904.000			-10.691			-2.138
133004.000			-10.691			-2.138
133105.000			-10.691			-2.138
133204.000			-10.689			-2.138
133304.000			-10.689			-2.138
133404.000			-10.690			-2.138
133504.000			-10.690			-2.138
133604.000			-10.687			-2.137
133705.000			-10.687			-2.137
133804.000			-10.688			-2.138
133904.000			-10.688			-2.138
134005.000			-10.687			-2.137
134103.000			-10.687			-2.137
134204.000			-10.688			-2.138
134304.000			-10.686			-2.137
134404.000			-10.686			-2.137
134504.000			-10.688			-2.138
134605.000			-10.687			-2.137
134704.000			-10.686			-2.137
134804.000			-10.686			-2.137
134905.000			-10.686			-2.137
135003.000			-10.686			-2.137
135104.000			-10.685			-2.137
135204.000			-10.685			-2.137
135304.000			-10.685			-2.137
135404.000			-10.685			-2.137
135504.000			-10.685			-2.137
135604.000			-10.686			-2.137
135705.000			-10.686			-2.137
135804.000			-10.684			-2.137
135903.000			-10.684			-2.137
136005.000			-10.683			-2.137
136103.000			-10.683			-2.137
136204.000			-10.684			-2.137
136305.000			-10.684			-2.137
136404.000			-10.683			-2.137
136504.000			-10.681			-2.136
136605.000			-10.682			-2.136
136704.000			-10.682			-2.136
136803.000			-10.682			-2.136
136905.000			-10.682			-2.136
137004.000			-10.681			-2.136
137104.000			-10.681			-2.136
137205.000			-10.681			-2.136
137304.000			-10.681			-2.136
137404.000			-10.682			-2.136
137505.000			-10.682			-2.136
137604.000			-10.681			-2.136
137703.000			-10.680			-2.136
137805.000			-10.680			-2.136
137904.000			-10.680			-2.136
138004.000			-10.679			-2.136
138105.000			-10.679			-2.136
138204.000			-10.679			-2.136
138304.000			-10.680			-2.136
138404.000			-10.680			-2.136
138504.000			-10.678			-2.136
138603.000			-10.678			-2.136
138705.000			-10.678			-2.136
138804.000			-10.678			-2.136
138905.000			-10.678			-2.136
139004.000			-10.678			-2.136
139104.000			-10.677			-2.135
139205.000			-10.677			-2.135
139304.000			-10.677			-2.135
139404.000			-10.678			-2.136
139504.000			-10.677			-2.135
139604.000			-10.677			-2.135
139704.000			-10.676			-2.135
139805.000			-10.676			-2.135
139904.000			-10.676			-2.135
140004.000			-10.676			-2.135
140105.000			-10.676			-2.135
140204.000			-10.675			-2.135
140304.000			-10.675			-2.135
140404.000			-10.676			-2.135
140504.000			-10.675			-2.135
140604.000			-10.675			-2.135
140705.000			-10.673			-2.135
140804.000			-10.674			-2.135
140904.000			-10.674			-2.135
141005.000			-10.674			-2.135
141103.000			-10.674			-2.135
141204.000			-10.674			-2.135
141304.000			-10.673			-2.135
141404.000			-10.674			-2.135
141504.000			-10.673			-2.135
141605.000			-10.672			-2.134
141704.000			-10.673			-2.135
141804.000			-10.673			-2.135
141905.000			-10.673			-2.135
142003.000			-10.673			-2.135
142105.000			-10.672			-2.134
142204.000			-10.671			-2.134
142304.000			-10.672			-2.134
142405.000			-10.671			-2.134
142504.000			-10.669			-2.134
142604.000			-10.669			-2.134
142705.000			-10.669			-2.134
142804.000			-10.670			-2.134
142903.000			-10.671			-2.134
143005.000			-10.671			-2.134
143104.000			-10.670			-2.134
143204.000			-10.669			-2.134
143305.000			-10.671			-2.134
143404.000			-10.670			-2.134
143504.000			-10.669			-2.134
143605.000			-10.669			-2.134
143704.000			-10.668			-2.134
143803.000			-10.669			-2.134
143905.000			-10.668			-2.134
144004.000			-10.667			-2.133
144104.000			-10.668			-2.134
144205.000			-10.669			-2.134
144304.000			-10.669			-2.134
144404.000			-10.667			-2.133
144505.000			-10.667			-2.133
144604.000			-10.667			-2.133
144703.000			-10.666			-2.133
144805.000			-10.666			-2.133
144904.000			-10.665			-2.133
145004.000			-10.666			-2.133
145105.000			-10.666			-2.133
145204.000			-10.666			-2.133
145305.000			-10.665			-2.133
145404.000			-10.665			-2.133
145504.000			-10.664			-2.133
145604.000			-10.665			-2.133
145704.000			-10.664			-2.133
145804.000			-10.664			-2.133
145905.000			-10.664			-2.133
146004.000			-10.664			-2.133
146104.000			-10.665			-2.133
146205.000			-10.664			-2.133
146304.000			-10.662			-2.132
146404.000			-10.662			-2.132
146504.000			-10.663			-2.133
146604.000			-10.663			-2.133
146704.000			-10.663			-2.133
146805.000			-10.663			-2.133
146904.000			-10.662			-2.132
147004.000			-10.663			-2.133
147105.000			-10.663			-2.133
147204.000			-10.662			-2.132
147304.000			-10.661			-2.132
147404.000			-10.662			-2.132
147504.000			-10.662			-2.132
147604.000			-10.661			-2.132
147705.000			-10.661			-2.132
147804.000			-10.662			-2.132
147904.000			-10.661			-2.132
148005.000			-10.661			-2.132
148103.000			-10.661			-2.132
148204.000			-10.662			-2.132
148303.000			-10.661			-2.132
148404.000			-10.660			-2.132
148505.000			-10.660			-2.132
148604.000			-10.660			-2.132
148704.000			-10.660			-2.132
148805.000			-10.658			-2.132
148904.000			-10.659			-2.132
149004.000			-10.658			-2.132
149105.000			-10.657			-2.131
149203.000			-10.658			-2.132
149304.000			-10.657			-2.131
149405.000			-10.657			-2.131
149504.000			-10.658			-2.132
149604.000			-10.657			-2.131
149705.000			-10.657			-2.131
149804.000			-10.656			-2.131
149904.000			-10.656			-2.131
150005.000			-10.655			-2.131
150103.000			-10.655			-2.131
150204.000			-10.655			-2.131
150305.000			-10.654			-2.131
150404.000			-10.655			-2.131
150504.000			-10.655			-2.131
150605.000			-10.655			-2.131
150704.000			-10.654			-2.131
150803.000			-10.653			-2.131
150905.000			-10.652			-2.130
151003.000			-10.654			-2.131
151104.000			-10.654			-2.131
151205.000			-10.653			-2.131
151304.000			-10.653			-2.131
151404.000			-10.653			-2.131
151504.000			-10.652			-2.130
151604.000			-10.652			-2.130
151703.000			-10.652			-2.130
151804.000			-10.652			-2.130
151904.000			-10.652			-2.130
152005.000			-10.654			-2.131
152104.000			-10.653			-2.131
152204.000			-10.651			-2.130
152305.000			-10.651			-2.130
152404.000			-10.652			-2.130
152504.000			-10.651			-2.130
152604.000			-10.651			-2.130
152704.000			-10.651			-2.130
152804.000			-10.651			-2.130
152905.000			-10.650			-2.130
153004.000			-10.650			-2.130
153104.000			-10.651			-2.130
153205.000			-10.650			-2.130
153303.000			-10.650			-2.130
153404.000			-10.650			-2.130
153505.000			-10.649			-2.130
153604.000			-10.650			-2.130
153704.000			-10.649			-2.130
153805.000			-10.650			-2.130
153904.000			-10.649			-2.130
154004.000			-10.649			-2.130
154105.000			-10.649			-2.130
154203.000			-10.649			-2.130
154304.000			-10.648			-2.130
154405.000			-10.649			-2.130
154504.000			-10.648			-2.130
154604.000			-10.648			-2.130
154704.000			-10.648			-2.130
154804.000			-10.648			-2.130
154905.000			-10.647			-2.129
155004.000			-10.647			-2.129
155103.000			-10.647			-2.129
155205.000			-10.646			-2.129
155304.000			-10.647			-2.129
155404.000			-10.646			-2.129
155505.000			-10.645			-2.129
155604.000			-10.646			-2.129
155704.000			-10.646			-2.129
155805.000			-10.646			-2.129
155904.000			-10.646			-2.129
156003.000			-10.646			-2.129
156105.000			-10.646			-2.129
156204.000			-10.646			-2.129
156304.000			-10.645			-2.129
156405.000			-10.645			-2.129
156504.000			-10.644			-2.129
156604.000			-10.645			-2.129
156705.000			-10.645			-2.129
156804.000			-10.646			-2.129
156903.000			-10.645			-2.129
157005.000			-10.644			-2.129
157104.000			-10.643			-2.129
157204.000			-10.644			-2.129
157305.000			-10.644			-2.129
157404.000			-10.644			-2.129
157504.000			-10.643			-2.129
157604.000			-10.644			-2.129
157704.000			-10.643			-2.129
157803.000			-10.643			-2.129
157905.000			-10.642			-2.128
158004.000			-10.643			-2.129
158105.000			-10.643			-2.129
158204.000			-10.643			-2.129
158304.000			-10.643			-2.129
158405.000			-10.642			-2.128
158503.000			-10.641			-2.128
158604.000			-10.642			-2.128
158705.000			-10.642			-2.128
158804.000			-10.641			-2.128
158904.000			-10.640			-2.128
159005.000			-10.640			-2.128
159104.000			-10.640			-2.128
159204.000			-10.640			-2.128
159305.000			-10.640			-2.128
159403.000			-10.640			-2.128
159504.000			-10.640			-2.128
159605.000			-10.640			-2.128
159704.000			-10.640			-2.128
159804.000			-10.641			-2.128
159905.000			-10.640			-2.128
160004.000			-10.640			-2.128
160104.000			-10.639			-2.128
160205.000			-10.639			-2.128
160303.000			-10.639			-2.128
160404.000			-10.638			-2.128
160505.000			-10.639			-2.128
160604.000			-10.638			-2.128
160704.000			-10.638			-2.128
160805.000			-10.637			-2.127
160904.000			-10.637			-2.127
161004.000			-10.638			-2.128
161105.000			-10.639			-2.128
161203.000			-10.637			-2.127
161305.000			-10.636			-2.127
161404.000			-10.637			-2.127
161504.000			-10.637			-2.127
161605.000			-10.636			-2.127
161704.000			-10.636			-2.127
161804.000			-10.636			-2.127
161904.000			-10.636			-2.127
162004.000			-10.635			-2.127
162103.000			-10.635			-2.127
162205.000			-10.635			-2.127
162304.000			-10.635			-2.127
162404.000			-10.635			-2.127
162505.000			-10.634			-2.127
162604.000			-10.635			-2.127
162704.000			-10.635			-2.127
162804.000			-10.635			-2.127
162904.000			-10.635			-2.127
163004.000			-10.634			-2.127
163105.000			-10.633			-2.127
163204.000			-10.634			-2.127
163304.000			-10.633			-2.127
163405.000			-10.633			-2.127
163504.000			-10.632			-2.126
163604.000			-10.632			-2.126
163704.000			-10.633			-2.127
163804.000			-10.633			-2.127
163904.000			-10.633			-2.127
164005.000			-10.632			-2.126
164104.000			-10.631			-2.126
164204.000			-10.632			-2.126
164305.000			-10.632			-2.126
164403.000			-10.631			-2.126
164505.000			-10.631			-2.126
164603.000			-10.631			-2.126
164704.000			-10.630			-2.126
164805.000			-10.632			-2.126
164904.000			-10.631			-2.126
165004.000			-10.630			-2.126
165105.000			-10.630			-2.126
165204.000			-10.630			-2.126
165303.000			-10.630			-2.126
165405.000			-10.630			-2.126
165504.000			-10.629			-2.126
165604.000			-10.631			-2.126
165705.000			-10.630			-2.126
165804.000			-10.630			-2.126
165904.000			-10.630			-2.126
166005.000			-10.629			-2.126
166104.000			-10.629			-2.126
166203.000			-10.629			-2.126
166305.000			-10.629			-2.126
166404.000			-10.629			-2.126
166504.000			-10.628			-2.126
166605.000			-10.629			-2.126
166704.000			-10.629			-2.126
166804.000			-10.628			-2.126
166905.000			-10.628			-2.126
167004.000			-10.628			-2.126
167103.000			-10.628			-2.126
167205.000			-10.627			-2.125
167304.000			-10.627			-2.125
167404.000			-10.627			-2.125
167505.000			-10.626			-2.125
167604.000			-10.627			-2.125
167705.000			-10.626			-2.125
167804.000			-10.625			-2.125
167904.000			-10.626			-2.125
168004.000			-10.627			-2.125
168104.000			-10.626			-2.125
168204.000			-10.626			-2.125
168305.000			-10.626			-2.125
168404.000			-10.625			-2.125
168504.000			-10.624			-2.125
168605.000			-10.624			-2.125
168704.000			-10.623			-2.125
168804.000			-10.623			-2.125
168904.000			-10.623			-2.125
169004.000			-10.623			-2.125
169104.000			-10.624			-2.125
169205.000			-10.624			-2.125
169304.000			-10.624			-2.125
169404.000			-10.624			-2.125
169505.000			-10.624			-2.125
169604.000			-10.623			-2.125
169704.000			-10.623			-2.125
169804.000			-10.623			-2.125
169904.000			-10.624			-2.125
170004.000			-10.624			-2.125
170105.000			-10.624			-2.125
170204.000			-10.623			-2.125
170304.000			-10.622			-2.124
170405.000			-10.622			-2.124
170504.000			-10.622			-2.124
170604.000			-10.621			-2.124
170703.000			-10.622			-2.124
170804.000			-10.621			-2.124
170905.000			-10.622			-2.124
171004.000			-10.621			-2.124
171104.000			-10.621			-2.124
171205.000			-10.622			-2.124
171304.000			-10.621			-2.124
171403.000			-10.621			-2.124
171505.000			-10.621			-2.124
171604.000			-10.622			-2.124
171704.000			-10.621			-2.124
171805.000			-10.620			-2.124
171904.000			-10.620			-2.124
172004.000			-10.620			-2.124
172105.000			-10.621			-2.124
172204.000			-10.620			-2.124
172303.000			-10.620			-2.124
172405.000			-10.620			-2.124
172504.000			-10.620			-2.124
172604.000			-10.619			-2.124
172705.000			-10.619			-2.124
172804.000			-10.619			-2.124
172904.000			-10.618			-2.124
173004.000			-10.618			-2.124
173104.000			-10.618			-2.124
173203.000			-10.618			-2.124
173305.000			-10.617			-2.123
173404.000			-10.617			-2.123
173504.000			-10.618			-2.124
173605.000			-10.617			-2.123
173704.000			-10.617			-2.123
173804.000			-10.617			-2.123
173903.000			-10.617			-2.123
174004.000			-10.618			-2.124
174103.000			-10.617			-2.123
174204.000			-10.617			-2.123
174304.000			-10.616			-2.123
174405.000			-10.615			-2.123
174504.000			-10.615			-2.123
174604.000			-10.616			-2.123
174705.000			-10.616			-2.123
174803.000			-10.616			-2.123
174904.000			-10.615			-2.123
175005.000			-10.614			-2.123
175104.000			-10.615			-2.123
175204.000			-10.614			-2.123
175305.000			-10.614			-2.123
175404.000			-10.614			-2.123
175504.000			-10.614			-2.123
175605.000			-10.614			-2.123
175703.000			-10.614			-2.123
175804.000			-10.613			-2.123
175905.000			-10.612			-2.122
176004.000			-10.613			-2.123
176104.000			-10.612			-2.122
176205.000			-10.612			-2.122
176304.000			-10.612			-2.122
176404.000			-10.612			-2.122
176505.000			-10.610			-2.122
176603.000			-10.611			-2.122
176704.000			-10.611			-2.122
176805.000			-10.611			-2.122
176904.000			-10.612			-2.122
177004.000			-10.611			-2.122
177104.000			-10.611			-2.122
177204.000			-10.612			-2.122
177303.000			-10.612			-2.122
177404.000			-10.611			-2.122
177503.000			-10.611			-2.122
177605.000			-10.610			-2.122
177704.000			-10.610			-2.122
177804.000			-10.609			-2.122
177905.000			-10.610			-2.122
178004.000			-10.609			-2.122
178104.000			-10.608			-2.122
178204.000			-10.609			-2.122
178304.000			-10.609			-2.122
178403.000			-10.608			-2.122
178505.000			-10.608			-2.122
178604.000			-10.607			-2.121
178704.000			-10.608			-2.122
178805.000			-10.608			-2.122
178904.000			-10.608			-2.122
179004.000			-10.607			-2.121
179104.000			-10.606			-2.121
179204.000			-10.605			-2.121
179303.000			-10.606			-2.121
179405.000			-10.606			-2.121
179504.000			-10.607			-2.121
179604.000			-10.606			-2.121
179705.000			-10.606			-2.121
179804.000			-10.606			-2.121
179904.000			-10.606			-2.121
180004.000			-10.605			-2.121
180104.000			-10.604			-2.121
180203.000			-10.605			-2.121
180305.000			-10.604			-2.121
180404.000			-10.605			-2.121
180505.000			-10.605			-2.121
180604.000			-10.605			-2.121
180704.000			-10.605			-2.121
180805.000			-10.604			-2.121
180903.000			-10.604			-2.121
181004.000			-10.604			-2.121
181105.000			-10.603			-2.121
181204.000			-10.603			-2.121
181304.000			-10.603			-2.121
181405.000			-10.603			-2.121
181504.000			-10.602			-2.120
181603.000			-10.602			-2.120
181705.000			-10.602			-2.120
181804.000			-10.602			-2.120
181904.000			-10.602			-2.120
182005.000			-10.601			-2.120
182104.000			-10.600			-2.120
182204.000			-10.601			-2.120
182305.000			-10.601			-2.120
182404.000			-10.601			-2.120
182503.000			-10.601			-2.120
182605.000			-10.600			-2.120
182704.000			-10.599			-2.120
182804.000			-10.599			-2.120
182905.000			-10.600			-2.120
183004.000			-10.601			-2.120
183104.000			-10.600			-2.120
183204.000			-10.599			-2.120
183304.000			-10.599			-2.120
183403.000			-10.598			-2.120
183505.000			-10.597			-2.119
183604.000			-10.598			-2.120
183705.000			-10.599			-2.120
183804.000			-10.598			-2.120
183904.000			-10.598			-2.120
184005.000			-10.598			-2.120
184104.000			-10.598			-2.120
184204.000			-10.597			-2.119
184304.000			-10.597			-2.119
184404.000			-10.598			-2.120
184504.000			-10.597			-2.119
184605.000			-10.597			-2.119
184704.000			-10.597			-2.119
184804.000			-10.596			-2.119
184905.000			-10.596			-2.119
185004.000			-10.597			-2.119
185104.000			-10.596			-2.119
185204.000			-10.596			-2.119
185304.000			-10.596			-2.119
185404.000			-10.595			-2.119
185505.000			-10.595			-2.119
185604.000			-10.595			-2.119
185704.000			-10.595			-2.119
185805.000			-10.594			-2.119
185904.000			-10.593			-2.119
186004.000			-10.594			-2.119
186104.000			-10.594			-2.119
186204.000			-10.594			-2.119
186304.000			-10.595			-2.119
186405.000			-10.595			-2.119
186504.000			-10.594			-2.119
186604.000			-10.594			-2.119
186705.000			-10.593			-2.119
186804.000			-10.593			-2.119
186905.000			-10.594			-2.119
187003.000			-10.593			-2.119
187104.000			-10.593			-2.119
187205.000			-10.593			-2.119
187304.000			-10.594			-2.119
187404.000			-10.593			-2.119
187505.000			-10.592			-2.118
187604.000			-10.592			-2.118
187704.000			-10.592			-2.118
187805.000			-10.592			-2.118
187903.000			-10.592			-2.118
188004.000			-10.593			-2.119
188105.000			-10.592			-2.118
188204.000			-10.592			-2.118
188304.000			-10.594			-2.119
188405.000			-10.592			-2.118
188504.000			-10.591			-2.118
188604.000			-10.592			-2.118
188705.000			-10.591			-2.118
188803.000			-10.591			-2.118
188904.000			-10.591			-2.118
189004.000			-10.592			-2.118
189104.000			-10.591			-2.118
189204.000			-10.591			-2.118
189305.000			-10.591			-2.118
189404.000			-10.591			-2.118
189504.000			-10.591			-2.118
189605.000			-10.591			-2.118
189703.000			-10.591			-2.118
189804.000			-10.591			-2.118
189903.000			-10.591			-2.118
190004.000			-10.589			-2.118
190105.000			-10.589			-2.118
190204.000			-10.589			-2.118
190304.000			-10.589			-2.118
190405.000			-10.589			-2.118
190504.000			-10.589			-2.118
190604.000			-10.589			-2.118
190705.000			-10.589			-2.118
190803.000			-10.590			-2.118
190904.000			-10.588			-2.118
191005.000			-10.589			-2.118
191104.000			-10.589			-2.118
191204.000			-10.588			-2.118
191305.000			-10.588			-2.118
191404.000			-10.589			-2.118
191504.000			-10.589			-2.118
191605.000			-10.587			-2.117
191703.000			-10.587			-2.117
191804.000			-10.587			-2.117
191905.000			-10.588			-2.118
192004.000			-10.587			-2.117
192104.000			-10.587			-2.117
192205.000			-10.586			-2.117
192304.000			-10.587			-2.117
192404.000			-10.587			-2.117
192505.000			-10.588			-2.118
192603.000			-10.587			-2.117
192704.000			-10.586			-2.117
192804.000			-10.586			-2.117
192904.000			-10.586			-2.117
193004.000			-10.587			-2.117
193104.000			-10.586			-2.117
193204.000			-10.586			-2.117
193305.000			-10.586			-2.117
193404.000			-10.586			-2.117
193503.000			-10.586			-2.117
193605.000			-10.586			-2.117
193703.000			-10.585			-2.117
193804.000			-10.584			-2.117
193905.000			-10.584			-2.117
194004.000			-10.584			-2.117
194104.000			-10.585			-2.117
194205.000			-10.585			-2.117
194304.000			-10.584			-2.117
194403.000			-10.584			-2.117
194505.000			-10.585			-2.117
194603.000			-10.585			-2.117
194704.000			-10.584			-2.117
194805.000			-10.584			-2.117
194904.000			-10.583			-2.117
195004.000			-10.583			-2.117
195105.000			-10.584			-2.117
195204.000			-10.584			-2.117
195303.000			-10.583			-2.117
195405.000			-10.583			-2.117
195503.000			-10.584			-2.117
195604.000			-10.583			-2.117
195705.000			-10.582			-2.116
195804.000			-10.582			-2.116
195904.000			-10.581			-2.116
196005.000			-10.582			-2.116
196104.000			-10.582			-2.116
196203.000			-10.583			-2.117
196305.000			-10.583			-2.117
196403.000			-10.583			-2.117
196505.000			-10.583			-2.117
196604.000			-10.583			-2.117
196704.000			-10.581			-2.116
196805.000			-10.582			-2.116
196904.000			-10.583			-2.117
197004.000			-10.581			-2.116
197104.000			-10.581			-2.116
197204.000			-10.580			-2.116
197303.000			-10.581			-2.116
197405.000			-10.580			-2.116
197504.000			-10.579			-2.116
197604.000			-10.580			-2.116
197705.000			-10.580			-2.116
197804.000			-10.579			-2.116
197904.000			-10.580			-2.116
198005.000			-10.581			-2.116
198104.000			-10.581			-2.116
198203.000			-10.579			-2.116
198305.000			-10.579			-2.116
198404.000			-10.579			-2.116
198504.000			-10.580			-2.116
198605.000			-10.580			-2.116
198704.000			-10.579			-2.116
198804.000			-10.578			-2.116
198905.000			-10.578			-2.116
199004.000			-10.578			-2.116
199103.000			-10.578			-2.116
199205.000			-10.578			-2.116
199303.000			-10.578			-2.116
199404.000			-10.577			-2.115
199505.000			-10.577			-2.115
199604.000			-10.577			-2.115
199705.000			-10.578			-2.116
199804.000			-10.578			-2.116
199904.000			-10.577			-2.115
200005.000			-10.577			-2.115
200104.000			-10.578			-2.116
200203.000			-10.578			-2.116
200305.000			-10.577			-2.115
200404.000			-10.576			-2.115
200504.000			-10.576			-2.115
200605.000			-10.576			-2.115
200704.000			-10.576			-2.115
200804.000			-10.576			-2.115
200904.000			-10.576			-2.115
201004.000			-10.576			-2.115
201103.000			-10.576			-2.115
201205.000			-10.576			-2.115
201304.000			-10.575			-2.115
201404.000			-10.575			-2.115
201505.000			-10.576			-2.115
201604.000			-10.575			-2.115
201704.000			-10.574			-2.115
201804.000			-10.575			-2.115
201904.000			-10.575			-2.115
202004.000			-10.575			-2.115
202105.000			-10.575			-2.115
202204.000			-10.574			-2.115
202304.000			-10.574			-2.115
202405.000			-10.574			-2.115
202504.000			-10.574			-2.115
202604.000			-10.574			-2.115
202703.000			-10.574			-2.115
202804.000			-10.574			-2.115
202905.000			-10.573			-2.115
203004.000			-10.573			-2.115
203104.000			-10.573			-2.115
203205.000			-10.574			-2.115
203304.000			-10.574			-2.115
203403.000			-10.574			-2.115
203505.000			-10.573			-2.115
203603.000			-10.573			-2.115
203704.000			-10.572			-2.114
203805.000			-10.572			-2.114
203904.000			-10.573			-2.115
204004.000			-10.572			-2.114
204105.000			-10.572			-2.114
204204.000			-10.572			-2.114
204303.000			-10.572			-2.114
204405.000			-10.571			-2.114
204504.000			-10.572			-2.114
204604.000			-10.572			-2.114
204705.000			-10.570			-2.114
204804.000			-10.570			-2.114
204904.000			-10.570			-2.114
205005.000			-10.570			-2.114
205104.000			-10.570			-2.114
205203.000			-10.570			-2.114
205305.000			-10.570			-2.114
205404.000			-10.570			-2.114
205504.000			-10.569			-2.114
205605.000			-10.570			-2.114
205704.000			-10.570			-2.114
205804.000			-10.569			-2.114
205904.000			-10.568			-2.114
206004.000			-10.568			-2.114
206103.000			-10.570			-2.114
206204.000			-10.569			-2.114
206304.000			-10.569			-2.114
206405.000			-10.569			-2.114
206504.000			-10.568			-2.114
206604.000			-10.568			-2.114
206705.000			-10.568			-2.114
206804.000			-10.568			-2.114
206904.000			-10.568			-2.114
207004.000			-10.568			-2.114
207104.000			-10.568			-2.114
207204.000			-10.567			-2.113
207305.000			-10.567			-2.113
207404.000			-10.566			-2.113
207504.000			-10.566			-2.113
207605.000			-10.566			-2.113
207703.000			-10.566			-2.113
207804.000			-10.566			-2.113
207904.000			-10.566			-2.113
208004.000			-10.566			-2.113
208104.000			-10.566			-2.113
208205.000			-10.566			-2.113
208304.000			-10.565			-2.113
208404.000			-10.566			-2.113
208505.000			-10.566			-2.113
208603.000			-10.564			-2.113
208704.000			-10.564			-2.113
208805.000			-10.565			-2.113
208904.000			-10.564			-2.113
209004.000			-10.564			-2.113
209104.000			-10.563			-2.113
209204.000			-10.562			-2.112
209305.000			-10.563			-2.113
209404.000			-10.564			-2.113
209503.000			-10.564			-2.113
209605.000			-10.563			-2.113
209704.000			-10.563			-2.113
209804.000			-10.563			-2.113
209905.000			-10.561			-2.112
210004.000			-10.561			-2.112
210104.000			-10.560			-2.112
210204.000			-10.561			-2.112
210304.000			-10.561			-2.112
210403.000			-10.561			-2.112
210505.000			-10.560			-2.112
210604.000			-10.560			-2.112
210704.000			-10.560			-2.112
210805.000			-10.559			-2.112
210904.000			-10.559			-2.112
211004.000			-10.559			-2.112
211104.000			-10.559			-2.112
211204.000			-10.560			-2.112
211304.000			-10.559			-2.112
211405.000			-10.559			-2.112
211504.000			-10.560			-2.112
211604.000			-10.559			-2.112
211705.000			-10.559			-2.112
211804.000			-10.559			-2.112
211904.000			-10.559			-2.112
212004.000			-10.559			-2.112
212104.000			-10.560			-2.112
212204.000			-10.560			-2.112
212304.000			-10.560			-2.112
212404.000			-10.559			-2.112
212505.000			-10.559			-2.112
212604.000			-10.560			-2.112
212703.000			-10.559			-2.112
212805.000			-10.559			-2.112
212904.000			-10.559			-2.112
213004.000			-10.559			-2.112
213105.000			-10.559			-2.112
213204.000			-10.559			-2.112
213304.000			-10.559			-2.112
213405.000			-10.559			-2.112
213504.000			-10.559			-2.112
213603.000			-10.560			-2.112
213705.000			-10.559			-2.112
213804.000			-10.558			-2.112
213904.000			-10.558			-2.112
214005.000			-10.558			-2.112
214104.000			-10.557			-2.111
214204.000			-10.558			-2.112
214305.000			-10.559			-2.112
214404.000			-10.558			-2.112
214503.000			-10.557			-2.111
214605.000			-10.558			-2.112
214704.000			-10.557			-2.111
214804.000			-10.557			-2.111
214905.000			-10.557			-2.111
215004.000			-10.558			-2.112
215104.000			-10.558			-2.112
215204.000			-10.557			-2.111
215304.000			-10.557			-2.111
215403.000			-10.557			-2.111
215505.000			-10.557			-2.111
215604.000			-10.556			-2.111
215705.000			-10.557			-2.111
215804.000			-10.556			-2.111
215904.000			-10.556			-2.111
216005.000			-10.557			-2.111
216103.000			-10.557			-2.111
216204.000			-10.556			-2.111
216304.000			-10.556			-2.111
216404.000			-10.556			-2.111
216504.000			-10.556			-2.111
216605.000			-10.557			-2.111
216704.000			-10.556			-2.111
216804.000			-10.554			-2.111
216905.000			-10.554			-2.111
217003.000			-10.555			-2.111
217104.000			-10.554			-2.111
217205.000			-10.555			-2.111
217304.000			-10.555			-2.111
217404.000			-10.554			-2.111
217505.000			-10.555			-2.111
217604.000			-10.554			-2.111
217704.000			-10.555			-2.111
217805.000			-10.554			-2.111
217903.000			-10.553			-2.111
218004.000			-10.553			-2.111
218105.000			-10.553			-2.111
218204.000			-10.553			-2.111
218304.000			-10.554			-2.111
218405.000			-10.554			-2.111
218504.000			-10.553			-2.111
218604.000			-10.554			-2.111
218705.000			-10.555			-2.111
218803.000			-10.554			-2.111
218905.000			-10.553			-2.111
219004.000			-10.552			-2.110
219104.000			-10.552			-2.110
219205.000			-10.553			-2.111
219304.000			-10.552			-2.110
219404.000			-10.551			-2.110
219504.000			-10.551			-2.110
219604.000			-10.552			-2.110
219703.000			-10.552			-2.110
219805.000			-10.551			-2.110
219904.000			-10.552			-2.110
220004.000			-10.551			-2.110
220105.000			-10.550			-2.110
220204.000			-10.551			-2.110
220304.000			-10.550			-2.110
220404.000			-10.550			-2.110
220504.000			-10.551			-2.110
220604.000			-10.550			-2.110
220705.000			-10.551			-2.110
220804.000			-10.550			-2.110
220904.000			-10.549			-2.110
221005.000			-10.550			-2.110
221104.000			-10.550			-2.110
221204.000			-10.550			-2.110
221304.000			-10.550			-2.110
221404.000			-10.549			-2.110
221504.000			-10.549			-2.110
221605.000			-10.548			-2.110
221704.000			-10.549			-2.110
221804.000			-10.550			-2.110
221905.000			-10.550			-2.110
222003.000			-10.549			-2.110
222105.000			-10.549			-2.110
222203.000			-10.549			-2.110
222304.000			-10.549			-2.110
222405.000			-10.548			-2.110
222504.000			-10.548			-2.110
222604.000			-10.548			-2.110
222705.000			-10.548			-2.110
222804.000			-10.548			-2.110
222903.000			-10.548			-2.110
223005.000			-10.548			-2.110
223104.000			-10.548			-2.110
223204.000			-10.548			-2.110
223305.000			-10.547			-2.109
223404.000			-10.547			-2.109
223504.000			-10.547			-2.109
223605.000			-10.547			-2.109
223704.000			-10.547			-2.109
223803.000			-10.547			-2.109
223905.000			-10.547			-2.109
224004.000			-10.548			-2.110
224104.000			-10.547			-2.109
224205.000			-10.546			-2.109
224304.000			-10.545			-2.109
224404.000			-10.545			-2.109
224504.000			-10.545			-2.109
224604.000			-10.546			-2.109
224703.000			-10.545			-2.109
224805.000			-10.545			-2.109
224904.000			-10.544			-2.109
225004.000			-10.545			-2.109
225105.000			-10.546			-2.109
225204.000			-10.545			-2.109
225305.000			-10.545			-2.109
225403.000			-10.545			-2.109
225504.000			-10.544			-2.109
225605.000			-10.544			-2.109
225704.000			-10.543			-2.109
225804.000			-10.544			-2.109
225905.000			-10.544			-2.109
226004.000			-10.544			-2.109
226104.000			-10.543			-2.109
226205.000			-10.544			-2.109
226303.000			-10.544			-2.109
226404.000			-10.543			-2.109
226505.000			-10.542			-2.108
226604.000			-10.543			-2.109
226704.000			-10.543			-2.109
226805.000			-10.543			-2.109
226904.000			-10.542			-2.108
227004.000			-10.542			-2.108
227105.000			-10.542			-2.108
227203.000			-10.542			-2.108
227304.000			-10.542			-2.108
227405.000			-10.542			-2.108
227504.000			-10.542			-2.108
227604.000			-10.541			-2.108
227705.000			-10.541			-2.108
227804.000			-10.542			-2.108
227903.000			-10.541			-2.108
228005.000			-10.542			-2.108
228104.000			-10.542			-2.108
228204.000			-10.541			-2.108
228305.000			-10.540			-2.108
228404.000			-10.541			-2.108
228505.000			-10.541			-2.108
228604.000			-10.541			-2.108
228704.000			-10.541			-2.108
228804.000			-10.540			-2.108
228904.000			-10.540			-2.108
229004.000			-10.540			-2.108
229105.000			-10.541			-2.108
229204.000			-10.540			-2.108
229304.000			-10.540			-2.108
229405.000			-10.539			-2.108
229504.000			-10.539			-2.108
229604.000			-10.539			-2.108
229704.000			-10.539			-2.108
229804.000			-10.539			-2.108
229904.000			-10.539			-2.108
230005.000			-10.539			-2.108
230104.000			-10.538			-2.108
230204.000			-10.538			-2.108
230305.000			-10.537			-2.107
230404.000			-10.537			-2.107
230504.000			-10.538			-2.108
230604.000			-10.538			-2.108
230704.000			-10.538			-2.108
230804.000			-10.537			-2.107
230905.000			-10.537			-2.107
231004.000			-10.538			-2.108
231104.000			-10.537			-2.107
231205.000			-10.536			-2.107
231303.000			-10.537			-2.107
231404.000			-10.537			-2.107
231503.000			-10.537			-2.107
231604.000			-10.537			-2.107
231705.000			-10.538			-2.108
231804.000			-10.537			-2.107
231904.000			-10.535			-2.107
232005.000			-10.535			-2.107
232104.000			-10.537			-2.107
232203.000			-10.536			-2.107
232305.000			-10.536			-2.107
232404.000			-10.535			-2.107
232504.000			-10.534			-2.107
232605.000			-10.534			-2.107
232704.000			-10.536			-2.107
232804.000			-10.535			-2.107
232904.000			-10.535			-2.107
233004.000			-10.535			-2.107
233103.000			-10.536			-2.107
233205.000			-10.536			-2.107
233304.000			-10.535			-2.107
233404.000			-10.535			-2.107
233505.000			-10.536			-2.107
233604.000			-10.535			-2.107
233704.000			-10.534			-2.107
233804.000			-10.535			-2.107
233904.000			-10.535			-2.107
234003.000			-10.534			-2.107
234105.000			-10.533			-2.107
234204.000			-10.533			-2.107
234304.000			-10.533			-2.107
234405.000			-10.534			-2.107
234504.000			-10.534			-2.107
234604.000			-10.533			-2.107
234703.000			-10.533			-2.107
234804.000			-10.533			-2.107
234905.000			-10.533			-2.107
235004.000			-10.533			-2.107
235104.000			-10.533			-2.107
235205.000			-10.533			-2.107
235304.000			-10.532			-2.106
235404.000			-10.532			-2.106
235505.000			-10.532			-2.106
235603.000			-10.533			-2.107
235704.000			-10.532			-2.106
235805.000			-10.532			-2.106
235904.000			-10.532			-2.106
236004.000			-10.532			-2.106
236105.000			-10.532			-2.106
236204.000			-10.532			-2.106
236303.000			-10.532			-2.106
236405.000			-10.532			-2.106
236504.000			-10.532			-2.106
236604.000			-10.531			-2.106
236705.000			-10.531			-2.106
236804.000			-10.531			-2.106
236904.000			-10.531			-2.106
237005.000			-10.531			-2.106
237104.000			-10.532			-2.106
237203.000			-10.530			-2.106
237305.000			-10.530			-2.106
237404.000			-10.531			-2.106
237504.000			-10.530			-2.106
237605.000			-10.530			-2.106
237704.000			-10.530			-2.106
237804.000			-10.530			-2.106
237904.000			-10.529			-2.106
238004.000			-10.529			-2.106
238103.000			-10.530			-2.106
238204.000			-10.529			-2.106
238304.000			-10.528			-2.106
238405.000			-10.528			-2.106
238504.000			-10.528			-2.106
238604.000			-10.528			-2.106
238705.000			-10.528			-2.106
238804.000			-10.528			-2.106
238904.000			-10.528			-2.106
239004.000			-10.528			-2.106
239104.000			-10.528			-2.106
239204.000			-10.528			-2.106
239305.000			-10.528			-2.106
239404.000			-10.527			-2.105
239504.000			-10.527			-2.105
239605.000			-10.527			-2.105
239703.000			-10.527			-2.105
239804.000			-10.526			-2.105
239904.000			-10.526			-2.105
240004.000			-10.527			-2.105
240104.000			-10.528			-2.106
240205.000			-10.526			-2.105
240304.000			-10.525			-2.105
240404.000			-10.525			-2.105
240505.000			-10.526			-2.105
240603.000			-10.525			-2.105
240704.000			-10.525			-2.105
240805.000			-10.526			-2.105
240904.000			-10.526			-2.105
241004.000			-10.526			-2.105
241104.000			-10.525			-2.105
241204.000			-10.526			-2.105
241305.000			-10.525			-2.105
241404.000			-10.525			-2.105
241503.000			-10.524			-2.105
241605.000			-10.525			-2.105
241704.000			-10.524			-2.105
241804.000			-10.524			-2.105
241905.000			-10.524			-2.105
242004.000			-10.525			-2.105
242104.000			-10.526			-2.105
242204.000			-10.525			-2.105
242304.000			-10.525			-2.105
242403.000			-10.523			-2.105
242505.000			-10.523			-2.105
242604.000			-10.523			-2.105
242704.000			-10.523			-2.105
242805.000			-10.523			-2.105
242904.000			-10.523			-2.105
243004.000			-10.524			-2.105
243104.000			-10.524			-2.105
243204.000			-10.524			-2.105
243304.000			-10.522			-2.104
243405.000			-10.522			-2.104
243504.000			-10.523			-2.105
243604.000			-10.523			-2.105
243705.000			-10.523			-2.105
243804.000			-10.523			-2.105
243904.000			-10.522			-2.104
244004.000			-10.522			-2.104
244104.000			-10.522			-2.104
244204.000			-10.522			-2.104
244304.000			-10.522			-2.104
244404.000			-10.522			-2.104
244505.000			-10.522			-2.104
244604.000			-10.521			-2.104
244703.000			-10.522			-2.104
244805.000			-10.521			-2.104
244904.000			-10.521			-2.104
245004.000			-10.522			-2.104
245105.000			-10.522			-2.104
245204.000			-10.522			-2.104
245304.000			-10.522			-2.104
245404.000			-10.520			-2.104
245504.000			-10.521			-2.104
245603.000			-10.521			-2.104
245705.000			-10.521			-2.104
245804.000			-10.521			-2.104
245904.000			-10.520			-2.104
246005.000			-10.521			-2.104
246104.000			-10.520			-2.104
246204.000			-10.520			-2.104
246304.000			-10.520			-2.104
246404.000			-10.521			-2.104
246504.000			-10.522			-2.104
246605.000			-10.522			-2.104
246704.000			-10.520			-2.104
246804.000			-10.520			-2.104
246905.000			-10.519			-2.104
247004.000			-10.519			-2.104
247104.000			-10.518			-2.104
247204.000			-10.518			-2.104
247304.000			-10.519			-2.104
247404.000			-10.519			-2.104
247504.000			-10.519			-2.104
247604.000			-10.519			-2.104
247705.000			-10.519			-2.104
247804.000			-10.517			-2.103
247904.000			-10.518			-2.104
248005.000			-10.518			-2.104
248103.000			-10.518			-2.104
248204.000			-10.518			-2.104
248305.000			-10.517			-2.103
248404.000			-10.517			-2.103
248504.000			-10.518			-2.104
248605.000			-10.517			-2.103
248704.000			-10.516			-2.103
248804.000			-10.519			-2.104
248905.000			-10.517			-2.103
249003.000			-10.516			-2.103
249104.000			-10.516			-2.103
249205.000			-10.517			-2.103
249304.000			-10.517			-2.103
249404.000			-10.516			-2.103
249505.000			-10.515			-2.103
249604.000			-10.515			-2.103
249704.000			-10.515			-2.103
249805.000			-10.516			-2.103
249903.000			-10.516			-2.103
250004.000			-10.515			-2.103
250105.000			-10.516			-2.103
250204.000			-10.515			-2.103
250304.000			-10.514			-2.103
250405.000			-10.515			-2.103
250504.000			-10.515			-2.103
250603.000			-10.516			-2.103
250705.000			-10.515			-2.103
250803.000			-10.514			-2.103
250905.000			-10.514			-2.103
251004.000			-10.514			-2.103
251104.000			-10.514			-2.103
251205.000			-10.514			-2.103
251304.000			-10.514			-2.103
251404.000			-10.514			-2.103
251504.000			-10.514			-2.103
251604.000			-10.513			-2.103
251704.000			-10.513			-2.103
251805.000			-10.514			-2.103
251904.000			-10.513			-2.103
252004.000			-10.512			-2.102
252105.000			-10.513			-2.103
252203.000			-10.513			-2.103
252304.000			-10.513			-2.103
252404.000			-10.512			-2.102
252504.000			-10.512			-2.102
252604.000			-10.512			-2.102
252705.000			-10.512			-2.102
252804.000			-10.513			-2.103
252904.000			-10.512			-2.102
253005.000			-10.511			-2.102
253103.000			-10.511			-2.102
253204.000			-10.512			-2.102
253305.000			-10.511			-2.102
253404.000			-10.511			-2.102
253504.000			-10.510			-2.102
253605.000			-10.509			-2.102
253704.000			-10.509			-2.102
253804.000			-10.509			-2.102
253905.000			-10.510			-2.102
254003.000			-10.511			-2.102
254105.000			-10.511			-2.102
254204.000			-10.511			-2.102
254304.000			-10.510			-2.102
254405.000			-10.510			-2.102
254504.000			-10.510			-2.102
254604.000			-10.509			-2.102
254704.000			-10.509			-2.102
254804.000			-10.508			-2.102
254903.000			-10.508			-2.102
255005.000			-10.510			-2.102
255104.000			-10.510			-2.102
255204.000			-10.510			-2.102
255305.000			-10.510			-2.102
255404.000			-10.509			-2.102
255504.000			-10.509			-2.102
255604.000			-10.508			-2.102
255704.000			-10.509			-2.102
255804.000			-10.509			-2.102
255905.000			-10.509			-2.102
256004.000			-10.509			-2.102
256104.000			-10.509			-2.102
256205.000			-10.508			-2.102
256304.000			-10.508			-2.102
256404.000			-10.507			-2.101
256504.000			-10.508			-2.102
256604.000			-10.508			-2.102
256704.000			-10.507			-2.101
256805.000			-10.507			-2.101
256904.000			-10.508			-2.102
257004.000			-10.508			-2.102
257105.000			-10.508			-2.102
257204.000			-10.507			-2.101
257305.000			-10.507			-2.101
257403.000			-10.507			-2.101
257504.000			-10.507			-2.101
257605.000			-10.508			-2.102
257704.000			-10.507			-2.101
257804.000			-10.507			-2.101
257905.000			-10.506			-2.101
258004.000			-10.506			-2.101
258103.000			-10.507			-2.101
258205.000			-10.507			-2.101
258303.000			-10.506			-2.101
258404.000			-10.506			-2.101
258505.000			-10.506			-2.101
258604.000			-10.506			-2.101
258704.000			-10.505			-2.101
258805.000			-10.505			-2.101
258904.000			-10.504			-2.101
259003.000			-10.504			-2.101
259105.000			-10.505			-2.101
259203.000			-10.504			-2.101
259304.000			-10.504			-2.101
259405.000			-10.503			-2.101
259504.000			-10.502			-2.100
259604.000			-10.502			-2.100
259705.000			-10.502			-2.100
259804.000			-10.501			-2.100
259903.000			-10.501			-2.100
260005.000			-10.501			-2.100
260104.000			-10.501			-2.100
260204.000			-10.501			-2.100
260305.000			-10.499			-2.100
260404.000			-10.499			-2.100
260505.000			-10.499			-2.100
260604.000			-10.499			-2.100
260704.000			-10.498			-2.100
260804.000			-10.498			-2.100
260904.000			-10.499			-2.100
261004.000			-10.498			-2.100
261105.000			-10.497			-2.099
261204.000			-10.498			-2.100
261304.000			-10.498			-2.100
261405.000			-10.497			-2.099
261504.000			-10.497			-2.099
261604.000			-10.498			-2.100
261704.000			-10.497			-2.099
261804.000			-10.498			-2.100
261904.000			-10.498			-2.100
262005.000			-10.499			-2.100
262104.000			-10.499			-2.100
262204.000			-10.499			-2.100
262305.000			-10.499			-2.100
262404.000			-10.498			-2.100
262504.000			-10.498			-2.100
262604.000			-10.499			-2.100
262704.000			-10.499			-2.100
262804.000			-10.498			-2.100
262905.000			-10.499			-2.100
263004.000			-10.499			-2.100
263104.000			-10.499			-2.100
263205.000			-10.500			-2.100
263304.000			-10.499			-2.100
263404.000			-10.500			-2.100
263503.000			-10.499			-2.100
263604.000			-10.499			-2.100
263705.000			-10.500			-2.100
263804.000			-10.500			-2.100
263904.000			-10.499			-2.100
264005.000			-10.500			-2.100
264104.000			-10.499			-2.100
264204.000			-10.500			-2.100
264305.000			-10.499			-2.100
264403.000			-10.499			-2.100
264504.000			-10.499			-2.100
264605.000			-10.500			-2.100
264704.000			-10.500			-2.100
264804.000			-10.500			-2.100
264905.000			-10.499			-2.100
265004.000			-10.498			-2.100
265104.000			-10.499			-2.100
265205.000			-10.499			-2.100
265303.000			-10.498			-2.100
265404.000			-10.498			-2.100
265505.000			-10.498			-2.100
265604.000			-10.499			-2.100
265704.000			-10.498			-2.100
265805.000			-10.498			-2.100
265904.000			-10.499			-2.100
266004.000			-10.498			-2.100
266105.000			-10.498			-2.100
266203.000			-10.498			-2.100
266304.000			-10.499			-2.100
266405.000			-10.499			-2.100
266504.000			-10.499			-2.100
266604.000			-10.497			-2.099
266704.000			-10.498			-2.100
266804.000			-10.497			-2.099
266905.000			-10.497			-2.099
267004.000			-10.497			-2.099
267103.000			-10.498			-2.100
267205.000			-10.498			-2.100
267304.000			-10.497			-2.099
267404.000			-10.497			-2.099
267505.000			-10.497			-2.099
267604.000			-10.497			-2.099
267704.000			-10.497			-2.099
267805.000			-10.497			-2.099
267904.000			-10.495			-2.099
268003.000			-10.494			-2.099
268105.000			-10.494			-2.099
268204.000			-10.495			-2.099
268304.000			-10.496			-2.099
268405.000			-10.496			-2.099
268504.000			-10.495			-2.099
268604.000			-10.494			-2.099
268705.000			-10.494			-2.099
268804.000			-10.494			-2.099
268903.000			-10.494			-2.099
269005.000			-10.494			-2.099
269104.000			-10.494			-2.099
269204.000			-10.494			-2.099
269305.000			-10.493			-2.099
269404.000			-10.493			-2.099
269504.000			-10.494			-2.099
269605.000			-10.493			-2.099
269704.000			-10.493			-2.099
269803.000			-10.493			-2.099
269905.000			-10.494			-2.099
270004.000			-10.493			-2.099
270105.000			-10.493			-2.099
270204.000			-10.494			-2.099
270304.000			-10.494			-2.099
270405.000			-10.494			-2.099
270504.000			-10.494			-2.099
270604.000			-10.493			-2.099
270704.000			-10.493			-2.099
270804.000			-10.494			-2.099
270904.000			-10.494			-2.099
271005.000			-10.493			-2.099
271104.000			-10.493			-2.099
271204.000			-10.492			-2.098
271305.000			-10.492			-2.098
271404.000			-10.492			-2.098
271504.000			-10.492			-2.098
271604.000			-10.492			-2.098
271704.000			-10.491			-2.098
271804.000			-10.491			-2.098
271905.000			-10.491			-2.098
272004.000			-10.491			-2.098
272104.000			-10.490			-2.098
272205.000			-10.490			-2.098
272303.000			-10.489			-2.098
272404.000			-10.490			-2.098
272504.000			-10.490			-2.098
272604.000			-10.490			-2.098
272704.000			-10.490			-2.098
272805.000			-10.490			-2.098
272904.000			-10.489			-2.098
273004.000			-10.489			-2.098
273105.000			-10.489			-2.098
273203.000			-10.489			-2.098
273305.000			-10.488			-2.098
273403.000			-10.488			-2.098
273504.000			-10.488			-2.098
273605.000			-10.487			-2.097
273704.000			-10.487			-2.097
273804.000			-10.487			-2.097
273905.000			-10.487			-2.097
274004.000			-10.487			-2.097
274103.000			-10.488			-2.098
274205.000			-10.488			-2.098
274303.000			-10.487			-2.097
274404.000			-10.487			-2.097
274505.000			-10.487			-2.097
274604.000			-10.488			-2.098
274704.000			-10.488			-2.098
274805.000			-10.487			-2.097
274904.000			-10.487			-2.097
275004.000			-10.487			-2.097
275105.000			-10.485			-2.097
275203.000			-10.486			-2.097
275304.000			-10.486			-2.097
275405.000			-10.485			-2.097
275504.000			-10.484			-2.097
275604.000			-10.484			-2.097
275705.000			-10.484			-2.097
275804.000			-10.485			-2.097
275904.000			-10.483			-2.097
276005.000			-10.484			-2.097
276103.000			-10.485			-2.097
276204.000			-10.484			-2.097
276305.000			-10.484			-2.097
276404.000			-10.483			-2.097
276505.000			-10.482			-2.096
276604.000			-10.482			-2.096
276704.000			-10.482			-2.096
276805.000			-10.483			-2.097
276904.000			-10.483			-2.097
277003.000			-10.482			-2.096
277105.000			-10.482			-2.096
277204.000			-10.482			-2.096
277304.000			-10.482			-2.096
277405.000			-10.481			-2.096
277504.000			-10.481			-2.096
277604.000			-10.481			-2.096
277705.000			-10.482			-2.096
277804.000			-10.482			-2.096
277903.000			-10.482			-2.096
278005.000			-10.482			-2.096
278104.000			-10.482			-2.096
278204.000			-10.482			-2.096
278305.000			-10.482			-2.096
278404.000			-10.482			-2.096
278504.000			-10.483			-2.097
278605.000			-10.483			-2.097
278704.000			-10.483			-2.097
278803.000			-10.485			-2.097
278905.000			-10.484			-2.097
279004.000			-10.483			-2.097
279104.000			-10.482			-2.096
279205.000			-10.483			-2.097
279304.000			-10.484			-2.097
279404.000			-10.483			-2.097
279504.000			-10.483			-2.097
279604.000			-10.483			-2.097
279703.000			-10.483			-2.097
279804.000			-10.483			-2.097
279904.000			-10.483			-2.097
280005.000			-10.483			-2.097
280104.000			-10.482			-2.096
280204.000			-10.483			-2.097
280305.000			-10.483			-2.097
280404.000			-10.484			-2.097
280504.000			-10.485			-2.097
280604.000			-10.483			-2.097
280704.000			-10.484			-2.097
280804.000			-10.484			-2.097
280905.000			-10.484			-2.097
281004.000			-10.483			-2.097
281104.000			-10.483			-2.097
281205.000			-10.483			-2.097
281303.000			-10.482			-2.096
281404.000			-10.483			-2.097
281504.000			-10.483			-2.097
281604.000			-10.483			-2.097
281704.000			-10.483			-2.097
281805.000			-10.483			-2.097
281904.000			-10.483			-2.097
282004.000			-10.483			-2.097
282105.000			-10.484			-2.097
282203.000			-10.483			-2.097
282304.000			-10.483			-2.097
282405.000			-10.482			-2.096
282504.000			-10.482			-2.096
282604.000			-10.482			-2.096
282704.000			-10.482			-2.096
282804.000			-10.482			-2.096
282905.000			-10.482			-2.096
283004.000			-10.482			-2.096
283103.000			-10.481			-2.096
283205.000			-10.481			-2.096
283304.000			-10.481			-2.096
283404.000			-10.481			-2.096
283505.000			-10.482			-2.096
283604.000			-10.482			-2.096
283704.000			-10.481			-2.096
283805.000			-10.480			-2.096
283904.000			-10.481			-2.096
284003.000			-10.481			-2.096
284105.000			-10.481			-2.096
284204.000			-10.482			-2.096
284304.000			-10.481			-2.096
284405.000			-10.480			-2.096
284504.000			-10.481			-2.096
284604.000			-10.480			-2.096
284705.000			-10.480			-2.096
284804.000			-10.479			-2.096
284903.000			-10.480			-2.096
285005.000			-10.479			-2.096
285104.000			-10.479			-2.096
285204.000			-10.480			-2.096
285305.000			-10.479			-2.096
285404.000			-10.479			-2.096
285504.000			-10.479			-2.096
285605.000			-10.480			-2.096
285704.000			-10.479			-2.096
285803.000			-10.479			-2.096
285905.000			-10.479			-2.096
286004.000			-10.479			-2.096
286105.000			-10.479			-2.096
286204.000			-10.479			-2.096
286304.000			-10.479			-2.096
286405.000			-10.478			-2.096
286504.000			-10.478			-2.096
286604.000			-10.478			-2.096
286704.000			-10.478			-2.096
286804.000			-10.477			-2.095
286903.000			-10.479			-2.096
287005.000			-10.479			-2.096
287104.000			-10.478			-2.096
287204.000			-10.477			-2.095
287305.000			-10.477			-2.095
287404.000			-10.475			-2.095
287504.000			-10.475			-2.095
287604.000			-10.478			-2.096
287704.000			-10.478			-2.096
287803.000			-10.478			-2.096
287905.000			-10.478			-2.096
288004.000			-10.477			-2.095
288104.000			-10.477			-2.095
288205.000			-10.478			-2.096
288304.000			-10.478			-2.096
288404.000			-10.476			-2.095
288504.000			-10.476			-2.095
288604.000			-10.476			-2.095
288703.000			-10.477			-2.095
288805.000			-10.476			-2.095
288904.000			-10.476			-2.095
289004.000			-10.477			-2.095
289105.000			-10.476			-2.095
289204.000			-10.476			-2.095
289305.000			-10.476			-2.095
289404.000			-10.476			-2.095
289504.000			-10.475			-2.095
289604.000			-10.475			-2.095
289704.000			-10.474			-2.095
289804.000			-10.475			-2.095
289905.000			-10.475			-2.095
290004.000			-10.474			-2.095
290104.000			-10.474			-2.095
290205.000			-10.474			-2.095
290304.000			-10.476			-2.095
290404.000			-10.475			-2.095
290504.000			-10.474			-2.095
290604.000			-10.474			-2.095
290704.000			-10.475			-2.095
290805.000			-10.475			-2.095
290904.000			-10.475			-2.095
291004.000			-10.473			-2.095
291105.000			-10.474			-2.095
291203.000			-10.474			-2.095
291304.000			-10.473			-2.095
291404.000			-10.474			-2.095
291504.000			-10.474			-2.095
291604.000			-10.474			-2.095
291705.000			-10.474			-2.095
291804.000			-10.473			-2.095
291904.000			-10.473			-2.095
292005.000			-10.471			-2.094
292103.000			-10.472			-2.094
292204.000			-10.473			-2.095
292305.000			-10.473			-2.095
292404.000			-10.473			-2.095
292505.000			-10.472			-2.094
292604.000			-10.471			-2.094
292704.000			-10.471			-2.094
292805.000			-10.472			-2.094
292904.000			-10.471			-2.094
293003.000			-10.471			-2.094
293105.000			-10.472			-2.094
293204.000			-10.471			-2.094
293304.000			-10.472			-2.094
293405.000			-10.472			-2.094
293504.000			-10.471			-2.094
293604.000			-10.471			-2.094
293705.000			-10.471			-2.094
293804.000			-10.472			-2.094
293903.000			-10.471			-2.094
294005.000			-10.471			-2.094
294104.000			-10.471			-2.094
294204.000			-10.471			-2.094
294305.000			-10.470			-2.094
294404.000			-10.470			-2.094
294504.000			-10.471			-2.094
294605.000			-10.471			-2.094
294704.000			-10.470			-2.094
294803.000			-10.470			-2.094
294905.000			-10.470			-2.094
295004.000			-10.471			-2.094
295104.000			-10.471			-2.094
295205.000			-10.470			-2.094
295304.000			-10.469			-2.094
295404.000			-10.470			-2.094
295503.000			-10.469			-2.094
295604.000			-10.469			-2.094
295703.000			-10.469			-2.094
295804.000			-10.469			-2.094
295904.000			-10.469			-2.094
296005.000			-10.469			-2.094
296104.000			-10.468			-2.094
296204.000			-10.469			-2.094
296305.000			-10.469			-2.094
296404.000			-10.469			-2.094
296504.000			-10.469			-2.094
296604.000			-10.469			-2.094
296704.000			-10.469			-2.094
296804.000			-10.469			-2.094
296905.000			-10.468			-2.094
297004.000			-10.468			-2.094
297104.000			-10.469			-2.094
297205.000			-10.468			-2.094
297304.000			-10.466			-2.093
297404.000			-10.467			-2.093
297504.000			-10.468			-2.094
297604.000			-10.468			-2.094
297704.000			-10.468			-2.094
297805.000			-10.467			-2.093
297904.000			-10.467			-2.093
298004.000			-10.466			-2.093
298105.000			-10.466			-2.093
298204.000			-10.466			-2.093
298304.000			-10.466			-2.093
298404.000			-10.466			-2.093
298504.000			-10.465			-2.093
298603.000			-10.465			-2.093
298705.000			-10.465			-2.093
298804.000			-10.466			-2.093
298905.000			-10.466			-2.093
299004.000			-10.465			-2.093
299104.000			-10.464			-2.093
299205.000			-10.464			-2.093
299303.000			-10.464			-2.093
299404.000			-10.465			-2.093
299504.000			-10.465			-2.093
299604.000			-10.465			-2.093
299704.000			-10.465			-2.093
299805.000			-10.464			-2.093
299904.000			-10.465			-2.093
