# Acquired on 30/01/2024 12:00:17 
# SPIDER: Creep_-11mm_GRPCNT1454A-1
# CREEP MEASUREMENT

# time [ms]		force [N]		stiffness [N/mm]
0.000			48.688			-4.426
105.000			49.688			-4.517
204.000			49.794			-4.527
303.000			49.023			-4.457
405.000			48.768			-4.433
504.000			48.555			-4.414
604.000			48.369			-4.397
705.000			48.203			-4.382
804.000			48.056			-4.369
904.000			47.924			-4.357
1005.000			47.803			-4.346
1104.000			47.589			-4.326
1204.000			47.493			-4.318
1305.000			47.402			-4.309
1404.000			47.318			-4.302
1503.000			47.239			-4.294
1605.000			47.164			-4.288
1704.000			47.092			-4.281
1804.000			46.960			-4.269
1905.000			46.897			-4.263
2004.000			46.838			-4.258
2104.000			46.781			-4.253
2204.000			46.728			-4.248
2304.000			46.676			-4.243
2404.000			46.626			-4.239
2505.000			46.531			-4.230
2604.000			46.487			-4.226
2703.000			46.443			-4.222
2805.000			46.400			-4.218
2904.000			46.360			-4.215
3005.000			46.319			-4.211
3104.000			46.280			-4.207
3204.000			46.208			-4.201
3305.000			46.171			-4.197
3403.000			46.137			-4.194
3504.000			46.104			-4.191
3605.000			46.070			-4.188
3704.000			46.037			-4.185
3804.000			46.008			-4.183
3905.000			45.978			-4.180
4004.000			45.917			-4.174
4103.000			45.890			-4.172
4205.000			45.862			-4.169
4304.000			45.834			-4.167
4404.000			45.808			-4.164
4505.000			45.783			-4.162
4603.000			45.757			-4.160
4704.000			45.705			-4.155
4805.000			45.682			-4.153
4904.000			45.657			-4.151
5004.000			45.634			-4.149
5105.000			45.611			-4.146
5204.000			45.589			-4.144
5303.000			45.566			-4.142
5405.000			45.523			-4.138
5504.000			45.502			-4.137
5604.000			45.483			-4.135
5705.000			45.463			-4.133
5804.000			45.443			-4.131
5904.000			45.423			-4.129
6003.000			45.402			-4.127
6104.000			45.363			-4.124
6205.000			45.346			-4.122
6304.000			45.328			-4.121
6404.000			45.310			-4.119
6504.000			45.292			-4.117
6604.000			45.274			-4.116
6704.000			45.257			-4.114
6805.000			45.240			-4.113
6904.000			45.206			-4.110
7004.000			45.190			-4.108
7105.000			45.173			-4.107
7203.000			45.158			-4.105
7304.000			45.142			-4.104
7405.000			45.126			-4.102
7504.000			45.110			-4.101
7604.000			45.081			-4.098
7705.000			45.066			-4.097
7804.000			45.050			-4.095
7903.000			45.036			-4.094
8005.000			45.022			-4.093
8104.000			45.007			-4.092
8204.000			44.992			-4.090
8305.000			44.966			-4.088
8403.000			44.951			-4.086
8504.000			44.936			-4.085
8605.000			44.924			-4.084
8704.000			44.911			-4.083
8804.000			44.898			-4.082
8905.000			44.885			-4.080
9004.000			44.872			-4.079
9103.000			44.847			-4.077
9205.000			44.835			-4.076
9304.000			44.822			-4.075
9405.000			44.810			-4.074
9504.000			44.798			-4.073
9604.000			44.785			-4.071
9705.000			44.773			-4.070
9803.000			44.751			-4.068
9904.000			44.740			-4.067
10005.000			44.728			-4.066
10104.000			44.716			-4.065
10204.000			44.706			-4.064
10305.000			44.694			-4.063
10404.000			44.683			-4.062
10503.000			44.661			-4.060
10605.000			44.650			-4.059
10704.000			44.640			-4.058
10804.000			44.629			-4.057
10905.000			44.619			-4.056
11004.000			44.609			-4.055
11104.000			44.599			-4.054
11204.000			44.578			-4.053
11304.000			44.568			-4.052
11404.000			44.557			-4.051
11505.000			44.547			-4.050
11604.000			44.538			-4.049
11703.000			44.529			-4.048
11805.000			44.519			-4.047
11904.000			44.510			-4.046
12004.000			44.490			-4.045
12105.000			44.481			-4.044
12204.000			44.471			-4.043
12304.000			44.462			-4.042
12403.000			44.453			-4.041
12504.000			44.443			-4.040
12605.000			44.434			-4.039
12704.000			44.417			-4.038
12804.000			44.407			-4.037
12905.000			44.399			-4.036
13004.000			44.390			-4.035
13103.000			44.381			-4.035
13205.000			44.373			-4.034
13304.000			44.365			-4.033
13404.000			44.348			-4.032
13505.000			44.340			-4.031
13604.000			44.331			-4.030
13704.000			44.323			-4.029
13804.000			44.314			-4.029
13904.000			44.305			-4.028
14004.000			44.298			-4.027
14105.000			44.282			-4.026
14204.000			44.274			-4.025
14304.000			44.266			-4.024
14405.000			44.258			-4.023
14503.000			44.251			-4.023
14604.000			44.244			-4.022
14705.000			44.235			-4.021
14804.000			44.227			-4.021
14904.000			44.212			-4.019
15005.000			44.205			-4.019
15104.000			44.198			-4.018
15203.000			44.190			-4.017
15305.000			44.182			-4.017
15404.000			44.175			-4.016
15504.000			44.169			-4.015
15605.000			44.154			-4.014
15703.000			44.147			-4.013
15805.000			44.140			-4.013
15904.000			44.133			-4.012
16004.000			44.125			-4.011
16105.000			44.118			-4.011
16204.000			44.111			-4.010
16304.000			44.096			-4.009
16404.000			44.089			-4.008
16504.000			44.084			-4.008
16604.000			44.077			-4.007
16705.000			44.070			-4.006
16804.000			44.064			-4.006
16904.000			44.056			-4.005
17005.000			44.049			-4.004
17103.000			44.035			-4.003
17204.000			44.029			-4.003
17305.000			44.024			-4.002
17404.000			44.018			-4.002
17504.000			44.010			-4.001
17605.000			44.003			-4.000
17704.000			43.997			-4.000
17803.000			43.986			-3.999
17905.000			43.980			-3.998
18004.000			43.973			-3.998
18104.000			43.967			-3.997
18205.000			43.961			-3.996
18304.000			43.954			-3.996
18404.000			43.948			-3.995
18504.000			43.935			-3.994
18604.000			43.929			-3.994
18704.000			43.923			-3.993
18804.000			43.918			-3.993
18904.000			43.912			-3.992
19005.000			43.905			-3.991
19104.000			43.899			-3.991
19203.000			43.888			-3.990
19305.000			43.881			-3.989
19404.000			43.876			-3.989
19504.000			43.870			-3.988
19605.000			43.865			-3.988
19704.000			43.858			-3.987
19804.000			43.853			-3.987
19904.000			43.847			-3.986
20004.000			43.838			-3.985
20104.000			43.831			-3.985
20205.000			43.825			-3.984
20304.000			43.819			-3.984
20404.000			43.815			-3.983
20505.000			43.809			-3.983
20603.000			43.803			-3.982
20704.000			43.793			-3.981
20805.000			43.788			-3.981
20904.000			43.782			-3.980
21004.000			43.776			-3.980
21105.000			43.771			-3.979
21204.000			43.765			-3.979
21303.000			43.760			-3.978
21405.000			43.750			-3.977
21504.000			43.745			-3.977
21604.000			43.740			-3.976
21705.000			43.735			-3.976
21803.000			43.728			-3.975
21904.000			43.724			-3.975
22005.000			43.720			-3.975
22104.000			43.709			-3.974
22205.000			43.704			-3.973
22304.000			43.700			-3.973
22404.000			43.694			-3.972
22504.000			43.690			-3.972
22604.000			43.685			-3.971
22704.000			43.679			-3.971
22805.000			43.674			-3.970
22904.000			43.664			-3.969
23004.000			43.659			-3.969
23105.000			43.654			-3.969
23203.000			43.649			-3.968
23304.000			43.644			-3.968
23405.000			43.640			-3.967
23504.000			43.636			-3.967
23604.000			43.626			-3.966
23705.000			43.621			-3.966
23804.000			43.616			-3.965
23903.000			43.611			-3.965
24005.000			43.607			-3.964
24104.000			43.602			-3.964
24204.000			43.596			-3.963
24305.000			43.588			-3.963
24404.000			43.584			-3.962
24504.000			43.579			-3.962
24604.000			43.575			-3.961
24704.000			43.570			-3.961
24804.000			43.565			-3.960
24905.000			43.560			-3.960
25004.000			43.552			-3.959
25103.000			43.547			-3.959
25205.000			43.543			-3.958
25304.000			43.538			-3.958
25405.000			43.533			-3.958
25504.000			43.529			-3.957
25604.000			43.526			-3.957
25705.000			43.522			-3.957
25803.000			43.513			-3.956
25904.000			43.508			-3.955
26005.000			43.504			-3.955
26104.000			43.500			-3.955
26204.000			43.495			-3.954
26305.000			43.492			-3.954
26404.000			43.487			-3.953
26503.000			43.478			-3.953
26605.000			43.474			-3.952
26704.000			43.470			-3.952
26804.000			43.466			-3.951
26905.000			43.462			-3.951
27004.000			43.458			-3.951
27104.000			43.454			-3.950
27204.000			43.446			-3.950
27304.000			43.442			-3.949
27404.000			43.438			-3.949
27505.000			43.434			-3.949
27604.000			43.429			-3.948
27703.000			43.425			-3.948
27805.000			43.421			-3.947
27904.000			43.416			-3.947
28004.000			43.409			-3.946
28105.000			43.405			-3.946
28204.000			43.400			-3.945
28304.000			43.396			-3.945
28403.000			43.393			-3.945
28504.000			43.389			-3.944
28605.000			43.385			-3.944
28704.000			43.378			-3.943
28804.000			43.374			-3.943
28905.000			43.370			-3.943
29004.000			43.366			-3.942
29103.000			43.362			-3.942
29205.000			43.359			-3.942
29304.000			43.355			-3.941
29404.000			43.347			-3.941
29505.000			43.343			-3.940
29604.000			43.340			-3.940
29704.000			43.336			-3.940
29804.000			43.332			-3.939
29904.000			43.328			-3.939
30004.000			43.323			-3.938
30105.000			43.317			-3.938
30204.000			43.313			-3.938
30304.000			43.309			-3.937
30405.000			43.305			-3.937
30503.000			43.303			-3.937
30604.000			43.299			-3.936
30705.000			43.295			-3.936
30804.000			43.291			-3.936
30904.000			43.283			-3.935
31005.000			43.280			-3.935
31104.000			43.276			-3.934
31203.000			43.273			-3.934
31305.000			43.269			-3.934
31404.000			43.266			-3.933
31504.000			43.263			-3.933
31605.000			43.255			-3.932
31703.000			43.252			-3.932
31805.000			43.249			-3.932
31904.000			43.244			-3.931
32004.000			43.241			-3.931
32105.000			43.239			-3.931
32204.000			43.234			-3.930
32304.000			43.227			-3.930
32404.000			43.223			-3.929
32504.000			43.220			-3.929
32604.000			43.217			-3.929
32705.000			43.213			-3.928
32804.000			43.210			-3.928
32904.000			43.206			-3.928
33005.000			43.200			-3.927
33103.000			43.196			-3.927
33204.000			43.193			-3.927
33305.000			43.189			-3.926
33404.000			43.185			-3.926
33504.000			43.181			-3.926
33604.000			43.179			-3.925
33704.000			43.176			-3.925
33803.000			43.170			-3.925
33905.000			43.166			-3.924
34004.000			43.163			-3.924
34104.000			43.161			-3.924
34205.000			43.157			-3.923
34303.000			43.153			-3.923
34404.000			43.149			-3.923
34505.000			43.144			-3.922
34604.000			43.141			-3.922
34704.000			43.138			-3.922
34804.000			43.134			-3.921
34904.000			43.131			-3.921
35004.000			43.127			-3.921
35104.000			43.124			-3.920
35204.000			43.119			-3.920
35305.000			43.116			-3.920
35404.000			43.112			-3.919
35504.000			43.108			-3.919
35605.000			43.105			-3.919
35703.000			43.102			-3.918
35804.000			43.100			-3.918
35905.000			43.093			-3.918
36004.000			43.090			-3.917
36104.000			43.087			-3.917
36204.000			43.083			-3.917
36304.000			43.081			-3.916
36403.000			43.077			-3.916
36505.000			43.074			-3.916
36604.000			43.071			-3.916
36704.000			43.065			-3.915
36805.000			43.063			-3.915
36903.000			43.059			-3.914
37004.000			43.055			-3.914
37105.000			43.053			-3.914
37204.000			43.050			-3.914
37304.000			43.047			-3.913
37405.000			43.041			-3.913
37504.000			43.037			-3.912
37603.000			43.035			-3.912
37705.000			43.032			-3.912
37804.000			43.028			-3.912
37904.000			43.026			-3.911
38005.000			43.023			-3.911
38104.000			43.018			-3.911
38205.000			43.014			-3.910
38303.000			43.012			-3.910
38404.000			43.010			-3.910
38505.000			43.007			-3.910
38604.000			43.003			-3.909
38704.000			43.000			-3.909
38805.000			42.997			-3.909
38904.000			42.992			-3.908
39003.000			42.989			-3.908
39105.000			42.986			-3.908
39204.000			42.983			-3.908
39304.000			42.980			-3.907
39405.000			42.978			-3.907
39504.000			42.975			-3.907
39604.000			42.968			-3.906
39704.000			42.966			-3.906
39804.000			42.963			-3.906
39904.000			42.961			-3.906
40005.000			42.958			-3.905
40104.000			42.956			-3.905
40204.000			42.953			-3.905
40305.000			42.946			-3.904
40403.000			42.943			-3.904
40504.000			42.942			-3.904
40605.000			42.939			-3.904
40704.000			42.936			-3.903
40804.000			42.932			-3.903
40904.000			42.929			-3.903
41004.000			42.924			-3.902
41103.000			42.922			-3.902
41205.000			42.920			-3.902
41304.000			42.916			-3.901
41405.000			42.914			-3.901
41504.000			42.911			-3.901
41603.000			42.908			-3.901
41705.000			42.907			-3.901
41804.000			42.900			-3.900
41904.000			42.897			-3.900
42005.000			42.895			-3.900
42104.000			42.892			-3.899
42204.000			42.889			-3.899
42304.000			42.886			-3.899
42404.000			42.885			-3.899
42504.000			42.880			-3.898
42605.000			42.877			-3.898
42704.000			42.874			-3.898
42804.000			42.872			-3.897
42905.000			42.869			-3.897
43003.000			42.866			-3.897
43104.000			42.864			-3.897
43205.000			42.858			-3.896
43304.000			42.856			-3.896
43404.000			42.853			-3.896
43505.000			42.850			-3.895
43604.000			42.848			-3.895
43703.000			42.847			-3.895
43805.000			42.844			-3.895
43904.000			42.838			-3.894
44004.000			42.835			-3.894
44105.000			42.832			-3.894
44204.000			42.830			-3.894
44304.000			42.827			-3.893
44403.000			42.825			-3.893
44504.000			42.823			-3.893
44605.000			42.820			-3.893
44704.000			42.815			-3.892
44804.000			42.812			-3.892
44904.000			42.809			-3.892
45004.000			42.806			-3.891
45104.000			42.804			-3.891
45205.000			42.803			-3.891
45304.000			42.801			-3.891
45404.000			42.795			-3.890
45505.000			42.793			-3.890
45603.000			42.792			-3.890
45704.000			42.789			-3.890
45805.000			42.785			-3.890
45904.000			42.783			-3.889
46004.000			42.780			-3.889
46105.000			42.776			-3.889
46204.000			42.774			-3.889
46303.000			42.771			-3.888
46405.000			42.769			-3.888
46504.000			42.767			-3.888
46604.000			42.765			-3.888
46705.000			42.763			-3.888
46804.000			42.760			-3.887
46904.000			42.754			-3.887
47004.000			42.752			-3.887
47104.000			42.750			-3.886
47204.000			42.748			-3.886
47305.000			42.744			-3.886
47404.000			42.741			-3.886
47504.000			42.741			-3.886
47605.000			42.736			-3.885
47703.000			42.733			-3.885
47805.000			42.732			-3.885
47904.000			42.729			-3.884
48004.000			42.726			-3.884
48105.000			42.725			-3.884
48204.000			42.722			-3.884
48304.000			42.716			-3.883
48404.000			42.715			-3.883
48504.000			42.712			-3.883
48604.000			42.710			-3.883
48705.000			42.707			-3.882
48804.000			42.705			-3.882
48904.000			42.702			-3.882
49005.000			42.698			-3.882
49103.000			42.697			-3.882
49204.000			42.695			-3.881
49305.000			42.693			-3.881
49404.000			42.690			-3.881
49504.000			42.687			-3.881
49605.000			42.685			-3.880
49704.000			42.683			-3.880
49803.000			42.678			-3.880
49905.000			42.676			-3.880
50004.000			42.674			-3.879
50104.000			42.671			-3.879
50205.000			42.668			-3.879
50304.000			42.667			-3.879
50404.000			42.665			-3.879
50504.000			42.660			-3.878
50604.000			42.657			-3.878
50704.000			42.654			-3.878
50804.000			42.654			-3.878
50904.000			42.652			-3.877
51005.000			42.650			-3.877
51104.000			42.647			-3.877
51203.000			42.644			-3.877
51305.000			42.641			-3.876
51404.000			42.638			-3.876
51504.000			42.636			-3.876
51605.000			42.634			-3.876
51703.000			42.632			-3.876
51804.000			42.630			-3.875
51905.000			42.626			-3.875
52004.000			42.625			-3.875
52104.000			42.621			-3.875
52205.000			42.619			-3.874
52304.000			42.616			-3.874
52403.000			42.614			-3.874
52505.000			42.612			-3.874
52604.000			42.610			-3.874
52704.000			42.606			-3.873
52805.000			42.604			-3.873
52904.000			42.601			-3.873
53004.000			42.600			-3.873
53104.000			42.599			-3.873
53204.000			42.596			-3.872
53304.000			42.593			-3.872
53405.000			42.589			-3.872
53504.000			42.587			-3.872
53604.000			42.586			-3.871
53705.000			42.585			-3.871
53803.000			42.583			-3.871
53904.000			42.580			-3.871
54005.000			42.577			-3.871
54104.000			42.573			-3.870
54205.000			42.571			-3.870
54304.000			42.569			-3.870
54404.000			42.566			-3.870
54504.000			42.564			-3.869
54604.000			42.564			-3.869
54704.000			42.561			-3.869
54805.000			42.558			-3.869
54904.000			42.554			-3.869
55004.000			42.552			-3.868
55105.000			42.551			-3.868
55203.000			42.549			-3.868
55304.000			42.545			-3.868
55405.000			42.544			-3.868
55504.000			42.542			-3.867
55604.000			42.539			-3.867
55704.000			42.536			-3.867
55804.000			42.533			-3.867
55904.000			42.531			-3.866
56005.000			42.530			-3.866
56104.000			42.529			-3.866
56204.000			42.527			-3.866
56305.000			42.523			-3.866
56403.000			42.521			-3.866
56504.000			42.518			-3.865
56605.000			42.517			-3.865
56704.000			42.514			-3.865
56804.000			42.512			-3.865
56905.000			42.511			-3.865
57004.000			42.507			-3.864
57103.000			42.505			-3.864
57205.000			42.503			-3.864
57304.000			42.501			-3.864
57405.000			42.499			-3.864
57504.000			42.497			-3.863
57604.000			42.494			-3.863
57705.000			42.492			-3.863
57803.000			42.490			-3.863
57904.000			42.487			-3.862
58005.000			42.486			-3.862
58104.000			42.484			-3.862
58204.000			42.481			-3.862
58305.000			42.480			-3.862
58404.000			42.478			-3.862
58503.000			42.474			-3.861
58605.000			42.472			-3.861
58704.000			42.470			-3.861
58804.000			42.468			-3.861
58905.000			42.466			-3.861
59004.000			42.465			-3.860
59104.000			42.462			-3.860
59204.000			42.460			-3.860
59304.000			42.457			-3.860
59404.000			42.455			-3.860
59505.000			42.453			-3.859
59604.000			42.452			-3.859
59704.000			42.451			-3.859
59805.000			42.449			-3.859
59903.000			42.445			-3.859
60004.000			42.444			-3.859
60105.000			42.442			-3.858
60204.000			42.438			-3.858
60304.000			42.437			-3.858
60404.000			42.436			-3.858
60504.000			42.435			-3.858
60604.000			42.433			-3.858
60704.000			42.429			-3.857
60804.000			42.427			-3.857
60905.000			42.425			-3.857
61004.000			42.423			-3.857
61103.000			42.419			-3.856
61205.000			42.417			-3.856
61304.000			42.417			-3.856
61404.000			42.413			-3.856
61505.000			42.411			-3.856
61604.000			42.409			-3.855
61704.000			42.407			-3.855
61804.000			42.406			-3.855
61904.000			42.403			-3.855
62004.000			42.401			-3.855
62105.000			42.398			-3.854
62204.000			42.397			-3.854
62304.000			42.395			-3.854
62405.000			42.393			-3.854
62503.000			42.391			-3.854
62604.000			42.390			-3.854
62705.000			42.388			-3.853
62804.000			42.384			-3.853
62904.000			42.382			-3.853
63005.000			42.380			-3.853
63104.000			42.380			-3.853
63203.000			42.378			-3.853
63305.000			42.375			-3.852
63404.000			42.373			-3.852
63504.000			42.372			-3.852
63605.000			42.369			-3.852
63704.000			42.367			-3.852
63805.000			42.365			-3.851
63903.000			42.363			-3.851
64004.000			42.361			-3.851
64105.000			42.358			-3.851
64204.000			42.356			-3.851
64304.000			42.354			-3.850
64404.000			42.352			-3.850
64504.000			42.350			-3.850
64604.000			42.349			-3.850
64705.000			42.347			-3.850
64804.000			42.346			-3.850
64904.000			42.344			-3.849
65005.000			42.340			-3.849
65103.000			42.339			-3.849
65204.000			42.337			-3.849
65305.000			42.336			-3.849
65404.000			42.335			-3.849
65504.000			42.332			-3.848
65605.000			42.330			-3.848
65704.000			42.327			-3.848
65803.000			42.325			-3.848
65905.000			42.324			-3.848
66004.000			42.322			-3.847
66104.000			42.320			-3.847
66205.000			42.319			-3.847
66304.000			42.317			-3.847
66404.000			42.315			-3.847
66504.000			42.312			-3.847
66604.000			42.310			-3.846
66704.000			42.309			-3.846
66804.000			42.307			-3.846
66904.000			42.305			-3.846
67005.000			42.303			-3.846
67104.000			42.302			-3.846
67203.000			42.298			-3.845
67305.000			42.297			-3.845
67404.000			42.295			-3.845
67504.000			42.292			-3.845
67605.000			42.291			-3.845
67703.000			42.290			-3.845
67804.000			42.289			-3.844
67904.000			42.286			-3.844
68004.000			42.285			-3.844
68104.000			42.282			-3.844
68205.000			42.281			-3.844
68304.000			42.278			-3.843
68403.000			42.278			-3.843
68505.000			42.275			-3.843
68603.000			42.274			-3.843
68704.000			42.270			-3.843
68805.000			42.269			-3.843
68904.000			42.267			-3.842
69004.000			42.265			-3.842
69104.000			42.264			-3.842
69204.000			42.263			-3.842
69303.000			42.262			-3.842
69405.000			42.257			-3.842
69504.000			42.256			-3.841
69604.000			42.255			-3.841
69705.000			42.254			-3.841
69803.000			42.251			-3.841
69904.000			42.249			-3.841
70005.000			42.248			-3.841
70104.000			42.244			-3.840
70205.000			42.243			-3.840
70304.000			42.241			-3.840
70404.000			42.240			-3.840
70504.000			42.238			-3.840
70604.000			42.237			-3.840
70704.000			42.235			-3.840
70805.000			42.231			-3.839
70904.000			42.231			-3.839
71004.000			42.229			-3.839
71105.000			42.227			-3.839
71203.000			42.226			-3.839
71304.000			42.224			-3.839
71405.000			42.223			-3.838
71504.000			42.222			-3.838
71604.000			42.217			-3.838
71705.000			42.215			-3.838
71804.000			42.214			-3.838
71903.000			42.213			-3.838
72005.000			42.212			-3.837
72104.000			42.210			-3.837
72204.000			42.208			-3.837
72305.000			42.205			-3.837
72403.000			42.204			-3.837
72504.000			42.203			-3.837
72605.000			42.201			-3.836
72704.000			42.199			-3.836
72804.000			42.198			-3.836
72905.000			42.196			-3.836
73004.000			42.193			-3.836
73103.000			42.192			-3.836
73205.000			42.191			-3.836
73304.000			42.189			-3.835
73405.000			42.187			-3.835
73504.000			42.186			-3.835
73604.000			42.184			-3.835
73705.000			42.180			-3.835
73803.000			42.179			-3.834
73904.000			42.178			-3.834
74005.000			42.176			-3.834
74104.000			42.175			-3.834
74204.000			42.173			-3.834
74305.000			42.172			-3.834
74404.000			42.169			-3.834
74503.000			42.167			-3.833
74605.000			42.166			-3.833
74704.000			42.165			-3.833
74804.000			42.164			-3.833
74905.000			42.163			-3.833
75004.000			42.161			-3.833
75104.000			42.160			-3.833
75204.000			42.157			-3.832
75304.000			42.154			-3.832
75404.000			42.152			-3.832
75505.000			42.151			-3.832
75604.000			42.149			-3.832
75704.000			42.148			-3.832
75805.000			42.148			-3.832
75903.000			42.144			-3.831
76004.000			42.143			-3.831
76105.000			42.142			-3.831
76204.000			42.141			-3.831
76304.000			42.138			-3.831
76404.000			42.137			-3.831
76504.000			42.135			-3.830
76604.000			42.132			-3.830
76704.000			42.132			-3.830
76804.000			42.130			-3.830
76905.000			42.128			-3.830
77004.000			42.127			-3.830
77104.000			42.126			-3.830
77205.000			42.124			-3.829
77303.000			42.123			-3.829
77404.000			42.120			-3.829
77505.000			42.118			-3.829
77604.000			42.116			-3.829
77704.000			42.115			-3.829
77804.000			42.115			-3.829
77904.000			42.113			-3.828
78003.000			42.110			-3.828
78105.000			42.108			-3.828
78204.000			42.105			-3.828
78304.000			42.103			-3.828
78405.000			42.103			-3.828
78503.000			42.101			-3.827
78604.000			42.100			-3.827
78705.000			42.098			-3.827
78804.000			42.097			-3.827
78904.000			42.094			-3.827
79005.000			42.093			-3.827
79104.000			42.093			-3.827
79203.000			42.092			-3.827
79305.000			42.089			-3.826
79404.000			42.087			-3.826
79504.000			42.085			-3.826
79605.000			42.084			-3.826
79704.000			42.081			-3.826
79805.000			42.080			-3.825
79904.000			42.078			-3.825
80004.000			42.077			-3.825
80104.000			42.077			-3.825
80204.000			42.075			-3.825
80304.000			42.072			-3.825
80405.000			42.071			-3.825
80504.000			42.070			-3.825
80603.000			42.068			-3.824
80705.000			42.067			-3.824
80804.000			42.065			-3.824
80904.000			42.064			-3.824
81005.000			42.060			-3.824
81104.000			42.059			-3.824
81204.000			42.058			-3.823
81304.000			42.058			-3.823
81404.000			42.056			-3.823
81504.000			42.054			-3.823
81605.000			42.052			-3.823
81704.000			42.050			-3.823
81804.000			42.048			-3.823
81905.000			42.048			-3.823
82003.000			42.046			-3.822
82104.000			42.044			-3.822
82205.000			42.043			-3.822
82304.000			42.041			-3.822
82404.000			42.040			-3.822
82505.000			42.038			-3.822
82604.000			42.037			-3.822
82703.000			42.037			-3.822
82805.000			42.035			-3.821
82904.000			42.033			-3.821
83005.000			42.032			-3.821
83104.000			42.031			-3.821
83204.000			42.027			-3.821
83305.000			42.025			-3.820
83403.000			42.024			-3.820
83504.000			42.023			-3.820
83605.000			42.022			-3.820
83704.000			42.020			-3.820
83804.000			42.019			-3.820
83904.000			42.016			-3.820
84004.000			42.014			-3.819
84104.000			42.013			-3.819
84205.000			42.012			-3.819
84304.000			42.010			-3.819
84404.000			42.009			-3.819
84505.000			42.009			-3.819
84603.000			42.006			-3.819
84704.000			42.004			-3.819
84805.000			42.003			-3.818
84904.000			42.001			-3.818
85004.000			42.000			-3.818
85105.000			41.999			-3.818
85204.000			41.998			-3.818
85303.000			41.997			-3.818
85405.000			41.994			-3.818
85504.000			41.992			-3.817
85604.000			41.991			-3.817
85705.000			41.990			-3.817
85804.000			41.989			-3.817
85904.000			41.989			-3.817
86003.000			41.987			-3.817
86104.000			41.983			-3.817
86205.000			41.982			-3.817
86304.000			41.981			-3.816
86404.000			41.980			-3.816
86505.000			41.979			-3.816
86604.000			41.977			-3.816
86703.000			41.976			-3.816
86805.000			41.973			-3.816
86903.000			41.972			-3.816
87004.000			41.971			-3.816
87105.000			41.968			-3.815
87204.000			41.967			-3.815
87304.000			41.966			-3.815
87405.000			41.965			-3.815
87504.000			41.963			-3.815
87603.000			41.961			-3.815
87705.000			41.961			-3.815
87804.000			41.959			-3.814
87904.000			41.957			-3.814
88005.000			41.956			-3.814
88104.000			41.955			-3.814
88204.000			41.954			-3.814
88304.000			41.951			-3.814
88404.000			41.949			-3.814
88504.000			41.948			-3.813
88605.000			41.947			-3.813
88704.000			41.946			-3.813
88804.000			41.945			-3.813
88905.000			41.944			-3.813
89003.000			41.940			-3.813
89104.000			41.940			-3.813
89205.000			41.938			-3.813
89304.000			41.936			-3.812
89405.000			41.936			-3.812
89504.000			41.935			-3.812
89604.000			41.934			-3.812
89704.000			41.932			-3.812
89804.000			41.930			-3.812
89904.000			41.929			-3.812
90005.000			41.927			-3.812
90104.000			41.926			-3.811
90204.000			41.925			-3.811
90305.000			41.924			-3.811
90403.000			41.921			-3.811
90504.000			41.920			-3.811
90605.000			41.918			-3.811
90704.000			41.918			-3.811
90804.000			41.917			-3.811
90905.000			41.917			-3.811
91004.000			41.915			-3.810
91103.000			41.913			-3.810
91205.000			41.910			-3.810
91304.000			41.908			-3.810
91404.000			41.907			-3.810
91505.000			41.906			-3.810
91604.000			41.905			-3.810
91704.000			41.904			-3.809
91804.000			41.903			-3.809
91904.000			41.901			-3.809
92004.000			41.899			-3.809
92105.000			41.898			-3.809
92204.000			41.897			-3.809
92304.000			41.896			-3.809
92405.000			41.895			-3.809
92503.000			41.893			-3.808
92605.000			41.892			-3.808
92703.000			41.890			-3.808
92804.000			41.888			-3.808
92905.000			41.886			-3.808
93004.000			41.886			-3.808
93104.000			41.885			-3.808
93205.000			41.884			-3.808
93304.000			41.881			-3.807
93403.000			41.879			-3.807
93505.000			41.878			-3.807
93604.000			41.877			-3.807
93704.000			41.876			-3.807
93805.000			41.874			-3.807
93904.000			41.873			-3.807
94004.000			41.873			-3.807
94104.000			41.871			-3.806
94204.000			41.869			-3.806
94304.000			41.868			-3.806
94405.000			41.867			-3.806
94504.000			41.866			-3.806
94604.000			41.864			-3.806
94705.000			41.863			-3.806
94803.000			41.862			-3.806
94904.000			41.861			-3.806
95005.000			41.860			-3.805
95104.000			41.858			-3.805
95204.000			41.857			-3.805
95305.000			41.855			-3.805
95404.000			41.853			-3.805
95503.000			41.851			-3.805
95605.000			41.850			-3.805
95704.000			41.850			-3.805
95805.000			41.849			-3.804
95904.000			41.848			-3.804
96004.000			41.847			-3.804
96105.000			41.845			-3.804
96203.000			41.843			-3.804
96304.000			41.841			-3.804
96405.000			41.840			-3.804
96504.000			41.838			-3.803
96604.000			41.837			-3.803
96705.000			41.836			-3.803
96804.000			41.834			-3.803
96903.000			41.833			-3.803
97005.000			41.831			-3.803
97103.000			41.830			-3.803
97204.000			41.828			-3.803
97305.000			41.827			-3.802
97404.000			41.826			-3.802
97504.000			41.825			-3.802
97604.000			41.824			-3.802
97704.000			41.822			-3.802
97803.000			41.821			-3.802
97905.000			41.820			-3.802
98004.000			41.819			-3.802
98104.000			41.817			-3.802
98205.000			41.816			-3.801
98303.000			41.814			-3.801
98404.000			41.812			-3.801
98505.000			41.811			-3.801
98604.000			41.810			-3.801
98704.000			41.809			-3.801
98804.000			41.809			-3.801
98904.000			41.808			-3.801
99005.000			41.806			-3.801
99104.000			41.803			-3.800
99203.000			41.803			-3.800
99305.000			41.802			-3.800
99404.000			41.801			-3.800
99504.000			41.800			-3.800
99605.000			41.799			-3.800
99704.000			41.798			-3.800
99804.000			41.797			-3.800
99904.000			41.793			-3.799
100004.000			41.792			-3.799
100104.000			41.790			-3.799
100205.000			41.790			-3.799
100304.000			41.789			-3.799
100404.000			41.787			-3.799
100505.000			41.787			-3.799
100603.000			41.785			-3.799
100704.000			41.783			-3.798
100805.000			41.783			-3.798
100904.000			41.781			-3.798
101004.000			41.780			-3.798
101105.000			41.779			-3.798
101204.000			41.778			-3.798
101303.000			41.775			-3.798
101405.000			41.774			-3.798
101504.000			41.773			-3.798
101604.000			41.771			-3.797
101705.000			41.769			-3.797
101804.000			41.769			-3.797
101904.000			41.768			-3.797
102003.000			41.767			-3.797
102104.000			41.765			-3.797
102205.000			41.764			-3.797
102304.000			41.762			-3.797
102404.000			41.762			-3.797
102505.000			41.761			-3.796
102604.000			41.760			-3.796
102704.000			41.759			-3.796
102805.000			41.757			-3.796
102903.000			41.756			-3.796
103004.000			41.756			-3.796
103105.000			41.754			-3.796
103204.000			41.753			-3.796
103304.000			41.751			-3.796
103405.000			41.749			-3.795
103504.000			41.749			-3.795
103603.000			41.747			-3.795
103705.000			41.746			-3.795
103804.000			41.745			-3.795
103904.000			41.743			-3.795
104005.000			41.742			-3.795
104104.000			41.741			-3.795
104204.000			41.739			-3.794
104304.000			41.739			-3.794
104404.000			41.737			-3.794
104504.000			41.736			-3.794
104605.000			41.735			-3.794
104704.000			41.733			-3.794
104804.000			41.732			-3.794
104905.000			41.731			-3.794
105003.000			41.729			-3.794
105104.000			41.728			-3.793
105205.000			41.727			-3.793
105304.000			41.726			-3.793
105405.000			41.726			-3.793
105504.000			41.725			-3.793
105604.000			41.723			-3.793
105704.000			41.721			-3.793
105804.000			41.721			-3.793
105904.000			41.720			-3.793
106005.000			41.719			-3.793
106104.000			41.717			-3.792
106204.000			41.716			-3.792
106305.000			41.715			-3.792
106403.000			41.714			-3.792
106504.000			41.712			-3.792
106605.000			41.711			-3.792
106704.000			41.710			-3.792
106804.000			41.708			-3.792
106905.000			41.707			-3.792
107004.000			41.706			-3.791
107103.000			41.704			-3.791
107205.000			41.702			-3.791
107304.000			41.702			-3.791
107404.000			41.702			-3.791
107505.000			41.701			-3.791
107604.000			41.699			-3.791
107704.000			41.697			-3.791
107804.000			41.696			-3.791
107904.000			41.695			-3.790
108004.000			41.694			-3.790
108105.000			41.693			-3.790
108204.000			41.692			-3.790
108304.000			41.690			-3.790
108405.000			41.690			-3.790
108503.000			41.689			-3.790
108605.000			41.687			-3.790
108704.000			41.686			-3.790
108804.000			41.684			-3.789
108905.000			41.683			-3.789
109004.000			41.682			-3.789
109104.000			41.681			-3.789
109205.000			41.680			-3.789
109304.000			41.678			-3.789
109403.000			41.676			-3.789
109505.000			41.675			-3.789
109604.000			41.675			-3.789
109704.000			41.675			-3.789
109805.000			41.674			-3.789
109904.000			41.673			-3.788
110004.000			41.669			-3.788
110104.000			41.669			-3.788
110204.000			41.668			-3.788
110304.000			41.667			-3.788
110405.000			41.666			-3.788
110504.000			41.664			-3.788
110604.000			41.663			-3.788
110705.000			41.659			-3.787
110803.000			41.660			-3.787
110904.000			41.660			-3.787
111005.000			41.660			-3.787
111104.000			41.659			-3.787
111204.000			41.657			-3.787
111305.000			41.655			-3.787
111404.000			41.655			-3.787
111503.000			41.654			-3.787
111605.000			41.652			-3.787
111704.000			41.651			-3.786
111805.000			41.650			-3.786
111904.000			41.649			-3.786
112004.000			41.648			-3.786
112105.000			41.646			-3.786
112203.000			41.645			-3.786
112304.000			41.644			-3.786
112405.000			41.643			-3.786
112504.000			41.641			-3.786
112604.000			41.640			-3.785
112705.000			41.639			-3.785
112804.000			41.639			-3.785
112903.000			41.636			-3.785
113005.000			41.635			-3.785
113104.000			41.635			-3.785
113204.000			41.634			-3.785
113305.000			41.632			-3.785
113404.000			41.632			-3.785
113504.000			41.631			-3.785
113604.000			41.629			-3.784
113704.000			41.628			-3.784
113803.000			41.625			-3.784
113905.000			41.624			-3.784
114004.000			41.625			-3.784
114104.000			41.623			-3.784
114205.000			41.622			-3.784
114303.000			41.621			-3.784
114404.000			41.620			-3.784
114504.000			41.619			-3.784
114604.000			41.617			-3.783
114704.000			41.617			-3.783
114804.000			41.617			-3.783
114904.000			41.615			-3.783
115005.000			41.614			-3.783
115104.000			41.612			-3.783
115203.000			41.611			-3.783
115305.000			41.610			-3.783
115404.000			41.609			-3.783
115504.000			41.608			-3.783
115605.000			41.607			-3.782
115704.000			41.606			-3.782
115804.000			41.604			-3.782
115904.000			41.604			-3.782
116004.000			41.602			-3.782
116104.000			41.601			-3.782
116205.000			41.600			-3.782
116304.000			41.600			-3.782
116404.000			41.598			-3.782
116505.000			41.597			-3.782
116603.000			41.596			-3.781
116704.000			41.594			-3.781
116805.000			41.593			-3.781
116904.000			41.592			-3.781
117004.000			41.592			-3.781
117105.000			41.591			-3.781
117204.000			41.589			-3.781
117303.000			41.588			-3.781
117405.000			41.587			-3.781
117504.000			41.585			-3.780
117604.000			41.585			-3.780
117705.000			41.584			-3.780
117804.000			41.583			-3.780
117904.000			41.582			-3.780
118004.000			41.580			-3.780
118104.000			41.579			-3.780
118204.000			41.579			-3.780
118304.000			41.578			-3.780
118404.000			41.577			-3.780
118505.000			41.574			-3.779
118604.000			41.574			-3.779
118704.000			41.572			-3.779
118805.000			41.571			-3.779
118903.000			41.570			-3.779
119004.000			41.570			-3.779
119105.000			41.569			-3.779
119204.000			41.568			-3.779
119304.000			41.567			-3.779
119405.000			41.564			-3.779
119504.000			41.564			-3.779
119603.000			41.564			-3.779
119705.000			41.563			-3.778
119804.000			41.561			-3.778
119904.000			41.559			-3.778
120005.000			41.559			-3.778
120104.000			41.559			-3.778
120204.000			41.555			-3.778
120305.000			41.555			-3.778
120404.000			41.555			-3.778
120503.000			41.554			-3.778
120605.000			41.553			-3.778
120704.000			41.552			-3.777
120804.000			41.551			-3.777
120905.000			41.549			-3.777
121004.000			41.548			-3.777
121104.000			41.546			-3.777
121203.000			41.545			-3.777
121304.000			41.545			-3.777
121405.000			41.545			-3.777
121504.000			41.543			-3.777
121604.000			41.541			-3.776
121705.000			41.540			-3.776
121804.000			41.540			-3.776
121903.000			41.539			-3.776
122005.000			41.537			-3.776
122104.000			41.536			-3.776
122204.000			41.534			-3.776
122305.000			41.534			-3.776
122404.000			41.534			-3.776
122504.000			41.533			-3.776
122604.000			41.532			-3.776
122704.000			41.531			-3.776
122804.000			41.529			-3.775
122905.000			41.528			-3.775
123004.000			41.527			-3.775
123104.000			41.525			-3.775
123205.000			41.525			-3.775
123303.000			41.523			-3.775
123404.000			41.522			-3.775
123505.000			41.522			-3.775
123604.000			41.522			-3.775
123704.000			41.521			-3.775
123805.000			41.518			-3.774
123904.000			41.517			-3.774
124003.000			41.517			-3.774
124105.000			41.516			-3.774
124204.000			41.514			-3.774
124304.000			41.514			-3.774
124405.000			41.514			-3.774
124504.000			41.511			-3.774
124605.000			41.510			-3.774
124703.000			41.510			-3.774
124804.000			41.509			-3.774
124905.000			41.507			-3.773
125004.000			41.506			-3.773
125104.000			41.505			-3.773
125205.000			41.503			-3.773
125304.000			41.503			-3.773
125403.000			41.502			-3.773
125505.000			41.502			-3.773
125604.000			41.500			-3.773
125704.000			41.499			-3.773
125805.000			41.498			-3.773
125904.000			41.498			-3.773
126004.000			41.495			-3.772
126104.000			41.494			-3.772
126204.000			41.495			-3.772
126304.000			41.494			-3.772
126405.000			41.492			-3.772
126504.000			41.491			-3.772
126604.000			41.490			-3.772
126705.000			41.490			-3.772
126803.000			41.489			-3.772
126904.000			41.486			-3.771
127005.000			41.486			-3.771
127104.000			41.485			-3.771
127204.000			41.483			-3.771
127305.000			41.483			-3.771
127404.000			41.481			-3.771
127504.000			41.481			-3.771
127605.000			41.480			-3.771
127703.000			41.480			-3.771
127805.000			41.478			-3.771
127904.000			41.477			-3.771
128004.000			41.477			-3.771
128105.000			41.474			-3.770
128204.000			41.473			-3.770
128304.000			41.473			-3.770
128404.000			41.471			-3.770
128504.000			41.471			-3.770
128604.000			41.470			-3.770
128705.000			41.469			-3.770
128804.000			41.469			-3.770
128904.000			41.467			-3.770
129005.000			41.465			-3.770
129103.000			41.464			-3.769
129204.000			41.463			-3.769
129304.000			41.462			-3.769
129404.000			41.462			-3.769
129504.000			41.461			-3.769
129605.000			41.459			-3.769
129704.000			41.459			-3.769
129804.000			41.458			-3.769
129905.000			41.456			-3.769
130003.000			41.456			-3.769
130104.000			41.456			-3.769
130205.000			41.455			-3.769
130304.000			41.453			-3.768
130404.000			41.453			-3.768
130505.000			41.452			-3.768
130604.000			41.451			-3.768
130703.000			41.449			-3.768
130805.000			41.449			-3.768
130904.000			41.447			-3.768
131005.000			41.447			-3.768
131104.000			41.446			-3.768
131204.000			41.444			-3.768
131305.000			41.443			-3.768
131403.000			41.442			-3.767
131504.000			41.442			-3.767
131605.000			41.441			-3.767
131704.000			41.440			-3.767
131804.000			41.439			-3.767
131905.000			41.438			-3.767
132004.000			41.436			-3.767
132103.000			41.435			-3.767
132205.000			41.435			-3.767
132303.000			41.433			-3.767
132404.000			41.432			-3.767
132505.000			41.432			-3.767
132604.000			41.431			-3.766
132704.000			41.429			-3.766
132805.000			41.428			-3.766
132904.000			41.429			-3.766
133003.000			41.427			-3.766
133105.000			41.425			-3.766
133204.000			41.425			-3.766
133304.000			41.424			-3.766
133405.000			41.423			-3.766
133504.000			41.423			-3.766
133604.000			41.422			-3.766
133704.000			41.420			-3.765
133804.000			41.420			-3.765
133903.000			41.420			-3.765
134005.000			41.416			-3.765
134104.000			41.416			-3.765
134205.000			41.415			-3.765
134304.000			41.414			-3.765
134404.000			41.414			-3.765
134505.000			41.413			-3.765
134603.000			41.412			-3.765
134704.000			41.410			-3.765
134805.000			41.410			-3.765
134904.000			41.409			-3.764
135004.000			41.407			-3.764
135105.000			41.406			-3.764
135204.000			41.406			-3.764
135303.000			41.404			-3.764
135405.000			41.404			-3.764
135503.000			41.402			-3.764
135604.000			41.401			-3.764
135705.000			41.401			-3.764
135804.000			41.400			-3.764
135904.000			41.399			-3.764
136005.000			41.398			-3.763
136104.000			41.396			-3.763
136203.000			41.395			-3.763
136305.000			41.395			-3.763
136404.000			41.394			-3.763
136504.000			41.393			-3.763
136605.000			41.392			-3.763
136704.000			41.392			-3.763
136804.000			41.391			-3.763
136905.000			41.388			-3.763
137004.000			41.388			-3.763
137103.000			41.387			-3.762
137205.000			41.386			-3.762
137304.000			41.386			-3.762
137405.000			41.385			-3.762
137504.000			41.384			-3.762
137604.000			41.383			-3.762
137705.000			41.382			-3.762
137804.000			41.381			-3.762
137904.000			41.380			-3.762
138004.000			41.380			-3.762
138104.000			41.379			-3.762
138203.000			41.378			-3.762
138305.000			41.376			-3.761
138404.000			41.374			-3.761
138504.000			41.374			-3.761
138605.000			41.374			-3.761
138704.000			41.373			-3.761
138804.000			41.372			-3.761
138904.000			41.372			-3.761
139004.000			41.370			-3.761
139103.000			41.369			-3.761
139205.000			41.368			-3.761
139304.000			41.367			-3.761
139404.000			41.367			-3.761
139505.000			41.366			-3.761
139604.000			41.364			-3.760
139704.000			41.364			-3.760
139804.000			41.362			-3.760
139904.000			41.360			-3.760
140003.000			41.359			-3.760
140105.000			41.359			-3.760
140204.000			41.358			-3.760
140304.000			41.358			-3.760
140405.000			41.358			-3.760
140504.000			41.356			-3.760
140605.000			41.355			-3.760
140703.000			41.355			-3.760
140804.000			41.353			-3.759
140905.000			41.353			-3.759
141004.000			41.352			-3.759
141104.000			41.351			-3.759
141205.000			41.349			-3.759
141304.000			41.347			-3.759
141404.000			41.347			-3.759
141505.000			41.347			-3.759
141603.000			41.346			-3.759
141704.000			41.346			-3.759
141805.000			41.344			-3.759
141904.000			41.343			-3.758
142004.000			41.342			-3.758
142105.000			41.341			-3.758
142204.000			41.341			-3.758
142303.000			41.340			-3.758
142405.000			41.339			-3.758
142504.000			41.337			-3.758
142604.000			41.337			-3.758
142705.000			41.336			-3.758
142804.000			41.336			-3.758
142904.000			41.335			-3.758
143005.000			41.333			-3.758
143104.000			41.333			-3.758
143203.000			41.332			-3.757
143305.000			41.331			-3.757
143404.000			41.330			-3.757
143504.000			41.329			-3.757
143605.000			41.328			-3.757
143704.000			41.327			-3.757
143805.000			41.326			-3.757
143903.000			41.326			-3.757
144004.000			41.325			-3.757
144104.000			41.322			-3.757
144204.000			41.322			-3.757
144304.000			41.322			-3.757
144405.000			41.321			-3.756
144504.000			41.319			-3.756
144604.000			41.319			-3.756
144705.000			41.319			-3.756
144803.000			41.319			-3.756
144904.000			41.317			-3.756
145005.000			41.316			-3.756
145104.000			41.315			-3.756
145204.000			41.314			-3.756
145305.000			41.314			-3.756
145404.000			41.313			-3.756
145504.000			41.312			-3.756
145605.000			41.309			-3.755
145703.000			41.308			-3.755
145804.000			41.309			-3.755
145905.000			41.308			-3.755
146004.000			41.306			-3.755
146104.000			41.306			-3.755
146205.000			41.305			-3.755
146304.000			41.304			-3.755
146403.000			41.303			-3.755
146505.000			41.302			-3.755
146603.000			41.302			-3.755
146704.000			41.300			-3.755
146805.000			41.299			-3.754
146904.000			41.299			-3.754
147005.000			41.297			-3.754
147104.000			41.296			-3.754
147204.000			41.296			-3.754
147304.000			41.296			-3.754
147404.000			41.295			-3.754
147503.000			41.294			-3.754
147605.000			41.292			-3.754
147704.000			41.293			-3.754
147804.000			41.290			-3.754
147905.000			41.290			-3.754
148004.000			41.289			-3.754
148104.000			41.288			-3.753
148204.000			41.288			-3.753
148304.000			41.287			-3.753
148403.000			41.286			-3.753
148505.000			41.284			-3.753
148604.000			41.283			-3.753
148704.000			41.283			-3.753
148805.000			41.282			-3.753
148904.000			41.281			-3.753
149004.000			41.280			-3.753
149104.000			41.280			-3.753
149204.000			41.278			-3.753
149303.000			41.278			-3.753
149405.000			41.276			-3.752
149504.000			41.275			-3.752
149604.000			41.274			-3.752
149705.000			41.274			-3.752
149804.000			41.273			-3.752
149904.000			41.273			-3.752
150004.000			41.271			-3.752
150104.000			41.270			-3.752
150204.000			41.270			-3.752
150304.000			41.269			-3.752
150404.000			41.269			-3.752
150505.000			41.269			-3.752
150604.000			41.268			-3.752
150704.000			41.266			-3.751
150805.000			41.265			-3.751
150903.000			41.263			-3.751
151004.000			41.263			-3.751
151105.000			41.262			-3.751
151204.000			41.262			-3.751
151304.000			41.261			-3.751
151405.000			41.259			-3.751
151504.000			41.260			-3.751
151604.000			41.259			-3.751
151705.000			41.258			-3.751
151803.000			41.257			-3.751
151904.000			41.255			-3.750
152005.000			41.255			-3.750
152104.000			41.253			-3.750
152204.000			41.253			-3.750
152305.000			41.253			-3.750
152404.000			41.251			-3.750
152504.000			41.249			-3.750
152605.000			41.248			-3.750
152703.000			41.248			-3.750
152804.000			41.247			-3.750
152905.000			41.247			-3.750
153004.000			41.247			-3.750
153104.000			41.245			-3.750
153204.000			41.244			-3.749
153304.000			41.244			-3.749
153404.000			41.244			-3.749
153504.000			41.243			-3.749
153603.000			41.241			-3.749
153705.000			41.240			-3.749
153804.000			41.239			-3.749
153904.000			41.238			-3.749
154005.000			41.237			-3.749
154104.000			41.237			-3.749
154204.000			41.236			-3.749
154304.000			41.235			-3.749
154404.000			41.235			-3.749
154503.000			41.234			-3.749
154605.000			41.233			-3.748
154704.000			41.232			-3.748
154804.000			41.231			-3.748
154905.000			41.231			-3.748
155004.000			41.229			-3.748
155104.000			41.229			-3.748
155204.000			41.227			-3.748
155304.000			41.227			-3.748
155404.000			41.227			-3.748
155505.000			41.225			-3.748
155604.000			41.224			-3.748
155704.000			41.224			-3.748
155805.000			41.221			-3.747
155904.000			41.221			-3.747
156004.000			41.220			-3.747
156104.000			41.220			-3.747
156204.000			41.220			-3.747
156304.000			41.219			-3.747
156404.000			41.219			-3.747
156504.000			41.217			-3.747
156605.000			41.216			-3.747
156704.000			41.215			-3.747
156803.000			41.214			-3.747
156905.000			41.214			-3.747
157003.000			41.214			-3.747
157104.000			41.213			-3.747
157205.000			41.211			-3.746
157304.000			41.211			-3.746
157404.000			41.210			-3.746
157505.000			41.209			-3.746
157604.000			41.208			-3.746
157703.000			41.207			-3.746
157805.000			41.207			-3.746
157904.000			41.205			-3.746
158004.000			41.205			-3.746
158105.000			41.205			-3.746
158204.000			41.205			-3.746
158304.000			41.203			-3.746
158404.000			41.202			-3.746
158504.000			41.201			-3.746
158603.000			41.201			-3.746
158705.000			41.199			-3.745
158804.000			41.197			-3.745
158904.000			41.197			-3.745
159005.000			41.196			-3.745
159104.000			41.196			-3.745
159204.000			41.195			-3.745
159304.000			41.195			-3.745
159404.000			41.194			-3.745
159503.000			41.193			-3.745
159605.000			41.193			-3.745
159704.000			41.192			-3.745
159805.000			41.190			-3.745
159904.000			41.190			-3.745
160004.000			41.189			-3.744
160105.000			41.188			-3.744
160204.000			41.187			-3.744
160304.000			41.186			-3.744
160404.000			41.185			-3.744
160504.000			41.185			-3.744
160604.000			41.184			-3.744
160705.000			41.184			-3.744
160804.000			41.182			-3.744
160904.000			41.182			-3.744
161005.000			41.181			-3.744
161103.000			41.179			-3.744
161204.000			41.179			-3.744
161304.000			41.179			-3.744
161404.000			41.179			-3.744
161504.000			41.176			-3.743
161605.000			41.176			-3.743
161704.000			41.176			-3.743
161804.000			41.175			-3.743
161905.000			41.174			-3.743
162003.000			41.173			-3.743
162104.000			41.171			-3.743
162205.000			41.172			-3.743
162304.000			41.170			-3.743
162404.000			41.169			-3.743
162505.000			41.168			-3.743
162604.000			41.168			-3.743
162704.000			41.168			-3.743
162805.000			41.167			-3.742
162903.000			41.166			-3.742
163005.000			41.163			-3.742
163104.000			41.163			-3.742
163204.000			41.163			-3.742
163305.000			41.162			-3.742
163404.000			41.161			-3.742
163504.000			41.161			-3.742
163605.000			41.161			-3.742
163704.000			41.158			-3.742
163803.000			41.157			-3.742
163905.000			41.157			-3.742
164004.000			41.157			-3.742
164104.000			41.156			-3.741
164205.000			41.155			-3.741
164304.000			41.155			-3.741
164404.000			41.154			-3.741
164505.000			41.153			-3.741
164604.000			41.152			-3.741
164703.000			41.152			-3.741
164805.000			41.151			-3.741
164904.000			41.150			-3.741
165004.000			41.150			-3.741
165105.000			41.149			-3.741
165204.000			41.148			-3.741
165304.000			41.147			-3.741
165405.000			41.146			-3.741
165504.000			41.145			-3.740
165603.000			41.144			-3.740
165705.000			41.144			-3.740
165804.000			41.143			-3.740
165904.000			41.142			-3.740
166005.000			41.141			-3.740
166104.000			41.141			-3.740
166205.000			41.140			-3.740
166303.000			41.139			-3.740
166404.000			41.138			-3.740
166504.000			41.139			-3.740
166604.000			41.136			-3.740
166704.000			41.135			-3.740
166805.000			41.134			-3.739
166904.000			41.133			-3.739
167004.000			41.133			-3.739
167105.000			41.134			-3.739
167203.000			41.133			-3.739
167304.000			41.133			-3.739
167405.000			41.132			-3.739
167504.000			41.130			-3.739
167604.000			41.129			-3.739
167705.000			41.128			-3.739
167804.000			41.126			-3.739
167904.000			41.126			-3.739
168005.000			41.125			-3.739
168103.000			41.124			-3.739
168204.000			41.123			-3.738
168305.000			41.123			-3.738
168404.000			41.122			-3.738
168504.000			41.122			-3.738
168605.000			41.122			-3.738
168704.000			41.121			-3.738
168803.000			41.119			-3.738
168905.000			41.119			-3.738
169003.000			41.119			-3.738
169104.000			41.118			-3.738
169205.000			41.118			-3.738
169304.000			41.117			-3.738
169405.000			41.116			-3.738
169504.000			41.115			-3.738
169604.000			41.114			-3.738
169704.000			41.114			-3.738
169804.000			41.113			-3.738
169904.000			41.112			-3.737
170005.000			41.110			-3.737
170104.000			41.110			-3.737
170204.000			41.109			-3.737
170305.000			41.109			-3.737
170404.000			41.108			-3.737
170504.000			41.107			-3.737
170604.000			41.106			-3.737
170704.000			41.105			-3.737
170804.000			41.105			-3.737
170905.000			41.105			-3.737
171004.000			41.103			-3.737
171104.000			41.103			-3.737
171205.000			41.102			-3.737
171303.000			41.100			-3.736
171404.000			41.099			-3.736
171505.000			41.100			-3.736
171604.000			41.100			-3.736
171704.000			41.097			-3.736
171805.000			41.097			-3.736
171904.000			41.098			-3.736
172004.000			41.097			-3.736
172105.000			41.095			-3.736
172203.000			41.094			-3.736
172304.000			41.093			-3.736
172405.000			41.093			-3.736
172504.000			41.092			-3.736
172605.000			41.091			-3.736
172704.000			41.090			-3.735
172804.000			41.091			-3.736
172905.000			41.091			-3.736
173004.000			41.088			-3.735
173103.000			41.087			-3.735
173205.000			41.086			-3.735
173304.000			41.086			-3.735
173404.000			41.085			-3.735
173505.000			41.084			-3.735
173604.000			41.083			-3.735
173704.000			41.083			-3.735
173805.000			41.082			-3.735
173904.000			41.082			-3.735
174003.000			41.081			-3.735
174105.000			41.080			-3.735
174204.000			41.079			-3.734
174304.000			41.078			-3.734
174405.000			41.078			-3.734
174504.000			41.077			-3.734
174604.000			41.076			-3.734
174705.000			41.076			-3.734
174804.000			41.075			-3.734
174903.000			41.074			-3.734
175005.000			41.074			-3.734
175104.000			41.073			-3.734
175204.000			41.073			-3.734
175305.000			41.072			-3.734
175404.000			41.072			-3.734
175504.000			41.071			-3.734
175604.000			41.069			-3.734
175704.000			41.068			-3.733
175804.000			41.068			-3.733
175904.000			41.067			-3.733
176004.000			41.066			-3.733
176105.000			41.065			-3.733
176204.000			41.064			-3.733
176304.000			41.064			-3.733
176405.000			41.063			-3.733
176504.000			41.061			-3.733
176604.000			41.061			-3.733
176704.000			41.061			-3.733
176804.000			41.060			-3.733
176904.000			41.059			-3.733
177005.000			41.058			-3.733
177104.000			41.057			-3.732
177204.000			41.057			-3.732
177305.000			41.057			-3.732
177404.000			41.056			-3.732
177504.000			41.054			-3.732
177604.000			41.053			-3.732
177704.000			41.053			-3.732
177804.000			41.053			-3.732
177905.000			41.052			-3.732
178004.000			41.050			-3.732
178104.000			41.051			-3.732
178205.000			41.050			-3.732
178303.000			41.048			-3.732
178404.000			41.047			-3.732
178504.000			41.047			-3.732
178604.000			41.047			-3.732
178704.000			41.047			-3.732
178804.000			41.045			-3.731
178904.000			41.044			-3.731
179005.000			41.044			-3.731
179104.000			41.043			-3.731
179204.000			41.042			-3.731
179305.000			41.042			-3.731
179403.000			41.042			-3.731
179504.000			41.041			-3.731
179605.000			41.040			-3.731
179704.000			41.039			-3.731
179804.000			41.038			-3.731
179905.000			41.037			-3.731
180004.000			41.037			-3.731
180103.000			41.036			-3.731
180205.000			41.035			-3.730
180303.000			41.035			-3.730
180404.000			41.034			-3.730
180505.000			41.033			-3.730
180604.000			41.032			-3.730
180704.000			41.032			-3.730
180805.000			41.031			-3.730
180904.000			41.030			-3.730
181003.000			41.030			-3.730
181105.000			41.030			-3.730
181204.000			41.029			-3.730
181304.000			41.028			-3.730
181405.000			41.028			-3.730
181504.000			41.027			-3.730
181604.000			41.025			-3.730
181704.000			41.023			-3.729
181804.000			41.023			-3.729
181903.000			41.022			-3.729
182005.000			41.021			-3.729
182104.000			41.021			-3.729
182205.000			41.021			-3.729
182304.000			41.020			-3.729
182404.000			41.020			-3.729
182505.000			41.019			-3.729
182603.000			41.018			-3.729
182704.000			41.018			-3.729
182805.000			41.016			-3.729
182904.000			41.016			-3.729
183004.000			41.015			-3.729
183105.000			41.015			-3.729
183204.000			41.014			-3.729
183303.000			41.013			-3.728
183405.000			41.013			-3.728
183504.000			41.012			-3.728
183604.000			41.011			-3.728
183705.000			41.011			-3.728
183804.000			41.009			-3.728
183904.000			41.008			-3.728
184005.000			41.009			-3.728
184104.000			41.008			-3.728
184203.000			41.007			-3.728
184305.000			41.006			-3.728
184404.000			41.004			-3.728
184504.000			41.005			-3.728
184605.000			41.006			-3.728
184704.000			41.005			-3.728
184804.000			41.002			-3.727
184905.000			41.001			-3.727
185004.000			41.000			-3.727
185103.000			41.000			-3.727
185205.000			41.000			-3.727
185304.000			40.999			-3.727
185405.000			40.998			-3.727
185504.000			40.998			-3.727
185604.000			40.997			-3.727
185705.000			40.996			-3.727
185804.000			40.996			-3.727
185904.000			40.995			-3.727
186004.000			40.994			-3.727
186104.000			40.993			-3.727
186203.000			40.991			-3.726
186305.000			40.991			-3.726
186404.000			40.991			-3.726
186504.000			40.990			-3.726
186605.000			40.989			-3.726
186704.000			40.990			-3.726
186804.000			40.989			-3.726
186905.000			40.987			-3.726
187004.000			40.987			-3.726
187103.000			40.988			-3.726
187205.000			40.986			-3.726
187304.000			40.985			-3.726
187404.000			40.984			-3.726
187505.000			40.984			-3.726
187604.000			40.984			-3.726
187704.000			40.981			-3.726
187805.000			40.981			-3.726
187904.000			40.981			-3.726
188003.000			40.980			-3.725
188105.000			40.979			-3.725
188203.000			40.978			-3.725
188304.000			40.978			-3.725
188405.000			40.976			-3.725
188504.000			40.976			-3.725
188605.000			40.975			-3.725
188704.000			40.975			-3.725
188804.000			40.974			-3.725
188905.000			40.974			-3.725
189004.000			40.974			-3.725
189103.000			40.973			-3.725
189205.000			40.971			-3.725
189304.000			40.971			-3.725
189404.000			40.971			-3.725
189505.000			40.970			-3.725
189604.000			40.970			-3.725
189704.000			40.969			-3.724
189805.000			40.968			-3.724
189904.000			40.967			-3.724
190003.000			40.966			-3.724
190105.000			40.966			-3.724
190204.000			40.965			-3.724
190304.000			40.965			-3.724
190405.000			40.965			-3.724
190504.000			40.963			-3.724
190604.000			40.962			-3.724
190705.000			40.961			-3.724
190804.000			40.961			-3.724
190903.000			40.961			-3.724
191005.000			40.960			-3.724
191104.000			40.960			-3.724
191204.000			40.959			-3.724
191305.000			40.957			-3.723
191404.000			40.956			-3.723
191504.000			40.956			-3.723
191604.000			40.955			-3.723
191704.000			40.955			-3.723
191804.000			40.954			-3.723
191904.000			40.953			-3.723
192003.000			40.953			-3.723
192105.000			40.953			-3.723
192204.000			40.952			-3.723
192304.000			40.951			-3.723
192405.000			40.950			-3.723
192504.000			40.950			-3.723
192604.000			40.949			-3.723
192704.000			40.949			-3.723
192804.000			40.948			-3.723
192903.000			40.947			-3.722
193005.000			40.946			-3.722
193104.000			40.946			-3.722
193204.000			40.946			-3.722
193305.000			40.945			-3.722
193404.000			40.944			-3.722
193504.000			40.942			-3.722
193604.000			40.941			-3.722
193704.000			40.942			-3.722
193803.000			40.941			-3.722
193905.000			40.940			-3.722
194004.000			40.941			-3.722
194104.000			40.940			-3.722
194205.000			40.937			-3.722
194304.000			40.938			-3.722
194404.000			40.936			-3.721
194504.000			40.935			-3.721
194604.000			40.935			-3.721
194703.000			40.935			-3.721
194805.000			40.935			-3.721
194904.000			40.932			-3.721
195005.000			40.932			-3.721
195104.000			40.932			-3.721
195204.000			40.931			-3.721
195305.000			40.931			-3.721
195404.000			40.931			-3.721
195504.000			40.930			-3.721
195604.000			40.929			-3.721
195704.000			40.928			-3.721
195804.000			40.928			-3.721
195905.000			40.927			-3.721
196004.000			40.925			-3.720
196104.000			40.926			-3.721
196205.000			40.924			-3.720
196304.000			40.924			-3.720
196404.000			40.923			-3.720
196504.000			40.922			-3.720
196604.000			40.922			-3.720
196704.000			40.922			-3.720
196805.000			40.921			-3.720
196904.000			40.919			-3.720
197004.000			40.920			-3.720
197105.000			40.919			-3.720
197204.000			40.919			-3.720
197304.000			40.918			-3.720
197404.000			40.917			-3.720
197504.000			40.917			-3.720
197604.000			40.916			-3.720
197705.000			40.915			-3.720
197804.000			40.914			-3.719
197904.000			40.913			-3.719
198005.000			40.913			-3.719
198104.000			40.912			-3.719
198205.000			40.912			-3.719
198304.000			40.911			-3.719
198404.000			40.912			-3.719
198504.000			40.911			-3.719
198604.000			40.910			-3.719
198704.000			40.908			-3.719
198805.000			40.907			-3.719
198904.000			40.906			-3.719
199004.000			40.906			-3.719
199105.000			40.906			-3.719
199204.000			40.906			-3.719
199304.000			40.904			-3.719
199404.000			40.905			-3.719
199504.000			40.904			-3.719
199604.000			40.902			-3.718
199705.000			40.901			-3.718
199804.000			40.901			-3.718
199904.000			40.902			-3.718
200005.000			40.899			-3.718
200104.000			40.899			-3.718
200204.000			40.898			-3.718
200304.000			40.898			-3.718
200404.000			40.898			-3.718
200503.000			40.897			-3.718
200605.000			40.896			-3.718
200704.000			40.896			-3.718
200804.000			40.897			-3.718
200905.000			40.895			-3.718
201004.000			40.893			-3.718
201104.000			40.894			-3.718
201203.000			40.894			-3.718
201304.000			40.892			-3.717
201405.000			40.892			-3.717
201504.000			40.890			-3.717
201604.000			40.890			-3.717
201705.000			40.889			-3.717
201804.000			40.889			-3.717
201904.000			40.888			-3.717
202005.000			40.887			-3.717
202103.000			40.887			-3.717
202204.000			40.885			-3.717
202305.000			40.884			-3.717
202404.000			40.884			-3.717
202504.000			40.883			-3.717
202605.000			40.883			-3.717
202704.000			40.883			-3.717
202804.000			40.882			-3.717
202905.000			40.880			-3.716
203003.000			40.881			-3.716
203104.000			40.880			-3.716
203205.000			40.881			-3.716
203304.000			40.880			-3.716
203404.000			40.879			-3.716
203505.000			40.878			-3.716
203604.000			40.878			-3.716
203704.000			40.877			-3.716
203805.000			40.875			-3.716
203903.000			40.874			-3.716
204004.000			40.874			-3.716
204105.000			40.873			-3.716
204204.000			40.873			-3.716
204304.000			40.872			-3.716
204404.000			40.872			-3.716
204504.000			40.872			-3.716
204605.000			40.871			-3.716
204704.000			40.871			-3.716
204803.000			40.870			-3.715
204905.000			40.870			-3.715
205004.000			40.869			-3.715
205104.000			40.866			-3.715
205205.000			40.865			-3.715
205304.000			40.865			-3.715
205404.000			40.866			-3.715
205505.000			40.864			-3.715
205604.000			40.864			-3.715
205703.000			40.863			-3.715
205805.000			40.862			-3.715
205904.000			40.862			-3.715
206004.000			40.861			-3.715
206105.000			40.861			-3.715
206204.000			40.860			-3.715
206304.000			40.860			-3.715
206404.000			40.861			-3.715
206504.000			40.860			-3.715
206603.000			40.858			-3.714
206705.000			40.857			-3.714
206804.000			40.857			-3.714
206904.000			40.857			-3.714
207005.000			40.856			-3.714
207104.000			40.855			-3.714
207204.000			40.854			-3.714
207304.000			40.854			-3.714
207404.000			40.853			-3.714
207503.000			40.852			-3.714
207605.000			40.853			-3.714
207704.000			40.853			-3.714
207805.000			40.851			-3.714
207904.000			40.850			-3.714
208004.000			40.848			-3.713
208105.000			40.847			-3.713
208203.000			40.847			-3.713
208304.000			40.848			-3.713
208405.000			40.848			-3.713
208504.000			40.847			-3.713
208604.000			40.846			-3.713
208705.000			40.845			-3.713
208804.000			40.844			-3.713
208904.000			40.843			-3.713
209005.000			40.843			-3.713
209103.000			40.842			-3.713
209204.000			40.841			-3.713
209305.000			40.840			-3.713
209404.000			40.840			-3.713
209504.000			40.840			-3.713
209605.000			40.840			-3.713
209704.000			40.838			-3.713
209804.000			40.837			-3.712
209905.000			40.837			-3.712
210003.000			40.837			-3.712
210104.000			40.837			-3.712
210205.000			40.835			-3.712
210304.000			40.834			-3.712
210404.000			40.834			-3.712
210505.000			40.833			-3.712
210604.000			40.832			-3.712
210703.000			40.832			-3.712
210805.000			40.831			-3.712
210903.000			40.831			-3.712
211005.000			40.831			-3.712
211104.000			40.830			-3.712
211204.000			40.829			-3.712
211305.000			40.829			-3.712
211404.000			40.828			-3.712
211504.000			40.828			-3.712
211604.000			40.828			-3.712
211704.000			40.826			-3.711
211804.000			40.826			-3.711
211905.000			40.825			-3.711
212004.000			40.824			-3.711
212104.000			40.823			-3.711
212205.000			40.824			-3.711
212304.000			40.824			-3.711
212404.000			40.823			-3.711
212504.000			40.823			-3.711
212604.000			40.822			-3.711
212704.000			40.821			-3.711
212805.000			40.820			-3.711
212904.000			40.819			-3.711
213004.000			40.819			-3.711
213105.000			40.817			-3.711
213203.000			40.817			-3.711
213304.000			40.817			-3.711
213404.000			40.817			-3.711
213504.000			40.815			-3.710
213604.000			40.815			-3.710
213705.000			40.815			-3.710
213804.000			40.814			-3.710
213904.000			40.812			-3.710
214005.000			40.812			-3.710
214103.000			40.812			-3.710
214205.000			40.812			-3.710
214304.000			40.811			-3.710
214404.000			40.810			-3.710
214505.000			40.808			-3.710
214604.000			40.808			-3.710
214704.000			40.807			-3.710
214804.000			40.807			-3.710
214904.000			40.807			-3.710
215003.000			40.806			-3.710
215105.000			40.805			-3.710
215204.000			40.805			-3.710
215304.000			40.805			-3.710
215405.000			40.802			-3.709
215504.000			40.801			-3.709
215604.000			40.803			-3.709
215704.000			40.802			-3.709
215804.000			40.802			-3.709
215904.000			40.801			-3.709
216005.000			40.799			-3.709
216104.000			40.799			-3.709
216204.000			40.800			-3.709
216305.000			40.799			-3.709
216404.000			40.798			-3.709
216504.000			40.797			-3.709
216604.000			40.797			-3.709
216704.000			40.796			-3.709
216804.000			40.796			-3.709
216905.000			40.795			-3.709
217004.000			40.795			-3.709
217104.000			40.794			-3.709
217205.000			40.793			-3.708
217304.000			40.792			-3.708
217405.000			40.791			-3.708
217503.000			40.790			-3.708
217604.000			40.790			-3.708
217704.000			40.791			-3.708
217804.000			40.791			-3.708
217904.000			40.789			-3.708
218005.000			40.788			-3.708
218104.000			40.788			-3.708
218204.000			40.787			-3.708
218305.000			40.786			-3.708
218403.000			40.786			-3.708
218504.000			40.785			-3.708
218605.000			40.785			-3.708
218704.000			40.784			-3.708
218804.000			40.784			-3.708
218905.000			40.783			-3.708
219004.000			40.782			-3.707
219104.000			40.781			-3.707
219205.000			40.780			-3.707
219303.000			40.780			-3.707
219404.000			40.780			-3.707
219504.000			40.779			-3.707
219604.000			40.778			-3.707
219704.000			40.778			-3.707
219805.000			40.776			-3.707
219904.000			40.776			-3.707
220004.000			40.777			-3.707
220105.000			40.776			-3.707
220203.000			40.775			-3.707
220304.000			40.775			-3.707
220405.000			40.773			-3.707
220504.000			40.773			-3.707
220605.000			40.772			-3.707
220704.000			40.771			-3.706
220804.000			40.771			-3.706
220905.000			40.771			-3.706
221004.000			40.771			-3.706
221103.000			40.769			-3.706
221205.000			40.769			-3.706
221304.000			40.768			-3.706
221404.000			40.768			-3.706
221505.000			40.767			-3.706
221604.000			40.767			-3.706
221704.000			40.766			-3.706
221805.000			40.766			-3.706
221904.000			40.765			-3.706
222003.000			40.764			-3.706
222105.000			40.763			-3.706
222204.000			40.763			-3.706
222304.000			40.763			-3.706
222405.000			40.763			-3.706
222504.000			40.761			-3.706
222604.000			40.760			-3.705
222704.000			40.760			-3.705
222804.000			40.759			-3.705
222903.000			40.758			-3.705
223005.000			40.758			-3.705
223104.000			40.757			-3.705
223204.000			40.757			-3.705
223305.000			40.757			-3.705
223404.000			40.756			-3.705
223504.000			40.755			-3.705
223603.000			40.755			-3.705
223704.000			40.754			-3.705
223805.000			40.753			-3.705
223904.000			40.754			-3.705
224004.000			40.753			-3.705
224105.000			40.753			-3.705
224204.000			40.753			-3.705
224304.000			40.751			-3.705
224405.000			40.751			-3.705
224503.000			40.750			-3.705
224604.000			40.749			-3.704
224705.000			40.748			-3.704
224804.000			40.748			-3.704
224904.000			40.747			-3.704
225005.000			40.747			-3.704
225104.000			40.747			-3.704
225204.000			40.746			-3.704
225305.000			40.746			-3.704
225403.000			40.744			-3.704
225504.000			40.744			-3.704
225605.000			40.744			-3.704
225704.000			40.743			-3.704
225804.000			40.743			-3.704
225905.000			40.742			-3.704
226004.000			40.740			-3.704
226103.000			40.740			-3.704
226205.000			40.740			-3.704
226303.000			40.739			-3.704
226404.000			40.738			-3.703
226505.000			40.738			-3.703
226604.000			40.738			-3.703
226704.000			40.738			-3.703
226804.000			40.736			-3.703
226904.000			40.736			-3.703
227004.000			40.735			-3.703
227104.000			40.735			-3.703
227203.000			40.734			-3.703
227305.000			40.734			-3.703
227404.000			40.734			-3.703
227504.000			40.733			-3.703
227605.000			40.732			-3.703
227704.000			40.731			-3.703
227804.000			40.731			-3.703
227904.000			40.730			-3.703
228004.000			40.729			-3.703
228103.000			40.729			-3.703
228205.000			40.728			-3.703
228304.000			40.729			-3.703
228404.000			40.729			-3.703
228505.000			40.728			-3.703
228604.000			40.726			-3.702
228704.000			40.726			-3.702
228804.000			40.726			-3.702
228904.000			40.724			-3.702
229003.000			40.724			-3.702
229105.000			40.722			-3.702
229204.000			40.722			-3.702
229304.000			40.722			-3.702
229405.000			40.722			-3.702
229504.000			40.722			-3.702
229604.000			40.721			-3.702
229704.000			40.720			-3.702
229804.000			40.720			-3.702
229904.000			40.719			-3.702
230004.000			40.718			-3.702
230104.000			40.718			-3.702
230205.000			40.718			-3.702
230304.000			40.716			-3.701
230404.000			40.716			-3.701
230505.000			40.715			-3.701
230603.000			40.714			-3.701
230704.000			40.714			-3.701
230805.000			40.714			-3.701
230904.000			40.712			-3.701
231004.000			40.712			-3.701
231105.000			40.713			-3.701
231204.000			40.713			-3.701
231303.000			40.711			-3.701
231405.000			40.709			-3.701
231504.000			40.708			-3.701
231604.000			40.709			-3.701
231705.000			40.709			-3.701
231804.000			40.708			-3.701
231904.000			40.707			-3.701
232005.000			40.706			-3.701
232104.000			40.706			-3.701
232203.000			40.706			-3.701
232305.000			40.705			-3.700
232404.000			40.705			-3.700
232504.000			40.705			-3.700
232605.000			40.704			-3.700
232704.000			40.704			-3.700
232804.000			40.702			-3.700
232904.000			40.701			-3.700
233004.000			40.701			-3.700
233103.000			40.701			-3.700
233205.000			40.700			-3.700
233304.000			40.700			-3.700
233405.000			40.699			-3.700
233504.000			40.699			-3.700
233604.000			40.698			-3.700
233705.000			40.698			-3.700
233803.000			40.697			-3.700
233904.000			40.696			-3.700
234004.000			40.695			-3.700
234104.000			40.694			-3.699
234204.000			40.694			-3.699
234305.000			40.694			-3.699
234404.000			40.693			-3.699
234504.000			40.692			-3.699
234605.000			40.692			-3.699
234703.000			40.691			-3.699
234804.000			40.691			-3.699
234905.000			40.690			-3.699
235004.000			40.690			-3.699
235104.000			40.690			-3.699
235205.000			40.689			-3.699
235304.000			40.689			-3.699
235404.000			40.689			-3.699
235505.000			40.687			-3.699
235603.000			40.687			-3.699
235704.000			40.687			-3.699
235805.000			40.687			-3.699
235904.000			40.686			-3.699
236004.000			40.685			-3.699
236105.000			40.684			-3.699
236204.000			40.683			-3.698
236304.000			40.683			-3.698
236405.000			40.683			-3.698
236503.000			40.682			-3.698
236605.000			40.681			-3.698
236704.000			40.680			-3.698
236804.000			40.680			-3.698
236905.000			40.679			-3.698
237004.000			40.679			-3.698
237104.000			40.679			-3.698
237205.000			40.679			-3.698
237304.000			40.679			-3.698
237403.000			40.678			-3.698
237505.000			40.677			-3.698
237604.000			40.676			-3.698
237704.000			40.675			-3.698
237805.000			40.674			-3.698
237904.000			40.674			-3.698
238004.000			40.674			-3.698
238105.000			40.673			-3.698
238204.000			40.673			-3.698
238303.000			40.672			-3.697
238405.000			40.672			-3.697
238504.000			40.671			-3.697
238604.000			40.670			-3.697
238705.000			40.669			-3.697
238804.000			40.668			-3.697
238904.000			40.669			-3.697
239005.000			40.669			-3.697
239104.000			40.669			-3.697
239203.000			40.665			-3.697
239305.000			40.665			-3.697
239404.000			40.667			-3.697
239504.000			40.666			-3.697
239605.000			40.665			-3.697
239704.000			40.664			-3.697
239805.000			40.664			-3.697
239904.000			40.664			-3.697
240004.000			40.662			-3.697
240104.000			40.662			-3.697
240204.000			40.662			-3.697
240304.000			40.662			-3.697
240405.000			40.661			-3.696
240504.000			40.661			-3.696
240604.000			40.660			-3.696
240705.000			40.659			-3.696
240804.000			40.656			-3.696
240904.000			40.655			-3.696
241004.000			40.656			-3.696
241104.000			40.657			-3.696
241204.000			40.656			-3.696
241305.000			40.655			-3.696
241404.000			40.656			-3.696
241504.000			40.655			-3.696
241605.000			40.654			-3.696
241704.000			40.653			-3.696
241804.000			40.654			-3.696
241904.000			40.652			-3.696
242004.000			40.651			-3.696
242104.000			40.651			-3.696
242205.000			40.650			-3.695
242304.000			40.649			-3.695
242404.000			40.649			-3.695
242505.000			40.649			-3.695
242603.000			40.649			-3.695
242704.000			40.648			-3.695
242803.000			40.647			-3.695
242904.000			40.647			-3.695
243005.000			40.647			-3.695
243104.000			40.645			-3.695
243204.000			40.646			-3.695
243305.000			40.646			-3.695
243404.000			40.644			-3.695
243503.000			40.643			-3.695
243605.000			40.643			-3.695
243703.000			40.642			-3.695
243804.000			40.642			-3.695
243905.000			40.641			-3.695
244004.000			40.640			-3.695
244104.000			40.641			-3.695
244205.000			40.641			-3.695
244304.000			40.639			-3.694
244403.000			40.638			-3.694
244505.000			40.639			-3.694
244604.000			40.638			-3.694
244704.000			40.638			-3.694
244805.000			40.637			-3.694
244904.000			40.636			-3.694
245004.000			40.636			-3.694
245105.000			40.635			-3.694
245204.000			40.634			-3.694
245303.000			40.634			-3.694
245405.000			40.633			-3.694
245504.000			40.632			-3.694
245604.000			40.632			-3.694
245705.000			40.632			-3.694
245804.000			40.632			-3.694
245904.000			40.631			-3.694
246004.000			40.630			-3.694
246104.000			40.630			-3.694
246204.000			40.629			-3.694
246304.000			40.627			-3.693
246404.000			40.627			-3.693
246505.000			40.628			-3.693
246604.000			40.628			-3.693
246704.000			40.627			-3.693
246805.000			40.626			-3.693
246904.000			40.625			-3.693
247004.000			40.625			-3.693
247104.000			40.625			-3.693
247204.000			40.624			-3.693
247304.000			40.624			-3.693
247405.000			40.622			-3.693
247504.000			40.623			-3.693
247604.000			40.622			-3.693
247705.000			40.620			-3.693
247803.000			40.620			-3.693
247904.000			40.619			-3.693
248005.000			40.618			-3.693
248104.000			40.618			-3.693
248204.000			40.619			-3.693
248305.000			40.619			-3.693
248404.000			40.618			-3.693
248504.000			40.617			-3.692
248605.000			40.616			-3.692
248703.000			40.615			-3.692
248804.000			40.615			-3.692
248905.000			40.614			-3.692
249004.000			40.613			-3.692
249104.000			40.614			-3.692
249204.000			40.613			-3.692
249304.000			40.613			-3.692
249405.000			40.612			-3.692
249504.000			40.611			-3.692
249603.000			40.610			-3.692
249705.000			40.610			-3.692
249804.000			40.610			-3.692
249904.000			40.610			-3.692
250005.000			40.609			-3.692
250104.000			40.608			-3.692
250204.000			40.607			-3.692
250305.000			40.607			-3.692
250404.000			40.607			-3.692
250503.000			40.606			-3.691
250605.000			40.607			-3.692
250704.000			40.606			-3.691
250804.000			40.604			-3.691
250905.000			40.604			-3.691
251004.000			40.604			-3.691
251104.000			40.604			-3.691
251204.000			40.603			-3.691
251304.000			40.602			-3.691
251404.000			40.602			-3.691
251505.000			40.602			-3.691
251604.000			40.600			-3.691
251704.000			40.601			-3.691
251805.000			40.601			-3.691
251904.000			40.599			-3.691
252004.000			40.599			-3.691
252104.000			40.599			-3.691
252204.000			40.598			-3.691
252304.000			40.597			-3.691
252404.000			40.596			-3.691
252504.000			40.596			-3.691
252605.000			40.595			-3.690
252704.000			40.594			-3.690
252804.000			40.595			-3.690
252905.000			40.595			-3.690
253003.000			40.595			-3.690
253104.000			40.593			-3.690
253205.000			40.593			-3.690
253304.000			40.593			-3.690
253404.000			40.592			-3.690
253505.000			40.591			-3.690
253604.000			40.591			-3.690
253704.000			40.590			-3.690
253805.000			40.590			-3.690
253903.000			40.589			-3.690
254004.000			40.590			-3.690
254105.000			40.589			-3.690
254204.000			40.588			-3.690
254304.000			40.587			-3.690
254405.000			40.588			-3.690
254504.000			40.586			-3.690
254604.000			40.585			-3.690
254705.000			40.585			-3.690
254803.000			40.585			-3.690
254904.000			40.585			-3.690
255005.000			40.584			-3.689
255104.000			40.583			-3.689
255204.000			40.582			-3.689
255305.000			40.582			-3.689
255404.000			40.582			-3.689
255504.000			40.581			-3.689
255605.000			40.581			-3.689
255703.000			40.580			-3.689
255805.000			40.579			-3.689
255904.000			40.579			-3.689
256004.000			40.578			-3.689
256105.000			40.577			-3.689
256204.000			40.577			-3.689
256304.000			40.577			-3.689
256405.000			40.577			-3.689
256504.000			40.576			-3.689
256603.000			40.575			-3.689
256705.000			40.575			-3.689
256804.000			40.574			-3.689
256904.000			40.573			-3.688
257005.000			40.572			-3.688
257104.000			40.572			-3.688
257204.000			40.572			-3.688
257305.000			40.571			-3.688
257404.000			40.571			-3.688
257503.000			40.571			-3.688
257605.000			40.570			-3.688
257704.000			40.570			-3.688
257804.000			40.570			-3.688
257905.000			40.569			-3.688
258004.000			40.569			-3.688
258104.000			40.568			-3.688
258205.000			40.567			-3.688
258304.000			40.567			-3.688
258403.000			40.567			-3.688
258505.000			40.565			-3.688
258604.000			40.564			-3.688
258704.000			40.564			-3.688
258805.000			40.564			-3.688
258904.000			40.564			-3.688
259005.000			40.563			-3.688
259104.000			40.562			-3.687
259204.000			40.561			-3.687
259304.000			40.561			-3.687
259404.000			40.561			-3.687
259503.000			40.561			-3.687
259605.000			40.561			-3.687
259704.000			40.560			-3.687
259804.000			40.559			-3.687
259905.000			40.558			-3.687
260004.000			40.559			-3.687
260104.000			40.558			-3.687
260204.000			40.557			-3.687
260304.000			40.557			-3.687
260403.000			40.556			-3.687
260505.000			40.555			-3.687
260604.000			40.554			-3.687
260704.000			40.556			-3.687
260805.000			40.555			-3.687
260904.000			40.555			-3.687
261004.000			40.553			-3.687
261104.000			40.552			-3.687
261204.000			40.551			-3.686
261304.000			40.552			-3.687
261405.000			40.550			-3.686
261504.000			40.549			-3.686
261604.000			40.549			-3.686
261705.000			40.550			-3.686
261804.000			40.549			-3.686
261904.000			40.549			-3.686
262003.000			40.549			-3.686
262104.000			40.548			-3.686
262205.000			40.548			-3.686
262304.000			40.546			-3.686
262404.000			40.547			-3.686
262505.000			40.546			-3.686
262604.000			40.546			-3.686
262704.000			40.544			-3.686
262805.000			40.543			-3.686
262903.000			40.544			-3.686
263004.000			40.544			-3.686
263105.000			40.543			-3.686
263204.000			40.542			-3.686
263304.000			40.541			-3.686
263405.000			40.541			-3.686
263504.000			40.540			-3.685
263603.000			40.541			-3.686
263705.000			40.541			-3.686
263803.000			40.540			-3.685
263904.000			40.537			-3.685
264005.000			40.537			-3.685
264104.000			40.537			-3.685
264204.000			40.536			-3.685
264305.000			40.536			-3.685
264404.000			40.537			-3.685
264503.000			40.535			-3.685
264605.000			40.535			-3.685
264704.000			40.534			-3.685
264804.000			40.533			-3.685
264905.000			40.533			-3.685
265004.000			40.533			-3.685
265104.000			40.532			-3.685
265204.000			40.531			-3.685
265304.000			40.531			-3.685
265404.000			40.531			-3.685
265504.000			40.530			-3.685
265604.000			40.530			-3.685
265705.000			40.531			-3.685
265804.000			40.530			-3.685
265904.000			40.529			-3.684
266005.000			40.528			-3.684
266104.000			40.527			-3.684
266204.000			40.526			-3.684
266304.000			40.526			-3.684
266404.000			40.526			-3.684
266504.000			40.526			-3.684
266605.000			40.526			-3.684
266704.000			40.525			-3.684
266804.000			40.524			-3.684
266905.000			40.523			-3.684
267004.000			40.523			-3.684
267104.000			40.523			-3.684
267204.000			40.522			-3.684
267304.000			40.522			-3.684
267404.000			40.522			-3.684
267505.000			40.521			-3.684
267604.000			40.520			-3.684
267704.000			40.519			-3.684
267805.000			40.520			-3.684
267903.000			40.519			-3.684
268004.000			40.518			-3.683
268104.000			40.518			-3.683
268204.000			40.517			-3.683
268304.000			40.516			-3.683
268404.000			40.515			-3.683
268504.000			40.515			-3.683
268605.000			40.514			-3.683
268704.000			40.514			-3.683
268803.000			40.515			-3.683
268905.000			40.513			-3.683
269003.000			40.513			-3.683
269104.000			40.512			-3.683
269205.000			40.512			-3.683
269304.000			40.512			-3.683
269404.000			40.512			-3.683
269505.000			40.512			-3.683
269604.000			40.510			-3.683
269703.000			40.510			-3.683
269805.000			40.510			-3.683
269904.000			40.509			-3.683
270004.000			40.509			-3.683
270105.000			40.508			-3.683
270204.000			40.507			-3.682
270304.000			40.506			-3.682
270405.000			40.506			-3.682
270504.000			40.506			-3.682
270603.000			40.505			-3.682
270705.000			40.506			-3.682
270804.000			40.505			-3.682
270904.000			40.504			-3.682
271005.000			40.504			-3.682
271104.000			40.503			-3.682
271204.000			40.501			-3.682
271304.000			40.501			-3.682
271404.000			40.502			-3.682
271504.000			40.501			-3.682
271604.000			40.501			-3.682
271704.000			40.501			-3.682
271805.000			40.498			-3.682
271904.000			40.498			-3.682
272004.000			40.498			-3.682
272105.000			40.498			-3.682
272204.000			40.498			-3.682
272304.000			40.497			-3.682
272404.000			40.497			-3.682
272504.000			40.497			-3.682
272604.000			40.496			-3.681
272705.000			40.496			-3.681
272804.000			40.495			-3.681
272904.000			40.494			-3.681
273005.000			40.494			-3.681
273103.000			40.494			-3.681
273204.000			40.494			-3.681
273304.000			40.493			-3.681
273404.000			40.492			-3.681
273504.000			40.492			-3.681
273605.000			40.492			-3.681
273704.000			40.491			-3.681
273804.000			40.490			-3.681
273905.000			40.490			-3.681
274004.000			40.489			-3.681
274104.000			40.489			-3.681
274204.000			40.489			-3.681
274304.000			40.489			-3.681
274404.000			40.487			-3.681
274505.000			40.486			-3.681
274604.000			40.486			-3.681
274704.000			40.485			-3.680
274805.000			40.485			-3.680
274904.000			40.485			-3.680
275005.000			40.485			-3.680
275103.000			40.484			-3.680
275204.000			40.483			-3.680
275305.000			40.482			-3.680
275404.000			40.481			-3.680
275504.000			40.481			-3.680
275605.000			40.481			-3.680
275704.000			40.481			-3.680
275803.000			40.480			-3.680
275905.000			40.480			-3.680
276003.000			40.480			-3.680
276104.000			40.480			-3.680
276205.000			40.478			-3.680
276304.000			40.479			-3.680
276404.000			40.477			-3.680
276505.000			40.477			-3.680
276604.000			40.477			-3.680
276704.000			40.475			-3.680
276805.000			40.475			-3.680
276903.000			40.475			-3.680
277004.000			40.474			-3.679
277105.000			40.474			-3.679
277204.000			40.474			-3.679
277304.000			40.473			-3.679
277405.000			40.473			-3.679
277504.000			40.473			-3.679
277604.000			40.472			-3.679
277705.000			40.473			-3.679
277803.000			40.471			-3.679
277904.000			40.470			-3.679
278005.000			40.469			-3.679
278104.000			40.469			-3.679
278205.000			40.470			-3.679
278304.000			40.468			-3.679
278404.000			40.469			-3.679
278505.000			40.468			-3.679
278604.000			40.468			-3.679
278703.000			40.467			-3.679
278805.000			40.466			-3.679
278903.000			40.466			-3.679
279004.000			40.465			-3.679
279105.000			40.465			-3.679
279204.000			40.465			-3.679
279304.000			40.464			-3.679
279405.000			40.464			-3.679
279504.000			40.463			-3.678
279603.000			40.462			-3.678
279705.000			40.462			-3.678
279803.000			40.462			-3.678
279904.000			40.461			-3.678
280005.000			40.460			-3.678
280104.000			40.459			-3.678
280204.000			40.459			-3.678
280305.000			40.459			-3.678
280404.000			40.458			-3.678
280503.000			40.459			-3.678
280605.000			40.458			-3.678
280703.000			40.457			-3.678
280804.000			40.458			-3.678
280905.000			40.458			-3.678
281004.000			40.457			-3.678
281104.000			40.456			-3.678
281204.000			40.455			-3.678
281304.000			40.455			-3.678
281404.000			40.454			-3.678
281504.000			40.454			-3.678
281603.000			40.453			-3.678
281705.000			40.453			-3.678
281804.000			40.453			-3.678
281904.000			40.452			-3.677
282005.000			40.451			-3.677
282104.000			40.450			-3.677
282204.000			40.450			-3.677
282304.000			40.451			-3.677
282404.000			40.450			-3.677
282504.000			40.450			-3.677
282605.000			40.449			-3.677
282704.000			40.449			-3.677
282804.000			40.448			-3.677
282905.000			40.447			-3.677
283004.000			40.447			-3.677
283104.000			40.447			-3.677
283204.000			40.446			-3.677
283304.000			40.446			-3.677
283404.000			40.444			-3.677
283505.000			40.445			-3.677
283604.000			40.443			-3.677
283704.000			40.443			-3.677
283805.000			40.442			-3.677
283903.000			40.443			-3.677
284004.000			40.441			-3.676
284104.000			40.441			-3.676
284204.000			40.440			-3.676
284304.000			40.440			-3.676
284404.000			40.440			-3.676
284504.000			40.440			-3.676
284605.000			40.439			-3.676
284704.000			40.439			-3.676
284803.000			40.440			-3.676
284905.000			40.438			-3.676
285004.000			40.438			-3.676
285104.000			40.437			-3.676
285205.000			40.437			-3.676
285304.000			40.436			-3.676
285404.000			40.435			-3.676
285505.000			40.435			-3.676
285604.000			40.436			-3.676
285703.000			40.435			-3.676
285805.000			40.434			-3.676
285904.000			40.433			-3.676
286004.000			40.433			-3.676
286105.000			40.432			-3.676
286204.000			40.432			-3.676
286304.000			40.432			-3.676
286405.000			40.431			-3.676
286504.000			40.430			-3.675
286603.000			40.430			-3.675
286705.000			40.429			-3.675
286804.000			40.430			-3.675
286904.000			40.429			-3.675
287005.000			40.429			-3.675
287104.000			40.427			-3.675
287204.000			40.426			-3.675
287305.000			40.427			-3.675
287404.000			40.427			-3.675
287503.000			40.427			-3.675
287605.000			40.426			-3.675
287704.000			40.425			-3.675
287805.000			40.424			-3.675
287904.000			40.424			-3.675
288004.000			40.424			-3.675
288105.000			40.423			-3.675
288204.000			40.422			-3.675
288304.000			40.421			-3.675
288404.000			40.421			-3.675
288504.000			40.421			-3.675
288604.000			40.420			-3.675
288705.000			40.421			-3.675
288804.000			40.420			-3.675
288904.000			40.420			-3.675
289005.000			40.420			-3.675
289104.000			40.419			-3.674
289204.000			40.418			-3.674
289304.000			40.418			-3.674
289404.000			40.417			-3.674
289504.000			40.417			-3.674
289605.000			40.416			-3.674
289704.000			40.416			-3.674
289804.000			40.416			-3.674
289905.000			40.416			-3.674
290004.000			40.415			-3.674
290104.000			40.414			-3.674
290204.000			40.413			-3.674
290304.000			40.413			-3.674
290404.000			40.413			-3.674
290505.000			40.412			-3.674
290604.000			40.413			-3.674
290704.000			40.411			-3.674
290805.000			40.411			-3.674
290903.000			40.411			-3.674
291005.000			40.410			-3.674
291104.000			40.410			-3.674
291204.000			40.409			-3.674
291305.000			40.408			-3.673
291404.000			40.409			-3.674
291504.000			40.408			-3.673
291605.000			40.408			-3.673
291704.000			40.407			-3.673
291803.000			40.408			-3.673
291905.000			40.406			-3.673
292004.000			40.404			-3.673
292104.000			40.405			-3.673
292205.000			40.405			-3.673
292304.000			40.404			-3.673
292404.000			40.404			-3.673
292504.000			40.404			-3.673
292604.000			40.402			-3.673
292703.000			40.403			-3.673
292805.000			40.403			-3.673
292904.000			40.402			-3.673
293004.000			40.401			-3.673
293105.000			40.401			-3.673
293204.000			40.400			-3.673
293304.000			40.400			-3.673
293404.000			40.399			-3.673
293504.000			40.398			-3.673
293603.000			40.399			-3.673
293705.000			40.398			-3.673
293804.000			40.398			-3.673
293904.000			40.397			-3.672
294005.000			40.398			-3.673
294104.000			40.397			-3.672
294205.000			40.397			-3.672
294303.000			40.395			-3.672
294404.000			40.395			-3.672
294504.000			40.394			-3.672
294604.000			40.392			-3.672
294704.000			40.393			-3.672
294805.000			40.394			-3.672
294904.000			40.393			-3.672
295004.000			40.393			-3.672
295105.000			40.392			-3.672
295203.000			40.391			-3.672
295304.000			40.391			-3.672
295404.000			40.391			-3.672
295504.000			40.390			-3.672
295604.000			40.389			-3.672
295705.000			40.389			-3.672
295804.000			40.388			-3.672
295904.000			40.388			-3.672
296005.000			40.388			-3.672
296103.000			40.387			-3.672
296204.000			40.387			-3.672
296304.000			40.387			-3.672
296404.000			40.386			-3.671
296504.000			40.385			-3.671
296605.000			40.385			-3.671
296704.000			40.384			-3.671
296804.000			40.383			-3.671
296905.000			40.382			-3.671
297004.000			40.383			-3.671
297104.000			40.383			-3.671
297203.000			40.383			-3.671
297304.000			40.383			-3.671
297405.000			40.382			-3.671
297504.000			40.381			-3.671
297604.000			40.380			-3.671
297705.000			40.381			-3.671
297804.000			40.381			-3.671
297904.000			40.380			-3.671
298005.000			40.380			-3.671
298103.000			40.378			-3.671
298204.000			40.377			-3.671
298305.000			40.377			-3.671
298404.000			40.376			-3.671
298504.000			40.376			-3.671
298605.000			40.376			-3.671
298704.000			40.375			-3.670
298804.000			40.375			-3.670
298905.000			40.374			-3.670
299003.000			40.375			-3.670
299104.000			40.375			-3.670
299204.000			40.375			-3.670
299304.000			40.374			-3.670
299404.000			40.373			-3.670
299505.000			40.372			-3.670
299604.000			40.372			-3.670
299704.000			40.371			-3.670
299805.000			40.371			-3.670
299903.000			40.372			-3.670
