# Acquired on 20/12/2023 11:30:38 
# SPIDER: Creep_-3mm_07714532B-2
# CREEP MEASUREMENT

# time [ms]		force [N]		stiffness [N/mm]
0.000			7.046			-2.349
100.000			8.169			-2.723
201.000			8.896			-2.965
301.000			8.870			-2.957
400.000			8.833			-2.944
501.000			8.803			-2.934
600.000			8.779			-2.926
700.000			8.759			-2.920
801.000			8.741			-2.914
900.000			8.714			-2.905
1001.000			8.701			-2.900
1102.000			8.689			-2.896
1200.000			8.678			-2.893
1300.000			8.667			-2.889
1401.000			8.659			-2.886
1500.000			8.651			-2.884
1600.000			8.643			-2.881
1702.000			8.629			-2.876
1801.000			8.622			-2.874
1901.000			8.615			-2.872
2001.000			8.609			-2.870
2100.000			8.604			-2.868
2200.000			8.598			-2.866
2301.000			8.592			-2.864
2400.000			8.582			-2.861
2501.000			8.577			-2.859
2602.000			8.572			-2.857
2700.000			8.567			-2.856
2800.000			8.564			-2.855
2901.000			8.560			-2.853
3000.000			8.555			-2.852
3100.000			8.548			-2.849
3200.000			8.545			-2.848
3301.000			8.541			-2.847
3402.000			8.538			-2.846
3500.000			8.534			-2.845
3600.000			8.531			-2.844
3701.000			8.528			-2.843
3800.000			8.526			-2.842
3900.000			8.519			-2.840
4002.000			8.515			-2.838
4101.000			8.512			-2.837
4200.000			8.509			-2.836
4301.000			8.508			-2.836
4400.000			8.505			-2.835
4500.000			8.503			-2.834
4601.000			8.496			-2.832
4700.000			8.494			-2.831
4801.000			8.492			-2.831
4902.000			8.490			-2.830
5000.000			8.487			-2.829
5100.000			8.485			-2.828
5201.000			8.483			-2.828
5300.000			8.479			-2.826
5400.000			8.477			-2.826
5501.000			8.474			-2.825
5601.000			8.473			-2.824
5701.000			8.472			-2.824
5801.000			8.470			-2.823
5900.000			8.468			-2.823
6000.000			8.466			-2.822
6101.000			8.461			-2.820
6200.000			8.460			-2.820
6302.000			8.458			-2.819
6401.000			8.454			-2.818
6501.000			8.454			-2.818
6601.000			8.453			-2.818
6700.000			8.452			-2.817
6800.000			8.447			-2.816
6901.000			8.446			-2.815
7000.000			8.444			-2.815
7101.000			8.443			-2.814
7202.000			8.441			-2.814
7300.000			8.439			-2.813
7400.000			8.439			-2.813
7501.000			8.436			-2.812
7600.000			8.434			-2.811
7700.000			8.432			-2.811
7801.000			8.431			-2.810
7901.000			8.431			-2.810
8001.000			8.428			-2.809
8101.000			8.427			-2.809
8200.000			8.425			-2.808
8300.000			8.421			-2.807
8401.000			8.421			-2.807
8500.000			8.420			-2.807
8601.000			8.418			-2.806
8702.000			8.417			-2.806
8800.000			8.416			-2.805
8900.000			8.415			-2.805
9001.000			8.414			-2.805
9100.000			8.413			-2.804
9200.000			8.410			-2.803
9301.000			8.408			-2.803
9401.000			8.408			-2.803
9502.000			8.409			-2.803
9600.000			8.407			-2.802
9700.000			8.405			-2.802
9801.000			8.402			-2.801
9900.000			8.402			-2.801
10000.000			8.401			-2.800
10101.000			8.400			-2.800
10201.000			8.399			-2.800
10301.000			8.398			-2.799
10401.000			8.396			-2.799
10500.000			8.395			-2.798
10600.000			8.394			-2.798
10701.000			8.392			-2.797
10800.000			8.391			-2.797
10900.000			8.390			-2.797
11002.000			8.388			-2.796
11101.000			8.387			-2.796
11200.000			8.386			-2.795
11301.000			8.385			-2.795
11400.000			8.384			-2.795
11500.000			8.383			-2.794
11601.000			8.383			-2.794
11700.000			8.381			-2.794
11801.000			8.380			-2.793
11902.000			8.379			-2.793
12000.000			8.377			-2.792
12100.000			8.377			-2.792
12201.000			8.375			-2.792
12300.000			8.374			-2.791
12400.000			8.373			-2.791
12501.000			8.373			-2.791
12601.000			8.373			-2.791
12702.000			8.371			-2.790
12800.000			8.370			-2.790
12900.000			8.369			-2.790
13001.000			8.369			-2.790
13100.000			8.367			-2.789
13200.000			8.367			-2.789
13301.000			8.367			-2.789
13401.000			8.364			-2.788
13501.000			8.363			-2.788
13601.000			8.364			-2.788
13700.000			8.362			-2.787
13800.000			8.360			-2.787
13901.000			8.360			-2.787
14000.000			8.360			-2.787
14100.000			8.359			-2.786
14202.000			8.358			-2.786
14301.000			8.356			-2.785
14400.000			8.356			-2.785
14501.000			8.355			-2.785
14600.000			8.354			-2.785
14700.000			8.354			-2.785
14801.000			8.353			-2.784
14900.000			8.352			-2.784
15001.000			8.352			-2.784
15102.000			8.352			-2.784
15200.000			8.350			-2.783
15300.000			8.349			-2.783
15401.000			8.348			-2.783
15500.000			8.347			-2.782
15600.000			8.346			-2.782
15701.000			8.345			-2.782
15801.000			8.344			-2.781
15902.000			8.344			-2.781
16000.000			8.343			-2.781
16100.000			8.342			-2.781
16201.000			8.341			-2.780
16300.000			8.340			-2.780
16400.000			8.339			-2.780
16501.000			8.339			-2.780
16601.000			8.338			-2.779
16701.000			8.338			-2.779
16801.000			8.338			-2.779
16900.000			8.337			-2.779
17000.000			8.337			-2.779
17101.000			8.335			-2.778
17200.000			8.334			-2.778
17300.000			8.334			-2.778
17402.000			8.333			-2.778
17501.000			8.333			-2.778
17600.000			8.332			-2.777
17701.000			8.331			-2.777
17800.000			8.330			-2.777
17900.000			8.330			-2.777
18001.000			8.330			-2.777
18100.000			8.329			-2.776
18201.000			8.328			-2.776
18302.000			8.327			-2.776
18400.000			8.326			-2.775
18500.000			8.326			-2.775
18601.000			8.325			-2.775
18700.000			8.324			-2.775
18800.000			8.323			-2.774
18901.000			8.323			-2.774
19001.000			8.323			-2.774
19102.000			8.322			-2.774
19200.000			8.321			-2.774
19300.000			8.321			-2.774
19401.000			8.320			-2.773
19500.000			8.320			-2.773
19600.000			8.319			-2.773
19701.000			8.318			-2.773
19801.000			8.318			-2.773
19901.000			8.317			-2.772
20001.000			8.316			-2.772
20100.000			8.314			-2.771
20200.000			8.314			-2.771
20301.000			8.314			-2.771
20400.000			8.313			-2.771
20500.000			8.313			-2.771
20602.000			8.313			-2.771
20701.000			8.312			-2.771
20800.000			8.311			-2.770
20901.000			8.311			-2.770
21000.000			8.310			-2.770
21100.000			8.310			-2.770
21201.000			8.309			-2.770
21301.000			8.308			-2.769
21401.000			8.309			-2.770
21501.000			8.307			-2.769
21600.000			8.306			-2.769
21700.000			8.306			-2.769
21801.000			8.305			-2.768
21900.000			8.304			-2.768
22000.000			8.305			-2.768
22102.000			8.304			-2.768
22201.000			8.304			-2.768
22300.000			8.303			-2.768
22400.000			8.303			-2.768
22500.000			8.302			-2.767
22601.000			8.302			-2.767
22700.000			8.302			-2.767
22800.000			8.301			-2.767
22902.000			8.301			-2.767
23001.000			8.299			-2.766
23100.000			8.300			-2.767
23201.000			8.299			-2.766
23300.000			8.298			-2.766
23400.000			8.298			-2.766
23501.000			8.298			-2.766
23600.000			8.297			-2.766
23701.000			8.296			-2.765
23802.000			8.297			-2.766
23901.000			8.296			-2.765
24000.000			8.296			-2.765
24101.000			8.295			-2.765
24200.000			8.294			-2.765
24300.000			8.295			-2.765
24401.000			8.293			-2.764
24501.000			8.293			-2.764
24601.000			8.292			-2.764
24702.000			8.290			-2.763
24800.000			8.290			-2.763
24900.000			8.291			-2.764
25001.000			8.290			-2.763
25100.000			8.289			-2.763
25200.000			8.288			-2.763
25301.000			8.288			-2.763
25401.000			8.288			-2.763
25502.000			8.288			-2.763
25600.000			8.287			-2.762
25700.000			8.287			-2.762
25801.000			8.286			-2.762
25900.000			8.287			-2.762
26000.000			8.286			-2.762
26101.000			8.285			-2.762
26201.000			8.284			-2.761
26301.000			8.284			-2.761
26401.000			8.284			-2.761
26500.000			8.282			-2.761
26600.000			8.282			-2.761
26701.000			8.281			-2.760
26800.000			8.281			-2.760
26900.000			8.282			-2.761
27002.000			8.281			-2.760
27101.000			8.281			-2.760
27200.000			8.281			-2.760
27301.000			8.281			-2.760
27400.000			8.279			-2.760
27500.000			8.279			-2.760
27601.000			8.279			-2.760
27700.000			8.278			-2.759
27801.000			8.277			-2.759
27902.000			8.277			-2.759
28000.000			8.276			-2.759
28100.000			8.275			-2.758
28201.000			8.275			-2.758
28300.000			8.275			-2.758
28400.000			8.274			-2.758
28501.000			8.274			-2.758
28601.000			8.275			-2.758
28702.000			8.274			-2.758
28801.000			8.273			-2.758
28900.000			8.272			-2.757
29001.000			8.271			-2.757
29100.000			8.272			-2.757
29200.000			8.272			-2.757
29301.000			8.271			-2.757
29400.000			8.271			-2.757
29501.000			8.270			-2.757
29602.000			8.270			-2.757
29700.000			8.270			-2.757
29800.000			8.269			-2.756
29901.000			8.269			-2.756
30000.000			8.269			-2.756
30100.000			8.268			-2.756
30201.000			8.268			-2.756
30301.000			8.268			-2.756
30401.000			8.266			-2.755
30501.000			8.267			-2.756
30600.000			8.267			-2.756
30700.000			8.265			-2.755
30801.000			8.265			-2.755
30900.000			8.265			-2.755
31000.000			8.264			-2.755
31102.000			8.263			-2.754
31201.000			8.263			-2.754
31300.000			8.264			-2.755
31401.000			8.264			-2.755
31500.000			8.264			-2.755
31600.000			8.264			-2.755
31701.000			8.263			-2.754
31800.000			8.262			-2.754
31902.000			8.261			-2.754
32001.000			8.260			-2.753
32100.000			8.259			-2.753
32201.000			8.260			-2.753
32300.000			8.260			-2.753
32400.000			8.260			-2.753
32501.000			8.260			-2.753
32600.000			8.259			-2.753
32701.000			8.258			-2.753
32802.000			8.258			-2.753
32900.000			8.258			-2.753
33000.000			8.258			-2.753
33101.000			8.258			-2.753
33200.000			8.257			-2.752
33300.000			8.256			-2.752
33401.000			8.256			-2.752
33501.000			8.256			-2.752
33601.000			8.256			-2.752
33701.000			8.256			-2.752
33800.000			8.255			-2.752
33900.000			8.255			-2.752
34001.000			8.254			-2.751
34100.000			8.254			-2.751
34200.000			8.254			-2.751
34302.000			8.253			-2.751
34401.000			8.253			-2.751
34500.000			8.252			-2.751
34601.000			8.252			-2.751
34700.000			8.252			-2.751
34800.000			8.251			-2.750
34901.000			8.251			-2.750
35000.000			8.250			-2.750
35102.000			8.249			-2.750
35201.000			8.250			-2.750
35300.000			8.250			-2.750
35401.000			8.249			-2.750
35500.000			8.249			-2.750
35600.000			8.249			-2.750
35701.000			8.248			-2.749
35800.000			8.248			-2.749
35901.000			8.247			-2.749
36002.000			8.247			-2.749
36100.000			8.247			-2.749
36200.000			8.247			-2.749
36301.000			8.246			-2.749
36400.000			8.246			-2.749
36500.000			8.246			-2.749
36601.000			8.245			-2.748
36701.000			8.245			-2.748
36801.000			8.245			-2.748
36901.000			8.246			-2.749
37000.000			8.242			-2.747
37100.000			8.243			-2.748
37201.000			8.243			-2.748
37300.000			8.243			-2.748
37400.000			8.243			-2.748
37502.000			8.243			-2.748
37601.000			8.242			-2.747
37700.000			8.243			-2.748
37801.000			8.242			-2.747
37900.000			8.242			-2.747
38000.000			8.241			-2.747
38101.000			8.241			-2.747
38201.000			8.241			-2.747
38302.000			8.240			-2.747
38401.000			8.239			-2.746
38500.000			8.239			-2.746
38601.000			8.239			-2.746
38700.000			8.239			-2.746
38800.000			8.238			-2.746
38901.000			8.239			-2.746
39000.000			8.238			-2.746
39101.000			8.237			-2.746
39202.000			8.236			-2.745
39300.000			8.236			-2.745
39400.000			8.236			-2.745
39501.000			8.237			-2.746
39600.000			8.238			-2.746
39700.000			8.237			-2.746
39801.000			8.235			-2.745
39901.000			8.235			-2.745
40001.000			8.234			-2.745
40101.000			8.234			-2.745
40200.000			8.234			-2.745
40300.000			8.234			-2.745
40401.000			8.233			-2.744
40500.000			8.233			-2.744
40600.000			8.233			-2.744
40702.000			8.233			-2.744
40801.000			8.233			-2.744
40900.000			8.232			-2.744
41001.000			8.232			-2.744
41100.000			8.232			-2.744
41200.000			8.232			-2.744
41301.000			8.231			-2.744
41401.000			8.231			-2.744
41502.000			8.232			-2.744
41601.000			8.231			-2.744
41700.000			8.230			-2.743
41801.000			8.230			-2.743
41900.000			8.230			-2.743
42000.000			8.230			-2.743
42101.000			8.229			-2.743
42201.000			8.227			-2.742
42301.000			8.228			-2.743
42401.000			8.229			-2.743
42500.000			8.229			-2.743
42600.000			8.228			-2.743
42701.000			8.228			-2.743
42800.000			8.227			-2.742
42900.000			8.227			-2.742
43002.000			8.227			-2.742
43101.000			8.226			-2.742
43200.000			8.227			-2.742
43301.000			8.225			-2.742
43400.000			8.225			-2.742
43500.000			8.226			-2.742
43601.000			8.225			-2.742
43700.000			8.225			-2.742
43801.000			8.224			-2.741
43902.000			8.224			-2.741
44000.000			8.224			-2.741
44100.000			8.224			-2.741
44201.000			8.223			-2.741
44300.000			8.223			-2.741
44400.000			8.222			-2.741
44501.000			8.222			-2.741
44601.000			8.223			-2.741
44702.000			8.222			-2.741
44800.000			8.221			-2.740
44900.000			8.221			-2.740
45001.000			8.221			-2.740
45100.000			8.222			-2.741
45200.000			8.220			-2.740
45301.000			8.220			-2.740
45401.000			8.220			-2.740
45501.000			8.221			-2.740
45601.000			8.220			-2.740
45700.000			8.220			-2.740
45800.000			8.219			-2.740
45901.000			8.219			-2.740
46000.000			8.218			-2.739
46100.000			8.218			-2.739
46202.000			8.219			-2.740
46301.000			8.218			-2.739
46400.000			8.218			-2.739
46501.000			8.218			-2.739
46600.000			8.217			-2.739
46700.000			8.217			-2.739
46801.000			8.216			-2.739
46900.000			8.216			-2.739
47001.000			8.216			-2.739
47102.000			8.215			-2.738
47200.000			8.215			-2.738
47300.000			8.215			-2.738
47401.000			8.214			-2.738
47500.000			8.214			-2.738
47600.000			8.215			-2.738
47701.000			8.215			-2.738
47801.000			8.214			-2.738
47902.000			8.213			-2.738
48000.000			8.213			-2.738
48100.000			8.212			-2.737
48201.000			8.212			-2.737
48300.000			8.213			-2.738
48400.000			8.213			-2.738
48501.000			8.212			-2.737
48601.000			8.212			-2.737
48701.000			8.212			-2.737
48801.000			8.211			-2.737
48900.000			8.212			-2.737
49000.000			8.212			-2.737
49101.000			8.210			-2.737
49200.000			8.211			-2.737
49300.000			8.210			-2.737
49402.000			8.210			-2.737
49501.000			8.209			-2.736
49600.000			8.210			-2.737
49701.000			8.209			-2.736
49800.000			8.209			-2.736
49900.000			8.209			-2.736
50001.000			8.209			-2.736
50100.000			8.209			-2.736
50201.000			8.208			-2.736
50302.000			8.207			-2.736
50400.000			8.207			-2.736
50500.000			8.207			-2.736
50601.000			8.207			-2.736
50700.000			8.207			-2.736
50800.000			8.207			-2.736
50901.000			8.207			-2.736
51001.000			8.206			-2.735
51102.000			8.206			-2.735
51200.000			8.206			-2.735
51300.000			8.205			-2.735
51401.000			8.205			-2.735
51500.000			8.205			-2.735
51600.000			8.205			-2.735
51702.000			8.204			-2.735
51801.000			8.205			-2.735
51900.000			8.205			-2.735
52001.000			8.204			-2.735
52100.000			8.204			-2.735
52200.000			8.204			-2.735
52301.000			8.204			-2.735
52400.000			8.204			-2.735
52501.000			8.204			-2.735
52602.000			8.203			-2.734
52700.000			8.202			-2.734
52800.000			8.203			-2.734
52901.000			8.203			-2.734
53000.000			8.202			-2.734
53100.000			8.202			-2.734
53201.000			8.203			-2.734
53301.000			8.202			-2.734
53401.000			8.201			-2.734
53501.000			8.201			-2.734
53600.000			8.201			-2.734
53700.000			8.201			-2.734
53801.000			8.201			-2.734
53900.000			8.200			-2.733
54001.000			8.199			-2.733
54102.000			8.200			-2.733
54201.000			8.200			-2.733
54300.000			8.200			-2.733
54400.000			8.199			-2.733
54500.000			8.199			-2.733
54601.000			8.199			-2.733
54700.000			8.199			-2.733
54800.000			8.199			-2.733
54902.000			8.199			-2.733
55001.000			8.199			-2.733
55100.000			8.198			-2.733
55201.000			8.197			-2.732
55300.000			8.198			-2.733
55400.000			8.197			-2.732
55501.000			8.197			-2.732
55600.000			8.196			-2.732
55701.000			8.196			-2.732
55802.000			8.197			-2.732
55900.000			8.197			-2.732
56000.000			8.195			-2.732
56101.000			8.196			-2.732
56200.000			8.195			-2.732
56300.000			8.194			-2.731
56401.000			8.194			-2.731
56501.000			8.195			-2.732
56601.000			8.194			-2.731
56701.000			8.194			-2.731
56800.000			8.194			-2.731
56900.000			8.193			-2.731
57001.000			8.193			-2.731
57100.000			8.192			-2.731
57200.000			8.193			-2.731
57302.000			8.193			-2.731
57401.000			8.193			-2.731
57502.000			8.193			-2.731
57600.000			8.192			-2.731
57700.000			8.192			-2.731
57801.000			8.191			-2.730
57900.000			8.191			-2.730
58000.000			8.191			-2.730
58101.000			8.191			-2.730
58201.000			8.191			-2.730
58301.000			8.191			-2.730
58401.000			8.190			-2.730
58500.000			8.190			-2.730
58600.000			8.190			-2.730
58701.000			8.190			-2.730
58800.000			8.190			-2.730
58900.000			8.190			-2.730
59002.000			8.190			-2.730
59101.000			8.189			-2.730
59200.000			8.188			-2.729
59301.000			8.189			-2.730
59400.000			8.189			-2.730
59500.000			8.188			-2.729
59601.000			8.188			-2.729
59700.000			8.188			-2.729
59801.000			8.187			-2.729
59902.000			8.187			-2.729
60001.000			8.187			-2.729
60100.000			8.187			-2.729
60201.000			8.187			-2.729
60300.000			8.187			-2.729
60400.000			8.186			-2.729
60501.000			8.186			-2.729
60601.000			8.187			-2.729
60702.000			8.186			-2.729
60801.000			8.186			-2.729
60900.000			8.185			-2.728
61001.000			8.185			-2.728
61100.000			8.186			-2.729
61200.000			8.185			-2.728
61301.000			8.185			-2.728
61400.000			8.184			-2.728
61501.000			8.183			-2.728
61602.000			8.183			-2.728
61700.000			8.183			-2.728
61800.000			8.183			-2.728
61901.000			8.184			-2.728
62000.000			8.184			-2.728
62100.000			8.183			-2.728
62201.000			8.183			-2.728
62301.000			8.182			-2.727
62401.000			8.182			-2.727
62501.000			8.182			-2.727
62600.000			8.182			-2.727
62700.000			8.182			-2.727
62801.000			8.181			-2.727
62900.000			8.181			-2.727
63000.000			8.181			-2.727
63102.000			8.181			-2.727
63201.000			8.181			-2.727
63300.000			8.180			-2.727
63401.000			8.181			-2.727
63500.000			8.181			-2.727
63600.000			8.181			-2.727
63701.000			8.181			-2.727
63800.000			8.180			-2.727
63902.000			8.180			-2.727
64001.000			8.180			-2.727
64100.000			8.180			-2.727
64201.000			8.180			-2.727
64300.000			8.179			-2.726
64400.000			8.179			-2.726
64501.000			8.178			-2.726
64600.000			8.179			-2.726
64701.000			8.178			-2.726
64802.000			8.178			-2.726
64900.000			8.178			-2.726
65000.000			8.178			-2.726
65101.000			8.178			-2.726
65200.000			8.177			-2.726
65300.000			8.177			-2.726
65401.000			8.177			-2.726
65501.000			8.178			-2.726
65601.000			8.177			-2.726
65701.000			8.176			-2.725
65800.000			8.176			-2.725
65900.000			8.175			-2.725
66001.000			8.176			-2.725
66100.000			8.177			-2.726
66200.000			8.177			-2.726
66301.000			8.176			-2.725
66401.000			8.176			-2.725
66501.000			8.175			-2.725
66601.000			8.176			-2.725
66700.000			8.176			-2.725
66800.000			8.175			-2.725
66901.000			8.175			-2.725
67000.000			8.175			-2.725
67100.000			8.175			-2.725
67202.000			8.174			-2.725
67301.000			8.174			-2.725
67401.000			8.174			-2.725
67500.000			8.173			-2.724
67600.000			8.174			-2.725
67701.000			8.172			-2.724
67800.000			8.172			-2.724
67900.000			8.172			-2.724
68002.000			8.172			-2.724
68101.000			8.173			-2.724
68200.000			8.172			-2.724
68301.000			8.171			-2.724
68400.000			8.172			-2.724
68500.000			8.172			-2.724
68601.000			8.172			-2.724
68700.000			8.172			-2.724
68801.000			8.172			-2.724
68902.000			8.171			-2.724
69001.000			8.170			-2.723
69100.000			8.170			-2.723
69201.000			8.170			-2.723
69300.000			8.171			-2.724
69400.000			8.171			-2.724
69501.000			8.170			-2.723
69600.000			8.170			-2.723
69701.000			8.170			-2.723
69802.000			8.170			-2.723
69900.000			8.170			-2.723
70000.000			8.169			-2.723
70101.000			8.169			-2.723
70200.000			8.168			-2.723
70300.000			8.168			-2.723
70400.000			8.168			-2.723
70501.000			8.168			-2.723
70602.000			8.169			-2.723
70701.000			8.169			-2.723
70800.000			8.168			-2.723
70901.000			8.168			-2.723
71000.000			8.169			-2.723
71100.000			8.169			-2.723
71201.000			8.168			-2.723
71300.000			8.167			-2.722
71401.000			8.167			-2.722
71502.000			8.167			-2.722
71600.000			8.166			-2.722
71700.000			8.166			-2.722
71801.000			8.166			-2.722
71900.000			8.166			-2.722
72000.000			8.166			-2.722
72101.000			8.166			-2.722
72201.000			8.166			-2.722
72301.000			8.167			-2.722
72401.000			8.166			-2.722
72500.000			8.165			-2.722
72600.000			8.165			-2.722
72701.000			8.164			-2.721
72800.000			8.164			-2.721
72900.000			8.165			-2.722
73002.000			8.164			-2.721
73101.000			8.164			-2.721
73200.000			8.164			-2.721
73301.000			8.163			-2.721
73400.000			8.163			-2.721
73500.000			8.164			-2.721
73600.000			8.164			-2.721
73700.000			8.163			-2.721
73802.000			8.164			-2.721
73901.000			8.164			-2.721
74000.000			8.162			-2.721
74101.000			8.163			-2.721
74200.000			8.163			-2.721
74300.000			8.162			-2.721
74401.000			8.163			-2.721
74500.000			8.162			-2.721
74601.000			8.162			-2.721
74702.000			8.162			-2.721
74801.000			8.161			-2.720
74900.000			8.161			-2.720
75001.000			8.161			-2.720
75100.000			8.161			-2.720
75200.000			8.161			-2.720
75301.000			8.161			-2.720
75401.000			8.160			-2.720
75501.000			8.160			-2.720
75602.000			8.161			-2.720
75700.000			8.161			-2.720
75800.000			8.160			-2.720
75901.000			8.160			-2.720
76000.000			8.160			-2.720
76100.000			8.160			-2.720
76201.000			8.160			-2.720
76301.000			8.161			-2.720
76401.000			8.160			-2.720
76501.000			8.159			-2.720
76600.000			8.159			-2.720
76700.000			8.160			-2.720
76800.000			8.159			-2.720
76900.000			8.159			-2.720
77001.000			8.158			-2.719
77101.000			8.158			-2.719
77201.000			8.158			-2.719
77301.000			8.158			-2.719
77400.000			8.158			-2.719
77500.000			8.158			-2.719
77601.000			8.157			-2.719
77700.000			8.157			-2.719
77800.000			8.158			-2.719
77901.000			8.159			-2.720
78001.000			8.157			-2.719
78101.000			8.156			-2.719
78201.000			8.156			-2.719
78300.000			8.156			-2.719
78400.000			8.156			-2.719
78501.000			8.156			-2.719
78600.000			8.156			-2.719
78700.000			8.156			-2.719
78802.000			8.156			-2.719
78901.000			8.156			-2.719
79000.000			8.155			-2.718
79101.000			8.156			-2.719
79200.000			8.156			-2.719
79300.000			8.155			-2.718
79401.000			8.155			-2.718
79500.000			8.154			-2.718
79600.000			8.155			-2.718
79702.000			8.155			-2.718
79801.000			8.154			-2.718
79900.000			8.153			-2.718
80000.000			8.154			-2.718
80100.000			8.154			-2.718
80201.000			8.153			-2.718
80300.000			8.154			-2.718
80400.000			8.154			-2.718
80502.000			8.152			-2.717
80601.000			8.152			-2.717
80700.000			8.153			-2.718
80801.000			8.153			-2.718
80900.000			8.153			-2.718
81000.000			8.153			-2.718
81101.000			8.152			-2.717
81200.000			8.154			-2.718
81301.000			8.153			-2.718
81402.000			8.152			-2.717
81500.000			8.152			-2.717
81600.000			8.152			-2.717
81701.000			8.152			-2.717
81800.000			8.151			-2.717
81900.000			8.150			-2.717
82001.000			8.152			-2.717
82101.000			8.152			-2.717
82201.000			8.151			-2.717
82301.000			8.151			-2.717
82400.000			8.151			-2.717
82500.000			8.151			-2.717
82601.000			8.151			-2.717
82700.000			8.151			-2.717
82800.000			8.151			-2.717
82902.000			8.150			-2.717
83001.000			8.150			-2.717
83100.000			8.149			-2.716
83200.000			8.149			-2.716
83300.000			8.149			-2.716
83401.000			8.150			-2.717
83500.000			8.148			-2.716
83600.000			8.148			-2.716
83702.000			8.149			-2.716
83801.000			8.148			-2.716
83900.000			8.149			-2.716
84001.000			8.148			-2.716
84100.000			8.148			-2.716
84200.000			8.147			-2.716
84301.000			8.148			-2.716
84400.000			8.148			-2.716
84501.000			8.148			-2.716
84602.000			8.148			-2.716
84700.000			8.147			-2.716
84800.000			8.148			-2.716
84901.000			8.147			-2.716
85000.000			8.146			-2.715
85100.000			8.147			-2.716
85201.000			8.147			-2.716
85301.000			8.147			-2.716
85401.000			8.147			-2.716
85502.000			8.147			-2.716
85600.000			8.146			-2.715
85700.000			8.147			-2.716
85801.000			8.146			-2.715
85900.000			8.146			-2.715
86000.000			8.145			-2.715
86101.000			8.145			-2.715
86201.000			8.145			-2.715
86302.000			8.145			-2.715
86400.000			8.145			-2.715
86500.000			8.144			-2.715
86601.000			8.145			-2.715
86700.000			8.144			-2.715
86800.000			8.145			-2.715
86901.000			8.144			-2.715
87001.000			8.144			-2.715
87101.000			8.144			-2.715
87201.000			8.144			-2.715
87300.000			8.144			-2.715
87400.000			8.143			-2.714
87501.000			8.144			-2.715
87600.000			8.144			-2.715
87700.000			8.143			-2.714
87802.000			8.143			-2.714
87901.000			8.142			-2.714
88001.000			8.143			-2.714
88101.000			8.143			-2.714
88200.000			8.142			-2.714
88300.000			8.143			-2.714
88401.000			8.143			-2.714
88500.000			8.141			-2.714
88600.000			8.143			-2.714
88702.000			8.143			-2.714
88801.000			8.142			-2.714
88900.000			8.141			-2.714
89001.000			8.141			-2.714
89100.000			8.141			-2.714
89200.000			8.141			-2.714
89301.000			8.141			-2.714
89400.000			8.142			-2.714
89502.000			8.142			-2.714
89601.000			8.141			-2.714
89700.000			8.140			-2.713
89801.000			8.139			-2.713
89900.000			8.140			-2.713
90000.000			8.140			-2.713
90101.000			8.140			-2.713
90200.000			8.140			-2.713
90301.000			8.138			-2.713
90402.000			8.139			-2.713
90500.000			8.140			-2.713
90600.000			8.140			-2.713
90701.000			8.139			-2.713
90800.000			8.139			-2.713
90900.000			8.139			-2.713
91001.000			8.139			-2.713
91101.000			8.139			-2.713
91201.000			8.139			-2.713
91301.000			8.139			-2.713
91400.000			8.138			-2.713
91500.000			8.138			-2.713
91601.000			8.137			-2.712
91700.000			8.137			-2.712
91800.000			8.137			-2.712
91901.000			8.136			-2.712
92001.000			8.137			-2.712
92101.000			8.137			-2.712
92201.000			8.137			-2.712
92300.000			8.138			-2.713
92400.000			8.137			-2.712
92501.000			8.136			-2.712
92600.000			8.136			-2.712
92700.000			8.137			-2.712
92802.000			8.136			-2.712
92901.000			8.136			-2.712
93001.000			8.136			-2.712
93100.000			8.136			-2.712
93200.000			8.136			-2.712
93301.000			8.135			-2.712
93400.000			8.135			-2.712
93500.000			8.135			-2.712
93602.000			8.135			-2.712
93701.000			8.136			-2.712
93800.000			8.135			-2.712
93901.000			8.135			-2.712
94000.000			8.136			-2.712
94100.000			8.135			-2.712
94201.000			8.135			-2.712
94300.000			8.135			-2.712
94401.000			8.134			-2.711
94502.000			8.135			-2.712
94601.000			8.136			-2.712
94700.000			8.135			-2.712
94801.000			8.134			-2.711
94900.000			8.133			-2.711
95000.000			8.133			-2.711
95101.000			8.133			-2.711
95201.000			8.134			-2.711
95301.000			8.133			-2.711
95402.000			8.132			-2.711
95500.000			8.133			-2.711
95600.000			8.134			-2.711
95701.000			8.133			-2.711
95800.000			8.133			-2.711
95900.000			8.133			-2.711
96000.000			8.132			-2.711
96101.000			8.133			-2.711
96202.000			8.132			-2.711
96300.000			8.131			-2.710
96400.000			8.131			-2.710
96501.000			8.131			-2.710
96600.000			8.130			-2.710
96700.000			8.132			-2.711
96801.000			8.131			-2.710
96901.000			8.131			-2.710
97001.000			8.131			-2.710
97101.000			8.132			-2.711
97200.000			8.131			-2.710
97300.000			8.130			-2.710
97401.000			8.131			-2.710
97500.000			8.131			-2.710
97600.000			8.130			-2.710
97702.000			8.130			-2.710
97801.000			8.131			-2.710
97900.000			8.131			-2.710
98001.000			8.132			-2.711
98100.000			8.132			-2.711
98200.000			8.130			-2.710
98301.000			8.130			-2.710
98400.000			8.129			-2.710
98501.000			8.129			-2.710
98602.000			8.129			-2.710
98701.000			8.130			-2.710
98800.000			8.130			-2.710
98901.000			8.129			-2.710
99000.000			8.128			-2.709
99100.000			8.128			-2.709
99200.000			8.128			-2.709
99300.000			8.128			-2.709
99402.000			8.128			-2.709
99501.000			8.128			-2.709
99600.000			8.129			-2.710
99701.000			8.128			-2.709
99800.000			8.128			-2.709
99900.000			8.128			-2.709
100001.000			8.128			-2.709
100100.000			8.127			-2.709
100201.000			8.127			-2.709
100302.000			8.127			-2.709
100400.000			8.128			-2.709
100500.000			8.127			-2.709
100601.000			8.127			-2.709
100700.000			8.126			-2.709
100800.000			8.125			-2.708
100901.000			8.126			-2.709
101001.000			8.126			-2.709
101101.000			8.127			-2.709
101202.000			8.127			-2.709
101300.000			8.127			-2.709
101400.000			8.127			-2.709
101501.000			8.126			-2.709
101600.000			8.124			-2.708
101700.000			8.124			-2.708
101801.000			8.126			-2.709
101901.000			8.126			-2.709
102001.000			8.125			-2.708
102101.000			8.124			-2.708
102200.000			8.126			-2.709
102300.000			8.126			-2.709
102400.000			8.126			-2.709
102500.000			8.124			-2.708
102601.000			8.125			-2.708
102701.000			8.125			-2.708
102801.000			8.124			-2.708
102901.000			8.124			-2.708
103000.000			8.124			-2.708
103100.000			8.124			-2.708
103201.000			8.124			-2.708
103300.000			8.124			-2.708
103400.000			8.125			-2.708
103502.000			8.124			-2.708
103601.000			8.124			-2.708
103700.000			8.122			-2.707
103801.000			8.122			-2.707
103900.000			8.123			-2.708
104000.000			8.123			-2.708
104101.000			8.123			-2.708
104200.000			8.123			-2.708
104301.000			8.124			-2.708
104402.000			8.124			-2.708
104501.000			8.123			-2.708
104600.000			8.122			-2.707
104701.000			8.122			-2.707
104800.000			8.122			-2.707
104900.000			8.123			-2.708
105001.000			8.123			-2.708
105100.000			8.122			-2.707
105201.000			8.122			-2.707
105302.000			8.121			-2.707
105400.000			8.121			-2.707
105500.000			8.121			-2.707
105600.000			8.122			-2.707
105700.000			8.121			-2.707
105801.000			8.121			-2.707
105900.000			8.121			-2.707
106001.000			8.121			-2.707
106102.000			8.121			-2.707
106200.000			8.120			-2.707
106300.000			8.120			-2.707
106401.000			8.121			-2.707
106500.000			8.121			-2.707
106600.000			8.120			-2.707
106701.000			8.119			-2.706
106801.000			8.120			-2.707
106901.000			8.120			-2.707
107001.000			8.119			-2.706
107100.000			8.118			-2.706
107200.000			8.119			-2.706
107301.000			8.120			-2.707
107400.000			8.119			-2.706
107500.000			8.119			-2.706
107601.000			8.119			-2.706
107701.000			8.118			-2.706
107801.000			8.118			-2.706
107901.000			8.118			-2.706
108000.000			8.118			-2.706
108100.000			8.119			-2.706
108201.000			8.118			-2.706
108300.000			8.118			-2.706
108400.000			8.118			-2.706
108502.000			8.118			-2.706
108601.000			8.118			-2.706
108700.000			8.118			-2.706
108800.000			8.118			-2.706
108900.000			8.118			-2.706
109001.000			8.118			-2.706
109100.000			8.117			-2.706
109200.000			8.117			-2.706
109301.000			8.116			-2.705
109401.000			8.117			-2.706
109501.000			8.116			-2.705
109601.000			8.116			-2.705
109700.000			8.117			-2.706
109800.000			8.117			-2.706
109901.000			8.116			-2.705
110000.000			8.116			-2.705
110100.000			8.116			-2.705
110202.000			8.117			-2.706
110301.000			8.117			-2.706
110400.000			8.116			-2.705
110501.000			8.116			-2.705
110600.000			8.116			-2.705
110700.000			8.116			-2.705
110801.000			8.116			-2.705
110900.000			8.115			-2.705
111000.000			8.115			-2.705
111102.000			8.115			-2.705
111201.000			8.115			-2.705
111300.000			8.116			-2.705
111401.000			8.115			-2.705
111500.000			8.115			-2.705
111600.000			8.114			-2.705
111701.000			8.115			-2.705
111800.000			8.115			-2.705
111902.000			8.115			-2.705
112001.000			8.114			-2.705
112100.000			8.115			-2.705
112201.000			8.114			-2.705
112300.000			8.114			-2.705
112400.000			8.114			-2.705
112501.000			8.114			-2.705
112600.000			8.114			-2.705
112701.000			8.114			-2.705
112802.000			8.113			-2.704
112900.000			8.114			-2.705
113000.000			8.113			-2.704
113101.000			8.113			-2.704
113200.000			8.113			-2.704
113300.000			8.113			-2.704
113401.000			8.112			-2.704
113501.000			8.112			-2.704
113601.000			8.112			-2.704
113701.000			8.112			-2.704
113800.000			8.112			-2.704
113900.000			8.113			-2.704
114001.000			8.112			-2.704
114100.000			8.112			-2.704
114200.000			8.112			-2.704
114302.000			8.112			-2.704
114401.000			8.112			-2.704
114500.000			8.112			-2.704
114601.000			8.111			-2.704
114700.000			8.111			-2.704
114800.000			8.112			-2.704
114901.000			8.110			-2.703
115000.000			8.110			-2.703
115102.000			8.111			-2.704
115201.000			8.111			-2.704
115300.000			8.111			-2.704
115401.000			8.112			-2.704
115500.000			8.111			-2.704
115600.000			8.110			-2.703
115701.000			8.109			-2.703
115800.000			8.110			-2.703
115901.000			8.110			-2.703
116002.000			8.109			-2.703
116101.000			8.109			-2.703
116200.000			8.108			-2.703
116301.000			8.109			-2.703
116400.000			8.109			-2.703
116500.000			8.109			-2.703
116601.000			8.109			-2.703
116700.000			8.109			-2.703
116801.000			8.109			-2.703
116902.000			8.108			-2.703
117000.000			8.108			-2.703
117100.000			8.109			-2.703
117201.000			8.108			-2.703
117300.000			8.108			-2.703
117400.000			8.109			-2.703
117501.000			8.108			-2.703
117601.000			8.108			-2.703
117701.000			8.109			-2.703
117801.000			8.109			-2.703
117900.000			8.108			-2.703
118000.000			8.108			-2.703
118101.000			8.107			-2.702
118200.000			8.106			-2.702
118300.000			8.107			-2.702
118402.000			8.107			-2.702
118501.000			8.107			-2.702
118602.000			8.107			-2.702
118700.000			8.107			-2.702
118800.000			8.107			-2.702
118901.000			8.107			-2.702
119000.000			8.107			-2.702
119100.000			8.107			-2.702
119201.000			8.107			-2.702
119301.000			8.106			-2.702
119401.000			8.105			-2.702
119501.000			8.107			-2.702
119600.000			8.106			-2.702
119700.000			8.106			-2.702
119801.000			8.106			-2.702
119900.000			8.106			-2.702
120000.000			8.106			-2.702
120101.000			8.106			-2.702
120201.000			8.106			-2.702
120301.000			8.105			-2.702
120401.000			8.104			-2.701
120500.000			8.105			-2.702
120600.000			8.106			-2.702
120701.000			8.105			-2.702
120800.000			8.104			-2.701
120900.000			8.105			-2.702
121002.000			8.105			-2.702
121101.000			8.105			-2.702
121200.000			8.106			-2.702
121301.000			8.105			-2.702
121400.000			8.103			-2.701
121500.000			8.104			-2.701
121600.000			8.105			-2.702
121700.000			8.104			-2.701
121802.000			8.104			-2.701
121901.000			8.104			-2.701
122000.000			8.104			-2.701
122101.000			8.104			-2.701
122200.000			8.103			-2.701
122300.000			8.103			-2.701
122401.000			8.104			-2.701
122500.000			8.103			-2.701
122601.000			8.104			-2.701
122702.000			8.103			-2.701
122801.000			8.103			-2.701
122900.000			8.103			-2.701
123001.000			8.103			-2.701
123100.000			8.102			-2.701
123200.000			8.102			-2.701
123301.000			8.102			-2.701
123400.000			8.102			-2.701
123501.000			8.103			-2.701
123602.000			8.102			-2.701
123700.000			8.102			-2.701
123800.000			8.103			-2.701
123901.000			8.103			-2.701
124000.000			8.102			-2.701
124100.000			8.102			-2.701
124201.000			8.102			-2.701
124301.000			8.102			-2.701
124401.000			8.102			-2.701
124501.000			8.101			-2.700
124600.000			8.101			-2.700
124700.000			8.103			-2.701
124800.000			8.101			-2.700
124900.000			8.101			-2.700
125001.000			8.102			-2.701
125101.000			8.102			-2.701
125201.000			8.102			-2.701
125301.000			8.102			-2.701
125400.000			8.100			-2.700
125500.000			8.100			-2.700
125601.000			8.100			-2.700
125700.000			8.100			-2.700
125800.000			8.100			-2.700
125902.000			8.100			-2.700
126001.000			8.100			-2.700
126101.000			8.100			-2.700
126201.000			8.100			-2.700
126300.000			8.100			-2.700
126400.000			8.100			-2.700
126501.000			8.100			-2.700
126600.000			8.099			-2.700
126700.000			8.099			-2.700
126802.000			8.100			-2.700
126901.000			8.099			-2.700
127000.000			8.099			-2.700
127101.000			8.098			-2.699
127200.000			8.099			-2.700
127300.000			8.100			-2.700
127401.000			8.099			-2.700
127500.000			8.098			-2.699
127600.000			8.098			-2.699
127702.000			8.099			-2.700
127801.000			8.099			-2.700
127900.000			8.098			-2.699
128000.000			8.099			-2.700
128100.000			8.099			-2.700
128201.000			8.098			-2.699
128300.000			8.098			-2.699
128400.000			8.097			-2.699
128501.000			8.098			-2.699
128601.000			8.098			-2.699
128701.000			8.097			-2.699
128801.000			8.097			-2.699
128900.000			8.098			-2.699
129000.000			8.098			-2.699
129101.000			8.097			-2.699
129200.000			8.097			-2.699
129300.000			8.098			-2.699
129402.000			8.097			-2.699
129501.000			8.096			-2.699
129601.000			8.096			-2.699
129701.000			8.096			-2.699
129800.000			8.096			-2.699
129900.000			8.096			-2.699
130001.000			8.096			-2.699
130100.000			8.095			-2.698
130200.000			8.095			-2.698
130302.000			8.095			-2.698
130401.000			8.095			-2.698
130500.000			8.096			-2.699
130601.000			8.095			-2.698
130700.000			8.096			-2.699
130800.000			8.096			-2.699
130901.000			8.096			-2.699
131000.000			8.095			-2.698
131100.000			8.095			-2.698
131202.000			8.095			-2.698
131301.000			8.095			-2.698
131401.000			8.095			-2.698
131500.000			8.094			-2.698
131600.000			8.094			-2.698
131701.000			8.094			-2.698
131800.000			8.095			-2.698
131900.000			8.095			-2.698
132001.000			8.094			-2.698
132101.000			8.094			-2.698
132201.000			8.093			-2.698
132301.000			8.093			-2.698
132400.000			8.093			-2.698
132500.000			8.093			-2.698
132601.000			8.093			-2.698
132700.000			8.093			-2.698
132800.000			8.093			-2.698
132901.000			8.093			-2.698
133001.000			8.093			-2.698
133101.000			8.094			-2.698
133202.000			8.094			-2.698
133300.000			8.094			-2.698
133400.000			8.093			-2.698
133501.000			8.093			-2.698
133600.000			8.093			-2.698
133700.000			8.093			-2.698
133801.000			8.093			-2.698
133900.000			8.092			-2.697
134001.000			8.093			-2.698
134102.000			8.093			-2.698
134200.000			8.092			-2.697
134300.000			8.093			-2.698
134400.000			8.093			-2.698
134500.000			8.092			-2.697
134601.000			8.091			-2.697
134700.000			8.091			-2.697
134800.000			8.091			-2.697
134902.000			8.092			-2.697
135001.000			8.092			-2.697
135100.000			8.092			-2.697
135201.000			8.091			-2.697
135300.000			8.091			-2.697
135400.000			8.091			-2.697
135501.000			8.091			-2.697
135600.000			8.091			-2.697
135700.000			8.091			-2.697
135802.000			8.091			-2.697
135901.000			8.091			-2.697
136001.000			8.090			-2.697
136101.000			8.090			-2.697
136200.000			8.089			-2.696
136300.000			8.090			-2.697
136401.000			8.090			-2.697
136500.000			8.089			-2.696
136600.000			8.090			-2.697
136701.000			8.090			-2.697
136801.000			8.091			-2.697
136901.000			8.091			-2.697
137001.000			8.090			-2.697
137100.000			8.090			-2.697
137200.000			8.090			-2.697
137301.000			8.089			-2.696
137400.000			8.090			-2.697
137500.000			8.090			-2.697
137600.000			8.089			-2.696
137701.000			8.088			-2.696
137802.000			8.089			-2.696
137901.000			8.090			-2.697
138000.000			8.088			-2.696
138101.000			8.088			-2.696
138200.000			8.089			-2.696
138300.000			8.089			-2.696
138401.000			8.089			-2.696
138500.000			8.089			-2.696
138600.000			8.089			-2.696
138702.000			8.089			-2.696
138801.000			8.088			-2.696
138900.000			8.087			-2.696
139001.000			8.088			-2.696
139100.000			8.087			-2.696
139200.000			8.087			-2.696
139301.000			8.088			-2.696
139400.000			8.088			-2.696
139500.000			8.088			-2.696
139601.000			8.088			-2.696
139701.000			8.087			-2.696
139801.000			8.087			-2.696
139901.000			8.087			-2.696
140000.000			8.087			-2.696
140100.000			8.087			-2.696
140201.000			8.087			-2.696
140300.000			8.087			-2.696
140400.000			8.088			-2.696
140501.000			8.087			-2.696
140601.000			8.087			-2.696
140702.000			8.087			-2.696
140801.000			8.086			-2.695
140900.000			8.087			-2.696
141001.000			8.086			-2.695
141100.000			8.086			-2.695
141200.000			8.086			-2.695
141301.000			8.085			-2.695
141400.000			8.086			-2.695
141500.000			8.086			-2.695
141602.000			8.085			-2.695
141701.000			8.086			-2.695
141800.000			8.087			-2.696
141901.000			8.086			-2.695
142000.000			8.086			-2.695
142100.000			8.085			-2.695
142201.000			8.085			-2.695
142300.000			8.086			-2.695
142400.000			8.085			-2.695
142502.000			8.085			-2.695
142601.000			8.086			-2.695
142700.000			8.085			-2.695
142801.000			8.085			-2.695
142900.000			8.085			-2.695
143000.000			8.085			-2.695
143101.000			8.084			-2.695
143200.000			8.085			-2.695
143300.000			8.085			-2.695
143402.000			8.084			-2.695
143501.000			8.084			-2.695
143601.000			8.084			-2.695
143701.000			8.084			-2.695
143800.000			8.084			-2.695
143900.000			8.084			-2.695
144000.000			8.084			-2.695
144100.000			8.084			-2.695
144201.000			8.084			-2.695
144300.000			8.083			-2.694
144401.000			8.083			-2.694
144502.000			8.084			-2.695
144601.000			8.084			-2.695
144700.000			8.084			-2.695
144801.000			8.084			-2.695
144900.000			8.084			-2.695
145000.000			8.083			-2.694
145101.000			8.083			-2.694
145200.000			8.083			-2.694
145301.000			8.084			-2.695
145402.000			8.083			-2.694
145501.000			8.083			-2.694
145600.000			8.083			-2.694
145701.000			8.082			-2.694
145800.000			8.083			-2.694
145900.000			8.083			-2.694
146001.000			8.083			-2.694
146100.000			8.082			-2.694
146200.000			8.082			-2.694
146302.000			8.082			-2.694
146401.000			8.082			-2.694
146500.000			8.082			-2.694
146601.000			8.082			-2.694
146700.000			8.082			-2.694
146800.000			8.082			-2.694
146901.000			8.082			-2.694
147000.000			8.082			-2.694
147100.000			8.082			-2.694
147202.000			8.082			-2.694
147301.000			8.082			-2.694
147402.000			8.081			-2.694
147500.000			8.082			-2.694
147600.000			8.080			-2.693
147701.000			8.081			-2.694
147800.000			8.082			-2.694
147900.000			8.081			-2.694
148001.000			8.082			-2.694
148100.000			8.081			-2.694
148201.000			8.080			-2.693
148302.000			8.081			-2.694
148400.000			8.081			-2.694
148500.000			8.081			-2.694
148601.000			8.080			-2.693
148700.000			8.080			-2.693
148800.000			8.080			-2.693
148901.000			8.079			-2.693
149000.000			8.079			-2.693
149101.000			8.080			-2.693
149202.000			8.080			-2.693
149301.000			8.079			-2.693
149400.000			8.079			-2.693
149501.000			8.079			-2.693
149600.000			8.080			-2.693
149700.000			8.080			-2.693
149801.000			8.079			-2.693
149900.000			8.081			-2.694
150000.000			8.080			-2.693
150102.000			8.079			-2.693
150201.000			8.078			-2.693
150300.000			8.079			-2.693
150400.000			8.080			-2.693
150500.000			8.078			-2.693
150601.000			8.079			-2.693
150700.000			8.079			-2.693
150800.000			8.078			-2.693
150901.000			8.078			-2.693
151001.000			8.079			-2.693
151101.000			8.078			-2.693
151202.000			8.078			-2.693
151300.000			8.078			-2.693
151400.000			8.077			-2.692
151501.000			8.077			-2.692
151600.000			8.078			-2.693
151700.000			8.077			-2.692
151801.000			8.077			-2.692
151900.000			8.079			-2.693
152001.000			8.078			-2.693
152102.000			8.078			-2.693
152201.000			8.077			-2.692
152300.000			8.078			-2.693
152401.000			8.078			-2.693
152500.000			8.077			-2.692
152600.000			8.076			-2.692
152701.000			8.077			-2.692
152800.000			8.077			-2.692
152900.000			8.077			-2.692
153002.000			8.077			-2.692
153101.000			8.077			-2.692
153200.000			8.076			-2.692
153301.000			8.076			-2.692
153400.000			8.077			-2.692
153500.000			8.075			-2.692
153600.000			8.076			-2.692
153700.000			8.077			-2.692
153801.000			8.077			-2.692
153901.000			8.077			-2.692
154001.000			8.077			-2.692
154101.000			8.076			-2.692
154200.000			8.076			-2.692
154300.000			8.075			-2.692
154401.000			8.076			-2.692
154500.000			8.076			-2.692
154600.000			8.075			-2.692
154701.000			8.074			-2.691
154801.000			8.074			-2.691
154901.000			8.074			-2.691
155002.000			8.075			-2.692
155100.000			8.075			-2.692
155200.000			8.075			-2.692
155301.000			8.075			-2.692
155400.000			8.074			-2.691
155500.000			8.075			-2.692
155601.000			8.075			-2.692
155700.000			8.075			-2.692
155801.000			8.074			-2.691
155902.000			8.074			-2.691
156000.000			8.074			-2.691
156100.000			8.074			-2.691
156201.000			8.074			-2.691
156300.000			8.073			-2.691
156400.000			8.074			-2.691
156501.000			8.074			-2.691
156600.000			8.074			-2.691
156702.000			8.073			-2.691
156801.000			8.074			-2.691
156901.000			8.074			-2.691
157001.000			8.073			-2.691
157100.000			8.073			-2.691
157200.000			8.073			-2.691
157301.000			8.074			-2.691
157400.000			8.073			-2.691
157500.000			8.073			-2.691
157601.000			8.073			-2.691
157701.000			8.073			-2.691
157801.000			8.072			-2.691
157901.000			8.073			-2.691
158000.000			8.072			-2.691
158100.000			8.072			-2.691
158201.000			8.073			-2.691
158300.000			8.072			-2.691
158400.000			8.073			-2.691
158501.000			8.073			-2.691
158601.000			8.071			-2.690
158701.000			8.071			-2.690
158802.000			8.072			-2.691
158900.000			8.072			-2.691
159000.000			8.072			-2.691
159101.000			8.072			-2.691
159200.000			8.073			-2.691
159300.000			8.071			-2.690
159401.000			8.071			-2.690
159500.000			8.072			-2.691
159601.000			8.071			-2.690
159702.000			8.072			-2.691
159801.000			8.072			-2.691
159900.000			8.071			-2.690
160000.000			8.071			-2.690
160100.000			8.071			-2.690
160201.000			8.070			-2.690
160300.000			8.070			-2.690
160400.000			8.070			-2.690
160501.000			8.070			-2.690
160601.000			8.070			-2.690
160701.000			8.070			-2.690
160801.000			8.071			-2.690
160900.000			8.070			-2.690
161000.000			8.071			-2.690
161101.000			8.070			-2.690
161200.000			8.071			-2.690
161300.000			8.071			-2.690
161401.000			8.069			-2.690
161501.000			8.070			-2.690
161601.000			8.070			-2.690
161702.000			8.069			-2.690
161800.000			8.069			-2.690
161900.000			8.069			-2.690
162001.000			8.069			-2.690
162100.000			8.070			-2.690
162200.000			8.069			-2.690
162301.000			8.069			-2.690
162400.000			8.069			-2.690
162501.000			8.070			-2.690
162602.000			8.070			-2.690
162700.000			8.070			-2.690
162800.000			8.068			-2.689
162901.000			8.069			-2.690
163000.000			8.069			-2.690
163100.000			8.069			-2.690
163200.000			8.068			-2.689
163300.000			8.068			-2.689
163402.000			8.069			-2.690
163501.000			8.068			-2.689
163601.000			8.067			-2.689
163701.000			8.068			-2.689
163800.000			8.069			-2.690
163900.000			8.069			-2.690
164001.000			8.069			-2.690
164100.000			8.068			-2.689
164200.000			8.068			-2.689
164301.000			8.067			-2.689
164401.000			8.068			-2.689
164501.000			8.068			-2.689
164601.000			8.067			-2.689
164700.000			8.068			-2.689
164800.000			8.068			-2.689
164901.000			8.068			-2.689
165000.000			8.068			-2.689
165100.000			8.068			-2.689
165201.000			8.068			-2.689
165301.000			8.067			-2.689
165401.000			8.068			-2.689
165502.000			8.067			-2.689
165600.000			8.067			-2.689
165700.000			8.068			-2.689
165801.000			8.067			-2.689
165900.000			8.067			-2.689
166000.000			8.067			-2.689
166101.000			8.067			-2.689
166200.000			8.067			-2.689
166302.000			8.068			-2.689
166401.000			8.067			-2.689
166501.000			8.067			-2.689
166601.000			8.066			-2.689
166700.000			8.067			-2.689
166800.000			8.066			-2.689
166901.000			8.066			-2.689
167000.000			8.066			-2.689
167100.000			8.066			-2.689
167201.000			8.067			-2.689
167301.000			8.065			-2.688
167401.000			8.066			-2.689
167501.000			8.066			-2.689
167600.000			8.066			-2.689
167700.000			8.066			-2.689
167801.000			8.066			-2.689
167900.000			8.065			-2.688
168000.000			8.065			-2.688
168101.000			8.065			-2.688
168201.000			8.066			-2.689
168301.000			8.066			-2.689
168402.000			8.065			-2.688
168500.000			8.065			-2.688
168600.000			8.065			-2.688
168701.000			8.065			-2.688
168800.000			8.064			-2.688
168900.000			8.067			-2.689
169001.000			8.066			-2.689
169100.000			8.066			-2.689
169201.000			8.066			-2.689
169302.000			8.064			-2.688
169401.000			8.064			-2.688
169500.000			8.064			-2.688
169600.000			8.064			-2.688
169700.000			8.064			-2.688
169801.000			8.064			-2.688
169900.000			8.064			-2.688
170000.000			8.064			-2.688
170101.000			8.063			-2.688
170201.000			8.064			-2.688
170301.000			8.064			-2.688
170401.000			8.064			-2.688
170500.000			8.063			-2.688
170600.000			8.064			-2.688
170701.000			8.064			-2.688
170800.000			8.063			-2.688
170900.000			8.064			-2.688
171001.000			8.064			-2.688
171101.000			8.064			-2.688
171201.000			8.063			-2.688
171301.000			8.062			-2.687
171400.000			8.063			-2.688
171500.000			8.063			-2.688
171601.000			8.062			-2.687
171700.000			8.061			-2.687
171800.000			8.061			-2.687
171901.000			8.062			-2.687
172001.000			8.063			-2.688
172101.000			8.063			-2.688
172201.000			8.063			-2.688
172300.000			8.063			-2.688
172400.000			8.062			-2.687
172501.000			8.062			-2.687
172600.000			8.062			-2.687
172700.000			8.061			-2.687
172800.000			8.062			-2.687
172901.000			8.062			-2.687
173002.000			8.061			-2.687
173101.000			8.062			-2.687
173200.000			8.062			-2.687
173301.000			8.062			-2.687
173400.000			8.061			-2.687
173500.000			8.062			-2.687
173601.000			8.062			-2.687
173700.000			8.061			-2.687
173801.000			8.061			-2.687
173902.000			8.062			-2.687
174001.000			8.061			-2.687
174100.000			8.061			-2.687
174201.000			8.061			-2.687
174300.000			8.061			-2.687
174400.000			8.060			-2.687
174501.000			8.061			-2.687
174600.000			8.060			-2.687
174700.000			8.060			-2.687
174802.000			8.060			-2.687
174901.000			8.060			-2.687
175000.000			8.060			-2.687
175101.000			8.060			-2.687
175200.000			8.061			-2.687
175300.000			8.061			-2.687
175401.000			8.060			-2.687
175500.000			8.060			-2.687
175600.000			8.060			-2.687
175702.000			8.060			-2.687
175801.000			8.060			-2.687
175902.000			8.059			-2.686
176000.000			8.059			-2.686
176100.000			8.060			-2.687
176201.000			8.060			-2.687
176300.000			8.059			-2.686
176400.000			8.060			-2.687
176501.000			8.060			-2.687
176600.000			8.060			-2.687
176701.000			8.060			-2.687
176802.000			8.059			-2.686
176901.000			8.059			-2.686
177000.000			8.058			-2.686
177101.000			8.059			-2.686
177200.000			8.058			-2.686
177300.000			8.058			-2.686
177401.000			8.058			-2.686
177500.000			8.059			-2.686
177601.000			8.059			-2.686
177702.000			8.059			-2.686
177801.000			8.059			-2.686
177900.000			8.059			-2.686
178001.000			8.058			-2.686
178100.000			8.058			-2.686
178200.000			8.058			-2.686
178301.000			8.058			-2.686
178400.000			8.058			-2.686
178500.000			8.058			-2.686
178602.000			8.057			-2.686
178701.000			8.058			-2.686
178801.000			8.058			-2.686
178901.000			8.058			-2.686
179000.000			8.057			-2.686
179100.000			8.057			-2.686
179200.000			8.058			-2.686
179300.000			8.057			-2.686
179401.000			8.057			-2.686
179500.000			8.057			-2.686
179601.000			8.057			-2.686
179702.000			8.056			-2.685
179801.000			8.056			-2.685
179900.000			8.057			-2.686
180001.000			8.057			-2.686
180100.000			8.057			-2.686
180200.000			8.057			-2.686
180301.000			8.057			-2.686
180400.000			8.056			-2.685
180501.000			8.056			-2.685
180602.000			8.056			-2.685
180701.000			8.056			-2.685
180800.000			8.055			-2.685
180901.000			8.056			-2.685
181000.000			8.057			-2.686
181100.000			8.056			-2.685
181201.000			8.055			-2.685
181300.000			8.055			-2.685
181400.000			8.056			-2.685
181502.000			8.056			-2.685
181601.000			8.056			-2.685
181700.000			8.056			-2.685
181801.000			8.056			-2.685
181900.000			8.055			-2.685
182000.000			8.055			-2.685
182101.000			8.055			-2.685
182200.000			8.055			-2.685
182300.000			8.054			-2.685
182402.000			8.054			-2.685
182501.000			8.056			-2.685
182602.000			8.055			-2.685
182700.000			8.054			-2.685
182800.000			8.054			-2.685
182901.000			8.055			-2.685
183000.000			8.054			-2.685
183100.000			8.055			-2.685
183201.000			8.055			-2.685
183300.000			8.055			-2.685
183401.000			8.055			-2.685
183502.000			8.055			-2.685
183601.000			8.055			-2.685
183700.000			8.054			-2.685
183801.000			8.054			-2.685
183900.000			8.054			-2.685
184000.000			8.054			-2.685
184101.000			8.054			-2.685
184200.000			8.053			-2.684
184301.000			8.053			-2.684
184402.000			8.054			-2.685
184501.000			8.053			-2.684
184600.000			8.053			-2.684
184701.000			8.053			-2.684
184800.000			8.053			-2.684
184900.000			8.053			-2.684
185001.000			8.053			-2.684
185100.000			8.053			-2.684
185200.000			8.054			-2.685
185302.000			8.054			-2.685
185401.000			8.054			-2.685
185500.000			8.053			-2.684
185600.000			8.053			-2.684
185700.000			8.052			-2.684
185801.000			8.053			-2.684
185900.000			8.053			-2.684
186000.000			8.053			-2.684
186101.000			8.053			-2.684
186201.000			8.052			-2.684
186301.000			8.052			-2.684
186401.000			8.053			-2.684
186500.000			8.052			-2.684
186600.000			8.053			-2.684
186701.000			8.053			-2.684
186800.000			8.052			-2.684
186900.000			8.052			-2.684
187001.000			8.052			-2.684
187101.000			8.051			-2.684
187201.000			8.051			-2.684
187302.000			8.051			-2.684
187400.000			8.052			-2.684
187500.000			8.053			-2.684
187601.000			8.053			-2.684
187700.000			8.052			-2.684
187800.000			8.052			-2.684
187901.000			8.051			-2.684
188000.000			8.050			-2.683
188101.000			8.052			-2.684
188202.000			8.051			-2.684
188301.000			8.051			-2.684
188400.000			8.051			-2.684
188501.000			8.051			-2.684
188600.000			8.051			-2.684
188700.000			8.050			-2.683
188800.000			8.051			-2.684
188900.000			8.051			-2.684
189001.000			8.051			-2.684
189101.000			8.050			-2.683
189201.000			8.050			-2.683
189301.000			8.050			-2.683
189400.000			8.051			-2.684
189500.000			8.050			-2.683
189601.000			8.050			-2.683
189700.000			8.050			-2.683
189800.000			8.050			-2.683
189901.000			8.051			-2.684
190001.000			8.050			-2.683
190101.000			8.050			-2.683
190202.000			8.050			-2.683
190300.000			8.050			-2.683
190400.000			8.050			-2.683
190501.000			8.050			-2.683
190600.000			8.050			-2.683
190700.000			8.051			-2.684
190801.000			8.051			-2.684
190900.000			8.051			-2.684
191001.000			8.050			-2.683
191102.000			8.050			-2.683
191200.000			8.048			-2.683
191300.000			8.049			-2.683
191401.000			8.050			-2.683
191500.000			8.049			-2.683
191600.000			8.048			-2.683
191701.000			8.049			-2.683
191800.000			8.048			-2.683
191902.000			8.049			-2.683
192001.000			8.049			-2.683
192101.000			8.049			-2.683
192201.000			8.048			-2.683
192300.000			8.048			-2.683
192400.000			8.049			-2.683
192501.000			8.048			-2.683
192600.000			8.048			-2.683
192700.000			8.048			-2.683
192801.000			8.048			-2.683
192901.000			8.048			-2.683
193001.000			8.047			-2.682
193101.000			8.048			-2.683
193200.000			8.047			-2.682
193300.000			8.046			-2.682
193401.000			8.047			-2.682
193500.000			8.048			-2.683
193600.000			8.048			-2.683
193701.000			8.049			-2.683
193801.000			8.047			-2.682
193901.000			8.048			-2.683
194002.000			8.048			-2.683
194100.000			8.048			-2.683
194200.000			8.048			-2.683
194301.000			8.049			-2.683
194400.000			8.049			-2.683
194500.000			8.049			-2.683
194601.000			8.048			-2.683
194700.000			8.047			-2.682
194801.000			8.046			-2.682
194902.000			8.046			-2.682
195000.000			8.046			-2.682
195100.000			8.046			-2.682
195200.000			8.046			-2.682
195300.000			8.047			-2.682
195401.000			8.046			-2.682
195500.000			8.047			-2.682
195600.000			8.047			-2.682
195702.000			8.047			-2.682
195801.000			8.047			-2.682
195901.000			8.046			-2.682
196001.000			8.046			-2.682
196100.000			8.046			-2.682
196200.000			8.047			-2.682
196301.000			8.046			-2.682
196400.000			8.045			-2.682
196500.000			8.046			-2.682
196601.000			8.046			-2.682
196701.000			8.045			-2.682
196801.000			8.047			-2.682
196902.000			8.047			-2.682
197000.000			8.047			-2.682
197100.000			8.046			-2.682
197201.000			8.046			-2.682
197300.000			8.046			-2.682
197400.000			8.045			-2.682
197501.000			8.046			-2.682
197600.000			8.046			-2.682
197701.000			8.045			-2.682
197802.000			8.044			-2.681
197901.000			8.045			-2.682
198000.000			8.044			-2.681
198101.000			8.045			-2.682
198200.000			8.045			-2.682
198300.000			8.045			-2.682
198400.000			8.045			-2.682
198500.000			8.045			-2.682
198601.000			8.044			-2.681
198701.000			8.044			-2.681
198801.000			8.044			-2.681
198901.000			8.044			-2.681
199000.000			8.045			-2.682
199100.000			8.043			-2.681
199201.000			8.043			-2.681
199300.000			8.044			-2.681
199400.000			8.045			-2.682
199501.000			8.045			-2.682
199601.000			8.044			-2.681
199701.000			8.044			-2.681
199802.000			8.044			-2.681
199900.000			8.045			-2.682
200000.000			8.044			-2.681
200101.000			8.043			-2.681
200200.000			8.043			-2.681
200300.000			8.043			-2.681
200401.000			8.043			-2.681
200500.000			8.044			-2.681
200601.000			8.043			-2.681
200702.000			8.043			-2.681
200800.000			8.043			-2.681
200900.000			8.043			-2.681
201001.000			8.042			-2.681
201100.000			8.043			-2.681
201200.000			8.043			-2.681
201301.000			8.042			-2.681
201401.000			8.043			-2.681
201502.000			8.044			-2.681
201601.000			8.043			-2.681
201700.000			8.042			-2.681
201801.000			8.041			-2.680
201900.000			8.041			-2.680
202000.000			8.042			-2.681
202101.000			8.042			-2.681
202200.000			8.043			-2.681
202300.000			8.042			-2.681
202402.000			8.042			-2.681
202501.000			8.043			-2.681
202600.000			8.043			-2.681
202701.000			8.043			-2.681
202800.000			8.042			-2.681
202900.000			8.041			-2.680
203001.000			8.041			-2.680
203100.000			8.041			-2.680
203200.000			8.041			-2.680
203302.000			8.041			-2.680
203401.000			8.041			-2.680
203500.000			8.041			-2.680
203601.000			8.041			-2.680
203700.000			8.041			-2.680
203800.000			8.041			-2.680
203901.000			8.042			-2.681
204000.000			8.042			-2.681
204101.000			8.042			-2.681
204202.000			8.042			-2.681
204301.000			8.041			-2.680
204400.000			8.042			-2.681
204501.000			8.042			-2.681
204600.000			8.041			-2.680
204700.000			8.041			-2.680
204800.000			8.040			-2.680
204900.000			8.041			-2.680
205001.000			8.041			-2.680
205101.000			8.040			-2.680
205201.000			8.040			-2.680
205301.000			8.041			-2.680
205400.000			8.042			-2.681
205500.000			8.041			-2.680
205601.000			8.041			-2.680
205700.000			8.041			-2.680
205800.000			8.041			-2.680
205902.000			8.041			-2.680
206001.000			8.041			-2.680
206101.000			8.040			-2.680
206201.000			8.039			-2.680
206300.000			8.039			-2.680
206400.000			8.039			-2.680
206501.000			8.040			-2.680
206600.000			8.040			-2.680
206700.000			8.039			-2.680
206801.000			8.039			-2.680
206901.000			8.040			-2.680
207001.000			8.040			-2.680
207101.000			8.040			-2.680
207200.000			8.039			-2.680
207300.000			8.038			-2.679
207401.000			8.039			-2.680
207500.000			8.040			-2.680
207600.000			8.039			-2.680
207701.000			8.038			-2.679
207801.000			8.039			-2.680
207902.000			8.039			-2.680
208001.000			8.039			-2.680
208100.000			8.039			-2.680
208201.000			8.038			-2.679
208300.000			8.038			-2.679
208400.000			8.038			-2.679
208501.000			8.040			-2.680
208600.000			8.040			-2.680
208701.000			8.040			-2.680
208802.000			8.038			-2.679
208901.000			8.037			-2.679
209000.000			8.038			-2.679
209101.000			8.038			-2.679
209200.000			8.038			-2.679
209300.000			8.038			-2.679
209401.000			8.038			-2.679
209500.000			8.038			-2.679
209600.000			8.038			-2.679
209702.000			8.037			-2.679
209801.000			8.037			-2.679
209900.000			8.038			-2.679
210001.000			8.037			-2.679
210100.000			8.037			-2.679
210200.000			8.037			-2.679
210301.000			8.038			-2.679
210400.000			8.037			-2.679
210500.000			8.037			-2.679
210602.000			8.037			-2.679
210701.000			8.036			-2.679
210801.000			8.036			-2.679
210901.000			8.036			-2.679
211000.000			8.037			-2.679
211100.000			8.037			-2.679
211200.000			8.037			-2.679
211300.000			8.036			-2.679
211401.000			8.037			-2.679
211501.000			8.036			-2.679
211601.000			8.036			-2.679
211702.000			8.036			-2.679
211800.000			8.035			-2.678
211900.000			8.035			-2.678
212001.000			8.035			-2.678
212100.000			8.035			-2.678
212200.000			8.035			-2.678
212301.000			8.036			-2.679
212401.000			8.037			-2.679
212501.000			8.035			-2.678
212602.000			8.036			-2.679
212700.000			8.037			-2.679
212800.000			8.036			-2.679
212901.000			8.036			-2.679
213000.000			8.035			-2.678
213100.000			8.036			-2.679
213201.000			8.036			-2.679
213301.000			8.035			-2.678
213401.000			8.034			-2.678
213502.000			8.035			-2.678
213600.000			8.036			-2.679
213700.000			8.036			-2.679
213801.000			8.036			-2.679
213900.000			8.037			-2.679
214000.000			8.036			-2.679
214101.000			8.036			-2.679
214201.000			8.035			-2.678
214302.000			8.034			-2.678
214401.000			8.035			-2.678
214500.000			8.035			-2.678
214601.000			8.034			-2.678
214700.000			8.034			-2.678
214800.000			8.034			-2.678
214901.000			8.034			-2.678
215000.000			8.034			-2.678
215101.000			8.035			-2.678
215202.000			8.034			-2.678
215301.000			8.034			-2.678
215400.000			8.034			-2.678
215501.000			8.034			-2.678
215600.000			8.033			-2.678
215700.000			8.033			-2.678
215801.000			8.033			-2.678
215900.000			8.034			-2.678
216001.000			8.034			-2.678
216102.000			8.034			-2.678
216201.000			8.034			-2.678
216300.000			8.034			-2.678
216401.000			8.035			-2.678
216500.000			8.034			-2.678
216600.000			8.033			-2.678
216701.000			8.033			-2.678
216800.000			8.033			-2.678
216901.000			8.034			-2.678
217002.000			8.033			-2.678
217101.000			8.034			-2.678
217200.000			8.034			-2.678
217301.000			8.034			-2.678
217400.000			8.034			-2.678
217500.000			8.033			-2.678
217600.000			8.033			-2.678
217700.000			8.032			-2.677
217802.000			8.033			-2.678
217901.000			8.033			-2.678
218001.000			8.033			-2.678
218101.000			8.032			-2.677
218200.000			8.033			-2.678
218300.000			8.032			-2.677
218401.000			8.032			-2.677
218500.000			8.032			-2.677
218600.000			8.033			-2.678
218702.000			8.033			-2.678
218801.000			8.033			-2.678
218901.000			8.032			-2.677
219001.000			8.032			-2.677
219100.000			8.031			-2.677
219200.000			8.032			-2.677
219301.000			8.033			-2.678
219400.000			8.031			-2.677
219500.000			8.031			-2.677
219601.000			8.032			-2.677
219701.000			8.032			-2.677
219801.000			8.032			-2.677
219901.000			8.032			-2.677
220000.000			8.032			-2.677
220100.000			8.032			-2.677
220201.000			8.031			-2.677
220300.000			8.031			-2.677
220400.000			8.032			-2.677
220502.000			8.031			-2.677
220601.000			8.031			-2.677
220702.000			8.030			-2.677
220800.000			8.031			-2.677
220900.000			8.032			-2.677
221001.000			8.031			-2.677
221100.000			8.032			-2.677
221200.000			8.030			-2.677
221301.000			8.030			-2.677
221401.000			8.030			-2.677
221501.000			8.031			-2.677
221601.000			8.031			-2.677
221700.000			8.031			-2.677
221800.000			8.031			-2.677
221901.000			8.030			-2.677
222000.000			8.029			-2.676
222100.000			8.029			-2.676
222201.000			8.030			-2.677
222301.000			8.030			-2.677
222401.000			8.031			-2.677
222501.000			8.029			-2.676
222600.000			8.029			-2.676
222700.000			8.031			-2.677
222801.000			8.031			-2.677
222900.000			8.031			-2.677
223000.000			8.030			-2.677
223101.000			8.030			-2.677
223201.000			8.030			-2.677
223301.000			8.030			-2.677
223401.000			8.030			-2.677
223500.000			8.029			-2.676
223600.000			8.029			-2.676
223701.000			8.029			-2.676
223800.000			8.030			-2.677
223900.000			8.030			-2.677
224000.000			8.030			-2.677
224101.000			8.029			-2.676
224202.000			8.028			-2.676
224300.000			8.029			-2.676
224400.000			8.029			-2.676
224501.000			8.031			-2.677
224600.000			8.029			-2.676
224700.000			8.028			-2.676
224801.000			8.029			-2.676
224900.000			8.029			-2.676
225001.000			8.029			-2.676
225102.000			8.028			-2.676
225201.000			8.028			-2.676
225300.000			8.028			-2.676
225401.000			8.029			-2.676
225500.000			8.029			-2.676
225600.000			8.028			-2.676
225701.000			8.028			-2.676
225800.000			8.028			-2.676
225901.000			8.028			-2.676
226002.000			8.028			-2.676
226101.000			8.028			-2.676
226200.000			8.028			-2.676
226301.000			8.028			-2.676
226400.000			8.028			-2.676
226500.000			8.029			-2.676
226601.000			8.028			-2.676
226700.000			8.027			-2.676
226800.000			8.028			-2.676
226902.000			8.028			-2.676
227001.000			8.028			-2.676
227100.000			8.028			-2.676
227200.000			8.028			-2.676
227300.000			8.028			-2.676
227401.000			8.026			-2.675
227500.000			8.026			-2.675
227600.000			8.027			-2.676
227701.000			8.028			-2.676
227801.000			8.028			-2.676
227901.000			8.027			-2.676
228001.000			8.028			-2.676
228100.000			8.027			-2.676
228200.000			8.028			-2.676
228301.000			8.028			-2.676
228400.000			8.028			-2.676
228500.000			8.027			-2.676
228601.000			8.027			-2.676
228701.000			8.025			-2.675
228801.000			8.025			-2.675
228902.000			8.027			-2.676
229000.000			8.027			-2.676
229100.000			8.027			-2.676
229201.000			8.027			-2.676
229300.000			8.026			-2.675
229400.000			8.027			-2.676
229501.000			8.027			-2.676
229601.000			8.027			-2.676
229701.000			8.027			-2.676
229802.000			8.026			-2.675
229900.000			8.026			-2.675
230000.000			8.026			-2.675
230101.000			8.026			-2.675
230200.000			8.025			-2.675
230300.000			8.026			-2.675
230400.000			8.026			-2.675
230500.000			8.026			-2.675
230602.000			8.026			-2.675
230701.000			8.026			-2.675
230800.000			8.026			-2.675
230901.000			8.025			-2.675
231000.000			8.025			-2.675
231100.000			8.025			-2.675
231201.000			8.025			-2.675
231300.000			8.025			-2.675
231400.000			8.025			-2.675
231502.000			8.025			-2.675
231601.000			8.026			-2.675
231700.000			8.026			-2.675
231801.000			8.026			-2.675
231900.000			8.026			-2.675
232000.000			8.026			-2.675
232101.000			8.025			-2.675
232200.000			8.026			-2.675
232300.000			8.025			-2.675
232402.000			8.024			-2.675
232501.000			8.025			-2.675
232600.000			8.025			-2.675
232701.000			8.025			-2.675
232800.000			8.025			-2.675
232900.000			8.024			-2.675
233001.000			8.025			-2.675
233100.000			8.026			-2.675
233200.000			8.025			-2.675
233302.000			8.023			-2.674
233401.000			8.024			-2.675
233500.000			8.025			-2.675
233600.000			8.024			-2.675
233700.000			8.023			-2.674
233801.000			8.022			-2.674
233900.000			8.023			-2.674
234000.000			8.024			-2.675
234101.000			8.024			-2.675
234201.000			8.023			-2.674
234301.000			8.023			-2.674
234401.000			8.023			-2.674
234500.000			8.024			-2.675
234600.000			8.024			-2.675
234701.000			8.024			-2.675
234800.000			8.023			-2.674
234900.000			8.023			-2.674
235001.000			8.024			-2.675
235101.000			8.023			-2.674
235201.000			8.023			-2.674
235301.000			8.023			-2.674
235400.000			8.023			-2.674
235500.000			8.022			-2.674
235601.000			8.023			-2.674
235700.000			8.023			-2.674
235800.000			8.023			-2.674
235901.000			8.023			-2.674
236001.000			8.023			-2.674
236101.000			8.023			-2.674
236201.000			8.024			-2.675
236300.000			8.022			-2.674
236400.000			8.022			-2.674
236501.000			8.023			-2.674
236600.000			8.022			-2.674
236700.000			8.023			-2.674
236800.000			8.022			-2.674
236901.000			8.023			-2.674
237002.000			8.023			-2.674
237101.000			8.022			-2.674
237200.000			8.022			-2.674
237301.000			8.023			-2.674
237400.000			8.023			-2.674
237500.000			8.023			-2.674
237601.000			8.022			-2.674
237700.000			8.022			-2.674
237801.000			8.022			-2.674
237902.000			8.021			-2.674
238001.000			8.021			-2.674
238100.000			8.022			-2.674
238201.000			8.021			-2.674
238300.000			8.022			-2.674
238400.000			8.022			-2.674
238501.000			8.021			-2.674
238600.000			8.021			-2.674
238701.000			8.022			-2.674
238802.000			8.022			-2.674
238901.000			8.022			-2.674
239000.000			8.022			-2.674
239101.000			8.022			-2.674
239200.000			8.021			-2.674
239300.000			8.021			-2.674
239401.000			8.022			-2.674
239500.000			8.022			-2.674
239601.000			8.021			-2.674
239702.000			8.021			-2.674
239801.000			8.021			-2.674
239900.000			8.021			-2.674
240000.000			8.020			-2.673
240100.000			8.020			-2.673
240201.000			8.021			-2.674
240300.000			8.020			-2.673
240400.000			8.021			-2.674
240502.000			8.021			-2.674
240601.000			8.021			-2.674
240701.000			8.021			-2.674
240801.000			8.021			-2.674
240900.000			8.020			-2.673
241000.000			8.021			-2.674
241101.000			8.020			-2.673
241200.000			8.021			-2.674
241300.000			8.021			-2.674
241401.000			8.020			-2.673
241501.000			8.020			-2.673
241601.000			8.020			-2.673
241701.000			8.019			-2.673
241800.000			8.019			-2.673
241900.000			8.020			-2.673
242001.000			8.019			-2.673
242100.000			8.020			-2.673
242200.000			8.021			-2.674
242301.000			8.020			-2.673
242401.000			8.020			-2.673
242501.000			8.020			-2.673
242601.000			8.020			-2.673
242700.000			8.020			-2.673
242800.000			8.019			-2.673
242901.000			8.020			-2.673
243000.000			8.019			-2.673
243100.000			8.019			-2.673
243200.000			8.020			-2.673
243301.000			8.020			-2.673
243402.000			8.021			-2.674
243500.000			8.019			-2.673
243600.000			8.019			-2.673
243701.000			8.020			-2.673
243800.000			8.019			-2.673
243900.000			8.019			-2.673
244001.000			8.020			-2.673
244100.000			8.019			-2.673
244201.000			8.019			-2.673
244302.000			8.018			-2.673
244400.000			8.019			-2.673
244500.000			8.019			-2.673
244601.000			8.019			-2.673
244700.000			8.019			-2.673
244800.000			8.019			-2.673
244901.000			8.018			-2.673
245000.000			8.018			-2.673
245101.000			8.018			-2.673
245202.000			8.018			-2.673
245301.000			8.018			-2.673
245400.000			8.018			-2.673
245501.000			8.018			-2.673
245600.000			8.019			-2.673
245700.000			8.018			-2.673
245801.000			8.018			-2.673
245900.000			8.018			-2.673
246000.000			8.018			-2.673
246102.000			8.018			-2.673
246201.000			8.018			-2.673
246300.000			8.019			-2.673
246400.000			8.018			-2.673
246500.000			8.019			-2.673
246601.000			8.019			-2.673
246700.000			8.017			-2.672
246800.000			8.017			-2.672
246901.000			8.018			-2.673
247001.000			8.019			-2.673
247101.000			8.019			-2.673
247202.000			8.018			-2.673
247300.000			8.017			-2.672
247400.000			8.017			-2.672
247501.000			8.018			-2.673
247600.000			8.017			-2.672
247700.000			8.016			-2.672
247801.000			8.017			-2.672
247900.000			8.017			-2.672
248001.000			8.017			-2.672
248102.000			8.016			-2.672
248200.000			8.015			-2.672
248300.000			8.017			-2.672
248401.000			8.016			-2.672
248500.000			8.016			-2.672
248600.000			8.017			-2.672
248701.000			8.017			-2.672
248800.000			8.016			-2.672
248901.000			8.016			-2.672
249002.000			8.017			-2.672
249101.000			8.017			-2.672
249200.000			8.016			-2.672
249301.000			8.017			-2.672
249400.000			8.017			-2.672
249500.000			8.016			-2.672
249600.000			8.016			-2.672
249700.000			8.017			-2.672
249801.000			8.017			-2.672
249901.000			8.017			-2.672
250001.000			8.017			-2.672
250101.000			8.016			-2.672
250200.000			8.017			-2.672
250300.000			8.016			-2.672
250401.000			8.015			-2.672
250500.000			8.015			-2.672
250600.000			8.016			-2.672
250701.000			8.016			-2.672
250801.000			8.016			-2.672
250901.000			8.016			-2.672
251001.000			8.017			-2.672
251100.000			8.017			-2.672
251200.000			8.016			-2.672
251301.000			8.016			-2.672
251400.000			8.015			-2.672
251500.000			8.014			-2.671
251601.000			8.016			-2.672
251701.000			8.016			-2.672
251801.000			8.016			-2.672
251901.000			8.016			-2.672
252000.000			8.016			-2.672
252100.000			8.014			-2.671
252201.000			8.015			-2.672
252300.000			8.015			-2.672
252400.000			8.015			-2.672
252501.000			8.015			-2.672
252601.000			8.015			-2.672
252702.000			8.015			-2.672
252801.000			8.015			-2.672
252900.000			8.016			-2.672
253001.000			8.014			-2.671
253100.000			8.014			-2.671
253200.000			8.014			-2.671
253301.000			8.014			-2.671
253400.000			8.014			-2.671
253501.000			8.015			-2.672
253602.000			8.014			-2.671
253701.000			8.014			-2.671
253800.000			8.015			-2.672
253901.000			8.015			-2.672
254000.000			8.015			-2.672
254100.000			8.013			-2.671
254201.000			8.013			-2.671
254300.000			8.014			-2.671
254400.000			8.014			-2.671
254502.000			8.014			-2.671
254601.000			8.014			-2.671
254700.000			8.015			-2.672
254801.000			8.014			-2.671
254900.000			8.013			-2.671
255000.000			8.014			-2.671
255101.000			8.014			-2.671
255200.000			8.013			-2.671
255300.000			8.013			-2.671
255402.000			8.013			-2.671
255501.000			8.013			-2.671
255600.000			8.013			-2.671
255701.000			8.013			-2.671
255800.000			8.014			-2.671
255900.000			8.014			-2.671
256000.000			8.013			-2.671
256100.000			8.014			-2.671
256201.000			8.014			-2.671
256301.000			8.013			-2.671
256401.000			8.013			-2.671
256502.000			8.013			-2.671
256600.000			8.013			-2.671
256700.000			8.013			-2.671
256801.000			8.013			-2.671
256900.000			8.012			-2.671
257000.000			8.011			-2.670
257101.000			8.013			-2.671
257201.000			8.014			-2.671
257301.000			8.013			-2.671
257402.000			8.013			-2.671
257500.000			8.012			-2.671
257600.000			8.011			-2.670
257701.000			8.012			-2.671
257800.000			8.012			-2.671
257900.000			8.013			-2.671
258001.000			8.013			-2.671
258100.000			8.013			-2.671
258201.000			8.013			-2.671
258302.000			8.012			-2.671
258400.000			8.013			-2.671
258500.000			8.013			-2.671
258601.000			8.012			-2.671
258700.000			8.012			-2.671
258800.000			8.011			-2.670
258901.000			8.012			-2.671
259000.000			8.011			-2.670
259102.000			8.012			-2.671
259201.000			8.011			-2.670
259300.000			8.011			-2.670
259401.000			8.012			-2.671
259500.000			8.011			-2.670
259600.000			8.011			-2.670
259701.000			8.011			-2.670
259800.000			8.011			-2.670
259900.000			8.011			-2.670
260002.000			8.011			-2.670
260101.000			8.011			-2.670
260201.000			8.011			-2.670
260301.000			8.011			-2.670
260400.000			8.012			-2.671
260500.000			8.012			-2.671
260601.000			8.011			-2.670
260700.000			8.010			-2.670
260800.000			8.011			-2.670
260902.000			8.010			-2.670
261001.000			8.011			-2.670
261101.000			8.010			-2.670
261201.000			8.011			-2.670
261300.000			8.011			-2.670
261400.000			8.010			-2.670
261501.000			8.010			-2.670
261600.000			8.010			-2.670
261700.000			8.011			-2.670
261802.000			8.011			-2.670
261901.000			8.010			-2.670
262000.000			8.010			-2.670
262101.000			8.010			-2.670
262200.000			8.010			-2.670
262300.000			8.011			-2.670
262400.000			8.010			-2.670
262500.000			8.010			-2.670
262601.000			8.011			-2.670
262701.000			8.011			-2.670
262801.000			8.009			-2.670
262902.000			8.009			-2.670
263000.000			8.009			-2.670
263100.000			8.010			-2.670
263201.000			8.009			-2.670
263300.000			8.009			-2.670
263400.000			8.010			-2.670
263501.000			8.009			-2.670
263601.000			8.010			-2.670
263701.000			8.009			-2.670
263802.000			8.009			-2.670
263900.000			8.009			-2.670
264000.000			8.009			-2.670
264101.000			8.008			-2.669
264200.000			8.009			-2.670
264300.000			8.009			-2.670
264401.000			8.010			-2.670
264500.000			8.009			-2.670
264601.000			8.009			-2.670
264702.000			8.009			-2.670
264801.000			8.009			-2.670
264900.000			8.009			-2.670
265001.000			8.010			-2.670
265100.000			8.009			-2.670
265200.000			8.009			-2.670
265301.000			8.009			-2.670
265400.000			8.008			-2.669
265500.000			8.009			-2.670
265602.000			8.009			-2.670
265701.000			8.009			-2.670
265801.000			8.008			-2.669
265900.000			8.009			-2.670
266000.000			8.010			-2.670
266101.000			8.008			-2.669
266200.000			8.009			-2.670
266300.000			8.008			-2.669
266401.000			8.008			-2.669
266501.000			8.009			-2.670
266601.000			8.008			-2.669
266701.000			8.008			-2.669
266800.000			8.008			-2.669
266900.000			8.007			-2.669
267001.000			8.008			-2.669
267100.000			8.008			-2.669
267200.000			8.009			-2.670
267301.000			8.007			-2.669
267401.000			8.007			-2.669
267501.000			8.008			-2.669
267602.000			8.008			-2.669
267700.000			8.008			-2.669
267800.000			8.008			-2.669
267901.000			8.008			-2.669
268000.000			8.008			-2.669
268100.000			8.007			-2.669
268201.000			8.007			-2.669
268300.000			8.007			-2.669
268400.000			8.006			-2.669
268502.000			8.006			-2.669
268601.000			8.006			-2.669
268700.000			8.007			-2.669
268800.000			8.008			-2.669
268900.000			8.007			-2.669
269001.000			8.007			-2.669
269100.000			8.007			-2.669
269200.000			8.007			-2.669
269301.000			8.007			-2.669
269401.000			8.007			-2.669
269501.000			8.007			-2.669
269601.000			8.008			-2.669
269700.000			8.008			-2.669
269800.000			8.007			-2.669
269901.000			8.006			-2.669
270000.000			8.007			-2.669
270100.000			8.007			-2.669
270201.000			8.006			-2.669
270301.000			8.006			-2.669
270401.000			8.005			-2.668
270501.000			8.005			-2.668
270600.000			8.006			-2.669
270700.000			8.006			-2.669
270801.000			8.006			-2.669
270900.000			8.007			-2.669
271000.000			8.006			-2.669
271101.000			8.006			-2.669
271201.000			8.006			-2.669
271301.000			8.007			-2.669
271401.000			8.007			-2.669
271500.000			8.005			-2.668
271600.000			8.005			-2.668
271701.000			8.006			-2.669
271800.000			8.006			-2.669
271900.000			8.006			-2.669
272000.000			8.006			-2.669
272101.000			8.006			-2.669
272202.000			8.005			-2.668
272301.000			8.005			-2.668
272400.000			8.006			-2.669
272501.000			8.005			-2.668
272600.000			8.005			-2.668
272700.000			8.006			-2.669
272801.000			8.005			-2.668
272900.000			8.006			-2.669
273001.000			8.005			-2.668
273102.000			8.005			-2.668
273201.000			8.005			-2.668
273300.000			8.005			-2.668
273401.000			8.005			-2.668
273500.000			8.006			-2.669
273600.000			8.005			-2.668
273701.000			8.004			-2.668
273800.000			8.005			-2.668
273901.000			8.004			-2.668
274002.000			8.004			-2.668
274101.000			8.004			-2.668
274200.000			8.005			-2.668
274301.000			8.004			-2.668
274400.000			8.004			-2.668
274500.000			8.005			-2.668
274601.000			8.005			-2.668
274700.000			8.005			-2.668
274801.000			8.005			-2.668
274902.000			8.005			-2.668
275001.000			8.004			-2.668
275100.000			8.004			-2.668
275200.000			8.004			-2.668
275300.000			8.004			-2.668
275401.000			8.004			-2.668
275500.000			8.004			-2.668
275600.000			8.003			-2.668
275702.000			8.004			-2.668
275801.000			8.004			-2.668
275901.000			8.004			-2.668
276001.000			8.004			-2.668
276100.000			8.003			-2.668
276200.000			8.003			-2.668
276301.000			8.003			-2.668
276400.000			8.003			-2.668
276500.000			8.004			-2.668
276602.000			8.004			-2.668
276701.000			8.003			-2.668
276801.000			8.003			-2.668
276901.000			8.004			-2.668
277000.000			8.004			-2.668
277100.000			8.004			-2.668
277201.000			8.003			-2.668
277300.000			8.002			-2.667
277400.000			8.003			-2.668
277501.000			8.004			-2.668
277601.000			8.004			-2.668
277701.000			8.003			-2.668
277801.000			8.003			-2.668
277900.000			8.002			-2.667
278000.000			8.003			-2.668
278101.000			8.003			-2.668
278200.000			8.003			-2.668
278300.000			8.002			-2.667
278400.000			8.003			-2.668
278501.000			8.004			-2.668
278602.000			8.003			-2.668
278701.000			8.002			-2.667
278800.000			8.002			-2.667
278901.000			8.002			-2.667
279000.000			8.002			-2.667
279100.000			8.002			-2.667
279201.000			8.002			-2.667
279300.000			8.002			-2.667
279401.000			8.002			-2.667
279502.000			8.003			-2.668
279601.000			8.004			-2.668
279700.000			8.003			-2.668
279801.000			8.003			-2.668
279900.000			8.003			-2.668
280000.000			8.002			-2.667
280101.000			8.002			-2.667
280200.000			8.002			-2.667
280300.000			8.002			-2.667
280402.000			8.001			-2.667
280501.000			8.001			-2.667
280600.000			8.001			-2.667
280701.000			8.000			-2.667
280800.000			8.002			-2.667
280900.000			8.001			-2.667
281001.000			8.002			-2.667
281100.000			8.003			-2.668
281201.000			8.003			-2.668
281302.000			8.002			-2.667
281401.000			8.001			-2.667
281500.000			8.000			-2.667
281600.000			8.001			-2.667
281700.000			8.001			-2.667
281801.000			8.002			-2.667
281900.000			8.001			-2.667
282000.000			8.002			-2.667
282102.000			8.001			-2.667
282201.000			8.001			-2.667
282301.000			8.002			-2.667
282401.000			8.001			-2.667
282500.000			8.001			-2.667
282600.000			8.000			-2.667
282701.000			8.000			-2.667
282800.000			8.001			-2.667
282900.000			8.000			-2.667
283002.000			8.001			-2.667
283101.000			8.000			-2.667
283201.000			8.000			-2.667
283301.000			8.001			-2.667
283400.000			8.001			-2.667
283500.000			8.001			-2.667
283601.000			8.000			-2.667
283700.000			8.000			-2.667
283800.000			8.000			-2.667
283901.000			8.001			-2.667
284001.000			8.001			-2.667
284101.000			8.001			-2.667
284201.000			8.001			-2.667
284300.000			8.001			-2.667
284400.000			7.999			-2.666
284501.000			8.000			-2.667
284600.000			8.000			-2.667
284700.000			8.000			-2.667
284800.000			8.000			-2.667
284901.000			8.001			-2.667
285002.000			8.000			-2.667
285100.000			8.000			-2.667
285200.000			7.999			-2.666
285301.000			7.999			-2.666
285400.000			7.999			-2.666
285500.000			8.000			-2.667
285601.000			8.000			-2.667
285700.000			8.000			-2.667
285800.000			7.999			-2.666
285902.000			7.999			-2.666
286001.000			7.998			-2.666
286101.000			7.999			-2.666
286201.000			7.999			-2.666
286300.000			7.999			-2.666
286400.000			7.999			-2.666
286501.000			7.998			-2.666
286600.000			7.999			-2.666
286700.000			7.998			-2.666
286801.000			7.998			-2.666
286901.000			8.000			-2.667
287001.000			8.000			-2.667
287102.000			8.000			-2.667
287200.000			8.000			-2.667
287300.000			7.999			-2.666
287401.000			7.999			-2.666
287500.000			7.998			-2.666
287600.000			7.998			-2.666
287701.000			7.998			-2.666
287800.000			7.999			-2.666
287900.000			7.999			-2.666
288002.000			8.000			-2.667
288101.000			7.999			-2.666
288202.000			7.998			-2.666
288300.000			7.998			-2.666
288400.000			7.998			-2.666
288501.000			7.998			-2.666
288600.000			7.999			-2.666
288700.000			7.998			-2.666
288801.000			7.999			-2.666
288900.000			7.998			-2.666
289000.000			7.998			-2.666
289102.000			7.998			-2.666
289201.000			7.998			-2.666
289300.000			7.997			-2.666
289401.000			7.998			-2.666
289500.000			7.997			-2.666
289600.000			7.998			-2.666
289701.000			7.997			-2.666
289800.000			7.998			-2.666
289900.000			7.998			-2.666
290001.000			7.998			-2.666
290101.000			7.997			-2.666
290201.000			7.997			-2.666
290302.000			7.997			-2.666
290400.000			7.997			-2.666
290500.000			7.996			-2.665
290601.000			7.997			-2.666
290700.000			7.998			-2.666
290800.000			7.997			-2.666
290901.000			7.997			-2.666
291000.000			7.997			-2.666
291102.000			7.997			-2.666
291201.000			7.997			-2.666
291301.000			7.997			-2.666
291401.000			7.997			-2.666
291500.000			7.997			-2.666
291600.000			7.997			-2.666
291701.000			7.997			-2.666
291800.000			7.996			-2.665
291900.000			7.996			-2.665
292001.000			7.996			-2.665
292101.000			7.996			-2.665
292201.000			7.996			-2.665
292302.000			7.995			-2.665
292400.000			7.996			-2.665
292500.000			7.996			-2.665
292601.000			7.997			-2.666
292700.000			7.996			-2.665
292800.000			7.997			-2.666
292901.000			7.997			-2.666
293000.000			7.997			-2.666
293100.000			7.996			-2.665
293202.000			7.996			-2.665
293301.000			7.996			-2.665
293400.000			7.995			-2.665
293501.000			7.995			-2.665
293600.000			7.996			-2.665
293700.000			7.996			-2.665
293801.000			7.996			-2.665
293900.000			7.996			-2.665
294000.000			7.996			-2.665
294101.000			7.995			-2.665
294201.000			7.995			-2.665
294302.000			7.996			-2.665
294401.000			7.996			-2.665
294500.000			7.996			-2.665
294601.000			7.995			-2.665
294700.000			7.995			-2.665
294800.000			7.995			-2.665
294901.000			7.996			-2.665
295000.000			7.995			-2.665
295100.000			7.995			-2.665
295202.000			7.995			-2.665
295301.000			7.995			-2.665
295401.000			7.995			-2.665
295501.000			7.995			-2.665
295600.000			7.994			-2.665
295700.000			7.994			-2.665
295801.000			7.994			-2.665
295900.000			7.995			-2.665
296000.000			7.995			-2.665
296101.000			7.995			-2.665
296200.000			7.995			-2.665
296301.000			7.995			-2.665
296402.000			7.995			-2.665
296501.000			7.994			-2.665
296600.000			7.995			-2.665
296701.000			7.994			-2.665
296800.000			7.994			-2.665
296900.000			7.994			-2.665
297001.000			7.995			-2.665
297100.000			7.994			-2.665
297200.000			7.994			-2.665
297302.000			7.995			-2.665
297401.000			7.994			-2.665
297502.000			7.994			-2.665
297600.000			7.994			-2.665
297700.000			7.994			-2.665
297801.000			7.994			-2.665
297900.000			7.994			-2.665
298000.000			7.994			-2.665
298101.000			7.993			-2.664
298200.000			7.994			-2.665
298300.000			7.994			-2.665
298402.000			7.994			-2.665
298501.000			7.993			-2.664
298600.000			7.994			-2.665
298701.000			7.994			-2.665
298800.000			7.993			-2.664
298900.000			7.994			-2.665
299001.000			7.994			-2.665
299100.000			7.994			-2.665
299200.000			7.994			-2.665
299301.000			7.993			-2.664
299401.000			7.994			-2.665
299501.000			7.995			-2.665
299602.000			7.994			-2.665
299700.000			7.993			-2.664
299800.000			7.993			-2.664
299901.000			7.993			-2.664
