# Acquired on 29/01/2024 12:15:39 
# SPIDER: Creep_-7mm_HM077x145x38AA-1
# CREEP MEASUREMENT

# time [ms]		force [N]		stiffness [N/mm]
0.000			35.484			-5.069
104.000			36.094			-5.156
205.000			36.169			-5.167
303.000			36.067			-5.152
405.000			35.987			-5.141
504.000			35.924			-5.132
604.000			35.866			-5.124
705.000			35.772			-5.110
803.000			35.732			-5.105
904.000			35.696			-5.099
1005.000			35.663			-5.095
1104.000			35.631			-5.090
1204.000			35.601			-5.086
1305.000			35.574			-5.082
1404.000			35.548			-5.078
1503.000			35.500			-5.071
1605.000			35.479			-5.068
1704.000			35.457			-5.065
1804.000			35.436			-5.062
1905.000			35.417			-5.060
2003.000			35.397			-5.057
2104.000			35.379			-5.054
2205.000			35.346			-5.049
2304.000			35.331			-5.047
2404.000			35.315			-5.045
2505.000			35.300			-5.043
2604.000			35.285			-5.041
2703.000			35.270			-5.039
2805.000			35.255			-5.036
2904.000			35.230			-5.033
3004.000			35.217			-5.031
3105.000			35.205			-5.029
3204.000			35.193			-5.028
3304.000			35.180			-5.026
3403.000			35.169			-5.024
3504.000			35.159			-5.023
3605.000			35.137			-5.020
3704.000			35.126			-5.018
3804.000			35.116			-5.017
3904.000			35.106			-5.015
4004.000			35.096			-5.014
4104.000			35.086			-5.012
4205.000			35.077			-5.011
4304.000			35.068			-5.010
4404.000			35.048			-5.007
4505.000			35.040			-5.006
4603.000			35.031			-5.004
4704.000			35.023			-5.003
4805.000			35.014			-5.002
4904.000			35.006			-5.001
5004.000			34.997			-5.000
5104.000			34.982			-4.997
5204.000			34.975			-4.996
5304.000			34.967			-4.995
5405.000			34.959			-4.994
5504.000			34.952			-4.993
5604.000			34.945			-4.992
5705.000			34.937			-4.991
5803.000			34.924			-4.989
5904.000			34.917			-4.988
6005.000			34.910			-4.987
6104.000			34.904			-4.986
6204.000			34.897			-4.985
6305.000			34.889			-4.984
6404.000			34.882			-4.983
6503.000			34.870			-4.981
6605.000			34.864			-4.981
6704.000			34.858			-4.980
6805.000			34.853			-4.979
6904.000			34.847			-4.978
7004.000			34.841			-4.977
7105.000			34.835			-4.976
7203.000			34.829			-4.976
7304.000			34.817			-4.974
7405.000			34.812			-4.973
7504.000			34.806			-4.972
7604.000			34.801			-4.972
7704.000			34.795			-4.971
7804.000			34.787			-4.970
7903.000			34.781			-4.969
8005.000			34.772			-4.967
8104.000			34.765			-4.966
8204.000			34.759			-4.966
8305.000			34.755			-4.965
8403.000			34.750			-4.964
8504.000			34.746			-4.964
8605.000			34.741			-4.963
8704.000			34.731			-4.962
8804.000			34.726			-4.961
8905.000			34.721			-4.960
9004.000			34.716			-4.959
9103.000			34.712			-4.959
9205.000			34.707			-4.958
9304.000			34.702			-4.957
9404.000			34.693			-4.956
9505.000			34.688			-4.955
9604.000			34.685			-4.955
9704.000			34.679			-4.954
9803.000			34.674			-4.953
9904.000			34.671			-4.953
10005.000			34.667			-4.952
10104.000			34.663			-4.952
10204.000			34.654			-4.951
10304.000			34.650			-4.950
10404.000			34.646			-4.949
10504.000			34.643			-4.949
10605.000			34.639			-4.948
10704.000			34.636			-4.948
10804.000			34.632			-4.947
10905.000			34.622			-4.946
11003.000			34.618			-4.945
11104.000			34.615			-4.945
11205.000			34.611			-4.944
11304.000			34.608			-4.944
11404.000			34.603			-4.943
11505.000			34.599			-4.943
11604.000			34.592			-4.942
11703.000			34.589			-4.941
11805.000			34.585			-4.941
11904.000			34.580			-4.940
12004.000			34.577			-4.940
12105.000			34.573			-4.939
12204.000			34.570			-4.939
12304.000			34.564			-4.938
12404.000			34.559			-4.937
12504.000			34.555			-4.936
12604.000			34.552			-4.936
12705.000			34.549			-4.936
12804.000			34.546			-4.935
12903.000			34.543			-4.935
13005.000			34.535			-4.934
13104.000			34.532			-4.933
13205.000			34.527			-4.932
13304.000			34.525			-4.932
13404.000			34.522			-4.932
13505.000			34.518			-4.931
13603.000			34.516			-4.931
13704.000			34.514			-4.931
13805.000			34.507			-4.930
13904.000			34.503			-4.929
14004.000			34.500			-4.929
14105.000			34.497			-4.928
14204.000			34.494			-4.928
14303.000			34.491			-4.927
14405.000			34.488			-4.927
14504.000			34.481			-4.926
14604.000			34.479			-4.926
14705.000			34.476			-4.925
14804.000			34.473			-4.925
14904.000			34.469			-4.924
15004.000			34.466			-4.924
15104.000			34.465			-4.924
15204.000			34.459			-4.923
15305.000			34.456			-4.922
15404.000			34.453			-4.922
15504.000			34.449			-4.921
15605.000			34.447			-4.921
15703.000			34.444			-4.921
15804.000			34.441			-4.920
15905.000			34.436			-4.919
16004.000			34.432			-4.919
16104.000			34.430			-4.919
16204.000			34.427			-4.918
16304.000			34.425			-4.918
16404.000			34.423			-4.918
16504.000			34.420			-4.917
16604.000			34.417			-4.917
16705.000			34.412			-4.916
16804.000			34.409			-4.916
16903.000			34.406			-4.915
17005.000			34.403			-4.915
17104.000			34.400			-4.914
17204.000			34.398			-4.914
17305.000			34.395			-4.914
17404.000			34.390			-4.913
17504.000			34.388			-4.913
17604.000			34.385			-4.912
17704.000			34.383			-4.912
17803.000			34.381			-4.912
17905.000			34.378			-4.911
18004.000			34.375			-4.911
18104.000			34.372			-4.910
18205.000			34.369			-4.910
18303.000			34.366			-4.909
18404.000			34.364			-4.909
18505.000			34.361			-4.909
18604.000			34.358			-4.908
18704.000			34.356			-4.908
18805.000			34.352			-4.907
18904.000			34.349			-4.907
19003.000			34.347			-4.907
19105.000			34.345			-4.906
19204.000			34.342			-4.906
19304.000			34.339			-4.906
19405.000			34.337			-4.905
19504.000			34.336			-4.905
19605.000			34.331			-4.904
19703.000			34.328			-4.904
19804.000			34.325			-4.904
19905.000			34.324			-4.903
20004.000			34.321			-4.903
20104.000			34.320			-4.903
20205.000			34.318			-4.903
20304.000			34.313			-4.902
20403.000			34.312			-4.902
20505.000			34.308			-4.901
20604.000			34.306			-4.901
20704.000			34.305			-4.901
20805.000			34.301			-4.900
20904.000			34.300			-4.900
21004.000			34.295			-4.899
21104.000			34.293			-4.899
21204.000			34.291			-4.899
21304.000			34.289			-4.898
21405.000			34.286			-4.898
21504.000			34.285			-4.898
21603.000			34.283			-4.898
21705.000			34.278			-4.897
21804.000			34.276			-4.897
21904.000			34.274			-4.896
22005.000			34.271			-4.896
22104.000			34.269			-4.896
22204.000			34.268			-4.895
22304.000			34.266			-4.895
22404.000			34.264			-4.895
22504.000			34.260			-4.894
22604.000			34.258			-4.894
22704.000			34.257			-4.894
22805.000			34.254			-4.893
22904.000			34.253			-4.893
23003.000			34.250			-4.893
23105.000			34.248			-4.893
23204.000			34.244			-4.892
23304.000			34.243			-4.892
23405.000			34.240			-4.891
23504.000			34.239			-4.891
23604.000			34.237			-4.891
23704.000			34.234			-4.891
23804.000			34.232			-4.890
23904.000			34.228			-4.890
24005.000			34.225			-4.889
24104.000			34.224			-4.889
24203.000			34.222			-4.889
24305.000			34.220			-4.889
24404.000			34.219			-4.888
24504.000			34.217			-4.888
24605.000			34.214			-4.888
24704.000			34.212			-4.887
24804.000			34.211			-4.887
24904.000			34.209			-4.887
25004.000			34.206			-4.887
25104.000			34.204			-4.886
25205.000			34.202			-4.886
25304.000			34.201			-4.886
25404.000			34.197			-4.885
25505.000			34.196			-4.885
25603.000			34.194			-4.885
25704.000			34.192			-4.885
25805.000			34.190			-4.884
25904.000			34.188			-4.884
26005.000			34.186			-4.884
26104.000			34.184			-4.883
26204.000			34.181			-4.883
26304.000			34.180			-4.883
26404.000			34.178			-4.883
26504.000			34.176			-4.882
26605.000			34.175			-4.882
26704.000			34.172			-4.882
26804.000			34.169			-4.881
26905.000			34.167			-4.881
27003.000			34.165			-4.881
27104.000			34.163			-4.880
27205.000			34.162			-4.880
27304.000			34.161			-4.880
27404.000			34.159			-4.880
27504.000			34.155			-4.879
27604.000			34.153			-4.879
27703.000			34.153			-4.879
27805.000			34.150			-4.879
27904.000			34.148			-4.878
28004.000			34.147			-4.878
28105.000			34.146			-4.878
28203.000			34.145			-4.878
28304.000			34.142			-4.877
28405.000			34.140			-4.877
28504.000			34.137			-4.877
28604.000			34.136			-4.877
28705.000			34.134			-4.876
28804.000			34.132			-4.876
28903.000			34.132			-4.876
29005.000			34.127			-4.875
29104.000			34.126			-4.875
29205.000			34.124			-4.875
29304.000			34.124			-4.875
29404.000			34.122			-4.875
29505.000			34.120			-4.874
29603.000			34.118			-4.874
29704.000			34.116			-4.874
29805.000			34.114			-4.873
29904.000			34.113			-4.873
30004.000			34.111			-4.873
30105.000			34.110			-4.873
30204.000			34.108			-4.873
30303.000			34.106			-4.872
30405.000			34.103			-4.872
30504.000			34.103			-4.872
30604.000			34.100			-4.871
30705.000			34.100			-4.871
30803.000			34.099			-4.871
30904.000			34.096			-4.871
31005.000			34.094			-4.871
31104.000			34.093			-4.870
31204.000			34.090			-4.870
31305.000			34.089			-4.870
31404.000			34.087			-4.870
31503.000			34.085			-4.869
31605.000			34.083			-4.869
31704.000			34.082			-4.869
31804.000			34.081			-4.869
31905.000			34.078			-4.868
32004.000			34.076			-4.868
32104.000			34.075			-4.868
32203.000			34.074			-4.868
32304.000			34.072			-4.867
32405.000			34.071			-4.867
32504.000			34.069			-4.867
32604.000			34.067			-4.867
32705.000			34.065			-4.866
32804.000			34.063			-4.866
32903.000			34.061			-4.866
33005.000			34.061			-4.866
33104.000			34.059			-4.866
33204.000			34.058			-4.865
33305.000			34.055			-4.865
33404.000			34.053			-4.865
33504.000			34.052			-4.865
33604.000			34.051			-4.864
33704.000			34.050			-4.864
33804.000			34.048			-4.864
33905.000			34.047			-4.864
34004.000			34.045			-4.864
34103.000			34.042			-4.863
34205.000			34.041			-4.863
34304.000			34.040			-4.863
34404.000			34.038			-4.863
34505.000			34.036			-4.862
34604.000			34.036			-4.862
34704.000			34.035			-4.862
34804.000			34.030			-4.861
34904.000			34.029			-4.861
35004.000			34.028			-4.861
35105.000			34.028			-4.861
35204.000			34.026			-4.861
35304.000			34.025			-4.861
35405.000			34.024			-4.861
35503.000			34.020			-4.860
35605.000			34.019			-4.860
35704.000			34.018			-4.860
35804.000			34.017			-4.860
35905.000			34.016			-4.859
36004.000			34.014			-4.859
36104.000			34.013			-4.859
36204.000			34.010			-4.859
36304.000			34.009			-4.858
36404.000			34.008			-4.858
36505.000			34.007			-4.858
36604.000			34.005			-4.858
36703.000			34.004			-4.858
36805.000			34.002			-4.857
36904.000			34.000			-4.857
37004.000			33.998			-4.857
37105.000			33.997			-4.857
37204.000			33.996			-4.857
37304.000			33.995			-4.856
37404.000			33.995			-4.856
37504.000			33.992			-4.856
37604.000			33.991			-4.856
37705.000			33.989			-4.856
37804.000			33.988			-4.855
37904.000			33.986			-4.855
38005.000			33.984			-4.855
38103.000			33.983			-4.855
38204.000			33.982			-4.855
38304.000			33.981			-4.854
38404.000			33.978			-4.854
38504.000			33.977			-4.854
38604.000			33.975			-4.854
38704.000			33.974			-4.853
38805.000			33.973			-4.853
38904.000			33.973			-4.853
39003.000			33.972			-4.853
39105.000			33.970			-4.853
39204.000			33.969			-4.853
39304.000			33.966			-4.852
39405.000			33.964			-4.852
39504.000			33.965			-4.852
39604.000			33.964			-4.852
39704.000			33.962			-4.852
39804.000			33.961			-4.852
39904.000			33.959			-4.851
40005.000			33.957			-4.851
40104.000			33.955			-4.851
40204.000			33.954			-4.851
40305.000			33.953			-4.850
40403.000			33.953			-4.850
40504.000			33.950			-4.850
40605.000			33.949			-4.850
40704.000			33.948			-4.850
40804.000			33.946			-4.849
40905.000			33.944			-4.849
41004.000			33.943			-4.849
41103.000			33.943			-4.849
41205.000			33.942			-4.849
41304.000			33.940			-4.849
41404.000			33.938			-4.848
41505.000			33.936			-4.848
41604.000			33.935			-4.848
41704.000			33.934			-4.848
41803.000			33.934			-4.848
41904.000			33.933			-4.848
42005.000			33.931			-4.847
42104.000			33.929			-4.847
42204.000			33.927			-4.847
42304.000			33.926			-4.847
42404.000			33.926			-4.847
42503.000			33.925			-4.846
42605.000			33.924			-4.846
42704.000			33.922			-4.846
42804.000			33.920			-4.846
42905.000			33.919			-4.846
43003.000			33.918			-4.845
43104.000			33.917			-4.845
43205.000			33.916			-4.845
43304.000			33.914			-4.845
43404.000			33.913			-4.845
43505.000			33.911			-4.844
43604.000			33.910			-4.844
43703.000			33.909			-4.844
43805.000			33.909			-4.844
43904.000			33.908			-4.844
44004.000			33.906			-4.844
44105.000			33.905			-4.844
44204.000			33.903			-4.843
44304.000			33.901			-4.843
44404.000			33.901			-4.843
44504.000			33.899			-4.843
44604.000			33.898			-4.843
44705.000			33.897			-4.842
44804.000			33.896			-4.842
44904.000			33.894			-4.842
45005.000			33.892			-4.842
45103.000			33.892			-4.842
45205.000			33.891			-4.842
45304.000			33.889			-4.841
45404.000			33.888			-4.841
45505.000			33.887			-4.841
45604.000			33.886			-4.841
45704.000			33.884			-4.841
45804.000			33.883			-4.840
45904.000			33.883			-4.840
46004.000			33.882			-4.840
46105.000			33.881			-4.840
46204.000			33.879			-4.840
46304.000			33.878			-4.840
46405.000			33.876			-4.839
46503.000			33.875			-4.839
46604.000			33.874			-4.839
46705.000			33.874			-4.839
46804.000			33.872			-4.839
46904.000			33.871			-4.839
47005.000			33.870			-4.839
47104.000			33.867			-4.838
47203.000			33.866			-4.838
47305.000			33.865			-4.838
47404.000			33.865			-4.838
47504.000			33.865			-4.838
47605.000			33.863			-4.838
47704.000			33.862			-4.837
47804.000			33.860			-4.837
47904.000			33.858			-4.837
48004.000			33.857			-4.837
48104.000			33.858			-4.837
48204.000			33.856			-4.837
48304.000			33.855			-4.836
48405.000			33.853			-4.836
48504.000			33.852			-4.836
48603.000			33.850			-4.836
48705.000			33.848			-4.835
48804.000			33.848			-4.835
48904.000			33.847			-4.835
49005.000			33.846			-4.835
49104.000			33.845			-4.835
49204.000			33.845			-4.835
49304.000			33.843			-4.835
49404.000			33.842			-4.835
49504.000			33.840			-4.834
49605.000			33.839			-4.834
49704.000			33.838			-4.834
49804.000			33.838			-4.834
49905.000			33.837			-4.834
50003.000			33.835			-4.834
50104.000			33.835			-4.834
50205.000			33.833			-4.833
50304.000			33.832			-4.833
50404.000			33.830			-4.833
50505.000			33.830			-4.833
50604.000			33.830			-4.833
50703.000			33.827			-4.832
50805.000			33.827			-4.832
50904.000			33.826			-4.832
51004.000			33.824			-4.832
51105.000			33.823			-4.832
51204.000			33.823			-4.832
51304.000			33.822			-4.832
51403.000			33.820			-4.831
51504.000			33.819			-4.831
51605.000			33.818			-4.831
51704.000			33.818			-4.831
51804.000			33.816			-4.831
51905.000			33.815			-4.831
52004.000			33.815			-4.831
52103.000			33.814			-4.831
52205.000			33.810			-4.830
52304.000			33.810			-4.830
52404.000			33.810			-4.830
52505.000			33.808			-4.830
52604.000			33.807			-4.830
52704.000			33.806			-4.829
52804.000			33.805			-4.829
52904.000			33.804			-4.829
53004.000			33.804			-4.829
53105.000			33.803			-4.829
53204.000			33.802			-4.829
53303.000			33.801			-4.829
53405.000			33.800			-4.829
53504.000			33.798			-4.828
53604.000			33.798			-4.828
53705.000			33.797			-4.828
53804.000			33.795			-4.828
53904.000			33.794			-4.828
54005.000			33.793			-4.828
54104.000			33.792			-4.827
54203.000			33.791			-4.827
54305.000			33.789			-4.827
54404.000			33.788			-4.827
54504.000			33.788			-4.827
54605.000			33.787			-4.827
54704.000			33.786			-4.827
54805.000			33.785			-4.826
54903.000			33.784			-4.826
55004.000			33.783			-4.826
55105.000			33.782			-4.826
55204.000			33.781			-4.826
55304.000			33.781			-4.826
55405.000			33.780			-4.826
55504.000			33.778			-4.825
55603.000			33.778			-4.825
55705.000			33.777			-4.825
55804.000			33.774			-4.825
55904.000			33.774			-4.825
56005.000			33.774			-4.825
56104.000			33.772			-4.825
56204.000			33.771			-4.824
56304.000			33.770			-4.824
56404.000			33.769			-4.824
56504.000			33.767			-4.824
56605.000			33.766			-4.824
56704.000			33.765			-4.824
56804.000			33.764			-4.823
56905.000			33.763			-4.823
57003.000			33.763			-4.823
57104.000			33.763			-4.823
57205.000			33.760			-4.823
57304.000			33.760			-4.823
57404.000			33.759			-4.823
57505.000			33.759			-4.823
57604.000			33.758			-4.823
57703.000			33.757			-4.822
57805.000			33.757			-4.822
57904.000			33.756			-4.822
58005.000			33.754			-4.822
58104.000			33.753			-4.822
58204.000			33.751			-4.822
58305.000			33.750			-4.821
58403.000			33.750			-4.821
58504.000			33.749			-4.821
58605.000			33.748			-4.821
58704.000			33.746			-4.821
58804.000			33.746			-4.821
58905.000			33.746			-4.821
59004.000			33.745			-4.821
59103.000			33.744			-4.821
59205.000			33.743			-4.820
59304.000			33.742			-4.820
59404.000			33.740			-4.820
59505.000			33.739			-4.820
59604.000			33.739			-4.820
59704.000			33.737			-4.820
59804.000			33.736			-4.819
59904.000			33.737			-4.820
60004.000			33.736			-4.819
60105.000			33.734			-4.819
60204.000			33.733			-4.819
60304.000			33.732			-4.819
60405.000			33.732			-4.819
60503.000			33.730			-4.819
60604.000			33.729			-4.818
60705.000			33.728			-4.818
60804.000			33.729			-4.818
60904.000			33.727			-4.818
61004.000			33.726			-4.818
61104.000			33.726			-4.818
61204.000			33.725			-4.818
61304.000			33.723			-4.818
61404.000			33.722			-4.817
61505.000			33.721			-4.817
61604.000			33.720			-4.817
61704.000			33.719			-4.817
61805.000			33.718			-4.817
61903.000			33.717			-4.817
62004.000			33.716			-4.817
62105.000			33.716			-4.817
62204.000			33.715			-4.816
62304.000			33.714			-4.816
62404.000			33.712			-4.816
62504.000			33.711			-4.816
62604.000			33.711			-4.816
62705.000			33.711			-4.816
62804.000			33.710			-4.816
62904.000			33.709			-4.816
63005.000			33.706			-4.815
63103.000			33.706			-4.815
63204.000			33.706			-4.815
63305.000			33.705			-4.815
63404.000			33.703			-4.815
63504.000			33.703			-4.815
63605.000			33.703			-4.815
63704.000			33.702			-4.815
63803.000			33.701			-4.814
63905.000			33.700			-4.814
64004.000			33.699			-4.814
64104.000			33.698			-4.814
64205.000			33.696			-4.814
64304.000			33.696			-4.814
64405.000			33.695			-4.814
64503.000			33.695			-4.814
64604.000			33.694			-4.813
64705.000			33.694			-4.813
64804.000			33.692			-4.813
64904.000			33.691			-4.813
65005.000			33.690			-4.813
65104.000			33.689			-4.813
65203.000			33.688			-4.813
65305.000			33.687			-4.812
65404.000			33.686			-4.812
65504.000			33.686			-4.812
65605.000			33.685			-4.812
65704.000			33.684			-4.812
65804.000			33.682			-4.812
65904.000			33.682			-4.812
66004.000			33.682			-4.812
66104.000			33.681			-4.812
66205.000			33.680			-4.811
66304.000			33.680			-4.811
66404.000			33.678			-4.811
66505.000			33.676			-4.811
66603.000			33.677			-4.811
66704.000			33.676			-4.811
66805.000			33.676			-4.811
66904.000			33.676			-4.811
67004.000			33.674			-4.811
67105.000			33.673			-4.810
67204.000			33.672			-4.810
67303.000			33.672			-4.810
67405.000			33.669			-4.810
67504.000			33.668			-4.810
67605.000			33.668			-4.810
67704.000			33.667			-4.810
67804.000			33.667			-4.810
67905.000			33.666			-4.809
68004.000			33.665			-4.809
68104.000			33.664			-4.809
68204.000			33.664			-4.809
68304.000			33.663			-4.809
68404.000			33.661			-4.809
68505.000			33.660			-4.809
68604.000			33.659			-4.808
68704.000			33.659			-4.808
68805.000			33.659			-4.808
68903.000			33.659			-4.808
69004.000			33.658			-4.808
69105.000			33.656			-4.808
69204.000			33.655			-4.808
69304.000			33.654			-4.808
69405.000			33.654			-4.808
69504.000			33.653			-4.808
69603.000			33.652			-4.807
69705.000			33.651			-4.807
69804.000			33.651			-4.807
69904.000			33.649			-4.807
70005.000			33.648			-4.807
70104.000			33.649			-4.807
70204.000			33.648			-4.807
70304.000			33.645			-4.806
70404.000			33.644			-4.806
70504.000			33.644			-4.806
70604.000			33.643			-4.806
70704.000			33.642			-4.806
70805.000			33.643			-4.806
70904.000			33.643			-4.806
71003.000			33.640			-4.806
71105.000			33.640			-4.806
71204.000			33.638			-4.805
71304.000			33.637			-4.805
71405.000			33.637			-4.805
71504.000			33.637			-4.805
71604.000			33.636			-4.805
71704.000			33.634			-4.805
71804.000			33.633			-4.805
71904.000			33.634			-4.805
72005.000			33.633			-4.805
72104.000			33.632			-4.805
72204.000			33.631			-4.804
72305.000			33.629			-4.804
72403.000			33.630			-4.804
72504.000			33.627			-4.804
72605.000			33.627			-4.804
72704.000			33.627			-4.804
72804.000			33.627			-4.804
72905.000			33.625			-4.804
73004.000			33.625			-4.804
73103.000			33.624			-4.803
73205.000			33.623			-4.803
73304.000			33.622			-4.803
73404.000			33.622			-4.803
73505.000			33.621			-4.803
73604.000			33.620			-4.803
73704.000			33.620			-4.803
73803.000			33.619			-4.803
73904.000			33.616			-4.802
74005.000			33.616			-4.802
74104.000			33.616			-4.802
74204.000			33.615			-4.802
74305.000			33.615			-4.802
74404.000			33.615			-4.802
74503.000			33.614			-4.802
74605.000			33.612			-4.802
74704.000			33.611			-4.802
74804.000			33.610			-4.801
74905.000			33.609			-4.801
75004.000			33.609			-4.801
75104.000			33.610			-4.801
75204.000			33.609			-4.801
75304.000			33.608			-4.801
75404.000			33.606			-4.801
75505.000			33.606			-4.801
75604.000			33.603			-4.800
75704.000			33.603			-4.800
75805.000			33.603			-4.800
75903.000			33.603			-4.800
76004.000			33.602			-4.800
76105.000			33.600			-4.800
76204.000			33.600			-4.800
76304.000			33.600			-4.800
76404.000			33.599			-4.800
76504.000			33.598			-4.800
76603.000			33.597			-4.800
76705.000			33.597			-4.800
76804.000			33.595			-4.799
76904.000			33.595			-4.799
77005.000			33.594			-4.799
77104.000			33.593			-4.799
77205.000			33.592			-4.799
77303.000			33.592			-4.799
77404.000			33.590			-4.799
77505.000			33.591			-4.799
77604.000			33.589			-4.798
77704.000			33.589			-4.798
77805.000			33.589			-4.798
77904.000			33.588			-4.798
78003.000			33.588			-4.798
78105.000			33.586			-4.798
78204.000			33.585			-4.798
78304.000			33.585			-4.798
78405.000			33.584			-4.798
78504.000			33.583			-4.798
78604.000			33.581			-4.797
78704.000			33.581			-4.797
78804.000			33.580			-4.797
78904.000			33.580			-4.797
79005.000			33.579			-4.797
79104.000			33.578			-4.797
79204.000			33.578			-4.797
79305.000			33.577			-4.797
79403.000			33.576			-4.797
79504.000			33.575			-4.796
79605.000			33.575			-4.796
79704.000			33.574			-4.796
79804.000			33.574			-4.796
79905.000			33.573			-4.796
80004.000			33.573			-4.796
80104.000			33.571			-4.796
80205.000			33.571			-4.796
80303.000			33.570			-4.796
80405.000			33.569			-4.796
80504.000			33.568			-4.795
80604.000			33.568			-4.795
80705.000			33.568			-4.795
80804.000			33.567			-4.795
80904.000			33.566			-4.795
81004.000			33.565			-4.795
81104.000			33.565			-4.795
81204.000			33.564			-4.795
81305.000			33.562			-4.795
81404.000			33.563			-4.795
81504.000			33.563			-4.795
81605.000			33.562			-4.795
81703.000			33.561			-4.794
81804.000			33.560			-4.794
81905.000			33.558			-4.794
82004.000			33.558			-4.794
82104.000			33.558			-4.794
82205.000			33.557			-4.794
82304.000			33.557			-4.794
82403.000			33.556			-4.794
82505.000			33.555			-4.794
82604.000			33.554			-4.793
82704.000			33.554			-4.793
82805.000			33.553			-4.793
82904.000			33.552			-4.793
83004.000			33.552			-4.793
83104.000			33.551			-4.793
83204.000			33.550			-4.793
83304.000			33.547			-4.792
83404.000			33.546			-4.792
83504.000			33.546			-4.792
83605.000			33.547			-4.792
83704.000			33.547			-4.792
83803.000			33.547			-4.792
83905.000			33.546			-4.792
84004.000			33.544			-4.792
84104.000			33.544			-4.792
84205.000			33.544			-4.792
84304.000			33.542			-4.792
84404.000			33.540			-4.791
84504.000			33.540			-4.791
84604.000			33.540			-4.791
84704.000			33.538			-4.791
84805.000			33.537			-4.791
84904.000			33.537			-4.791
85004.000			33.537			-4.791
85105.000			33.536			-4.791
85203.000			33.536			-4.791
85304.000			33.535			-4.791
85405.000			33.533			-4.790
85504.000			33.533			-4.790
85604.000			33.533			-4.790
85705.000			33.533			-4.790
85804.000			33.532			-4.790
85903.000			33.531			-4.790
86005.000			33.531			-4.790
86104.000			33.530			-4.790
86204.000			33.528			-4.790
86305.000			33.528			-4.790
86404.000			33.528			-4.790
86504.000			33.528			-4.790
86603.000			33.527			-4.790
86704.000			33.526			-4.789
86805.000			33.526			-4.789
86904.000			33.524			-4.789
87004.000			33.523			-4.789
87105.000			33.523			-4.789
87204.000			33.522			-4.789
87303.000			33.520			-4.789
87405.000			33.520			-4.789
87504.000			33.520			-4.789
87604.000			33.519			-4.788
87705.000			33.518			-4.788
87804.000			33.518			-4.788
87904.000			33.517			-4.788
88004.000			33.517			-4.788
88104.000			33.516			-4.788
88204.000			33.515			-4.788
88305.000			33.515			-4.788
88404.000			33.514			-4.788
88504.000			33.513			-4.788
88605.000			33.512			-4.787
88703.000			33.512			-4.787
88804.000			33.511			-4.787
88905.000			33.511			-4.787
89004.000			33.510			-4.787
89104.000			33.510			-4.787
89205.000			33.509			-4.787
89304.000			33.508			-4.787
89403.000			33.508			-4.787
89505.000			33.507			-4.787
89604.000			33.507			-4.787
89704.000			33.506			-4.787
89805.000			33.505			-4.786
89904.000			33.504			-4.786
90005.000			33.504			-4.786
90104.000			33.503			-4.786
90204.000			33.503			-4.786
90304.000			33.502			-4.786
90404.000			33.501			-4.786
90504.000			33.500			-4.786
90605.000			33.500			-4.786
90704.000			33.499			-4.786
90804.000			33.499			-4.786
90905.000			33.499			-4.786
91003.000			33.498			-4.785
91104.000			33.497			-4.785
91205.000			33.496			-4.785
91304.000			33.494			-4.785
91404.000			33.494			-4.785
91505.000			33.494			-4.785
91604.000			33.493			-4.785
91703.000			33.493			-4.785
91805.000			33.492			-4.785
91904.000			33.492			-4.785
92004.000			33.491			-4.784
92105.000			33.490			-4.784
92204.000			33.490			-4.784
92304.000			33.490			-4.784
92404.000			33.489			-4.784
92504.000			33.488			-4.784
92604.000			33.488			-4.784
92705.000			33.486			-4.784
92804.000			33.487			-4.784
92904.000			33.485			-4.784
93005.000			33.484			-4.783
93103.000			33.484			-4.783
93205.000			33.484			-4.783
93304.000			33.482			-4.783
93404.000			33.483			-4.783
93505.000			33.482			-4.783
93604.000			33.482			-4.783
93704.000			33.480			-4.783
93804.000			33.479			-4.783
93904.000			33.479			-4.783
94004.000			33.479			-4.783
94105.000			33.478			-4.783
94204.000			33.478			-4.783
94304.000			33.479			-4.783
94405.000			33.477			-4.782
94503.000			33.475			-4.782
94604.000			33.475			-4.782
94705.000			33.475			-4.782
94804.000			33.475			-4.782
94904.000			33.472			-4.782
95005.000			33.473			-4.782
95104.000			33.472			-4.782
95203.000			33.472			-4.782
95305.000			33.471			-4.782
95404.000			33.470			-4.781
95504.000			33.470			-4.781
95605.000			33.469			-4.781
95704.000			33.468			-4.781
95804.000			33.468			-4.781
95904.000			33.468			-4.781
96004.000			33.467			-4.781
96103.000			33.466			-4.781
96205.000			33.466			-4.781
96304.000			33.466			-4.781
96405.000			33.464			-4.781
96504.000			33.464			-4.781
96604.000			33.463			-4.780
96705.000			33.462			-4.780
96803.000			33.462			-4.780
96904.000			33.462			-4.780
97005.000			33.461			-4.780
97104.000			33.459			-4.780
97204.000			33.459			-4.780
97305.000			33.457			-4.780
97404.000			33.457			-4.780
97503.000			33.457			-4.780
97605.000			33.458			-4.780
97704.000			33.456			-4.779
97804.000			33.455			-4.779
97905.000			33.454			-4.779
98004.000			33.452			-4.779
98104.000			33.452			-4.779
98204.000			33.453			-4.779
98304.000			33.452			-4.779
98404.000			33.451			-4.779
98505.000			33.450			-4.779
98604.000			33.451			-4.779
98704.000			33.450			-4.779
98805.000			33.449			-4.778
98903.000			33.448			-4.778
99004.000			33.447			-4.778
99105.000			33.446			-4.778
99204.000			33.447			-4.778
99304.000			33.446			-4.778
99404.000			33.446			-4.778
99504.000			33.445			-4.778
99604.000			33.444			-4.778
99704.000			33.444			-4.778
99804.000			33.444			-4.778
99905.000			33.443			-4.778
100004.000			33.442			-4.777
100104.000			33.442			-4.777
100205.000			33.441			-4.777
100303.000			33.440			-4.777
100404.000			33.439			-4.777
100505.000			33.440			-4.777
100604.000			33.440			-4.777
100704.000			33.439			-4.777
100805.000			33.437			-4.777
100904.000			33.437			-4.777
101003.000			33.436			-4.777
101105.000			33.436			-4.777
101204.000			33.435			-4.776
101304.000			33.434			-4.776
101405.000			33.435			-4.776
101504.000			33.434			-4.776
101604.000			33.434			-4.776
101704.000			33.432			-4.776
101804.000			33.431			-4.776
101904.000			33.432			-4.776
102005.000			33.431			-4.776
102104.000			33.430			-4.776
102204.000			33.431			-4.776
102305.000			33.430			-4.776
102403.000			33.429			-4.776
102504.000			33.428			-4.775
102605.000			33.428			-4.775
102704.000			33.427			-4.775
102805.000			33.426			-4.775
102904.000			33.425			-4.775
103004.000			33.425			-4.775
103104.000			33.425			-4.775
103204.000			33.425			-4.775
103304.000			33.424			-4.775
103405.000			33.423			-4.775
103504.000			33.421			-4.774
103604.000			33.421			-4.774
103705.000			33.420			-4.774
103803.000			33.420			-4.774
103904.000			33.420			-4.774
104005.000			33.420			-4.774
104104.000			33.420			-4.774
104204.000			33.419			-4.774
104305.000			33.417			-4.774
104404.000			33.418			-4.774
104503.000			33.417			-4.774
104605.000			33.417			-4.774
104704.000			33.416			-4.774
104804.000			33.415			-4.774
104905.000			33.416			-4.774
105004.000			33.414			-4.773
105104.000			33.413			-4.773
105204.000			33.412			-4.773
105304.000			33.411			-4.773
105404.000			33.411			-4.773
105505.000			33.411			-4.773
105604.000			33.411			-4.773
105704.000			33.410			-4.773
105805.000			33.409			-4.773
105903.000			33.408			-4.773
106005.000			33.408			-4.773
106104.000			33.407			-4.772
106204.000			33.407			-4.772
106305.000			33.407			-4.772
106404.000			33.407			-4.772
106504.000			33.406			-4.772
106604.000			33.405			-4.772
106704.000			33.405			-4.772
106804.000			33.405			-4.772
106905.000			33.405			-4.772
107004.000			33.403			-4.772
107104.000			33.402			-4.772
107205.000			33.401			-4.772
107303.000			33.401			-4.772
107404.000			33.400			-4.771
107505.000			33.400			-4.771
107604.000			33.400			-4.771
107704.000			33.399			-4.771
107805.000			33.399			-4.771
107904.000			33.399			-4.771
108003.000			33.396			-4.771
108105.000			33.396			-4.771
108204.000			33.397			-4.771
108304.000			33.396			-4.771
108405.000			33.396			-4.771
108504.000			33.396			-4.771
108604.000			33.395			-4.771
108704.000			33.393			-4.770
108804.000			33.393			-4.770
108904.000			33.392			-4.770
109004.000			33.391			-4.770
109104.000			33.391			-4.770
109205.000			33.391			-4.770
109304.000			33.391			-4.770
109403.000			33.391			-4.770
109505.000			33.391			-4.770
109603.000			33.390			-4.770
109704.000			33.388			-4.770
109805.000			33.388			-4.770
109904.000			33.387			-4.770
110004.000			33.386			-4.769
110105.000			33.385			-4.769
110204.000			33.385			-4.769
110303.000			33.385			-4.769
110405.000			33.384			-4.769
110504.000			33.383			-4.769
110604.000			33.383			-4.769
110705.000			33.382			-4.769
110804.000			33.382			-4.769
110904.000			33.382			-4.769
111004.000			33.381			-4.769
111104.000			33.381			-4.769
111204.000			33.381			-4.769
111305.000			33.379			-4.768
111404.000			33.378			-4.768
111504.000			33.378			-4.768
111605.000			33.377			-4.768
111703.000			33.377			-4.768
111804.000			33.377			-4.768
111905.000			33.376			-4.768
112004.000			33.376			-4.768
112104.000			33.376			-4.768
112204.000			33.375			-4.768
112304.000			33.372			-4.767
112404.000			33.373			-4.768
112504.000			33.374			-4.768
112604.000			33.373			-4.768
112705.000			33.372			-4.767
112804.000			33.372			-4.767
112904.000			33.370			-4.767
113005.000			33.370			-4.767
113103.000			33.370			-4.767
113204.000			33.370			-4.767
113305.000			33.370			-4.767
113404.000			33.368			-4.767
113504.000			33.367			-4.767
113605.000			33.366			-4.767
113704.000			33.366			-4.767
113803.000			33.365			-4.766
113905.000			33.366			-4.767
114004.000			33.365			-4.766
114104.000			33.364			-4.766
114205.000			33.364			-4.766
114304.000			33.364			-4.766
114404.000			33.363			-4.766
114504.000			33.362			-4.766
114604.000			33.361			-4.766
114704.000			33.361			-4.766
114805.000			33.361			-4.766
114904.000			33.361			-4.766
115004.000			33.361			-4.766
115105.000			33.360			-4.766
115203.000			33.359			-4.766
115304.000			33.359			-4.766
115405.000			33.358			-4.765
115504.000			33.358			-4.765
115605.000			33.358			-4.765
115704.000			33.356			-4.765
115804.000			33.356			-4.765
115905.000			33.354			-4.765
116004.000			33.354			-4.765
116103.000			33.354			-4.765
116205.000			33.354			-4.765
116304.000			33.353			-4.765
116404.000			33.354			-4.765
116505.000			33.353			-4.765
116604.000			33.352			-4.765
116704.000			33.351			-4.764
116804.000			33.350			-4.764
116904.000			33.350			-4.764
117004.000			33.350			-4.764
117105.000			33.350			-4.764
117204.000			33.350			-4.764
117304.000			33.349			-4.764
117405.000			33.348			-4.764
117503.000			33.348			-4.764
117604.000			33.347			-4.764
117705.000			33.346			-4.764
117804.000			33.345			-4.764
117904.000			33.345			-4.764
118005.000			33.345			-4.764
118104.000			33.344			-4.763
118203.000			33.343			-4.763
118305.000			33.343			-4.763
118404.000			33.342			-4.763
118504.000			33.342			-4.763
118605.000			33.341			-4.763
118704.000			33.341			-4.763
118805.000			33.341			-4.763
118904.000			33.341			-4.763
119004.000			33.339			-4.763
119104.000			33.339			-4.763
119204.000			33.339			-4.763
119304.000			33.337			-4.762
119405.000			33.338			-4.763
119504.000			33.338			-4.763
119604.000			33.337			-4.762
119705.000			33.336			-4.762
119803.000			33.335			-4.762
119904.000			33.335			-4.762
120005.000			33.334			-4.762
120104.000			33.334			-4.762
120204.000			33.334			-4.762
120305.000			33.332			-4.762
120404.000			33.333			-4.762
120503.000			33.332			-4.762
120605.000			33.331			-4.762
120704.000			33.331			-4.762
120804.000			33.330			-4.761
120905.000			33.330			-4.761
121004.000			33.330			-4.761
121104.000			33.330			-4.761
121204.000			33.329			-4.761
121304.000			33.328			-4.761
121404.000			33.328			-4.761
121505.000			33.327			-4.761
121604.000			33.328			-4.761
121704.000			33.326			-4.761
121805.000			33.325			-4.761
121903.000			33.325			-4.761
122005.000			33.324			-4.761
122104.000			33.324			-4.761
122204.000			33.324			-4.761
122305.000			33.324			-4.761
122404.000			33.322			-4.760
122504.000			33.322			-4.760
122604.000			33.322			-4.760
122704.000			33.322			-4.760
122804.000			33.321			-4.760
122905.000			33.321			-4.760
123004.000			33.321			-4.760
123104.000			33.320			-4.760
123205.000			33.319			-4.760
123303.000			33.319			-4.760
123404.000			33.318			-4.760
123505.000			33.318			-4.760
123604.000			33.317			-4.760
123704.000			33.317			-4.760
123805.000			33.317			-4.760
123904.000			33.315			-4.759
124003.000			33.316			-4.759
124105.000			33.316			-4.759
124204.000			33.314			-4.759
124304.000			33.314			-4.759
124405.000			33.313			-4.759
124504.000			33.313			-4.759
124604.000			33.313			-4.759
124704.000			33.312			-4.759
124804.000			33.312			-4.759
124904.000			33.311			-4.759
125004.000			33.311			-4.759
125104.000			33.310			-4.759
125205.000			33.310			-4.759
125304.000			33.308			-4.758
125403.000			33.308			-4.758
125505.000			33.308			-4.758
125604.000			33.308			-4.758
125704.000			33.307			-4.758
125805.000			33.307			-4.758
125904.000			33.306			-4.758
126004.000			33.305			-4.758
126104.000			33.305			-4.758
126204.000			33.305			-4.758
126304.000			33.304			-4.758
126405.000			33.304			-4.758
126504.000			33.305			-4.758
126604.000			33.304			-4.758
126705.000			33.303			-4.758
126803.000			33.302			-4.757
126904.000			33.300			-4.757
127005.000			33.300			-4.757
127104.000			33.300			-4.757
127204.000			33.301			-4.757
127305.000			33.301			-4.757
127404.000			33.301			-4.757
127503.000			33.299			-4.757
127605.000			33.299			-4.757
127704.000			33.298			-4.757
127804.000			33.297			-4.757
127905.000			33.296			-4.757
128004.000			33.296			-4.757
128104.000			33.296			-4.757
128204.000			33.295			-4.756
128304.000			33.295			-4.756
128404.000			33.294			-4.756
128504.000			33.294			-4.756
128604.000			33.293			-4.756
128705.000			33.292			-4.756
128804.000			33.293			-4.756
128904.000			33.293			-4.756
129005.000			33.292			-4.756
129104.000			33.290			-4.756
129204.000			33.290			-4.756
129304.000			33.291			-4.756
129404.000			33.291			-4.756
129504.000			33.289			-4.756
129605.000			33.289			-4.756
129704.000			33.288			-4.755
129804.000			33.288			-4.755
129905.000			33.287			-4.755
130003.000			33.286			-4.755
130104.000			33.287			-4.755
130205.000			33.287			-4.755
130304.000			33.286			-4.755
130404.000			33.285			-4.755
130505.000			33.284			-4.755
130604.000			33.284			-4.755
130703.000			33.283			-4.755
130805.000			33.284			-4.755
130904.000			33.283			-4.755
131004.000			33.282			-4.755
131105.000			33.282			-4.755
131204.000			33.281			-4.754
131304.000			33.281			-4.754
131403.000			33.281			-4.754
131504.000			33.280			-4.754
131604.000			33.280			-4.754
131704.000			33.280			-4.754
131804.000			33.279			-4.754
131905.000			33.277			-4.754
132004.000			33.277			-4.754
132104.000			33.278			-4.754
132205.000			33.277			-4.754
132303.000			33.278			-4.754
132404.000			33.276			-4.754
132505.000			33.275			-4.754
132604.000			33.275			-4.754
132704.000			33.275			-4.754
132805.000			33.274			-4.753
132904.000			33.273			-4.753
133004.000			33.274			-4.753
133105.000			33.274			-4.753
133203.000			33.273			-4.753
133304.000			33.272			-4.753
133405.000			33.272			-4.753
133504.000			33.270			-4.753
133604.000			33.270			-4.753
133705.000			33.270			-4.753
133804.000			33.270			-4.753
133904.000			33.269			-4.753
134005.000			33.269			-4.753
134103.000			33.267			-4.752
134204.000			33.267			-4.752
134305.000			33.267			-4.752
134404.000			33.267			-4.752
134504.000			33.267			-4.752
134604.000			33.268			-4.753
134704.000			33.266			-4.752
134804.000			33.266			-4.752
134904.000			33.265			-4.752
135003.000			33.263			-4.752
135105.000			33.263			-4.752
135204.000			33.264			-4.752
135304.000			33.264			-4.752
135405.000			33.262			-4.752
135504.000			33.262			-4.752
135604.000			33.262			-4.752
135704.000			33.261			-4.752
135804.000			33.261			-4.752
135903.000			33.259			-4.751
136005.000			33.260			-4.751
136104.000			33.261			-4.752
136204.000			33.259			-4.751
136305.000			33.259			-4.751
136404.000			33.259			-4.751
136504.000			33.259			-4.751
136604.000			33.257			-4.751
136704.000			33.257			-4.751
136803.000			33.257			-4.751
136905.000			33.256			-4.751
137004.000			33.255			-4.751
137104.000			33.255			-4.751
137205.000			33.255			-4.751
137304.000			33.254			-4.751
137404.000			33.254			-4.751
137504.000			33.254			-4.751
137604.000			33.253			-4.750
137704.000			33.251			-4.750
137804.000			33.251			-4.750
137904.000			33.252			-4.750
138005.000			33.252			-4.750
138104.000			33.251			-4.750
138204.000			33.251			-4.750
138305.000			33.250			-4.750
138403.000			33.250			-4.750
138504.000			33.249			-4.750
138605.000			33.248			-4.750
138704.000			33.247			-4.750
138804.000			33.247			-4.750
138905.000			33.246			-4.749
139004.000			33.246			-4.749
139104.000			33.246			-4.749
139205.000			33.246			-4.749
139303.000			33.246			-4.749
139404.000			33.245			-4.749
139505.000			33.245			-4.749
139604.000			33.244			-4.749
139704.000			33.245			-4.749
139805.000			33.243			-4.749
139904.000			33.244			-4.749
140004.000			33.243			-4.749
140105.000			33.242			-4.749
140203.000			33.241			-4.749
140304.000			33.241			-4.749
140405.000			33.241			-4.749
140504.000			33.241			-4.749
140604.000			33.239			-4.748
140705.000			33.240			-4.749
140804.000			33.239			-4.748
140904.000			33.239			-4.748
141005.000			33.238			-4.748
141103.000			33.238			-4.748
141205.000			33.238			-4.748
141304.000			33.237			-4.748
141404.000			33.238			-4.748
141505.000			33.236			-4.748
141604.000			33.236			-4.748
141704.000			33.235			-4.748
141804.000			33.234			-4.748
141904.000			33.234			-4.748
142003.000			33.233			-4.748
142105.000			33.233			-4.748
142204.000			33.233			-4.748
142304.000			33.232			-4.747
142405.000			33.233			-4.748
142504.000			33.233			-4.748
142604.000			33.232			-4.747
142704.000			33.231			-4.747
142804.000			33.231			-4.747
142904.000			33.230			-4.747
143005.000			33.230			-4.747
143104.000			33.230			-4.747
143204.000			33.229			-4.747
143305.000			33.229			-4.747
143404.000			33.228			-4.747
143504.000			33.227			-4.747
143604.000			33.227			-4.747
143704.000			33.227			-4.747
143804.000			33.226			-4.747
143905.000			33.225			-4.746
144004.000			33.226			-4.747
144104.000			33.226			-4.747
144205.000			33.226			-4.747
144303.000			33.226			-4.747
144405.000			33.225			-4.746
144504.000			33.224			-4.746
144604.000			33.223			-4.746
144705.000			33.222			-4.746
144804.000			33.222			-4.746
144904.000			33.221			-4.746
145005.000			33.221			-4.746
145104.000			33.221			-4.746
145203.000			33.220			-4.746
145305.000			33.221			-4.746
145404.000			33.221			-4.746
145504.000			33.220			-4.746
145605.000			33.219			-4.746
145704.000			33.218			-4.745
145804.000			33.217			-4.745
145905.000			33.217			-4.745
146004.000			33.216			-4.745
146103.000			33.217			-4.745
146205.000			33.217			-4.745
146304.000			33.216			-4.745
146404.000			33.216			-4.745
146505.000			33.216			-4.745
146604.000			33.216			-4.745
146704.000			33.215			-4.745
146804.000			33.214			-4.745
146904.000			33.214			-4.745
147003.000			33.214			-4.745
147105.000			33.211			-4.744
147204.000			33.211			-4.744
147304.000			33.212			-4.745
147405.000			33.211			-4.744
147504.000			33.211			-4.744
147605.000			33.210			-4.744
147703.000			33.210			-4.744
147804.000			33.209			-4.744
147905.000			33.210			-4.744
148004.000			33.209			-4.744
148104.000			33.208			-4.744
148205.000			33.208			-4.744
148304.000			33.208			-4.744
148404.000			33.209			-4.744
148505.000			33.207			-4.744
148603.000			33.207			-4.744
148704.000			33.206			-4.744
148805.000			33.206			-4.744
148904.000			33.205			-4.744
149004.000			33.204			-4.743
149105.000			33.203			-4.743
149204.000			33.203			-4.743
149304.000			33.203			-4.743
149405.000			33.203			-4.743
149503.000			33.203			-4.743
149604.000			33.202			-4.743
149705.000			33.202			-4.743
149804.000			33.201			-4.743
149904.000			33.200			-4.743
150005.000			33.201			-4.743
150104.000			33.201			-4.743
150204.000			33.200			-4.743
150305.000			33.199			-4.743
150403.000			33.199			-4.743
150504.000			33.198			-4.743
150605.000			33.198			-4.743
150704.000			33.197			-4.742
150805.000			33.197			-4.742
150904.000			33.197			-4.742
151004.000			33.197			-4.742
151104.000			33.196			-4.742
151204.000			33.197			-4.742
151303.000			33.196			-4.742
151405.000			33.196			-4.742
151504.000			33.196			-4.742
151604.000			33.194			-4.742
151705.000			33.194			-4.742
151804.000			33.193			-4.742
151904.000			33.193			-4.742
152004.000			33.193			-4.742
152104.000			33.192			-4.742
152203.000			33.192			-4.742
152305.000			33.192			-4.742
152404.000			33.191			-4.742
152504.000			33.190			-4.741
152605.000			33.190			-4.741
152704.000			33.190			-4.741
152804.000			33.189			-4.741
152904.000			33.189			-4.741
153004.000			33.188			-4.741
153104.000			33.188			-4.741
153205.000			33.189			-4.741
153304.000			33.188			-4.741
153404.000			33.187			-4.741
153505.000			33.188			-4.741
153604.000			33.186			-4.741
153704.000			33.185			-4.741
153803.000			33.186			-4.741
153904.000			33.187			-4.741
154005.000			33.185			-4.741
154104.000			33.184			-4.741
154204.000			33.183			-4.740
154305.000			33.183			-4.740
154404.000			33.181			-4.740
154504.000			33.181			-4.740
154605.000			33.180			-4.740
154703.000			33.180			-4.740
154804.000			33.177			-4.740
154905.000			33.176			-4.739
155004.000			33.178			-4.740
155104.000			33.180			-4.740
155205.000			33.180			-4.740
155304.000			33.179			-4.740
155404.000			33.178			-4.740
155505.000			33.178			-4.740
155603.000			33.178			-4.740
155704.000			33.178			-4.740
155805.000			33.179			-4.740
155904.000			33.177			-4.740
156004.000			33.177			-4.740
156105.000			33.178			-4.740
156204.000			33.176			-4.739
156304.000			33.176			-4.739
156405.000			33.176			-4.739
156503.000			33.175			-4.739
156604.000			33.175			-4.739
156705.000			33.175			-4.739
156804.000			33.174			-4.739
156904.000			33.173			-4.739
157004.000			33.173			-4.739
157104.000			33.172			-4.739
157205.000			33.173			-4.739
157304.000			33.172			-4.739
157403.000			33.172			-4.739
157505.000			33.171			-4.739
157604.000			33.172			-4.739
157704.000			33.171			-4.739
157805.000			33.170			-4.739
157904.000			33.169			-4.738
158004.000			33.170			-4.739
158105.000			33.169			-4.738
158204.000			33.169			-4.738
158303.000			33.167			-4.738
158405.000			33.167			-4.738
158504.000			33.167			-4.738
158604.000			33.166			-4.738
158705.000			33.166			-4.738
158804.000			33.166			-4.738
158904.000			33.166			-4.738
159005.000			33.165			-4.738
159104.000			33.165			-4.738
159203.000			33.165			-4.738
159305.000			33.165			-4.738
159404.000			33.164			-4.738
159504.000			33.164			-4.738
159605.000			33.164			-4.738
159704.000			33.163			-4.738
159804.000			33.163			-4.738
159905.000			33.163			-4.738
160004.000			33.161			-4.737
160103.000			33.162			-4.737
160205.000			33.162			-4.737
160304.000			33.161			-4.737
160405.000			33.160			-4.737
160504.000			33.159			-4.737
160604.000			33.159			-4.737
160705.000			33.158			-4.737
160804.000			33.159			-4.737
160904.000			33.158			-4.737
161004.000			33.157			-4.737
161104.000			33.158			-4.737
161204.000			33.158			-4.737
161305.000			33.157			-4.737
161404.000			33.157			-4.737
161504.000			33.155			-4.736
161605.000			33.156			-4.737
161703.000			33.155			-4.736
161804.000			33.154			-4.736
161904.000			33.154			-4.736
162004.000			33.154			-4.736
162104.000			33.154			-4.736
162205.000			33.154			-4.736
162304.000			33.154			-4.736
162404.000			33.153			-4.736
162505.000			33.151			-4.736
162603.000			33.152			-4.736
162704.000			33.151			-4.736
162805.000			33.151			-4.736
162904.000			33.151			-4.736
163004.000			33.151			-4.736
163105.000			33.150			-4.736
163204.000			33.149			-4.736
163304.000			33.150			-4.736
163405.000			33.150			-4.736
163503.000			33.149			-4.736
163605.000			33.148			-4.735
163704.000			33.147			-4.735
163804.000			33.147			-4.735
163905.000			33.146			-4.735
164004.000			33.145			-4.735
164104.000			33.143			-4.735
164205.000			33.145			-4.735
164304.000			33.144			-4.735
164403.000			33.143			-4.735
164505.000			33.143			-4.735
164604.000			33.141			-4.734
164704.000			33.142			-4.735
164805.000			33.142			-4.735
164904.000			33.140			-4.734
165004.000			33.140			-4.734
165104.000			33.141			-4.734
165204.000			33.140			-4.734
165303.000			33.139			-4.734
165405.000			33.138			-4.734
165504.000			33.138			-4.734
165604.000			33.139			-4.734
165705.000			33.138			-4.734
165804.000			33.138			-4.734
165904.000			33.137			-4.734
166004.000			33.137			-4.734
166104.000			33.137			-4.734
166203.000			33.136			-4.734
166305.000			33.135			-4.734
166404.000			33.136			-4.734
166504.000			33.135			-4.734
166605.000			33.135			-4.734
166704.000			33.134			-4.733
166805.000			33.132			-4.733
166903.000			33.132			-4.733
167004.000			33.134			-4.733
167105.000			33.133			-4.733
167204.000			33.133			-4.733
167304.000			33.132			-4.733
167405.000			33.131			-4.733
167504.000			33.131			-4.733
167604.000			33.130			-4.733
167705.000			33.130			-4.733
167803.000			33.131			-4.733
167904.000			33.131			-4.733
168005.000			33.129			-4.733
168104.000			33.130			-4.733
168204.000			33.129			-4.733
168305.000			33.128			-4.733
168404.000			33.127			-4.732
168504.000			33.128			-4.733
168605.000			33.128			-4.733
168703.000			33.126			-4.732
168804.000			33.127			-4.732
168905.000			33.126			-4.732
169004.000			33.126			-4.732
169104.000			33.125			-4.732
169205.000			33.125			-4.732
169304.000			33.124			-4.732
169404.000			33.125			-4.732
169505.000			33.124			-4.732
169603.000			33.124			-4.732
169704.000			33.123			-4.732
169805.000			33.123			-4.732
169904.000			33.123			-4.732
170005.000			33.122			-4.732
170104.000			33.121			-4.732
170204.000			33.121			-4.732
170305.000			33.122			-4.732
170404.000			33.121			-4.732
170503.000			33.120			-4.731
170605.000			33.120			-4.731
170704.000			33.120			-4.731
170804.000			33.120			-4.731
170905.000			33.120			-4.731
171004.000			33.120			-4.731
171104.000			33.118			-4.731
171204.000			33.118			-4.731
171304.000			33.118			-4.731
171404.000			33.118			-4.731
171505.000			33.118			-4.731
171604.000			33.117			-4.731
171704.000			33.116			-4.731
171805.000			33.115			-4.731
171904.000			33.115			-4.731
172004.000			33.115			-4.731
172104.000			33.115			-4.731
172204.000			33.115			-4.731
172304.000			33.114			-4.731
172405.000			33.113			-4.730
172504.000			33.114			-4.731
172604.000			33.114			-4.731
172705.000			33.113			-4.730
172803.000			33.111			-4.730
172904.000			33.111			-4.730
173005.000			33.111			-4.730
173104.000			33.113			-4.730
173205.000			33.112			-4.730
173304.000			33.111			-4.730
173404.000			33.110			-4.730
173505.000			33.110			-4.730
173604.000			33.110			-4.730
173703.000			33.109			-4.730
173805.000			33.109			-4.730
173904.000			33.109			-4.730
174004.000			33.109			-4.730
174105.000			33.108			-4.730
174204.000			33.107			-4.730
174304.000			33.107			-4.730
174404.000			33.106			-4.729
174504.000			33.107			-4.730
174603.000			33.105			-4.729
174705.000			33.105			-4.729
174804.000			33.106			-4.729
174904.000			33.105			-4.729
175005.000			33.104			-4.729
175104.000			33.104			-4.729
175204.000			33.105			-4.729
175304.000			33.103			-4.729
175404.000			33.104			-4.729
175504.000			33.104			-4.729
175605.000			33.103			-4.729
175704.000			33.102			-4.729
175804.000			33.101			-4.729
175905.000			33.101			-4.729
176004.000			33.100			-4.729
176104.000			33.100			-4.729
176203.000			33.100			-4.729
176304.000			33.101			-4.729
176405.000			33.100			-4.729
176504.000			33.099			-4.728
176604.000			33.099			-4.728
176705.000			33.098			-4.728
176804.000			33.098			-4.728
176904.000			33.098			-4.728
177005.000			33.098			-4.728
177103.000			33.098			-4.728
177204.000			33.097			-4.728
177304.000			33.096			-4.728
177404.000			33.096			-4.728
177504.000			33.095			-4.728
177605.000			33.095			-4.728
177704.000			33.095			-4.728
177804.000			33.094			-4.728
177905.000			33.094			-4.728
178003.000			33.093			-4.728
178104.000			33.094			-4.728
178204.000			33.093			-4.728
178304.000			33.092			-4.727
178404.000			33.093			-4.728
178505.000			33.092			-4.727
178604.000			33.092			-4.727
178704.000			33.091			-4.727
178805.000			33.091			-4.727
178904.000			33.091			-4.727
179004.000			33.091			-4.727
179104.000			33.090			-4.727
179204.000			33.089			-4.727
179304.000			33.089			-4.727
179404.000			33.089			-4.727
179504.000			33.090			-4.727
179605.000			33.088			-4.727
179704.000			33.087			-4.727
179804.000			33.088			-4.727
179905.000			33.088			-4.727
180003.000			33.088			-4.727
180104.000			33.087			-4.727
180205.000			33.088			-4.727
180304.000			33.087			-4.727
180404.000			33.086			-4.727
180505.000			33.085			-4.726
180604.000			33.085			-4.726
180704.000			33.084			-4.726
180805.000			33.085			-4.726
180903.000			33.084			-4.726
181004.000			33.083			-4.726
181105.000			33.082			-4.726
181204.000			33.083			-4.726
181304.000			33.082			-4.726
181405.000			33.082			-4.726
181504.000			33.082			-4.726
181604.000			33.081			-4.726
181705.000			33.081			-4.726
181803.000			33.081			-4.726
181904.000			33.080			-4.726
182005.000			33.079			-4.726
182104.000			33.080			-4.726
182204.000			33.080			-4.726
182305.000			33.079			-4.726
182404.000			33.080			-4.726
182504.000			33.078			-4.725
182605.000			33.077			-4.725
182703.000			33.078			-4.725
182805.000			33.077			-4.725
182904.000			33.076			-4.725
183004.000			33.077			-4.725
183105.000			33.077			-4.725
183204.000			33.077			-4.725
183304.000			33.075			-4.725
183405.000			33.075			-4.725
183504.000			33.075			-4.725
183603.000			33.076			-4.725
183705.000			33.075			-4.725
183804.000			33.075			-4.725
183904.000			33.075			-4.725
184005.000			33.073			-4.725
184104.000			33.073			-4.725
184204.000			33.073			-4.725
184305.000			33.071			-4.724
184404.000			33.071			-4.724
184503.000			33.072			-4.725
184605.000			33.071			-4.724
184704.000			33.070			-4.724
184804.000			33.071			-4.724
184905.000			33.071			-4.724
185004.000			33.071			-4.724
185104.000			33.070			-4.724
185205.000			33.069			-4.724
185304.000			33.069			-4.724
185403.000			33.068			-4.724
185505.000			33.068			-4.724
185604.000			33.069			-4.724
185704.000			33.067			-4.724
185805.000			33.067			-4.724
185904.000			33.068			-4.724
186005.000			33.067			-4.724
186104.000			33.066			-4.724
186204.000			33.065			-4.724
186304.000			33.066			-4.724
186404.000			33.067			-4.724
186504.000			33.066			-4.724
186605.000			33.066			-4.724
186704.000			33.064			-4.723
186804.000			33.064			-4.723
186905.000			33.064			-4.723
187004.000			33.063			-4.723
187104.000			33.063			-4.723
187204.000			33.063			-4.723
187304.000			33.063			-4.723
187404.000			33.062			-4.723
187505.000			33.062			-4.723
187604.000			33.062			-4.723
187704.000			33.061			-4.723
187805.000			33.060			-4.723
187904.000			33.060			-4.723
188004.000			33.060			-4.723
188104.000			33.060			-4.723
188204.000			33.060			-4.723
188304.000			33.059			-4.723
188405.000			33.059			-4.723
188504.000			33.059			-4.723
188604.000			33.057			-4.722
188705.000			33.057			-4.722
188804.000			33.058			-4.723
188904.000			33.058			-4.723
189003.000			33.057			-4.722
189104.000			33.056			-4.722
189205.000			33.055			-4.722
189304.000			33.056			-4.722
189404.000			33.056			-4.722
189505.000			33.056			-4.722
189604.000			33.056			-4.722
189704.000			33.054			-4.722
189805.000			33.054			-4.722
189903.000			33.055			-4.722
190004.000			33.055			-4.722
190105.000			33.054			-4.722
190204.000			33.053			-4.722
190304.000			33.053			-4.722
190405.000			33.053			-4.722
190504.000			33.052			-4.722
190604.000			33.052			-4.722
190705.000			33.052			-4.722
190803.000			33.051			-4.722
190904.000			33.051			-4.722
191005.000			33.050			-4.721
191104.000			33.049			-4.721
191204.000			33.050			-4.721
191305.000			33.050			-4.721
191404.000			33.049			-4.721
191504.000			33.049			-4.721
191605.000			33.048			-4.721
191703.000			33.048			-4.721
191804.000			33.048			-4.721
191905.000			33.047			-4.721
192004.000			33.048			-4.721
192104.000			33.047			-4.721
192204.000			33.046			-4.721
192304.000			33.046			-4.721
192405.000			33.046			-4.721
192504.000			33.045			-4.721
192603.000			33.045			-4.721
192705.000			33.044			-4.721
192804.000			33.044			-4.721
192904.000			33.043			-4.720
193005.000			33.042			-4.720
193104.000			33.042			-4.720
193204.000			33.042			-4.720
193304.000			33.042			-4.720
193404.000			33.042			-4.720
193503.000			33.043			-4.720
193605.000			33.043			-4.720
193704.000			33.042			-4.720
193804.000			33.041			-4.720
193905.000			33.041			-4.720
194004.000			33.041			-4.720
194104.000			33.040			-4.720
194204.000			33.040			-4.720
194304.000			33.040			-4.720
194403.000			33.040			-4.720
194505.000			33.039			-4.720
194604.000			33.038			-4.720
194704.000			33.038			-4.720
194805.000			33.038			-4.720
194904.000			33.036			-4.719
195004.000			33.036			-4.719
195104.000			33.036			-4.719
195204.000			33.036			-4.719
195303.000			33.036			-4.719
195405.000			33.036			-4.719
195504.000			33.037			-4.720
195605.000			33.034			-4.719
195704.000			33.035			-4.719
195804.000			33.036			-4.719
195905.000			33.036			-4.719
196004.000			33.034			-4.719
196104.000			33.033			-4.719
196204.000			33.033			-4.719
196304.000			33.034			-4.719
196404.000			33.033			-4.719
196505.000			33.033			-4.719
196604.000			33.032			-4.719
196704.000			33.031			-4.719
196805.000			33.031			-4.719
196903.000			33.031			-4.719
197004.000			33.031			-4.719
197104.000			33.031			-4.719
197204.000			33.030			-4.719
197304.000			33.030			-4.719
197405.000			33.029			-4.718
197504.000			33.029			-4.718
197604.000			33.028			-4.718
197705.000			33.029			-4.718
197803.000			33.029			-4.718
197904.000			33.028			-4.718
198004.000			33.027			-4.718
198104.000			33.027			-4.718
198204.000			33.027			-4.718
198305.000			33.027			-4.718
198404.000			33.026			-4.718
198504.000			33.026			-4.718
198605.000			33.026			-4.718
198704.000			33.026			-4.718
198805.000			33.025			-4.718
198903.000			33.024			-4.718
199004.000			33.025			-4.718
199105.000			33.025			-4.718
199204.000			33.024			-4.718
199304.000			33.023			-4.718
199405.000			33.024			-4.718
199504.000			33.023			-4.718
199604.000			33.021			-4.717
199705.000			33.022			-4.717
199803.000			33.022			-4.717
199904.000			33.021			-4.717
200005.000			33.022			-4.717
200104.000			33.020			-4.717
200204.000			33.020			-4.717
200305.000			33.020			-4.717
200404.000			33.020			-4.717
200503.000			33.020			-4.717
200605.000			33.019			-4.717
200704.000			33.018			-4.717
200804.000			33.018			-4.717
200905.000			33.018			-4.717
201004.000			33.018			-4.717
201104.000			33.019			-4.717
201205.000			33.018			-4.717
201304.000			33.017			-4.717
201403.000			33.017			-4.717
201505.000			33.017			-4.717
201604.000			33.017			-4.717
201704.000			33.016			-4.717
201805.000			33.016			-4.717
201904.000			33.016			-4.717
202005.000			33.014			-4.716
202103.000			33.015			-4.716
202204.000			33.014			-4.716
202305.000			33.014			-4.716
202404.000			33.014			-4.716
202504.000			33.014			-4.716
202605.000			33.014			-4.716
202704.000			33.013			-4.716
202804.000			33.012			-4.716
202905.000			33.012			-4.716
203003.000			33.012			-4.716
203104.000			33.013			-4.716
203205.000			33.012			-4.716
203304.000			33.012			-4.716
203404.000			33.011			-4.716
203505.000			33.010			-4.716
203604.000			33.010			-4.716
203703.000			33.009			-4.716
203805.000			33.010			-4.716
203904.000			33.010			-4.716
204004.000			33.009			-4.716
204105.000			33.010			-4.716
204204.000			33.010			-4.716
204304.000			33.008			-4.715
204404.000			33.007			-4.715
204504.000			33.007			-4.715
204603.000			33.008			-4.715
204705.000			33.007			-4.715
204804.000			33.006			-4.715
204904.000			33.006			-4.715
205005.000			33.005			-4.715
205104.000			33.004			-4.715
205205.000			33.004			-4.715
205303.000			33.006			-4.715
205404.000			33.005			-4.715
205505.000			33.004			-4.715
205604.000			33.005			-4.715
205704.000			33.004			-4.715
205805.000			33.004			-4.715
205904.000			33.004			-4.715
206003.000			33.003			-4.715
206105.000			33.003			-4.715
206204.000			33.004			-4.715
206304.000			33.004			-4.715
206405.000			33.003			-4.715
206504.000			33.004			-4.715
206604.000			33.003			-4.715
206704.000			33.001			-4.714
206804.000			33.000			-4.714
206903.000			33.001			-4.714
207005.000			33.001			-4.714
207104.000			33.000			-4.714
207204.000			32.999			-4.714
207305.000			32.998			-4.714
207404.000			32.999			-4.714
207504.000			32.999			-4.714
207604.000			32.998			-4.714
207704.000			32.998			-4.714
207803.000			32.998			-4.714
207905.000			32.997			-4.714
208004.000			32.996			-4.714
208104.000			32.996			-4.714
208205.000			32.996			-4.714
208304.000			32.996			-4.714
208405.000			32.995			-4.714
208504.000			32.995			-4.714
208604.000			32.995			-4.714
208704.000			32.996			-4.714
208804.000			32.994			-4.713
208904.000			32.995			-4.714
209005.000			32.994			-4.713
209104.000			32.993			-4.713
209204.000			32.992			-4.713
209305.000			32.994			-4.713
209404.000			32.993			-4.713
209504.000			32.993			-4.713
209604.000			32.993			-4.713
209704.000			32.992			-4.713
209804.000			32.991			-4.713
209905.000			32.991			-4.713
210004.000			32.991			-4.713
210104.000			32.990			-4.713
210205.000			32.991			-4.713
210304.000			32.991			-4.713
210404.000			32.991			-4.713
210504.000			32.990			-4.713
210604.000			32.990			-4.713
210704.000			32.989			-4.713
210805.000			32.989			-4.713
210904.000			32.989			-4.713
211004.000			32.988			-4.713
211105.000			32.988			-4.713
211204.000			32.989			-4.713
211304.000			32.988			-4.713
211403.000			32.988			-4.713
211504.000			32.988			-4.713
211605.000			32.987			-4.712
211704.000			32.986			-4.712
211804.000			32.985			-4.712
211905.000			32.986			-4.712
212004.000			32.986			-4.712
212104.000			32.985			-4.712
212205.000			32.984			-4.712
212303.000			32.984			-4.712
212404.000			32.985			-4.712
212505.000			32.984			-4.712
212604.000			32.983			-4.712
212704.000			32.982			-4.712
212805.000			32.982			-4.712
212904.000			32.981			-4.712
213004.000			32.982			-4.712
213105.000			32.980			-4.711
213203.000			32.981			-4.712
213304.000			32.983			-4.712
213405.000			32.982			-4.712
213504.000			32.981			-4.712
213604.000			32.980			-4.711
213705.000			32.981			-4.712
213804.000			32.980			-4.711
213904.000			32.979			-4.711
214005.000			32.980			-4.711
214103.000			32.980			-4.711
214204.000			32.979			-4.711
214305.000			32.980			-4.711
214404.000			32.979			-4.711
214504.000			32.979			-4.711
214604.000			32.979			-4.711
214704.000			32.978			-4.711
214805.000			32.977			-4.711
214904.000			32.976			-4.711
215003.000			32.976			-4.711
215105.000			32.976			-4.711
215204.000			32.977			-4.711
215304.000			32.976			-4.711
215405.000			32.975			-4.711
215504.000			32.974			-4.711
215604.000			32.974			-4.711
215705.000			32.974			-4.711
215804.000			32.974			-4.711
215903.000			32.974			-4.711
216005.000			32.973			-4.710
216104.000			32.973			-4.710
216204.000			32.974			-4.711
216305.000			32.972			-4.710
216404.000			32.972			-4.710
216504.000			32.972			-4.710
216605.000			32.971			-4.710
216704.000			32.971			-4.710
216803.000			32.971			-4.710
216905.000			32.971			-4.710
217003.000			32.970			-4.710
217104.000			32.970			-4.710
217205.000			32.970			-4.710
217304.000			32.969			-4.710
217404.000			32.970			-4.710
217505.000			32.970			-4.710
217604.000			32.969			-4.710
217703.000			32.969			-4.710
217805.000			32.968			-4.710
217903.000			32.968			-4.710
218005.000			32.968			-4.710
218104.000			32.968			-4.710
218204.000			32.966			-4.709
218305.000			32.967			-4.710
218404.000			32.967			-4.710
218504.000			32.966			-4.709
218605.000			32.966			-4.709
218704.000			32.966			-4.709
218803.000			32.966			-4.709
218905.000			32.965			-4.709
219004.000			32.965			-4.709
219104.000			32.965			-4.709
219205.000			32.965			-4.709
219304.000			32.964			-4.709
219404.000			32.963			-4.709
219505.000			32.964			-4.709
219604.000			32.964			-4.709
219703.000			32.964			-4.709
219805.000			32.964			-4.709
219904.000			32.963			-4.709
220004.000			32.963			-4.709
220105.000			32.963			-4.709
220204.000			32.961			-4.709
220304.000			32.961			-4.709
220405.000			32.962			-4.709
220504.000			32.961			-4.709
220603.000			32.960			-4.709
220705.000			32.960			-4.709
220804.000			32.960			-4.709
220904.000			32.959			-4.708
221005.000			32.958			-4.708
221104.000			32.958			-4.708
221205.000			32.958			-4.708
221304.000			32.958			-4.708
221404.000			32.958			-4.708
221504.000			32.958			-4.708
221604.000			32.958			-4.708
221703.000			32.958			-4.708
221805.000			32.957			-4.708
221904.000			32.957			-4.708
222004.000			32.957			-4.708
222105.000			32.956			-4.708
222204.000			32.955			-4.708
222304.000			32.955			-4.708
222404.000			32.955			-4.708
222504.000			32.955			-4.708
222603.000			32.954			-4.708
222705.000			32.955			-4.708
222804.000			32.954			-4.708
222904.000			32.955			-4.708
223005.000			32.955			-4.708
223104.000			32.953			-4.708
223204.000			32.953			-4.708
223304.000			32.953			-4.708
223404.000			32.953			-4.708
223504.000			32.953			-4.708
223605.000			32.952			-4.707
223704.000			32.952			-4.707
223804.000			32.951			-4.707
223905.000			32.952			-4.707
224004.000			32.952			-4.707
224104.000			32.951			-4.707
224203.000			32.951			-4.707
224304.000			32.950			-4.707
224405.000			32.949			-4.707
224504.000			32.949			-4.707
224604.000			32.950			-4.707
224705.000			32.948			-4.707
224804.000			32.949			-4.707
224904.000			32.949			-4.707
225005.000			32.948			-4.707
225103.000			32.947			-4.707
225204.000			32.947			-4.707
225304.000			32.948			-4.707
225404.000			32.947			-4.707
225504.000			32.946			-4.707
225605.000			32.946			-4.707
225704.000			32.946			-4.707
225804.000			32.946			-4.707
225905.000			32.946			-4.707
226003.000			32.945			-4.706
226104.000			32.946			-4.707
226204.000			32.946			-4.707
226304.000			32.945			-4.706
226404.000			32.944			-4.706
226505.000			32.943			-4.706
226604.000			32.943			-4.706
226704.000			32.944			-4.706
226805.000			32.944			-4.706
226904.000			32.943			-4.706
227004.000			32.942			-4.706
227104.000			32.943			-4.706
227204.000			32.942			-4.706
227304.000			32.943			-4.706
227404.000			32.943			-4.706
227504.000			32.942			-4.706
227605.000			32.941			-4.706
227704.000			32.940			-4.706
227804.000			32.940			-4.706
227905.000			32.939			-4.706
228003.000			32.939			-4.706
228104.000			32.939			-4.706
228205.000			32.940			-4.706
228304.000			32.939			-4.706
228404.000			32.939			-4.706
228505.000			32.939			-4.706
228604.000			32.938			-4.705
228704.000			32.937			-4.705
228805.000			32.937			-4.705
228903.000			32.937			-4.705
229004.000			32.937			-4.705
229105.000			32.936			-4.705
229204.000			32.936			-4.705
229304.000			32.936			-4.705
229405.000			32.936			-4.705
229504.000			32.935			-4.705
229604.000			32.936			-4.705
229705.000			32.936			-4.705
229803.000			32.935			-4.705
229904.000			32.934			-4.705
230004.000			32.935			-4.705
230104.000			32.934			-4.705
230204.000			32.934			-4.705
230305.000			32.933			-4.705
230404.000			32.934			-4.705
230504.000			32.933			-4.705
230605.000			32.932			-4.705
230703.000			32.933			-4.705
230805.000			32.933			-4.705
230904.000			32.932			-4.705
231004.000			32.932			-4.705
231105.000			32.932			-4.705
231204.000			32.931			-4.704
231304.000			32.930			-4.704
231405.000			32.929			-4.704
231504.000			32.930			-4.704
231603.000			32.931			-4.704
231705.000			32.931			-4.704
231804.000			32.930			-4.704
231904.000			32.929			-4.704
232005.000			32.929			-4.704
232104.000			32.928			-4.704
232204.000			32.929			-4.704
232305.000			32.928			-4.704
232404.000			32.927			-4.704
232503.000			32.928			-4.704
232605.000			32.928			-4.704
232704.000			32.927			-4.704
232804.000			32.927			-4.704
232905.000			32.926			-4.704
233004.000			32.926			-4.704
233104.000			32.925			-4.704
233205.000			32.925			-4.704
233304.000			32.925			-4.704
233403.000			32.926			-4.704
233505.000			32.924			-4.703
233604.000			32.923			-4.703
233704.000			32.924			-4.703
233805.000			32.925			-4.704
233904.000			32.924			-4.703
234005.000			32.923			-4.703
234104.000			32.923			-4.703
234204.000			32.922			-4.703
234304.000			32.923			-4.703
234404.000			32.922			-4.703
234504.000			32.922			-4.703
234605.000			32.922			-4.703
234704.000			32.922			-4.703
234804.000			32.922			-4.703
234905.000			32.922			-4.703
235004.000			32.921			-4.703
235104.000			32.921			-4.703
235204.000			32.921			-4.703
235304.000			32.921			-4.703
235404.000			32.919			-4.703
235505.000			32.920			-4.703
235604.000			32.919			-4.703
235704.000			32.918			-4.703
235805.000			32.919			-4.703
235904.000			32.918			-4.703
236004.000			32.918			-4.703
236104.000			32.918			-4.703
236204.000			32.917			-4.702
236304.000			32.918			-4.703
236405.000			32.917			-4.702
236504.000			32.917			-4.702
236604.000			32.916			-4.702
236705.000			32.916			-4.702
236804.000			32.916			-4.702
236904.000			32.916			-4.702
237003.000			32.915			-4.702
237104.000			32.915			-4.702
237205.000			32.915			-4.702
237304.000			32.914			-4.702
237404.000			32.914			-4.702
237505.000			32.915			-4.702
237604.000			32.914			-4.702
237704.000			32.913			-4.702
237805.000			32.913			-4.702
237903.000			32.913			-4.702
238004.000			32.914			-4.702
238105.000			32.913			-4.702
238204.000			32.912			-4.702
238304.000			32.912			-4.702
238405.000			32.912			-4.702
238504.000			32.912			-4.702
238604.000			32.912			-4.702
238705.000			32.911			-4.702
238803.000			32.911			-4.702
238904.000			32.910			-4.701
239005.000			32.910			-4.701
239104.000			32.909			-4.701
239204.000			32.909			-4.701
239305.000			32.909			-4.701
239404.000			32.910			-4.701
239504.000			32.909			-4.701
239605.000			32.909			-4.701
239703.000			32.909			-4.701
239804.000			32.907			-4.701
239905.000			32.908			-4.701
240004.000			32.907			-4.701
240104.000			32.906			-4.701
240204.000			32.907			-4.701
240304.000			32.907			-4.701
240405.000			32.906			-4.701
240504.000			32.907			-4.701
240603.000			32.906			-4.701
240705.000			32.906			-4.701
240804.000			32.905			-4.701
240904.000			32.905			-4.701
241005.000			32.906			-4.701
241104.000			32.906			-4.701
241204.000			32.904			-4.701
241305.000			32.904			-4.701
241404.000			32.904			-4.701
241503.000			32.905			-4.701
241605.000			32.904			-4.701
241704.000			32.903			-4.700
241804.000			32.901			-4.700
241905.000			32.901			-4.700
242004.000			32.903			-4.700
242104.000			32.903			-4.700
242204.000			32.902			-4.700
242304.000			32.901			-4.700
242403.000			32.901			-4.700
242505.000			32.902			-4.700
242604.000			32.901			-4.700
242704.000			32.901			-4.700
242805.000			32.901			-4.700
242904.000			32.901			-4.700
243004.000			32.901			-4.700
243104.000			32.899			-4.700
243204.000			32.899			-4.700
243303.000			32.898			-4.700
243405.000			32.897			-4.700
243504.000			32.898			-4.700
243605.000			32.898			-4.700
243704.000			32.898			-4.700
243804.000			32.897			-4.700
243905.000			32.896			-4.699
244004.000			32.897			-4.700
244104.000			32.896			-4.699
244204.000			32.896			-4.699
244304.000			32.896			-4.699
244404.000			32.897			-4.700
244505.000			32.895			-4.699
244604.000			32.895			-4.699
244704.000			32.895			-4.699
244805.000			32.895			-4.699
244904.000			32.894			-4.699
245004.000			32.894			-4.699
245104.000			32.893			-4.699
245204.000			32.894			-4.699
245303.000			32.894			-4.699
245405.000			32.894			-4.699
245504.000			32.892			-4.699
245604.000			32.892			-4.699
245705.000			32.892			-4.699
245804.000			32.892			-4.699
245904.000			32.892			-4.699
246004.000			32.892			-4.699
246104.000			32.891			-4.699
246203.000			32.892			-4.699
246305.000			32.891			-4.699
246404.000			32.891			-4.699
246504.000			32.891			-4.699
246605.000			32.890			-4.699
246704.000			32.890			-4.699
246805.000			32.889			-4.698
246904.000			32.888			-4.698
247004.000			32.889			-4.698
247104.000			32.889			-4.698
247204.000			32.889			-4.698
247304.000			32.888			-4.698
247405.000			32.888			-4.698
247504.000			32.888			-4.698
247604.000			32.889			-4.698
247705.000			32.888			-4.698
247804.000			32.887			-4.698
247904.000			32.887			-4.698
248004.000			32.886			-4.698
248104.000			32.885			-4.698
248203.000			32.886			-4.698
248305.000			32.886			-4.698
248404.000			32.886			-4.698
248504.000			32.885			-4.698
248605.000			32.885			-4.698
248704.000			32.885			-4.698
248804.000			32.885			-4.698
248905.000			32.885			-4.698
249004.000			32.884			-4.698
249103.000			32.884			-4.698
249205.000			32.883			-4.698
249304.000			32.883			-4.698
249404.000			32.884			-4.698
249505.000			32.883			-4.698
249604.000			32.882			-4.697
249704.000			32.883			-4.698
249804.000			32.883			-4.698
249904.000			32.882			-4.697
250004.000			32.881			-4.697
250104.000			32.881			-4.697
250203.000			32.882			-4.697
250305.000			32.881			-4.697
250404.000			32.880			-4.697
250504.000			32.879			-4.697
250605.000			32.880			-4.697
250704.000			32.879			-4.697
250804.000			32.880			-4.697
250904.000			32.879			-4.697
251004.000			32.879			-4.697
251103.000			32.879			-4.697
251205.000			32.878			-4.697
251304.000			32.879			-4.697
251404.000			32.877			-4.697
251505.000			32.877			-4.697
251604.000			32.878			-4.697
251704.000			32.878			-4.697
251804.000			32.878			-4.697
251904.000			32.878			-4.697
252003.000			32.877			-4.697
252105.000			32.876			-4.697
252204.000			32.876			-4.697
252304.000			32.875			-4.696
252405.000			32.875			-4.696
252504.000			32.875			-4.696
252604.000			32.875			-4.696
252704.000			32.875			-4.696
252804.000			32.874			-4.696
252903.000			32.874			-4.696
253005.000			32.874			-4.696
253104.000			32.874			-4.696
253205.000			32.874			-4.696
253304.000			32.874			-4.696
253404.000			32.873			-4.696
253505.000			32.872			-4.696
253604.000			32.873			-4.696
253704.000			32.873			-4.696
253804.000			32.873			-4.696
253904.000			32.872			-4.696
254004.000			32.872			-4.696
254105.000			32.872			-4.696
254204.000			32.871			-4.696
254304.000			32.870			-4.696
254405.000			32.870			-4.696
254504.000			32.871			-4.696
254604.000			32.870			-4.696
254704.000			32.869			-4.696
254804.000			32.869			-4.696
254903.000			32.869			-4.696
255005.000			32.868			-4.695
255104.000			32.868			-4.695
255204.000			32.868			-4.695
255305.000			32.868			-4.695
255404.000			32.868			-4.695
255504.000			32.868			-4.695
255604.000			32.868			-4.695
255704.000			32.867			-4.695
255803.000			32.867			-4.695
255905.000			32.866			-4.695
256004.000			32.866			-4.695
256104.000			32.865			-4.695
256205.000			32.866			-4.695
256304.000			32.866			-4.695
256405.000			32.865			-4.695
256504.000			32.865			-4.695
256604.000			32.864			-4.695
256704.000			32.865			-4.695
256804.000			32.864			-4.695
256904.000			32.863			-4.695
257005.000			32.863			-4.695
257104.000			32.864			-4.695
257204.000			32.864			-4.695
257305.000			32.864			-4.695
257404.000			32.863			-4.695
257504.000			32.863			-4.695
257604.000			32.863			-4.695
257704.000			32.863			-4.695
257804.000			32.863			-4.695
257905.000			32.862			-4.695
258004.000			32.862			-4.695
258104.000			32.863			-4.695
258205.000			32.862			-4.695
258304.000			32.861			-4.694
258404.000			32.861			-4.694
258504.000			32.861			-4.694
258604.000			32.861			-4.694
258703.000			32.861			-4.694
258805.000			32.860			-4.694
258904.000			32.859			-4.694
259004.000			32.859			-4.694
259105.000			32.859			-4.694
259204.000			32.858			-4.694
259304.000			32.858			-4.694
259404.000			32.858			-4.694
259504.000			32.858			-4.694
259604.000			32.858			-4.694
259704.000			32.858			-4.694
259804.000			32.858			-4.694
259905.000			32.857			-4.694
260004.000			32.857			-4.694
260104.000			32.857			-4.694
260205.000			32.857			-4.694
260304.000			32.856			-4.694
260404.000			32.856			-4.694
260504.000			32.855			-4.694
260604.000			32.855			-4.694
260704.000			32.855			-4.694
260805.000			32.855			-4.694
260904.000			32.854			-4.693
261004.000			32.854			-4.693
261105.000			32.854			-4.693
261204.000			32.854			-4.693
261304.000			32.854			-4.693
261404.000			32.854			-4.693
261504.000			32.854			-4.693
261604.000			32.854			-4.693
261705.000			32.854			-4.693
261804.000			32.853			-4.693
261904.000			32.851			-4.693
262005.000			32.852			-4.693
262104.000			32.852			-4.693
262204.000			32.852			-4.693
262304.000			32.851			-4.693
262404.000			32.850			-4.693
262504.000			32.851			-4.693
262604.000			32.851			-4.693
262704.000			32.850			-4.693
262805.000			32.849			-4.693
262904.000			32.850			-4.693
263004.000			32.850			-4.693
263105.000			32.850			-4.693
263203.000			32.850			-4.693
263304.000			32.848			-4.693
263405.000			32.849			-4.693
263504.000			32.849			-4.693
263604.000			32.849			-4.693
263705.000			32.847			-4.692
263804.000			32.847			-4.692
263904.000			32.848			-4.693
264005.000			32.846			-4.692
264103.000			32.846			-4.692
264204.000			32.847			-4.692
264304.000			32.846			-4.692
264404.000			32.847			-4.692
264504.000			32.846			-4.692
264605.000			32.846			-4.692
264704.000			32.845			-4.692
264804.000			32.845			-4.692
264905.000			32.845			-4.692
265003.000			32.844			-4.692
265104.000			32.844			-4.692
265205.000			32.844			-4.692
265304.000			32.844			-4.692
265404.000			32.844			-4.692
265505.000			32.844			-4.692
265604.000			32.843			-4.692
265704.000			32.843			-4.692
265805.000			32.843			-4.692
265903.000			32.843			-4.692
266005.000			32.843			-4.692
266103.000			32.842			-4.692
266204.000			32.843			-4.692
266305.000			32.842			-4.692
266404.000			32.842			-4.692
266504.000			32.841			-4.692
266605.000			32.840			-4.691
266704.000			32.841			-4.692
266803.000			32.839			-4.691
266905.000			32.839			-4.691
267003.000			32.840			-4.691
267104.000			32.839			-4.691
267205.000			32.838			-4.691
267304.000			32.839			-4.691
267404.000			32.839			-4.691
267505.000			32.839			-4.691
267604.000			32.839			-4.691
267704.000			32.838			-4.691
267805.000			32.838			-4.691
267903.000			32.837			-4.691
268004.000			32.838			-4.691
268105.000			32.838			-4.691
268204.000			32.837			-4.691
268304.000			32.836			-4.691
268405.000			32.836			-4.691
268504.000			32.836			-4.691
268604.000			32.836			-4.691
268705.000			32.835			-4.691
268803.000			32.835			-4.691
268904.000			32.835			-4.691
269003.000			32.835			-4.691
269104.000			32.835			-4.691
269205.000			32.835			-4.691
269304.000			32.834			-4.691
269404.000			32.834			-4.691
269505.000			32.834			-4.691
269604.000			32.833			-4.690
269703.000			32.833			-4.690
269805.000			32.832			-4.690
269903.000			32.833			-4.690
270004.000			32.833			-4.690
270105.000			32.832			-4.690
270204.000			32.832			-4.690
270304.000			32.831			-4.690
270405.000			32.831			-4.690
270504.000			32.830			-4.690
270603.000			32.831			-4.690
270705.000			32.831			-4.690
270804.000			32.831			-4.690
270904.000			32.831			-4.690
271005.000			32.830			-4.690
271104.000			32.830			-4.690
271204.000			32.829			-4.690
271305.000			32.829			-4.690
271404.000			32.830			-4.690
271503.000			32.830			-4.690
271605.000			32.829			-4.690
271704.000			32.829			-4.690
271804.000			32.827			-4.690
271905.000			32.827			-4.690
272004.000			32.828			-4.690
272104.000			32.827			-4.690
272204.000			32.826			-4.689
272304.000			32.827			-4.690
272404.000			32.827			-4.690
272504.000			32.826			-4.689
272604.000			32.826			-4.689
272705.000			32.825			-4.689
272804.000			32.826			-4.689
272904.000			32.826			-4.689
273005.000			32.825			-4.689
273104.000			32.825			-4.689
273204.000			32.825			-4.689
273304.000			32.824			-4.689
273404.000			32.824			-4.689
273504.000			32.825			-4.689
273605.000			32.826			-4.689
273704.000			32.825			-4.689
273804.000			32.823			-4.689
273905.000			32.824			-4.689
274004.000			32.823			-4.689
274104.000			32.823			-4.689
274204.000			32.823			-4.689
274304.000			32.823			-4.689
274404.000			32.823			-4.689
274505.000			32.822			-4.689
274604.000			32.822			-4.689
274704.000			32.822			-4.689
274805.000			32.822			-4.689
274904.000			32.822			-4.689
275004.000			32.822			-4.689
275104.000			32.821			-4.689
275204.000			32.821			-4.689
275304.000			32.820			-4.689
275404.000			32.820			-4.689
275504.000			32.819			-4.688
275605.000			32.819			-4.688
275704.000			32.819			-4.688
275804.000			32.821			-4.689
275905.000			32.819			-4.688
276003.000			32.819			-4.688
276104.000			32.818			-4.688
276205.000			32.818			-4.688
276304.000			32.816			-4.688
276404.000			32.816			-4.688
276505.000			32.818			-4.688
276604.000			32.818			-4.688
276704.000			32.816			-4.688
276805.000			32.817			-4.688
276903.000			32.817			-4.688
277004.000			32.816			-4.688
277104.000			32.816			-4.688
277204.000			32.817			-4.688
277304.000			32.816			-4.688
277405.000			32.816			-4.688
277504.000			32.815			-4.688
277604.000			32.816			-4.688
277705.000			32.815			-4.688
277803.000			32.815			-4.688
277904.000			32.814			-4.688
278004.000			32.814			-4.688
278104.000			32.814			-4.688
278204.000			32.814			-4.688
278305.000			32.813			-4.688
278404.000			32.814			-4.688
278504.000			32.814			-4.688
278605.000			32.812			-4.687
278704.000			32.811			-4.687
278805.000			32.811			-4.687
278903.000			32.812			-4.687
279004.000			32.812			-4.687
279105.000			32.811			-4.687
279204.000			32.810			-4.687
279304.000			32.809			-4.687
279405.000			32.810			-4.687
279504.000			32.810			-4.687
279604.000			32.810			-4.687
279705.000			32.811			-4.687
279803.000			32.810			-4.687
279904.000			32.809			-4.687
280005.000			32.810			-4.687
280104.000			32.810			-4.687
280204.000			32.810			-4.687
280305.000			32.809			-4.687
280404.000			32.809			-4.687
280504.000			32.809			-4.687
280605.000			32.808			-4.687
280703.000			32.808			-4.687
280804.000			32.807			-4.687
280905.000			32.807			-4.687
281004.000			32.807			-4.687
281104.000			32.807			-4.687
281205.000			32.806			-4.687
281304.000			32.806			-4.687
281403.000			32.806			-4.687
281505.000			32.805			-4.686
281603.000			32.806			-4.687
281704.000			32.806			-4.687
281805.000			32.806			-4.687
281904.000			32.805			-4.686
282005.000			32.805			-4.686
282104.000			32.804			-4.686
282204.000			32.804			-4.686
282304.000			32.805			-4.686
282404.000			32.804			-4.686
282503.000			32.804			-4.686
282605.000			32.803			-4.686
282704.000			32.803			-4.686
282804.000			32.803			-4.686
282905.000			32.803			-4.686
283004.000			32.802			-4.686
283104.000			32.801			-4.686
283204.000			32.802			-4.686
283304.000			32.802			-4.686
283404.000			32.801			-4.686
283505.000			32.801			-4.686
283604.000			32.801			-4.686
283704.000			32.801			-4.686
283805.000			32.801			-4.686
283904.000			32.800			-4.686
284004.000			32.800			-4.686
284104.000			32.800			-4.686
284204.000			32.800			-4.686
284304.000			32.800			-4.686
284405.000			32.800			-4.686
284504.000			32.799			-4.686
284604.000			32.799			-4.686
284705.000			32.798			-4.685
284804.000			32.798			-4.685
284904.000			32.798			-4.685
285004.000			32.797			-4.685
285104.000			32.798			-4.685
285204.000			32.797			-4.685
285304.000			32.796			-4.685
285404.000			32.796			-4.685
285505.000			32.798			-4.685
285604.000			32.797			-4.685
285704.000			32.797			-4.685
285805.000			32.797			-4.685
285904.000			32.796			-4.685
286004.000			32.796			-4.685
286104.000			32.797			-4.685
286204.000			32.795			-4.685
286303.000			32.795			-4.685
286405.000			32.794			-4.685
286504.000			32.795			-4.685
286604.000			32.794			-4.685
286705.000			32.794			-4.685
286804.000			32.794			-4.685
286904.000			32.794			-4.685
287005.000			32.793			-4.685
287104.000			32.794			-4.685
287203.000			32.793			-4.685
287305.000			32.792			-4.685
287404.000			32.793			-4.685
287504.000			32.793			-4.685
287605.000			32.792			-4.685
287704.000			32.791			-4.684
287804.000			32.792			-4.685
287905.000			32.793			-4.685
288004.000			32.791			-4.684
288103.000			32.791			-4.684
288205.000			32.790			-4.684
288304.000			32.791			-4.684
288405.000			32.790			-4.684
288504.000			32.790			-4.684
288604.000			32.789			-4.684
288705.000			32.789			-4.684
288804.000			32.790			-4.684
288904.000			32.790			-4.684
289005.000			32.789			-4.684
289104.000			32.790			-4.684
289203.000			32.789			-4.684
289305.000			32.788			-4.684
289404.000			32.788			-4.684
289504.000			32.787			-4.684
289605.000			32.788			-4.684
289704.000			32.788			-4.684
289804.000			32.787			-4.684
289905.000			32.787			-4.684
290004.000			32.786			-4.684
290103.000			32.786			-4.684
290205.000			32.787			-4.684
290303.000			32.787			-4.684
290404.000			32.787			-4.684
290505.000			32.786			-4.684
290604.000			32.785			-4.684
290704.000			32.785			-4.684
290805.000			32.786			-4.684
290904.000			32.785			-4.684
291003.000			32.784			-4.683
291105.000			32.784			-4.683
291203.000			32.784			-4.683
291304.000			32.784			-4.683
291405.000			32.784			-4.683
291504.000			32.783			-4.683
291605.000			32.783			-4.683
291704.000			32.783			-4.683
291804.000			32.783			-4.683
291905.000			32.783			-4.683
292004.000			32.782			-4.683
292103.000			32.781			-4.683
292205.000			32.780			-4.683
292304.000			32.782			-4.683
292404.000			32.781			-4.683
292505.000			32.782			-4.683
292604.000			32.781			-4.683
292704.000			32.781			-4.683
292805.000			32.781			-4.683
292904.000			32.781			-4.683
293003.000			32.780			-4.683
293105.000			32.780			-4.683
293204.000			32.780			-4.683
293304.000			32.779			-4.683
293405.000			32.779			-4.683
293504.000			32.779			-4.683
293604.000			32.779			-4.683
293705.000			32.778			-4.683
293804.000			32.778			-4.683
293903.000			32.777			-4.682
294005.000			32.778			-4.683
294103.000			32.778			-4.683
294204.000			32.778			-4.683
294305.000			32.777			-4.682
294404.000			32.777			-4.682
294504.000			32.777			-4.682
294604.000			32.778			-4.683
294704.000			32.777			-4.682
294805.000			32.777			-4.682
294904.000			32.776			-4.682
295003.000			32.776			-4.682
295105.000			32.777			-4.682
295204.000			32.776			-4.682
295304.000			32.776			-4.682
295405.000			32.776			-4.682
295504.000			32.775			-4.682
295604.000			32.776			-4.682
295705.000			32.774			-4.682
295804.000			32.774			-4.682
295903.000			32.774			-4.682
296005.000			32.774			-4.682
296103.000			32.773			-4.682
296204.000			32.773			-4.682
296305.000			32.772			-4.682
296404.000			32.773			-4.682
296504.000			32.773			-4.682
296605.000			32.772			-4.682
296704.000			32.772			-4.682
296804.000			32.772			-4.682
296905.000			32.772			-4.682
297003.000			32.771			-4.682
297104.000			32.771			-4.682
297205.000			32.771			-4.682
297304.000			32.771			-4.682
297404.000			32.771			-4.682
297505.000			32.771			-4.682
297604.000			32.771			-4.682
297704.000			32.771			-4.682
297805.000			32.769			-4.681
297903.000			32.770			-4.681
298005.000			32.769			-4.681
298103.000			32.769			-4.681
298204.000			32.768			-4.681
298305.000			32.769			-4.681
298404.000			32.769			-4.681
298504.000			32.767			-4.681
298605.000			32.768			-4.681
298704.000			32.767			-4.681
298804.000			32.768			-4.681
298905.000			32.767			-4.681
299003.000			32.767			-4.681
299104.000			32.767			-4.681
299205.000			32.767			-4.681
299304.000			32.766			-4.681
299404.000			32.766			-4.681
299505.000			32.766			-4.681
299604.000			32.766			-4.681
299704.000			32.766			-4.681
299805.000			32.766			-4.681
299904.000			32.766			-4.681
