# Acquired on 10/01/2024 15:32:46 
# SPIDER: Creep_7mm_07714532C-1
# CREEP MEASUREMENT

# time [ms]		force [N]		stiffness [N/mm]
1.000			-11.261			-1.609
101.000			-11.695			-1.671
200.000			-11.824			-1.689
300.000			-11.787			-1.684
401.000			-11.731			-1.676
500.000			-11.689			-1.670
601.000			-11.653			-1.665
701.000			-11.597			-1.657
800.000			-11.574			-1.653
900.000			-11.552			-1.650
1001.000			-11.532			-1.647
1100.000			-11.515			-1.645
1200.000			-11.499			-1.643
1302.000			-11.483			-1.640
1401.000			-11.456			-1.637
1500.000			-11.443			-1.635
1601.000			-11.431			-1.633
1700.000			-11.419			-1.631
1800.000			-11.408			-1.630
1901.000			-11.397			-1.628
2001.000			-11.387			-1.627
2101.000			-11.369			-1.624
2202.000			-11.360			-1.623
2300.000			-11.351			-1.622
2400.000			-11.343			-1.620
2501.000			-11.335			-1.619
2600.000			-11.326			-1.618
2700.000			-11.319			-1.617
2802.000			-11.313			-1.616
2901.000			-11.299			-1.614
3000.000			-11.292			-1.613
3100.000			-11.286			-1.612
3200.000			-11.280			-1.611
3301.000			-11.274			-1.611
3400.000			-11.267			-1.610
3500.000			-11.261			-1.609
3602.000			-11.250			-1.607
3701.000			-11.245			-1.606
3800.000			-11.240			-1.606
3901.000			-11.235			-1.605
4000.000			-11.230			-1.604
4100.000			-11.224			-1.603
4201.000			-11.219			-1.603
4301.000			-11.210			-1.601
4401.000			-11.206			-1.601
4501.000			-11.201			-1.600
4600.000			-11.196			-1.599
4700.000			-11.192			-1.599
4801.000			-11.189			-1.598
4900.000			-11.184			-1.598
5001.000			-11.175			-1.596
5102.000			-11.172			-1.596
5200.000			-11.167			-1.595
5300.000			-11.164			-1.595
5401.000			-11.160			-1.594
5500.000			-11.156			-1.594
5600.000			-11.152			-1.593
5701.000			-11.149			-1.593
5801.000			-11.142			-1.592
5901.000			-11.139			-1.591
6001.000			-11.135			-1.591
6100.000			-11.132			-1.590
6200.000			-11.129			-1.590
6300.000			-11.125			-1.589
6400.000			-11.122			-1.589
6502.000			-11.114			-1.588
6601.000			-11.112			-1.587
6700.000			-11.109			-1.587
6801.000			-11.106			-1.587
6900.000			-11.103			-1.586
7000.000			-11.100			-1.586
7101.000			-11.098			-1.585
7200.000			-11.091			-1.584
7301.000			-11.089			-1.584
7402.000			-11.087			-1.584
7500.000			-11.084			-1.583
7600.000			-11.080			-1.583
7701.000			-11.077			-1.582
7800.000			-11.074			-1.582
7900.000			-11.069			-1.581
8001.000			-11.067			-1.581
8101.000			-11.065			-1.581
8201.000			-11.062			-1.580
8301.000			-11.059			-1.580
8400.000			-11.056			-1.579
8500.000			-11.054			-1.579
8601.000			-11.052			-1.579
8700.000			-11.046			-1.578
8801.000			-11.045			-1.578
8902.000			-11.042			-1.577
9000.000			-11.040			-1.577
9100.000			-11.038			-1.577
9201.000			-11.036			-1.577
9300.000			-11.033			-1.576
9400.000			-11.029			-1.576
9502.000			-11.027			-1.575
9601.000			-11.025			-1.575
9701.000			-11.022			-1.575
9800.000			-11.020			-1.574
9900.000			-11.018			-1.574
10001.000			-11.016			-1.574
10100.000			-11.011			-1.573
10200.000			-11.010			-1.573
10302.000			-11.008			-1.573
10401.000			-11.006			-1.572
10500.000			-11.003			-1.572
10601.000			-11.001			-1.572
10700.000			-10.999			-1.571
10800.000			-10.994			-1.571
10901.000			-10.994			-1.571
11000.000			-10.992			-1.570
11101.000			-10.990			-1.570
11202.000			-10.988			-1.570
11300.000			-10.986			-1.569
11400.000			-10.985			-1.569
11501.000			-10.981			-1.569
11600.000			-10.980			-1.569
11700.000			-10.978			-1.568
11801.000			-10.977			-1.568
11901.000			-10.974			-1.568
12001.000			-10.972			-1.567
12102.000			-10.970			-1.567
12200.000			-10.969			-1.567
12300.000			-10.965			-1.566
12401.000			-10.964			-1.566
12500.000			-10.962			-1.566
12600.000			-10.961			-1.566
12702.000			-10.958			-1.565
12801.000			-10.956			-1.565
12902.000			-10.954			-1.565
13000.000			-10.952			-1.565
13100.000			-10.951			-1.564
13201.000			-10.950			-1.564
13300.000			-10.947			-1.564
13400.000			-10.945			-1.564
13502.000			-10.944			-1.563
13601.000			-10.942			-1.563
13701.000			-10.940			-1.563
13801.000			-10.937			-1.562
13900.000			-10.936			-1.562
14000.000			-10.934			-1.562
14101.000			-10.933			-1.562
14200.000			-10.933			-1.562
14301.000			-10.930			-1.561
14402.000			-10.927			-1.561
14501.000			-10.924			-1.561
14600.000			-10.923			-1.560
14701.000			-10.923			-1.560
14800.000			-10.922			-1.560
14900.000			-10.919			-1.560
15001.000			-10.918			-1.560
15101.000			-10.918			-1.560
15201.000			-10.915			-1.559
15301.000			-10.912			-1.559
15400.000			-10.911			-1.559
15500.000			-10.911			-1.559
15601.000			-10.908			-1.558
15700.000			-10.907			-1.558
15800.000			-10.906			-1.558
15902.000			-10.903			-1.558
16001.000			-10.903			-1.558
16101.000			-10.901			-1.557
16200.000			-10.899			-1.557
16300.000			-10.898			-1.557
16401.000			-10.896			-1.557
16500.000			-10.895			-1.556
16600.000			-10.893			-1.556
16701.000			-10.892			-1.556
16801.000			-10.890			-1.556
16901.000			-10.889			-1.556
17001.000			-10.889			-1.556
17100.000			-10.887			-1.555
17200.000			-10.886			-1.555
17301.000			-10.883			-1.555
17400.000			-10.881			-1.554
17500.000			-10.880			-1.554
17602.000			-10.879			-1.554
17701.000			-10.879			-1.554
17800.000			-10.878			-1.554
17901.000			-10.876			-1.554
18000.000			-10.874			-1.553
18100.000			-10.872			-1.553
18201.000			-10.870			-1.553
18300.000			-10.869			-1.553
18401.000			-10.868			-1.553
18502.000			-10.866			-1.552
18600.000			-10.865			-1.552
18700.000			-10.864			-1.552
18801.000			-10.863			-1.552
18900.000			-10.862			-1.552
19000.000			-10.861			-1.552
19100.000			-10.859			-1.551
19201.000			-10.857			-1.551
19302.000			-10.856			-1.551
19400.000			-10.855			-1.551
19500.000			-10.853			-1.550
19601.000			-10.852			-1.550
19700.000			-10.851			-1.550
19800.000			-10.849			-1.550
19901.000			-10.848			-1.550
20001.000			-10.847			-1.550
20101.000			-10.847			-1.550
20201.000			-10.846			-1.549
20300.000			-10.843			-1.549
20400.000			-10.842			-1.549
20501.000			-10.841			-1.549
20600.000			-10.840			-1.549
20700.000			-10.840			-1.549
20802.000			-10.839			-1.548
20901.000			-10.837			-1.548
21000.000			-10.836			-1.548
21101.000			-10.835			-1.548
21200.000			-10.833			-1.548
21300.000			-10.831			-1.547
21401.000			-10.829			-1.547
21500.000			-10.829			-1.547
21601.000			-10.828			-1.547
21702.000			-10.826			-1.547
21800.000			-10.825			-1.546
21900.000			-10.824			-1.546
22001.000			-10.824			-1.546
22100.000			-10.822			-1.546
22200.000			-10.821			-1.546
22302.000			-10.819			-1.546
22401.000			-10.819			-1.546
22501.000			-10.818			-1.545
22600.000			-10.817			-1.545
22700.000			-10.815			-1.545
22801.000			-10.814			-1.545
22900.000			-10.814			-1.545
23000.000			-10.813			-1.545
23102.000			-10.811			-1.544
23201.000			-10.809			-1.544
23300.000			-10.808			-1.544
23401.000			-10.807			-1.544
23500.000			-10.806			-1.544
23600.000			-10.806			-1.544
23701.000			-10.805			-1.544
23800.000			-10.803			-1.543
23901.000			-10.802			-1.543
24002.000			-10.800			-1.543
24100.000			-10.799			-1.543
24200.000			-10.797			-1.542
24301.000			-10.797			-1.542
24400.000			-10.796			-1.542
24500.000			-10.795			-1.542
24601.000			-10.793			-1.542
24701.000			-10.792			-1.542
24801.000			-10.791			-1.542
24901.000			-10.789			-1.541
25000.000			-10.788			-1.541
25100.000			-10.788			-1.541
25201.000			-10.787			-1.541
25300.000			-10.784			-1.541
25400.000			-10.784			-1.541
25502.000			-10.783			-1.540
25601.000			-10.783			-1.540
25701.000			-10.782			-1.540
25800.000			-10.781			-1.540
25900.000			-10.781			-1.540
26001.000			-10.779			-1.540
26100.000			-10.779			-1.540
26200.000			-10.778			-1.540
26302.000			-10.776			-1.539
26401.000			-10.775			-1.539
26500.000			-10.775			-1.539
26601.000			-10.774			-1.539
26700.000			-10.772			-1.539
26800.000			-10.771			-1.539
26901.000			-10.771			-1.539
27000.000			-10.771			-1.539
27101.000			-10.770			-1.539
27202.000			-10.768			-1.538
27301.000			-10.768			-1.538
27400.000			-10.767			-1.538
27501.000			-10.765			-1.538
27600.000			-10.765			-1.538
27700.000			-10.764			-1.538
27801.000			-10.763			-1.538
27901.000			-10.763			-1.538
28001.000			-10.761			-1.537
28102.000			-10.760			-1.537
28200.000			-10.759			-1.537
28300.000			-10.758			-1.537
28401.000			-10.757			-1.537
28500.000			-10.757			-1.537
28600.000			-10.755			-1.536
28700.000			-10.754			-1.536
28801.000			-10.754			-1.536
28902.000			-10.753			-1.536
29000.000			-10.752			-1.536
29100.000			-10.752			-1.536
29201.000			-10.751			-1.536
29300.000			-10.750			-1.536
29400.000			-10.749			-1.536
29501.000			-10.748			-1.535
29601.000			-10.748			-1.535
29701.000			-10.747			-1.535
29801.000			-10.747			-1.535
29900.000			-10.745			-1.535
30000.000			-10.744			-1.535
30101.000			-10.745			-1.535
30200.000			-10.743			-1.535
30300.000			-10.743			-1.535
30402.000			-10.741			-1.534
30501.000			-10.740			-1.534
30600.000			-10.739			-1.534
30701.000			-10.739			-1.534
30800.000			-10.739			-1.534
30900.000			-10.738			-1.534
31001.000			-10.737			-1.534
31101.000			-10.735			-1.534
31201.000			-10.734			-1.533
31302.000			-10.734			-1.533
31400.000			-10.734			-1.533
31500.000			-10.734			-1.533
31601.000			-10.733			-1.533
31700.000			-10.733			-1.533
31800.000			-10.732			-1.533
31902.000			-10.730			-1.533
32001.000			-10.730			-1.533
32101.000			-10.730			-1.533
32200.000			-10.729			-1.533
32300.000			-10.728			-1.533
32401.000			-10.727			-1.532
32500.000			-10.726			-1.532
32600.000			-10.724			-1.532
32702.000			-10.724			-1.532
32801.000			-10.724			-1.532
32900.000			-10.723			-1.532
33001.000			-10.723			-1.532
33100.000			-10.723			-1.532
33200.000			-10.721			-1.532
33301.000			-10.719			-1.531
33400.000			-10.719			-1.531
33501.000			-10.719			-1.531
33602.000			-10.718			-1.531
33700.000			-10.719			-1.531
33800.000			-10.717			-1.531
33901.000			-10.717			-1.531
34000.000			-10.716			-1.531
34100.000			-10.714			-1.531
34201.000			-10.714			-1.531
34301.000			-10.713			-1.530
34401.000			-10.713			-1.530
34501.000			-10.711			-1.530
34600.000			-10.711			-1.530
34700.000			-10.710			-1.530
34801.000			-10.709			-1.530
34900.000			-10.708			-1.530
35002.000			-10.708			-1.530
35101.000			-10.707			-1.530
35201.000			-10.707			-1.530
35301.000			-10.707			-1.530
35400.000			-10.706			-1.529
35500.000			-10.705			-1.529
35601.000			-10.704			-1.529
35700.000			-10.704			-1.529
35801.000			-10.702			-1.529
35902.000			-10.702			-1.529
36000.000			-10.702			-1.529
36100.000			-10.701			-1.529
36201.000			-10.700			-1.529
36300.000			-10.699			-1.528
36400.000			-10.697			-1.528
36501.000			-10.698			-1.528
36601.000			-10.698			-1.528
36701.000			-10.697			-1.528
36801.000			-10.696			-1.528
36900.000			-10.696			-1.528
37000.000			-10.695			-1.528
37101.000			-10.694			-1.528
37200.000			-10.693			-1.528
37300.000			-10.692			-1.527
37402.000			-10.691			-1.527
37501.000			-10.691			-1.527
37600.000			-10.690			-1.527
37701.000			-10.689			-1.527
37800.000			-10.688			-1.527
37900.000			-10.688			-1.527
38001.000			-10.688			-1.527
38100.000			-10.688			-1.527
38202.000			-10.687			-1.527
38301.000			-10.686			-1.527
38401.000			-10.684			-1.526
38501.000			-10.684			-1.526
38600.000			-10.684			-1.526
38700.000			-10.683			-1.526
38801.000			-10.682			-1.526
38900.000			-10.682			-1.526
39001.000			-10.682			-1.526
39102.000			-10.681			-1.526
39200.000			-10.679			-1.526
39300.000			-10.679			-1.526
39401.000			-10.679			-1.526
39500.000			-10.678			-1.525
39600.000			-10.678			-1.525
39701.000			-10.678			-1.525
39801.000			-10.677			-1.525
39901.000			-10.675			-1.525
40002.000			-10.675			-1.525
40100.000			-10.675			-1.525
40200.000			-10.674			-1.525
40301.000			-10.673			-1.525
40400.000			-10.672			-1.525
40500.000			-10.672			-1.525
40602.000			-10.671			-1.524
40701.000			-10.672			-1.525
40800.000			-10.671			-1.524
40901.000			-10.670			-1.524
41000.000			-10.669			-1.524
41100.000			-10.669			-1.524
41201.000			-10.669			-1.524
41300.000			-10.668			-1.524
41402.000			-10.667			-1.524
41501.000			-10.666			-1.524
41600.000			-10.667			-1.524
41701.000			-10.666			-1.524
41800.000			-10.665			-1.524
41900.000			-10.665			-1.524
42001.000			-10.664			-1.523
42100.000			-10.663			-1.523
42201.000			-10.663			-1.523
42302.000			-10.663			-1.523
42400.000			-10.662			-1.523
42500.000			-10.661			-1.523
42601.000			-10.661			-1.523
42700.000			-10.660			-1.523
42800.000			-10.660			-1.523
42901.000			-10.659			-1.523
43001.000			-10.658			-1.523
43101.000			-10.658			-1.523
43201.000			-10.657			-1.522
43300.000			-10.657			-1.522
43400.000			-10.656			-1.522
43501.000			-10.656			-1.522
43600.000			-10.656			-1.522
43700.000			-10.656			-1.522
43802.000			-10.655			-1.522
43901.000			-10.655			-1.522
44000.000			-10.654			-1.522
44101.000			-10.654			-1.522
44200.000			-10.652			-1.522
44300.000			-10.652			-1.522
44401.000			-10.652			-1.522
44500.000			-10.651			-1.522
44602.000			-10.649			-1.521
44701.000			-10.649			-1.521
44800.000			-10.650			-1.521
44901.000			-10.650			-1.521
45000.000			-10.648			-1.521
45100.000			-10.647			-1.521
45201.000			-10.647			-1.521
45300.000			-10.647			-1.521
45401.000			-10.647			-1.521
45502.000			-10.646			-1.521
45600.000			-10.646			-1.521
45700.000			-10.645			-1.521
45801.000			-10.644			-1.521
45900.000			-10.643			-1.520
46000.000			-10.643			-1.520
46101.000			-10.643			-1.520
46201.000			-10.643			-1.520
46301.000			-10.642			-1.520
46401.000			-10.642			-1.520
46500.000			-10.641			-1.520
46600.000			-10.640			-1.520
46701.000			-10.640			-1.520
46800.000			-10.639			-1.520
46900.000			-10.638			-1.520
47002.000			-10.639			-1.520
47101.000			-10.636			-1.519
47200.000			-10.636			-1.519
47301.000			-10.636			-1.519
47400.000			-10.636			-1.519
47500.000			-10.635			-1.519
47601.000			-10.635			-1.519
47701.000			-10.634			-1.519
47802.000			-10.634			-1.519
47901.000			-10.633			-1.519
48000.000			-10.633			-1.519
48101.000			-10.632			-1.519
48200.000			-10.631			-1.519
48300.000			-10.631			-1.519
48401.000			-10.631			-1.519
48501.000			-10.630			-1.519
48601.000			-10.630			-1.519
48701.000			-10.630			-1.519
48800.000			-10.629			-1.518
48900.000			-10.627			-1.518
49001.000			-10.627			-1.518
49100.000			-10.628			-1.518
49200.000			-10.627			-1.518
49302.000			-10.625			-1.518
49401.000			-10.625			-1.518
49501.000			-10.626			-1.518
49601.000			-10.626			-1.518
49700.000			-10.625			-1.518
49800.000			-10.624			-1.518
49901.000			-10.623			-1.518
50000.000			-10.623			-1.518
50100.000			-10.622			-1.517
50202.000			-10.622			-1.517
50301.000			-10.622			-1.517
50400.000			-10.620			-1.517
50501.000			-10.621			-1.517
50600.000			-10.620			-1.517
50700.000			-10.620			-1.517
50801.000			-10.619			-1.517
50901.000			-10.619			-1.517
51002.000			-10.619			-1.517
51100.000			-10.618			-1.517
51200.000			-10.617			-1.517
51301.000			-10.617			-1.517
51400.000			-10.616			-1.517
51500.000			-10.615			-1.516
51601.000			-10.615			-1.516
51701.000			-10.615			-1.516
51801.000			-10.614			-1.516
51901.000			-10.614			-1.516
52000.000			-10.614			-1.516
52100.000			-10.612			-1.516
52201.000			-10.612			-1.516
52300.000			-10.611			-1.516
52400.000			-10.611			-1.516
52502.000			-10.610			-1.516
52601.000			-10.610			-1.516
52700.000			-10.609			-1.516
52801.000			-10.609			-1.516
52900.000			-10.608			-1.515
53000.000			-10.608			-1.515
53101.000			-10.607			-1.515
53200.000			-10.607			-1.515
53301.000			-10.606			-1.515
53402.000			-10.606			-1.515
53500.000			-10.607			-1.515
53600.000			-10.605			-1.515
53701.000			-10.605			-1.515
53800.000			-10.604			-1.515
53900.000			-10.603			-1.515
54001.000			-10.604			-1.515
54101.000			-10.603			-1.515
54202.000			-10.603			-1.515
54300.000			-10.603			-1.515
54400.000			-10.601			-1.514
54501.000			-10.601			-1.514
54600.000			-10.601			-1.514
54700.000			-10.601			-1.514
54802.000			-10.599			-1.514
54901.000			-10.599			-1.514
55001.000			-10.599			-1.514
55101.000			-10.598			-1.514
55200.000			-10.597			-1.514
55300.000			-10.597			-1.514
55401.000			-10.597			-1.514
55500.000			-10.595			-1.514
55600.000			-10.596			-1.514
55702.000			-10.596			-1.514
55801.000			-10.595			-1.514
55900.000			-10.594			-1.513
56001.000			-10.593			-1.513
56100.000			-10.593			-1.513
56200.000			-10.593			-1.513
56301.000			-10.592			-1.513
56400.000			-10.591			-1.513
56501.000			-10.592			-1.513
56602.000			-10.591			-1.513
56700.000			-10.590			-1.513
56800.000			-10.590			-1.513
56901.000			-10.589			-1.513
57000.000			-10.589			-1.513
57100.000			-10.588			-1.513
57201.000			-10.588			-1.513
57301.000			-10.588			-1.513
57402.000			-10.587			-1.512
57500.000			-10.586			-1.512
57600.000			-10.586			-1.512
57701.000			-10.585			-1.512
57800.000			-10.584			-1.512
57900.000			-10.584			-1.512
58001.000			-10.582			-1.512
58101.000			-10.581			-1.512
58201.000			-10.582			-1.512
58301.000			-10.581			-1.512
58400.000			-10.581			-1.512
58500.000			-10.581			-1.512
58601.000			-10.581			-1.512
58700.000			-10.580			-1.511
58800.000			-10.579			-1.511
58902.000			-10.579			-1.511
59001.000			-10.578			-1.511
59100.000			-10.577			-1.511
59201.000			-10.576			-1.511
59300.000			-10.577			-1.511
59400.000			-10.577			-1.511
59501.000			-10.576			-1.511
59600.000			-10.576			-1.511
59701.000			-10.576			-1.511
59802.000			-10.575			-1.511
59900.000			-10.575			-1.511
60000.000			-10.576			-1.511
60101.000			-10.576			-1.511
60200.000			-10.574			-1.511
60300.000			-10.572			-1.510
60401.000			-10.571			-1.510
60501.000			-10.571			-1.510
60602.000			-10.571			-1.510
60700.000			-10.572			-1.510
60800.000			-10.572			-1.510
60901.000			-10.572			-1.510
61000.000			-10.571			-1.510
61100.000			-10.571			-1.510
61201.000			-10.570			-1.510
61301.000			-10.569			-1.510
61401.000			-10.568			-1.510
61501.000			-10.568			-1.510
61600.000			-10.567			-1.510
61700.000			-10.567			-1.510
61801.000			-10.567			-1.510
61900.000			-10.567			-1.510
62000.000			-10.567			-1.510
62102.000			-10.566			-1.509
62201.000			-10.567			-1.510
62300.000			-10.566			-1.509
62401.000			-10.564			-1.509
62500.000			-10.564			-1.509
62600.000			-10.564			-1.509
62701.000			-10.563			-1.509
62800.000			-10.562			-1.509
62901.000			-10.562			-1.509
63002.000			-10.562			-1.509
63100.000			-10.561			-1.509
63200.000			-10.560			-1.509
63301.000			-10.559			-1.508
63400.000			-10.559			-1.508
63500.000			-10.559			-1.508
63601.000			-10.558			-1.508
63701.000			-10.558			-1.508
63802.000			-10.558			-1.508
63900.000			-10.558			-1.508
64000.000			-10.557			-1.508
64101.000			-10.556			-1.508
64200.000			-10.556			-1.508
64300.000			-10.555			-1.508
64401.000			-10.555			-1.508
64501.000			-10.555			-1.508
64601.000			-10.554			-1.508
64701.000			-10.554			-1.508
64800.000			-10.553			-1.508
64900.000			-10.552			-1.507
65001.000			-10.553			-1.508
65100.000			-10.552			-1.507
65200.000			-10.551			-1.507
65302.000			-10.551			-1.507
65401.000			-10.551			-1.507
65500.000			-10.551			-1.507
65601.000			-10.550			-1.507
65700.000			-10.550			-1.507
65800.000			-10.549			-1.507
65901.000			-10.550			-1.507
66000.000			-10.549			-1.507
66101.000			-10.548			-1.507
66202.000			-10.548			-1.507
66300.000			-10.548			-1.507
66400.000			-10.547			-1.507
66501.000			-10.547			-1.507
66600.000			-10.547			-1.507
66700.000			-10.545			-1.506
66801.000			-10.546			-1.507
66901.000			-10.546			-1.507
67002.000			-10.545			-1.506
67100.000			-10.545			-1.506
67200.000			-10.545			-1.506
67301.000			-10.546			-1.507
67400.000			-10.545			-1.506
67500.000			-10.544			-1.506
67601.000			-10.543			-1.506
67701.000			-10.543			-1.506
67801.000			-10.543			-1.506
67901.000			-10.543			-1.506
68000.000			-10.543			-1.506
68100.000			-10.542			-1.506
68201.000			-10.540			-1.506
68300.000			-10.539			-1.506
68400.000			-10.540			-1.506
68502.000			-10.540			-1.506
68601.000			-10.539			-1.506
68700.000			-10.540			-1.506
68801.000			-10.541			-1.506
68900.000			-10.538			-1.505
69000.000			-10.538			-1.505
69101.000			-10.538			-1.505
69200.000			-10.538			-1.505
69301.000			-10.538			-1.505
69402.000			-10.537			-1.505
69500.000			-10.536			-1.505
69600.000			-10.536			-1.505
69701.000			-10.536			-1.505
69800.000			-10.536			-1.505
69900.000			-10.536			-1.505
70001.000			-10.536			-1.505
70101.000			-10.535			-1.505
70202.000			-10.535			-1.505
70301.000			-10.534			-1.505
70400.000			-10.534			-1.505
70501.000			-10.534			-1.505
70600.000			-10.534			-1.505
70700.000			-10.535			-1.505
70801.000			-10.534			-1.505
70901.000			-10.533			-1.505
71001.000			-10.532			-1.505
71101.000			-10.531			-1.504
71200.000			-10.531			-1.504
71300.000			-10.530			-1.504
71401.000			-10.530			-1.504
71500.000			-10.530			-1.504
71600.000			-10.530			-1.504
71702.000			-10.530			-1.504
71801.000			-10.529			-1.504
71901.000			-10.529			-1.504
72001.000			-10.529			-1.504
72100.000			-10.529			-1.504
72200.000			-10.528			-1.504
72301.000			-10.527			-1.504
72400.000			-10.527			-1.504
72500.000			-10.527			-1.504
72602.000			-10.528			-1.504
72701.000			-10.528			-1.504
72800.000			-10.526			-1.504
72901.000			-10.526			-1.504
73000.000			-10.526			-1.504
73100.000			-10.525			-1.504
73201.000			-10.525			-1.504
73301.000			-10.524			-1.503
73402.000			-10.524			-1.503
73501.000			-10.524			-1.503
73600.000			-10.524			-1.503
73701.000			-10.524			-1.503
73800.000			-10.523			-1.503
73900.000			-10.522			-1.503
74001.000			-10.522			-1.503
74101.000			-10.522			-1.503
74201.000			-10.522			-1.503
74302.000			-10.522			-1.503
74400.000			-10.522			-1.503
74500.000			-10.521			-1.503
74601.000			-10.521			-1.503
74700.000			-10.520			-1.503
74800.000			-10.520			-1.503
74902.000			-10.520			-1.503
75001.000			-10.519			-1.503
75101.000			-10.519			-1.503
75201.000			-10.518			-1.503
75300.000			-10.518			-1.503
75400.000			-10.518			-1.503
75501.000			-10.519			-1.503
75600.000			-10.518			-1.503
75700.000			-10.518			-1.503
75802.000			-10.518			-1.503
75901.000			-10.518			-1.503
76000.000			-10.517			-1.502
76101.000			-10.515			-1.502
76200.000			-10.516			-1.502
76300.000			-10.516			-1.502
76401.000			-10.516			-1.502
76500.000			-10.516			-1.502
76602.000			-10.515			-1.502
76701.000			-10.514			-1.502
76800.000			-10.513			-1.502
76901.000			-10.514			-1.502
77000.000			-10.513			-1.502
77100.000			-10.512			-1.502
77201.000			-10.512			-1.502
77300.000			-10.513			-1.502
77401.000			-10.513			-1.502
77502.000			-10.512			-1.502
77600.000			-10.512			-1.502
77700.000			-10.512			-1.502
77801.000			-10.511			-1.502
77900.000			-10.510			-1.501
78000.000			-10.510			-1.501
78101.000			-10.510			-1.501
78201.000			-10.510			-1.501
78301.000			-10.509			-1.501
78401.000			-10.508			-1.501
78500.000			-10.509			-1.501
78600.000			-10.509			-1.501
78701.000			-10.508			-1.501
78800.000			-10.508			-1.501
78900.000			-10.508			-1.501
79002.000			-10.507			-1.501
79101.000			-10.507			-1.501
79200.000			-10.507			-1.501
79301.000			-10.507			-1.501
79400.000			-10.506			-1.501
79500.000			-10.505			-1.501
79601.000			-10.505			-1.501
79700.000			-10.505			-1.501
79802.000			-10.504			-1.501
79901.000			-10.505			-1.501
80000.000			-10.504			-1.501
80101.000			-10.504			-1.501
80200.000			-10.502			-1.500
80300.000			-10.501			-1.500
80401.000			-10.501			-1.500
80500.000			-10.501			-1.500
80601.000			-10.502			-1.500
80702.000			-10.501			-1.500
80800.000			-10.502			-1.500
80900.000			-10.501			-1.500
81001.000			-10.499			-1.500
81100.000			-10.498			-1.500
81200.000			-10.500			-1.500
81301.000			-10.500			-1.500
81401.000			-10.499			-1.500
81501.000			-10.499			-1.500
81601.000			-10.499			-1.500
81700.000			-10.498			-1.500
81800.000			-10.498			-1.500
81901.000			-10.498			-1.500
82000.000			-10.498			-1.500
82100.000			-10.497			-1.500
82202.000			-10.497			-1.500
82301.000			-10.497			-1.500
82400.000			-10.496			-1.499
82501.000			-10.496			-1.499
82600.000			-10.496			-1.499
82700.000			-10.496			-1.499
82801.000			-10.496			-1.499
82900.000			-10.494			-1.499
83002.000			-10.494			-1.499
83101.000			-10.494			-1.499
83200.000			-10.494			-1.499
83301.000			-10.493			-1.499
83400.000			-10.493			-1.499
83500.000			-10.492			-1.499
83601.000			-10.493			-1.499
83700.000			-10.493			-1.499
83801.000			-10.492			-1.499
83902.000			-10.492			-1.499
84001.000			-10.492			-1.499
84100.000			-10.491			-1.499
84201.000			-10.490			-1.499
84300.000			-10.491			-1.499
84400.000			-10.490			-1.499
84501.000			-10.490			-1.499
84601.000			-10.491			-1.499
84701.000			-10.490			-1.499
84801.000			-10.491			-1.499
84900.000			-10.489			-1.498
85000.000			-10.487			-1.498
85101.000			-10.488			-1.498
85200.000			-10.487			-1.498
85300.000			-10.487			-1.498
85401.000			-10.488			-1.498
85501.000			-10.488			-1.498
85601.000			-10.487			-1.498
85701.000			-10.487			-1.498
85800.000			-10.487			-1.498
85900.000			-10.486			-1.498
86001.000			-10.485			-1.498
86100.000			-10.486			-1.498
86200.000			-10.486			-1.498
86302.000			-10.486			-1.498
86401.000			-10.485			-1.498
86501.000			-10.485			-1.498
86600.000			-10.484			-1.498
86700.000			-10.483			-1.498
86801.000			-10.483			-1.498
86900.000			-10.483			-1.498
87000.000			-10.483			-1.498
87102.000			-10.483			-1.498
87201.000			-10.482			-1.497
87300.000			-10.481			-1.497
87401.000			-10.481			-1.497
87500.000			-10.482			-1.497
87600.000			-10.482			-1.497
87701.000			-10.482			-1.497
87800.000			-10.481			-1.497
87900.000			-10.481			-1.497
88002.000			-10.480			-1.497
88101.000			-10.479			-1.497
88200.000			-10.479			-1.497
88301.000			-10.479			-1.497
88400.000			-10.480			-1.497
88500.000			-10.480			-1.497
88601.000			-10.478			-1.497
88700.000			-10.478			-1.497
88801.000			-10.477			-1.497
88902.000			-10.476			-1.497
89000.000			-10.477			-1.497
89100.000			-10.477			-1.497
89201.000			-10.477			-1.497
89300.000			-10.476			-1.497
89400.000			-10.477			-1.497
89500.000			-10.477			-1.497
89601.000			-10.475			-1.496
89702.000			-10.474			-1.496
89801.000			-10.474			-1.496
89900.000			-10.474			-1.496
90001.000			-10.472			-1.496
90100.000			-10.472			-1.496
90200.000			-10.472			-1.496
90301.000			-10.472			-1.496
90400.000			-10.471			-1.496
90501.000			-10.471			-1.496
90602.000			-10.471			-1.496
90700.000			-10.471			-1.496
90800.000			-10.470			-1.496
90901.000			-10.471			-1.496
91000.000			-10.471			-1.496
91100.000			-10.469			-1.496
91201.000			-10.469			-1.496
91301.000			-10.468			-1.495
91401.000			-10.468			-1.495
91501.000			-10.468			-1.495
91600.000			-10.467			-1.495
91700.000			-10.466			-1.495
91801.000			-10.465			-1.495
91900.000			-10.464			-1.495
92000.000			-10.464			-1.495
92102.000			-10.465			-1.495
92201.000			-10.465			-1.495
92300.000			-10.465			-1.495
92401.000			-10.464			-1.495
92500.000			-10.464			-1.495
92600.000			-10.464			-1.495
92700.000			-10.463			-1.495
92800.000			-10.462			-1.495
92902.000			-10.462			-1.495
93001.000			-10.461			-1.494
93100.000			-10.461			-1.494
93201.000			-10.461			-1.494
93300.000			-10.461			-1.494
93400.000			-10.461			-1.494
93501.000			-10.461			-1.494
93600.000			-10.460			-1.494
93701.000			-10.460			-1.494
93802.000			-10.460			-1.494
93900.000			-10.459			-1.494
94000.000			-10.458			-1.494
94101.000			-10.458			-1.494
94200.000			-10.457			-1.494
94300.000			-10.457			-1.494
94401.000			-10.457			-1.494
94501.000			-10.457			-1.494
94601.000			-10.459			-1.494
94701.000			-10.458			-1.494
94800.000			-10.456			-1.494
94900.000			-10.455			-1.494
95001.000			-10.457			-1.494
95100.000			-10.456			-1.494
95200.000			-10.456			-1.494
95302.000			-10.456			-1.494
95401.000			-10.454			-1.493
95500.000			-10.455			-1.494
95601.000			-10.455			-1.494
95700.000			-10.455			-1.494
95800.000			-10.454			-1.493
95900.000			-10.453			-1.493
96000.000			-10.452			-1.493
96102.000			-10.452			-1.493
96201.000			-10.453			-1.493
96300.000			-10.453			-1.493
96401.000			-10.452			-1.493
96500.000			-10.452			-1.493
96600.000			-10.451			-1.493
96701.000			-10.451			-1.493
96800.000			-10.451			-1.493
96901.000			-10.450			-1.493
97002.000			-10.450			-1.493
97100.000			-10.451			-1.493
97200.000			-10.451			-1.493
97301.000			-10.450			-1.493
97400.000			-10.450			-1.493
97500.000			-10.449			-1.493
97601.000			-10.449			-1.493
97701.000			-10.450			-1.493
97801.000			-10.448			-1.493
97902.000			-10.449			-1.493
98000.000			-10.448			-1.493
98100.000			-10.448			-1.493
98201.000			-10.448			-1.493
98300.000			-10.449			-1.493
98400.000			-10.448			-1.493
98501.000			-10.447			-1.492
98601.000			-10.447			-1.492
98701.000			-10.447			-1.492
98801.000			-10.446			-1.492
98900.000			-10.446			-1.492
99000.000			-10.446			-1.492
99100.000			-10.444			-1.492
99200.000			-10.445			-1.492
99301.000			-10.445			-1.492
99401.000			-10.445			-1.492
99501.000			-10.444			-1.492
99601.000			-10.444			-1.492
99700.000			-10.444			-1.492
99800.000			-10.444			-1.492
99901.000			-10.443			-1.492
100000.000			-10.443			-1.492
100100.000			-10.443			-1.492
100202.000			-10.442			-1.492
100301.000			-10.443			-1.492
100400.000			-10.443			-1.492
100501.000			-10.442			-1.492
100600.000			-10.442			-1.492
100700.000			-10.442			-1.492
100801.000			-10.441			-1.492
100900.000			-10.440			-1.491
101001.000			-10.441			-1.492
101102.000			-10.441			-1.492
101200.000			-10.440			-1.491
101300.000			-10.439			-1.491
101401.000			-10.438			-1.491
101500.000			-10.438			-1.491
101600.000			-10.438			-1.491
101701.000			-10.439			-1.491
101801.000			-10.439			-1.491
101901.000			-10.438			-1.491
102002.000			-10.438			-1.491
102100.000			-10.436			-1.491
102200.000			-10.437			-1.491
102300.000			-10.438			-1.491
102400.000			-10.437			-1.491
102501.000			-10.437			-1.491
102600.000			-10.437			-1.491
102701.000			-10.436			-1.491
102802.000			-10.435			-1.491
102900.000			-10.435			-1.491
103000.000			-10.435			-1.491
103101.000			-10.435			-1.491
103200.000			-10.435			-1.491
103300.000			-10.435			-1.491
103401.000			-10.434			-1.491
103501.000			-10.433			-1.490
103601.000			-10.434			-1.491
103701.000			-10.434			-1.491
103800.000			-10.434			-1.491
103900.000			-10.432			-1.490
104001.000			-10.432			-1.490
104100.000			-10.431			-1.490
104200.000			-10.432			-1.490
104302.000			-10.433			-1.490
104401.000			-10.432			-1.490
104500.000			-10.433			-1.490
104601.000			-10.432			-1.490
104700.000			-10.432			-1.490
104800.000			-10.431			-1.490
104901.000			-10.431			-1.490
105000.000			-10.431			-1.490
105101.000			-10.430			-1.490
105202.000			-10.430			-1.490
105300.000			-10.430			-1.490
105400.000			-10.431			-1.490
105500.000			-10.429			-1.490
105600.000			-10.429			-1.490
105701.000			-10.428			-1.490
105800.000			-10.429			-1.490
105901.000			-10.428			-1.490
106002.000			-10.429			-1.490
106100.000			-10.429			-1.490
106200.000			-10.428			-1.490
106301.000			-10.428			-1.490
106400.000			-10.427			-1.490
106500.000			-10.426			-1.489
106601.000			-10.425			-1.489
106701.000			-10.427			-1.490
106801.000			-10.427			-1.490
106901.000			-10.425			-1.489
107000.000			-10.425			-1.489
107100.000			-10.425			-1.489
107201.000			-10.425			-1.489
107300.000			-10.425			-1.489
107400.000			-10.425			-1.489
107502.000			-10.425			-1.489
107601.000			-10.423			-1.489
107701.000			-10.423			-1.489
107801.000			-10.424			-1.489
107900.000			-10.424			-1.489
108000.000			-10.424			-1.489
108101.000			-10.424			-1.489
108200.000			-10.423			-1.489
108300.000			-10.423			-1.489
108402.000			-10.424			-1.489
108501.000			-10.422			-1.489
108600.000			-10.421			-1.489
108700.000			-10.422			-1.489
108800.000			-10.422			-1.489
108901.000			-10.421			-1.489
109000.000			-10.421			-1.489
109100.000			-10.421			-1.489
109202.000			-10.421			-1.489
109301.000			-10.422			-1.489
109400.000			-10.420			-1.489
109501.000			-10.419			-1.488
109600.000			-10.420			-1.489
109700.000			-10.420			-1.489
109801.000			-10.420			-1.489
109900.000			-10.419			-1.488
110001.000			-10.419			-1.488
110102.000			-10.420			-1.489
110200.000			-10.420			-1.489
110300.000			-10.418			-1.488
110401.000			-10.418			-1.488
110500.000			-10.418			-1.488
110600.000			-10.418			-1.488
110701.000			-10.418			-1.488
110801.000			-10.418			-1.488
110901.000			-10.418			-1.488
111001.000			-10.418			-1.488
111100.000			-10.418			-1.488
111200.000			-10.418			-1.488
111301.000			-10.417			-1.488
111400.000			-10.416			-1.488
111500.000			-10.415			-1.488
111602.000			-10.415			-1.488
111701.000			-10.415			-1.488
111802.000			-10.415			-1.488
111900.000			-10.414			-1.488
112000.000			-10.415			-1.488
112101.000			-10.414			-1.488
112200.000			-10.414			-1.488
112300.000			-10.413			-1.488
112401.000			-10.413			-1.488
112501.000			-10.414			-1.488
112601.000			-10.414			-1.488
112701.000			-10.413			-1.488
112800.000			-10.413			-1.488
112900.000			-10.412			-1.487
113001.000			-10.413			-1.488
113100.000			-10.412			-1.487
113200.000			-10.411			-1.487
113302.000			-10.412			-1.487
113401.000			-10.412			-1.487
113500.000			-10.412			-1.487
113601.000			-10.413			-1.488
113700.000			-10.411			-1.487
113800.000			-10.410			-1.487
113901.000			-10.410			-1.487
114000.000			-10.410			-1.487
114101.000			-10.410			-1.487
114202.000			-10.410			-1.487
114300.000			-10.410			-1.487
114400.000			-10.410			-1.487
114501.000			-10.409			-1.487
114600.000			-10.409			-1.487
114700.000			-10.409			-1.487
114801.000			-10.408			-1.487
114901.000			-10.408			-1.487
115002.000			-10.408			-1.487
115100.000			-10.408			-1.487
115200.000			-10.408			-1.487
115301.000			-10.408			-1.487
115400.000			-10.407			-1.487
115500.000			-10.407			-1.487
115601.000			-10.408			-1.487
115701.000			-10.406			-1.487
115801.000			-10.406			-1.487
115901.000			-10.407			-1.487
116000.000			-10.407			-1.487
116100.000			-10.406			-1.487
116201.000			-10.407			-1.487
116300.000			-10.407			-1.487
116400.000			-10.407			-1.487
116502.000			-10.407			-1.487
116601.000			-10.407			-1.487
116701.000			-10.406			-1.487
116801.000			-10.406			-1.487
116900.000			-10.406			-1.487
117000.000			-10.406			-1.487
117101.000			-10.407			-1.487
117200.000			-10.407			-1.487
117300.000			-10.404			-1.486
117402.000			-10.404			-1.486
117501.000			-10.405			-1.486
117600.000			-10.405			-1.486
117701.000			-10.405			-1.486
117800.000			-10.405			-1.486
117900.000			-10.405			-1.486
118001.000			-10.404			-1.486
118100.000			-10.403			-1.486
118202.000			-10.403			-1.486
118301.000			-10.403			-1.486
118400.000			-10.403			-1.486
118501.000			-10.403			-1.486
118600.000			-10.402			-1.486
118700.000			-10.402			-1.486
118801.000			-10.401			-1.486
118900.000			-10.402			-1.486
119001.000			-10.402			-1.486
119102.000			-10.401			-1.486
119200.000			-10.401			-1.486
119300.000			-10.401			-1.486
119401.000			-10.402			-1.486
119500.000			-10.401			-1.486
119600.000			-10.401			-1.486
119701.000			-10.401			-1.486
119801.000			-10.401			-1.486
119901.000			-10.400			-1.486
120001.000			-10.400			-1.486
120100.000			-10.400			-1.486
120200.000			-10.399			-1.486
120301.000			-10.399			-1.486
120400.000			-10.399			-1.486
120500.000			-10.400			-1.486
120602.000			-10.399			-1.486
120701.000			-10.400			-1.486
120801.000			-10.398			-1.485
120901.000			-10.398			-1.485
121000.000			-10.398			-1.485
121100.000			-10.398			-1.485
121201.000			-10.398			-1.485
121300.000			-10.397			-1.485
121400.000			-10.397			-1.485
121502.000			-10.397			-1.485
121601.000			-10.396			-1.485
121701.000			-10.396			-1.485
121800.000			-10.398			-1.485
121900.000			-10.398			-1.485
122001.000			-10.397			-1.485
122100.000			-10.396			-1.485
122200.000			-10.396			-1.485
122302.000			-10.396			-1.485
122401.000			-10.395			-1.485
122500.000			-10.395			-1.485
122601.000			-10.395			-1.485
122700.000			-10.396			-1.485
122800.000			-10.395			-1.485
122901.000			-10.395			-1.485
123000.000			-10.395			-1.485
123100.000			-10.394			-1.485
123202.000			-10.393			-1.485
123301.000			-10.394			-1.485
123400.000			-10.393			-1.485
123501.000			-10.392			-1.485
123600.000			-10.392			-1.485
123700.000			-10.393			-1.485
123801.000			-10.393			-1.485
123900.000			-10.393			-1.485
124001.000			-10.392			-1.485
124102.000			-10.392			-1.485
124200.000			-10.391			-1.484
124300.000			-10.390			-1.484
124401.000			-10.390			-1.484
124500.000			-10.391			-1.484
124600.000			-10.391			-1.484
124700.000			-10.391			-1.484
124801.000			-10.390			-1.484
124902.000			-10.390			-1.484
125000.000			-10.390			-1.484
125100.000			-10.390			-1.484
125201.000			-10.389			-1.484
125300.000			-10.389			-1.484
125400.000			-10.389			-1.484
125501.000			-10.389			-1.484
125601.000			-10.389			-1.484
125701.000			-10.388			-1.484
125802.000			-10.389			-1.484
125900.000			-10.389			-1.484
126000.000			-10.388			-1.484
126101.000			-10.388			-1.484
126200.000			-10.386			-1.484
126300.000			-10.386			-1.484
126401.000			-10.386			-1.484
126501.000			-10.386			-1.484
126601.000			-10.385			-1.484
126701.000			-10.385			-1.484
126800.000			-10.386			-1.484
126900.000			-10.386			-1.484
127001.000			-10.385			-1.484
127100.000			-10.385			-1.484
127200.000			-10.385			-1.484
127301.000			-10.385			-1.484
127401.000			-10.385			-1.484
127501.000			-10.384			-1.483
127601.000			-10.383			-1.483
127700.000			-10.384			-1.483
127800.000			-10.384			-1.483
127900.000			-10.384			-1.483
128000.000			-10.383			-1.483
128101.000			-10.383			-1.483
128201.000			-10.383			-1.483
128301.000			-10.382			-1.483
128401.000			-10.382			-1.483
128500.000			-10.382			-1.483
128600.000			-10.383			-1.483
128701.000			-10.382			-1.483
128800.000			-10.380			-1.483
128900.000			-10.381			-1.483
129001.000			-10.381			-1.483
129101.000			-10.382			-1.483
129201.000			-10.381			-1.483
129301.000			-10.380			-1.483
129400.000			-10.380			-1.483
129500.000			-10.380			-1.483
129601.000			-10.379			-1.483
129700.000			-10.379			-1.483
129800.000			-10.379			-1.483
129902.000			-10.378			-1.483
130001.000			-10.379			-1.483
130101.000			-10.378			-1.483
130201.000			-10.378			-1.483
130300.000			-10.377			-1.482
130400.000			-10.376			-1.482
130501.000			-10.376			-1.482
130600.000			-10.375			-1.482
130700.000			-10.376			-1.482
130802.000			-10.376			-1.482
130901.000			-10.375			-1.482
131000.000			-10.375			-1.482
131100.000			-10.375			-1.482
131200.000			-10.375			-1.482
131301.000			-10.375			-1.482
131400.000			-10.375			-1.482
131500.000			-10.375			-1.482
131602.000			-10.374			-1.482
131701.000			-10.372			-1.482
131801.000			-10.372			-1.482
131901.000			-10.373			-1.482
132000.000			-10.373			-1.482
132100.000			-10.372			-1.482
132201.000			-10.372			-1.482
132300.000			-10.372			-1.482
132400.000			-10.372			-1.482
132502.000			-10.372			-1.482
132601.000			-10.372			-1.482
132700.000			-10.372			-1.482
132801.000			-10.371			-1.482
132900.000			-10.371			-1.482
133000.000			-10.370			-1.481
133101.000			-10.370			-1.481
133200.000			-10.371			-1.482
133300.000			-10.371			-1.482
133402.000			-10.370			-1.481
133501.000			-10.369			-1.481
133600.000			-10.370			-1.481
133701.000			-10.369			-1.481
133800.000			-10.368			-1.481
133900.000			-10.369			-1.481
134001.000			-10.370			-1.481
134100.000			-10.369			-1.481
134200.000			-10.369			-1.481
134302.000			-10.369			-1.481
134401.000			-10.368			-1.481
134502.000			-10.368			-1.481
134600.000			-10.368			-1.481
134700.000			-10.367			-1.481
134801.000			-10.368			-1.481
134900.000			-10.368			-1.481
135000.000			-10.367			-1.481
135101.000			-10.367			-1.481
135201.000			-10.366			-1.481
135301.000			-10.366			-1.481
135402.000			-10.365			-1.481
135500.000			-10.365			-1.481
135600.000			-10.366			-1.481
135701.000			-10.365			-1.481
135800.000			-10.365			-1.481
135900.000			-10.366			-1.481
136001.000			-10.365			-1.481
136101.000			-10.364			-1.481
136201.000			-10.363			-1.480
136302.000			-10.365			-1.481
136400.000			-10.364			-1.481
136500.000			-10.364			-1.481
136601.000			-10.364			-1.481
136700.000			-10.363			-1.480
136800.000			-10.362			-1.480
136901.000			-10.363			-1.480
137000.000			-10.362			-1.480
137101.000			-10.362			-1.480
137202.000			-10.363			-1.480
137300.000			-10.363			-1.480
137400.000			-10.363			-1.480
137500.000			-10.363			-1.480
137600.000			-10.362			-1.480
137701.000			-10.362			-1.480
137800.000			-10.361			-1.480
137900.000			-10.361			-1.480
138002.000			-10.360			-1.480
138101.000			-10.361			-1.480
138200.000			-10.360			-1.480
138301.000			-10.360			-1.480
138400.000			-10.360			-1.480
138500.000			-10.361			-1.480
138601.000			-10.361			-1.480
138700.000			-10.361			-1.480
138800.000			-10.361			-1.480
138902.000			-10.359			-1.480
139001.000			-10.359			-1.480
139100.000			-10.359			-1.480
139201.000			-10.358			-1.480
139300.000			-10.358			-1.480
139400.000			-10.360			-1.480
139501.000			-10.359			-1.480
139600.000			-10.358			-1.480
139700.000			-10.357			-1.480
139802.000			-10.357			-1.480
139901.000			-10.357			-1.480
140001.000			-10.357			-1.480
140101.000			-10.357			-1.480
140200.000			-10.357			-1.480
140300.000			-10.357			-1.480
140401.000			-10.357			-1.480
140500.000			-10.357			-1.480
140600.000			-10.357			-1.480
140702.000			-10.357			-1.480
140801.000			-10.357			-1.480
140902.000			-10.357			-1.480
141000.000			-10.356			-1.479
141100.000			-10.356			-1.479
141201.000			-10.357			-1.480
141300.000			-10.356			-1.479
141400.000			-10.356			-1.479
141501.000			-10.356			-1.479
141601.000			-10.356			-1.479
141701.000			-10.355			-1.479
141802.000			-10.355			-1.479
141900.000			-10.355			-1.479
142000.000			-10.355			-1.479
142101.000			-10.354			-1.479
142200.000			-10.354			-1.479
142300.000			-10.354			-1.479
142401.000			-10.354			-1.479
142501.000			-10.354			-1.479
142601.000			-10.354			-1.479
142701.000			-10.355			-1.479
142800.000			-10.354			-1.479
142900.000			-10.353			-1.479
143001.000			-10.354			-1.479
143100.000			-10.353			-1.479
143200.000			-10.352			-1.479
143301.000			-10.352			-1.479
143401.000			-10.353			-1.479
143501.000			-10.354			-1.479
143601.000			-10.352			-1.479
143700.000			-10.352			-1.479
143800.000			-10.352			-1.479
143900.000			-10.352			-1.479
144000.000			-10.351			-1.479
144101.000			-10.351			-1.479
144201.000			-10.352			-1.479
144301.000			-10.352			-1.479
144402.000			-10.351			-1.479
144500.000			-10.351			-1.479
144600.000			-10.350			-1.479
144701.000			-10.349			-1.478
144800.000			-10.350			-1.479
144900.000			-10.350			-1.479
145001.000			-10.349			-1.478
145100.000			-10.349			-1.478
145201.000			-10.348			-1.478
145302.000			-10.348			-1.478
145400.000			-10.348			-1.478
145500.000			-10.348			-1.478
145601.000			-10.348			-1.478
145700.000			-10.347			-1.478
145800.000			-10.346			-1.478
145901.000			-10.346			-1.478
146000.000			-10.345			-1.478
146101.000			-10.346			-1.478
146202.000			-10.347			-1.478
146300.000			-10.347			-1.478
146400.000			-10.346			-1.478
146501.000			-10.345			-1.478
146600.000			-10.345			-1.478
146700.000			-10.344			-1.478
146801.000			-10.345			-1.478
146900.000			-10.345			-1.478
147002.000			-10.344			-1.478
147101.000			-10.344			-1.478
147200.000			-10.343			-1.478
147301.000			-10.343			-1.478
147400.000			-10.344			-1.478
147500.000			-10.344			-1.478
147601.000			-10.343			-1.478
147700.000			-10.343			-1.478
147800.000			-10.343			-1.478
147902.000			-10.342			-1.477
148001.000			-10.342			-1.477
148100.000			-10.341			-1.477
148201.000			-10.342			-1.477
148300.000			-10.341			-1.477
148400.000			-10.340			-1.477
148501.000			-10.341			-1.477
148600.000			-10.342			-1.477
148700.000			-10.341			-1.477
148802.000			-10.340			-1.477
148901.000			-10.340			-1.477
149000.000			-10.339			-1.477
149101.000			-10.340			-1.477
149200.000			-10.339			-1.477
149300.000			-10.340			-1.477
149401.000			-10.340			-1.477
149500.000			-10.339			-1.477
149600.000			-10.338			-1.477
149702.000			-10.339			-1.477
149801.000			-10.339			-1.477
149901.000			-10.338			-1.477
150001.000			-10.338			-1.477
150100.000			-10.338			-1.477
150200.000			-10.338			-1.477
150300.000			-10.337			-1.477
150400.000			-10.338			-1.477
150501.000			-10.337			-1.477
150600.000			-10.337			-1.477
150701.000			-10.337			-1.477
150802.000			-10.335			-1.476
150900.000			-10.335			-1.476
151000.000			-10.336			-1.477
151101.000			-10.337			-1.477
151200.000			-10.337			-1.477
151300.000			-10.336			-1.477
151401.000			-10.336			-1.477
151500.000			-10.336			-1.477
151601.000			-10.336			-1.477
151702.000			-10.335			-1.476
151800.000			-10.335			-1.476
151900.000			-10.334			-1.476
152001.000			-10.334			-1.476
152100.000			-10.334			-1.476
152200.000			-10.335			-1.476
152301.000			-10.334			-1.476
152400.000			-10.333			-1.476
152501.000			-10.334			-1.476
152602.000			-10.333			-1.476
152700.000			-10.333			-1.476
152800.000			-10.333			-1.476
152901.000			-10.333			-1.476
153000.000			-10.333			-1.476
153100.000			-10.334			-1.476
153201.000			-10.334			-1.476
153301.000			-10.333			-1.476
153402.000			-10.332			-1.476
153501.000			-10.333			-1.476
153600.000			-10.333			-1.476
153701.000			-10.332			-1.476
153800.000			-10.332			-1.476
153900.000			-10.331			-1.476
154001.000			-10.331			-1.476
154100.000			-10.331			-1.476
154201.000			-10.331			-1.476
154302.000			-10.332			-1.476
154401.000			-10.332			-1.476
154500.000			-10.331			-1.476
154601.000			-10.331			-1.476
154700.000			-10.330			-1.476
154800.000			-10.330			-1.476
154901.000			-10.329			-1.476
155000.000			-10.329			-1.476
155101.000			-10.329			-1.476
155202.000			-10.329			-1.476
155301.000			-10.329			-1.476
155400.000			-10.330			-1.476
155501.000			-10.329			-1.476
155600.000			-10.330			-1.476
155700.000			-10.329			-1.476
155801.000			-10.330			-1.476
155900.000			-10.330			-1.476
156001.000			-10.329			-1.476
156102.000			-10.329			-1.476
156201.000			-10.329			-1.476
156300.000			-10.327			-1.475
156401.000			-10.328			-1.475
156500.000			-10.327			-1.475
156600.000			-10.326			-1.475
156700.000			-10.326			-1.475
156800.000			-10.328			-1.475
156902.000			-10.327			-1.475
157001.000			-10.327			-1.475
157101.000			-10.327			-1.475
157201.000			-10.325			-1.475
157300.000			-10.325			-1.475
157400.000			-10.326			-1.475
157501.000			-10.326			-1.475
157600.000			-10.326			-1.475
157700.000			-10.326			-1.475
157801.000			-10.326			-1.475
157901.000			-10.325			-1.475
158001.000			-10.325			-1.475
158101.000			-10.324			-1.475
158200.000			-10.324			-1.475
158300.000			-10.324			-1.475
158401.000			-10.324			-1.475
158500.000			-10.325			-1.475
158600.000			-10.324			-1.475
158701.000			-10.324			-1.475
158801.000			-10.323			-1.475
158901.000			-10.322			-1.475
159001.000			-10.323			-1.475
159100.000			-10.322			-1.475
159200.000			-10.322			-1.475
159301.000			-10.323			-1.475
159400.000			-10.323			-1.475
159500.000			-10.322			-1.475
159601.000			-10.322			-1.475
159701.000			-10.322			-1.475
159802.000			-10.322			-1.475
159900.000			-10.322			-1.475
160000.000			-10.323			-1.475
160101.000			-10.322			-1.475
160200.000			-10.321			-1.474
160300.000			-10.322			-1.475
160401.000			-10.322			-1.475
160500.000			-10.322			-1.475
160601.000			-10.322			-1.475
160702.000			-10.321			-1.474
160800.000			-10.321			-1.474
160900.000			-10.321			-1.474
161001.000			-10.321			-1.474
161100.000			-10.322			-1.475
161200.000			-10.322			-1.475
161301.000			-10.321			-1.474
161401.000			-10.321			-1.474
161501.000			-10.321			-1.474
161602.000			-10.321			-1.474
161700.000			-10.320			-1.474
161800.000			-10.321			-1.474
161901.000			-10.321			-1.474
162000.000			-10.320			-1.474
162100.000			-10.319			-1.474
162201.000			-10.320			-1.474
162301.000			-10.318			-1.474
162401.000			-10.319			-1.474
162502.000			-10.320			-1.474
162600.000			-10.319			-1.474
162700.000			-10.318			-1.474
162801.000			-10.318			-1.474
162900.000			-10.318			-1.474
163000.000			-10.317			-1.474
163100.000			-10.317			-1.474
163200.000			-10.317			-1.474
163302.000			-10.316			-1.474
163401.000			-10.316			-1.474
163500.000			-10.317			-1.474
163601.000			-10.316			-1.474
163700.000			-10.316			-1.474
163800.000			-10.316			-1.474
163901.000			-10.316			-1.474
164000.000			-10.315			-1.474
164100.000			-10.315			-1.474
164202.000			-10.315			-1.474
164301.000			-10.315			-1.474
164400.000			-10.315			-1.474
164501.000			-10.315			-1.474
164600.000			-10.314			-1.473
164700.000			-10.314			-1.473
164801.000			-10.315			-1.474
164900.000			-10.315			-1.474
165000.000			-10.314			-1.473
165102.000			-10.314			-1.473
165201.000			-10.313			-1.473
165300.000			-10.313			-1.473
165401.000			-10.314			-1.473
165500.000			-10.313			-1.473
165600.000			-10.313			-1.473
165701.000			-10.313			-1.473
165800.000			-10.312			-1.473
165900.000			-10.312			-1.473
166002.000			-10.311			-1.473
166101.000			-10.311			-1.473
166200.000			-10.311			-1.473
166300.000			-10.311			-1.473
166400.000			-10.311			-1.473
166501.000			-10.311			-1.473
166600.000			-10.311			-1.473
166700.000			-10.311			-1.473
166801.000			-10.310			-1.473
166901.000			-10.310			-1.473
167001.000			-10.310			-1.473
167101.000			-10.310			-1.473
167200.000			-10.310			-1.473
167300.000			-10.310			-1.473
167401.000			-10.309			-1.473
167500.000			-10.310			-1.473
167600.000			-10.310			-1.473
167701.000			-10.310			-1.473
167801.000			-10.311			-1.473
167901.000			-10.309			-1.473
168001.000			-10.309			-1.473
168100.000			-10.310			-1.473
168200.000			-10.309			-1.473
168301.000			-10.309			-1.473
168400.000			-10.308			-1.473
168500.000			-10.309			-1.473
168601.000			-10.308			-1.473
168701.000			-10.309			-1.473
168801.000			-10.308			-1.473
168901.000			-10.308			-1.473
169000.000			-10.308			-1.473
169100.000			-10.309			-1.473
169201.000			-10.308			-1.473
169300.000			-10.307			-1.472
169400.000			-10.307			-1.472
169500.000			-10.308			-1.473
169601.000			-10.309			-1.473
169702.000			-10.308			-1.473
169801.000			-10.308			-1.473
169900.000			-10.308			-1.473
170001.000			-10.306			-1.472
170100.000			-10.307			-1.472
170200.000			-10.306			-1.472
170301.000			-10.307			-1.472
170400.000			-10.307			-1.472
170501.000			-10.306			-1.472
170602.000			-10.306			-1.472
170701.000			-10.306			-1.472
170800.000			-10.306			-1.472
170901.000			-10.307			-1.472
171000.000			-10.306			-1.472
171100.000			-10.306			-1.472
171201.000			-10.306			-1.472
171300.000			-10.306			-1.472
171401.000			-10.306			-1.472
171502.000			-10.306			-1.472
171601.000			-10.307			-1.472
171700.000			-10.306			-1.472
171801.000			-10.305			-1.472
171900.000			-10.306			-1.472
172000.000			-10.306			-1.472
172101.000			-10.305			-1.472
172200.000			-10.305			-1.472
172301.000			-10.305			-1.472
172402.000			-10.305			-1.472
172501.000			-10.306			-1.472
172600.000			-10.305			-1.472
172700.000			-10.305			-1.472
172800.000			-10.304			-1.472
172901.000			-10.305			-1.472
173000.000			-10.304			-1.472
173100.000			-10.303			-1.472
173202.000			-10.304			-1.472
173301.000			-10.304			-1.472
173401.000			-10.304			-1.472
173501.000			-10.304			-1.472
173600.000			-10.303			-1.472
173700.000			-10.304			-1.472
173801.000			-10.303			-1.472
173900.000			-10.302			-1.472
174000.000			-10.303			-1.472
174102.000			-10.304			-1.472
174201.000			-10.304			-1.472
174301.000			-10.304			-1.472
174401.000			-10.302			-1.472
174500.000			-10.302			-1.472
174600.000			-10.302			-1.472
174701.000			-10.302			-1.472
174800.000			-10.302			-1.472
174900.000			-10.302			-1.472
175002.000			-10.302			-1.472
175101.000			-10.303			-1.472
175201.000			-10.302			-1.472
175301.000			-10.301			-1.472
175400.000			-10.301			-1.472
175500.000			-10.301			-1.472
175601.000			-10.300			-1.471
175700.000			-10.300			-1.471
175800.000			-10.300			-1.471
175902.000			-10.299			-1.471
176001.000			-10.300			-1.471
176102.000			-10.300			-1.471
176200.000			-10.300			-1.471
176300.000			-10.300			-1.471
176401.000			-10.300			-1.471
176500.000			-10.300			-1.471
176600.000			-10.298			-1.471
176701.000			-10.298			-1.471
176800.000			-10.298			-1.471
176901.000			-10.299			-1.471
177002.000			-10.298			-1.471
177101.000			-10.298			-1.471
177200.000			-10.299			-1.471
177301.000			-10.298			-1.471
177400.000			-10.298			-1.471
177500.000			-10.297			-1.471
177601.000			-10.298			-1.471
177700.000			-10.298			-1.471
177800.000			-10.298			-1.471
177902.000			-10.298			-1.471
178001.000			-10.297			-1.471
178100.000			-10.296			-1.471
178201.000			-10.297			-1.471
178300.000			-10.296			-1.471
178400.000			-10.297			-1.471
178501.000			-10.296			-1.471
178600.000			-10.295			-1.471
178700.000			-10.296			-1.471
178802.000			-10.296			-1.471
178901.000			-10.296			-1.471
179002.000			-10.296			-1.471
179100.000			-10.295			-1.471
179200.000			-10.295			-1.471
179301.000			-10.294			-1.471
179400.000			-10.294			-1.471
179500.000			-10.295			-1.471
179601.000			-10.295			-1.471
179700.000			-10.294			-1.471
179801.000			-10.294			-1.471
179902.000			-10.294			-1.471
180000.000			-10.294			-1.471
180100.000			-10.294			-1.471
180201.000			-10.294			-1.471
180300.000			-10.294			-1.471
180400.000			-10.293			-1.470
180501.000			-10.293			-1.470
180600.000			-10.293			-1.470
180701.000			-10.294			-1.471
180802.000			-10.293			-1.470
180901.000			-10.293			-1.470
181000.000			-10.293			-1.470
181101.000			-10.292			-1.470
181200.000			-10.292			-1.470
181300.000			-10.292			-1.470
181401.000			-10.292			-1.470
181500.000			-10.291			-1.470
181601.000			-10.291			-1.470
181702.000			-10.291			-1.470
181801.000			-10.291			-1.470
181900.000			-10.291			-1.470
182001.000			-10.292			-1.470
182100.000			-10.291			-1.470
182200.000			-10.291			-1.470
182300.000			-10.290			-1.470
182400.000			-10.290			-1.470
182502.000			-10.291			-1.470
182601.000			-10.291			-1.470
182701.000			-10.290			-1.470
182801.000			-10.289			-1.470
182900.000			-10.289			-1.470
183000.000			-10.289			-1.470
183101.000			-10.289			-1.470
183200.000			-10.289			-1.470
183300.000			-10.288			-1.470
183401.000			-10.288			-1.470
183501.000			-10.288			-1.470
183601.000			-10.288			-1.470
183701.000			-10.289			-1.470
183800.000			-10.288			-1.470
183900.000			-10.288			-1.470
184001.000			-10.288			-1.470
184100.000			-10.286			-1.469
184200.000			-10.288			-1.470
184301.000			-10.288			-1.470
184401.000			-10.287			-1.470
184501.000			-10.288			-1.470
184602.000			-10.287			-1.470
184700.000			-10.286			-1.469
184800.000			-10.286			-1.469
184901.000			-10.286			-1.469
185000.000			-10.285			-1.469
185100.000			-10.284			-1.469
185201.000			-10.285			-1.469
185300.000			-10.286			-1.469
185402.000			-10.286			-1.469
185501.000			-10.285			-1.469
185600.000			-10.285			-1.469
185701.000			-10.285			-1.469
185800.000			-10.285			-1.469
185900.000			-10.285			-1.469
186001.000			-10.285			-1.469
186100.000			-10.285			-1.469
186200.000			-10.283			-1.469
186302.000			-10.284			-1.469
186401.000			-10.284			-1.469
186501.000			-10.283			-1.469
186601.000			-10.283			-1.469
186700.000			-10.282			-1.469
186800.000			-10.283			-1.469
186901.000			-10.282			-1.469
187000.000			-10.282			-1.469
187100.000			-10.282			-1.469
187201.000			-10.282			-1.469
187301.000			-10.281			-1.469
187401.000			-10.281			-1.469
187501.000			-10.281			-1.469
187600.000			-10.281			-1.469
187700.000			-10.280			-1.469
187801.000			-10.280			-1.469
187900.000			-10.280			-1.469
188000.000			-10.281			-1.469
188101.000			-10.280			-1.469
188201.000			-10.280			-1.469
188301.000			-10.279			-1.468
188402.000			-10.280			-1.469
188500.000			-10.279			-1.468
188600.000			-10.278			-1.468
188700.000			-10.277			-1.468
188800.000			-10.278			-1.468
188901.000			-10.278			-1.468
189000.000			-10.278			-1.468
189100.000			-10.278			-1.468
189202.000			-10.277			-1.468
189301.000			-10.277			-1.468
189401.000			-10.277			-1.468
189501.000			-10.276			-1.468
189600.000			-10.275			-1.468
189700.000			-10.276			-1.468
189801.000			-10.277			-1.468
189900.000			-10.275			-1.468
190000.000			-10.276			-1.468
190101.000			-10.276			-1.468
190201.000			-10.276			-1.468
190301.000			-10.276			-1.468
190402.000			-10.276			-1.468
190500.000			-10.276			-1.468
190600.000			-10.275			-1.468
190701.000			-10.275			-1.468
190800.000			-10.275			-1.468
190900.000			-10.275			-1.468
191001.000			-10.275			-1.468
191101.000			-10.275			-1.468
191201.000			-10.276			-1.468
191302.000			-10.275			-1.468
191400.000			-10.274			-1.468
191500.000			-10.274			-1.468
191601.000			-10.274			-1.468
191700.000			-10.275			-1.468
191800.000			-10.274			-1.468
191900.000			-10.274			-1.468
192000.000			-10.274			-1.468
192102.000			-10.275			-1.468
192201.000			-10.275			-1.468
192300.000			-10.275			-1.468
192401.000			-10.274			-1.468
192500.000			-10.273			-1.468
192600.000			-10.274			-1.468
192701.000			-10.274			-1.468
192800.000			-10.272			-1.467
192900.000			-10.272			-1.467
193002.000			-10.273			-1.468
193101.000			-10.273			-1.468
193200.000			-10.273			-1.468
193301.000			-10.271			-1.467
193400.000			-10.270			-1.467
193500.000			-10.271			-1.467
193601.000			-10.272			-1.467
193700.000			-10.272			-1.467
193800.000			-10.271			-1.467
193902.000			-10.271			-1.467
194001.000			-10.271			-1.467
194101.000			-10.270			-1.467
194201.000			-10.270			-1.467
194300.000			-10.270			-1.467
194400.000			-10.271			-1.467
194501.000			-10.270			-1.467
194600.000			-10.269			-1.467
194700.000			-10.269			-1.467
194802.000			-10.269			-1.467
194901.000			-10.269			-1.467
195002.000			-10.269			-1.467
195100.000			-10.269			-1.467
195200.000			-10.269			-1.467
195301.000			-10.268			-1.467
195400.000			-10.268			-1.467
195500.000			-10.268			-1.467
195601.000			-10.268			-1.467
195700.000			-10.266			-1.467
195801.000			-10.266			-1.467
195902.000			-10.266			-1.467
196001.000			-10.267			-1.467
196100.000			-10.267			-1.467
196201.000			-10.267			-1.467
196300.000			-10.266			-1.467
196400.000			-10.267			-1.467
196501.000			-10.266			-1.467
196600.000			-10.267			-1.467
196700.000			-10.267			-1.467
196802.000			-10.267			-1.467
196901.000			-10.266			-1.467
197000.000			-10.266			-1.467
197101.000			-10.266			-1.467
197200.000			-10.265			-1.466
197300.000			-10.265			-1.466
197401.000			-10.265			-1.466
197500.000			-10.266			-1.467
197600.000			-10.265			-1.466
197702.000			-10.264			-1.466
197801.000			-10.264			-1.466
197901.000			-10.264			-1.466
198001.000			-10.266			-1.467
198100.000			-10.267			-1.467
198200.000			-10.264			-1.466
198300.000			-10.264			-1.466
198400.000			-10.264			-1.466
198501.000			-10.263			-1.466
198600.000			-10.263			-1.466
198701.000			-10.263			-1.466
198802.000			-10.263			-1.466
198900.000			-10.263			-1.466
199000.000			-10.263			-1.466
199101.000			-10.263			-1.466
199200.000			-10.262			-1.466
199300.000			-10.262			-1.466
199401.000			-10.261			-1.466
199500.000			-10.261			-1.466
199601.000			-10.262			-1.466
199702.000			-10.262			-1.466
199801.000			-10.262			-1.466
199900.000			-10.261			-1.466
200001.000			-10.262			-1.466
200100.000			-10.262			-1.466
200200.000			-10.261			-1.466
200301.000			-10.261			-1.466
200400.000			-10.262			-1.466
200501.000			-10.261			-1.466
200602.000			-10.261			-1.466
200701.000			-10.261			-1.466
200800.000			-10.259			-1.466
200901.000			-10.260			-1.466
201000.000			-10.260			-1.466
201100.000			-10.259			-1.466
201201.000			-10.259			-1.466
201300.000			-10.261			-1.466
201402.000			-10.260			-1.466
201501.000			-10.259			-1.466
201600.000			-10.259			-1.466
201701.000			-10.258			-1.465
201800.000			-10.258			-1.465
201900.000			-10.260			-1.466
202001.000			-10.258			-1.465
202100.000			-10.259			-1.466
202200.000			-10.258			-1.465
202302.000			-10.257			-1.465
202401.000			-10.257			-1.465
202500.000			-10.257			-1.465
202601.000			-10.257			-1.465
202700.000			-10.259			-1.466
202800.000			-10.259			-1.466
202901.000			-10.257			-1.465
203000.000			-10.256			-1.465
203100.000			-10.257			-1.465
203202.000			-10.257			-1.465
203301.000			-10.257			-1.465
203400.000			-10.257			-1.465
203501.000			-10.258			-1.465
203600.000			-10.257			-1.465
203700.000			-10.257			-1.465
203801.000			-10.257			-1.465
203900.000			-10.256			-1.465
204000.000			-10.256			-1.465
204102.000			-10.257			-1.465
204201.000			-10.255			-1.465
204300.000			-10.256			-1.465
204401.000			-10.256			-1.465
204500.000			-10.255			-1.465
204600.000			-10.255			-1.465
204700.000			-10.254			-1.465
204800.000			-10.255			-1.465
204901.000			-10.254			-1.465
205001.000			-10.254			-1.465
205101.000			-10.255			-1.465
205201.000			-10.255			-1.465
205300.000			-10.254			-1.465
205400.000			-10.254			-1.465
205501.000			-10.254			-1.465
205600.000			-10.254			-1.465
205700.000			-10.254			-1.465
205801.000			-10.254			-1.465
205901.000			-10.254			-1.465
206001.000			-10.253			-1.465
206101.000			-10.253			-1.465
206200.000			-10.254			-1.465
206300.000			-10.254			-1.465
206401.000			-10.252			-1.465
206500.000			-10.252			-1.465
206600.000			-10.253			-1.465
206701.000			-10.252			-1.465
206801.000			-10.253			-1.465
206901.000			-10.253			-1.465
207001.000			-10.254			-1.465
207100.000			-10.254			-1.465
207200.000			-10.254			-1.465
207301.000			-10.253			-1.465
207400.000			-10.253			-1.465
207500.000			-10.253			-1.465
207602.000			-10.253			-1.465
207701.000			-10.253			-1.465
207802.000			-10.254			-1.465
207900.000			-10.253			-1.465
208000.000			-10.252			-1.465
208101.000			-10.253			-1.465
208200.000			-10.253			-1.465
208300.000			-10.253			-1.465
208401.000			-10.253			-1.465
208501.000			-10.252			-1.465
208601.000			-10.252			-1.465
208702.000			-10.253			-1.465
208800.000			-10.253			-1.465
208900.000			-10.252			-1.465
209001.000			-10.251			-1.464
209100.000			-10.251			-1.464
209200.000			-10.252			-1.465
209301.000			-10.250			-1.464
209401.000			-10.250			-1.464
209501.000			-10.250			-1.464
209602.000			-10.250			-1.464
209700.000			-10.250			-1.464
209800.000			-10.251			-1.464
209901.000			-10.251			-1.464
210000.000			-10.251			-1.464
210100.000			-10.250			-1.464
210201.000			-10.250			-1.464
210301.000			-10.250			-1.464
210401.000			-10.251			-1.464
210501.000			-10.251			-1.464
210600.000			-10.251			-1.464
210700.000			-10.251			-1.464
210801.000			-10.249			-1.464
210900.000			-10.249			-1.464
211000.000			-10.250			-1.464
211100.000			-10.249			-1.464
211201.000			-10.250			-1.464
211302.000			-10.250			-1.464
211400.000			-10.248			-1.464
211500.000			-10.250			-1.464
211601.000			-10.249			-1.464
211700.000			-10.249			-1.464
211800.000			-10.249			-1.464
211901.000			-10.249			-1.464
212000.000			-10.248			-1.464
212101.000			-10.248			-1.464
212202.000			-10.249			-1.464
212300.000			-10.248			-1.464
212400.000			-10.249			-1.464
212501.000			-10.248			-1.464
212600.000			-10.247			-1.464
212700.000			-10.248			-1.464
212801.000			-10.248			-1.464
212900.000			-10.248			-1.464
213001.000			-10.248			-1.464
213102.000			-10.248			-1.464
213201.000			-10.248			-1.464
213300.000			-10.248			-1.464
213401.000			-10.247			-1.464
213500.000			-10.246			-1.464
213600.000			-10.246			-1.464
213701.000			-10.247			-1.464
213800.000			-10.247			-1.464
213901.000			-10.246			-1.464
214002.000			-10.247			-1.464
214101.000			-10.246			-1.464
214200.000			-10.245			-1.464
214300.000			-10.246			-1.464
214400.000			-10.246			-1.464
214501.000			-10.246			-1.464
214600.000			-10.246			-1.464
214700.000			-10.246			-1.464
214802.000			-10.245			-1.464
214901.000			-10.245			-1.464
215001.000			-10.245			-1.464
215101.000			-10.246			-1.464
215200.000			-10.246			-1.464
215300.000			-10.245			-1.464
215401.000			-10.244			-1.463
215500.000			-10.244			-1.463
215600.000			-10.245			-1.464
215702.000			-10.245			-1.464
215801.000			-10.244			-1.463
215900.000			-10.245			-1.464
216001.000			-10.243			-1.463
216100.000			-10.244			-1.463
216200.000			-10.244			-1.463
216301.000			-10.243			-1.463
216400.000			-10.245			-1.464
216500.000			-10.244			-1.463
216602.000			-10.243			-1.463
216701.000			-10.243			-1.463
216800.000			-10.243			-1.463
216901.000			-10.243			-1.463
217000.000			-10.243			-1.463
217100.000			-10.243			-1.463
217201.000			-10.243			-1.463
217300.000			-10.243			-1.463
217400.000			-10.243			-1.463
217502.000			-10.242			-1.463
217601.000			-10.242			-1.463
217701.000			-10.242			-1.463
217800.000			-10.242			-1.463
217900.000			-10.242			-1.463
218001.000			-10.243			-1.463
218100.000			-10.242			-1.463
218200.000			-10.242			-1.463
218301.000			-10.242			-1.463
218401.000			-10.240			-1.463
218501.000			-10.240			-1.463
218601.000			-10.241			-1.463
218700.000			-10.241			-1.463
218800.000			-10.241			-1.463
218901.000			-10.240			-1.463
219000.000			-10.240			-1.463
219100.000			-10.240			-1.463
219201.000			-10.240			-1.463
219301.000			-10.240			-1.463
219401.000			-10.241			-1.463
219501.000			-10.239			-1.463
219600.000			-10.239			-1.463
219700.000			-10.240			-1.463
219801.000			-10.239			-1.463
219900.000			-10.239			-1.463
220000.000			-10.240			-1.463
220101.000			-10.238			-1.463
220201.000			-10.238			-1.463
220301.000			-10.239			-1.463
220401.000			-10.238			-1.463
220500.000			-10.239			-1.463
220600.000			-10.240			-1.463
220700.000			-10.239			-1.463
220800.000			-10.238			-1.463
220901.000			-10.237			-1.462
221000.000			-10.238			-1.463
221101.000			-10.238			-1.463
221202.000			-10.238			-1.463
221300.000			-10.237			-1.462
221400.000			-10.237			-1.462
221501.000			-10.237			-1.462
221600.000			-10.238			-1.463
221700.000			-10.237			-1.462
221801.000			-10.236			-1.462
221900.000			-10.237			-1.462
222001.000			-10.237			-1.462
222102.000			-10.238			-1.463
222200.000			-10.236			-1.462
222300.000			-10.236			-1.462
222401.000			-10.237			-1.462
222500.000			-10.236			-1.462
222600.000			-10.236			-1.462
222701.000			-10.236			-1.462
222800.000			-10.235			-1.462
222901.000			-10.236			-1.462
223002.000			-10.236			-1.462
223100.000			-10.235			-1.462
223200.000			-10.235			-1.462
223301.000			-10.235			-1.462
223400.000			-10.234			-1.462
223500.000			-10.234			-1.462
223601.000			-10.234			-1.462
223700.000			-10.235			-1.462
223802.000			-10.235			-1.462
223901.000			-10.234			-1.462
224000.000			-10.234			-1.462
224101.000			-10.235			-1.462
224200.000			-10.234			-1.462
224300.000			-10.233			-1.462
224401.000			-10.233			-1.462
224500.000			-10.234			-1.462
224600.000			-10.233			-1.462
224702.000			-10.232			-1.462
224801.000			-10.233			-1.462
224900.000			-10.233			-1.462
225001.000			-10.232			-1.462
225100.000			-10.232			-1.462
225200.000			-10.233			-1.462
225301.000			-10.232			-1.462
225400.000			-10.233			-1.462
225500.000			-10.233			-1.462
225602.000			-10.232			-1.462
225701.000			-10.232			-1.462
225800.000			-10.232			-1.462
225901.000			-10.232			-1.462
226000.000			-10.232			-1.462
226100.000			-10.232			-1.462
226201.000			-10.232			-1.462
226300.000			-10.231			-1.462
226400.000			-10.231			-1.462
226502.000			-10.231			-1.462
226601.000			-10.232			-1.462
226700.000			-10.232			-1.462
226801.000			-10.231			-1.462
226900.000			-10.231			-1.462
227000.000			-10.231			-1.462
227100.000			-10.231			-1.462
227200.000			-10.230			-1.461
227302.000			-10.230			-1.461
227401.000			-10.229			-1.461
227501.000			-10.231			-1.462
227601.000			-10.231			-1.462
227700.000			-10.230			-1.461
227800.000			-10.229			-1.461
227901.000			-10.228			-1.461
228000.000			-10.229			-1.461
228100.000			-10.230			-1.461
228202.000			-10.229			-1.461
228301.000			-10.228			-1.461
228401.000			-10.228			-1.461
228501.000			-10.228			-1.461
228600.000			-10.228			-1.461
228700.000			-10.228			-1.461
228801.000			-10.228			-1.461
228900.000			-10.228			-1.461
229000.000			-10.228			-1.461
229101.000			-10.227			-1.461
229201.000			-10.228			-1.461
229301.000			-10.228			-1.461
229401.000			-10.228			-1.461
229500.000			-10.228			-1.461
229600.000			-10.228			-1.461
229701.000			-10.226			-1.461
229800.000			-10.226			-1.461
229900.000			-10.226			-1.461
230001.000			-10.226			-1.461
230101.000			-10.226			-1.461
230202.000			-10.227			-1.461
230300.000			-10.227			-1.461
230400.000			-10.226			-1.461
230501.000			-10.227			-1.461
230600.000			-10.226			-1.461
230700.000			-10.226			-1.461
230801.000			-10.225			-1.461
230901.000			-10.225			-1.461
231001.000			-10.226			-1.461
231102.000			-10.225			-1.461
231200.000			-10.226			-1.461
231300.000			-10.226			-1.461
231401.000			-10.225			-1.461
231500.000			-10.225			-1.461
231600.000			-10.226			-1.461
231701.000			-10.224			-1.461
231801.000			-10.224			-1.461
231901.000			-10.224			-1.461
232002.000			-10.224			-1.461
232100.000			-10.225			-1.461
232200.000			-10.224			-1.461
232301.000			-10.223			-1.460
232400.000			-10.224			-1.461
232500.000			-10.224			-1.461
232601.000			-10.224			-1.461
232701.000			-10.223			-1.460
232801.000			-10.224			-1.461
232901.000			-10.224			-1.461
233000.000			-10.224			-1.461
233100.000			-10.224			-1.461
233201.000			-10.222			-1.460
233300.000			-10.222			-1.460
233400.000			-10.222			-1.460
233500.000			-10.222			-1.460
233601.000			-10.222			-1.460
233702.000			-10.223			-1.460
233800.000			-10.223			-1.460
233900.000			-10.222			-1.460
234001.000			-10.222			-1.460
234100.000			-10.221			-1.460
234200.000			-10.222			-1.460
234301.000			-10.221			-1.460
234401.000			-10.221			-1.460
234501.000			-10.221			-1.460
234602.000			-10.221			-1.460
234700.000			-10.221			-1.460
234800.000			-10.220			-1.460
234901.000			-10.221			-1.460
235000.000			-10.220			-1.460
235100.000			-10.220			-1.460
235201.000			-10.220			-1.460
235301.000			-10.220			-1.460
235401.000			-10.220			-1.460
235501.000			-10.220			-1.460
235600.000			-10.218			-1.460
235700.000			-10.219			-1.460
235801.000			-10.218			-1.460
235900.000			-10.219			-1.460
236000.000			-10.218			-1.460
236101.000			-10.219			-1.460
236201.000			-10.218			-1.460
236301.000			-10.218			-1.460
236401.000			-10.218			-1.460
236500.000			-10.217			-1.460
236600.000			-10.218			-1.460
236700.000			-10.217			-1.460
236800.000			-10.217			-1.460
236901.000			-10.217			-1.460
237000.000			-10.218			-1.460
237101.000			-10.217			-1.460
237202.000			-10.217			-1.460
237300.000			-10.217			-1.460
237400.000			-10.218			-1.460
237501.000			-10.218			-1.460
237600.000			-10.218			-1.460
237700.000			-10.217			-1.460
237801.000			-10.217			-1.460
237900.000			-10.217			-1.460
238001.000			-10.217			-1.460
238102.000			-10.216			-1.459
238200.000			-10.217			-1.460
238300.000			-10.216			-1.459
238401.000			-10.215			-1.459
238500.000			-10.215			-1.459
238600.000			-10.215			-1.459
238701.000			-10.216			-1.459
238800.000			-10.216			-1.459
238901.000			-10.216			-1.459
239002.000			-10.215			-1.459
239101.000			-10.214			-1.459
239200.000			-10.214			-1.459
239301.000			-10.213			-1.459
239400.000			-10.214			-1.459
239500.000			-10.214			-1.459
239601.000			-10.213			-1.459
239700.000			-10.213			-1.459
239802.000			-10.213			-1.459
239901.000			-10.214			-1.459
240001.000			-10.214			-1.459
240101.000			-10.214			-1.459
240200.000			-10.213			-1.459
240300.000			-10.213			-1.459
240401.000			-10.213			-1.459
240500.000			-10.212			-1.459
240600.000			-10.213			-1.459
240702.000			-10.213			-1.459
240801.000			-10.212			-1.459
240900.000			-10.212			-1.459
241001.000			-10.213			-1.459
241100.000			-10.212			-1.459
241200.000			-10.212			-1.459
241301.000			-10.211			-1.459
241400.000			-10.211			-1.459
241500.000			-10.212			-1.459
241602.000			-10.211			-1.459
241701.000			-10.210			-1.459
241800.000			-10.210			-1.459
241901.000			-10.210			-1.459
242000.000			-10.211			-1.459
242100.000			-10.210			-1.459
242201.000			-10.210			-1.459
242300.000			-10.209			-1.458
242400.000			-10.209			-1.458
242502.000			-10.209			-1.458
242601.000			-10.209			-1.458
242700.000			-10.208			-1.458
242801.000			-10.209			-1.458
242900.000			-10.209			-1.458
243000.000			-10.209			-1.458
243100.000			-10.209			-1.458
243200.000			-10.208			-1.458
243301.000			-10.208			-1.458
243401.000			-10.207			-1.458
243501.000			-10.206			-1.458
243601.000			-10.207			-1.458
243700.000			-10.208			-1.458
243800.000			-10.208			-1.458
243901.000			-10.207			-1.458
244000.000			-10.207			-1.458
244100.000			-10.207			-1.458
244202.000			-10.206			-1.458
244301.000			-10.205			-1.458
244401.000			-10.206			-1.458
244501.000			-10.206			-1.458
244600.000			-10.206			-1.458
244700.000			-10.206			-1.458
244801.000			-10.205			-1.458
244900.000			-10.205			-1.458
245000.000			-10.205			-1.458
245102.000			-10.205			-1.458
245201.000			-10.205			-1.458
245300.000			-10.204			-1.458
245401.000			-10.204			-1.458
245500.000			-10.204			-1.458
245600.000			-10.204			-1.458
245701.000			-10.203			-1.458
245800.000			-10.203			-1.458
245900.000			-10.203			-1.458
246002.000			-10.202			-1.457
246101.000			-10.202			-1.457
246200.000			-10.203			-1.458
246300.000			-10.203			-1.458
246400.000			-10.202			-1.457
246501.000			-10.202			-1.457
246600.000			-10.202			-1.457
246700.000			-10.202			-1.457
246801.000			-10.202			-1.457
246901.000			-10.202			-1.457
247001.000			-10.202			-1.457
247101.000			-10.202			-1.457
247200.000			-10.202			-1.457
247300.000			-10.201			-1.457
247401.000			-10.201			-1.457
247500.000			-10.201			-1.457
247600.000			-10.201			-1.457
247701.000			-10.201			-1.457
247801.000			-10.201			-1.457
247901.000			-10.201			-1.457
248001.000			-10.202			-1.457
248100.000			-10.202			-1.457
248200.000			-10.202			-1.457
248301.000			-10.202			-1.457
248400.000			-10.201			-1.457
248500.000			-10.201			-1.457
248602.000			-10.201			-1.457
248701.000			-10.201			-1.457
248801.000			-10.200			-1.457
248901.000			-10.200			-1.457
249000.000			-10.200			-1.457
249100.000			-10.200			-1.457
249201.000			-10.200			-1.457
249300.000			-10.199			-1.457
249400.000			-10.199			-1.457
249500.000			-10.199			-1.457
249601.000			-10.199			-1.457
249702.000			-10.200			-1.457
249800.000			-10.199			-1.457
249900.000			-10.199			-1.457
250001.000			-10.199			-1.457
250100.000			-10.199			-1.457
250200.000			-10.198			-1.457
250301.000			-10.199			-1.457
250400.000			-10.199			-1.457
250501.000			-10.199			-1.457
250602.000			-10.199			-1.457
250701.000			-10.199			-1.457
250800.000			-10.196			-1.457
250901.000			-10.197			-1.457
251000.000			-10.198			-1.457
251100.000			-10.198			-1.457
251201.000			-10.199			-1.457
251300.000			-10.197			-1.457
251401.000			-10.197			-1.457
251502.000			-10.196			-1.457
251601.000			-10.197			-1.457
251700.000			-10.197			-1.457
251801.000			-10.197			-1.457
251900.000			-10.197			-1.457
252000.000			-10.197			-1.457
252101.000			-10.197			-1.457
252200.000			-10.196			-1.457
252301.000			-10.196			-1.457
252402.000			-10.196			-1.457
252501.000			-10.196			-1.457
252600.000			-10.196			-1.457
252700.000			-10.197			-1.457
252800.000			-10.197			-1.457
252901.000			-10.196			-1.457
253000.000			-10.195			-1.456
253100.000			-10.195			-1.456
253201.000			-10.196			-1.457
253301.000			-10.196			-1.457
253401.000			-10.195			-1.456
253501.000			-10.195			-1.456
253600.000			-10.196			-1.457
253700.000			-10.195			-1.456
253801.000			-10.195			-1.456
253900.000			-10.194			-1.456
254000.000			-10.195			-1.456
254101.000			-10.195			-1.456
254201.000			-10.195			-1.456
254301.000			-10.195			-1.456
254401.000			-10.195			-1.456
254500.000			-10.195			-1.456
254600.000			-10.194			-1.456
254701.000			-10.194			-1.456
254800.000			-10.194			-1.456
254900.000			-10.194			-1.456
255001.000			-10.194			-1.456
255101.000			-10.194			-1.456
255201.000			-10.195			-1.456
255302.000			-10.195			-1.456
255400.000			-10.194			-1.456
255500.000			-10.195			-1.456
255601.000			-10.195			-1.456
255700.000			-10.195			-1.456
255800.000			-10.195			-1.456
255900.000			-10.194			-1.456
256000.000			-10.193			-1.456
256102.000			-10.194			-1.456
256201.000			-10.194			-1.456
256300.000			-10.194			-1.456
256401.000			-10.193			-1.456
256500.000			-10.195			-1.456
256600.000			-10.193			-1.456
256701.000			-10.194			-1.456
256800.000			-10.194			-1.456
256900.000			-10.194			-1.456
257002.000			-10.194			-1.456
257101.000			-10.194			-1.456
257201.000			-10.194			-1.456
257301.000			-10.194			-1.456
257400.000			-10.195			-1.456
257500.000			-10.194			-1.456
257601.000			-10.193			-1.456
257700.000			-10.193			-1.456
257800.000			-10.194			-1.456
257902.000			-10.194			-1.456
258001.000			-10.192			-1.456
258101.000			-10.192			-1.456
258201.000			-10.193			-1.456
258300.000			-10.193			-1.456
258400.000			-10.193			-1.456
258501.000			-10.192			-1.456
258600.000			-10.191			-1.456
258700.000			-10.192			-1.456
258801.000			-10.192			-1.456
258901.000			-10.192			-1.456
259002.000			-10.193			-1.456
259100.000			-10.193			-1.456
259200.000			-10.192			-1.456
259301.000			-10.192			-1.456
259400.000			-10.191			-1.456
259500.000			-10.192			-1.456
259601.000			-10.191			-1.456
259700.000			-10.193			-1.456
259801.000			-10.192			-1.456
259902.000			-10.191			-1.456
260001.000			-10.191			-1.456
260100.000			-10.192			-1.456
260201.000			-10.191			-1.456
260300.000			-10.191			-1.456
260400.000			-10.191			-1.456
260501.000			-10.192			-1.456
260600.000			-10.192			-1.456
260701.000			-10.191			-1.456
260802.000			-10.191			-1.456
260901.000			-10.190			-1.456
261000.000			-10.191			-1.456
261101.000			-10.191			-1.456
261200.000			-10.190			-1.456
261300.000			-10.190			-1.456
261401.000			-10.190			-1.456
261500.000			-10.190			-1.456
261601.000			-10.190			-1.456
261702.000			-10.191			-1.456
261801.000			-10.191			-1.456
261900.000			-10.190			-1.456
262001.000			-10.190			-1.456
262100.000			-10.191			-1.456
262200.000			-10.190			-1.456
262300.000			-10.190			-1.456
262400.000			-10.190			-1.456
262502.000			-10.190			-1.456
262601.000			-10.189			-1.456
262701.000			-10.190			-1.456
262801.000			-10.190			-1.456
262900.000			-10.190			-1.456
263000.000			-10.190			-1.456
263101.000			-10.190			-1.456
263200.000			-10.190			-1.456
263300.000			-10.190			-1.456
263401.000			-10.189			-1.456
263501.000			-10.189			-1.456
263601.000			-10.189			-1.456
263701.000			-10.188			-1.455
263800.000			-10.190			-1.456
263900.000			-10.188			-1.455
264001.000			-10.189			-1.456
264100.000			-10.189			-1.456
264200.000			-10.188			-1.455
264301.000			-10.188			-1.455
264401.000			-10.189			-1.456
264501.000			-10.188			-1.455
264601.000			-10.187			-1.455
264700.000			-10.187			-1.455
264800.000			-10.188			-1.455
264901.000			-10.188			-1.455
265000.000			-10.188			-1.455
265100.000			-10.188			-1.455
265201.000			-10.188			-1.455
265301.000			-10.187			-1.455
265402.000			-10.187			-1.455
265501.000			-10.187			-1.455
265600.000			-10.187			-1.455
265701.000			-10.186			-1.455
265800.000			-10.187			-1.455
265900.000			-10.187			-1.455
266001.000			-10.186			-1.455
266100.000			-10.186			-1.455
266200.000			-10.187			-1.455
266302.000			-10.186			-1.455
266401.000			-10.186			-1.455
266500.000			-10.187			-1.455
266601.000			-10.186			-1.455
266700.000			-10.186			-1.455
266800.000			-10.186			-1.455
266901.000			-10.186			-1.455
267000.000			-10.186			-1.455
267100.000			-10.186			-1.455
267202.000			-10.186			-1.455
267301.000			-10.185			-1.455
267401.000			-10.184			-1.455
267501.000			-10.184			-1.455
267600.000			-10.183			-1.455
267700.000			-10.183			-1.455
267801.000			-10.185			-1.455
267900.000			-10.185			-1.455
268000.000			-10.184			-1.455
268101.000			-10.184			-1.455
268201.000			-10.184			-1.455
268301.000			-10.184			-1.455
268401.000			-10.184			-1.455
268500.000			-10.185			-1.455
268600.000			-10.185			-1.455
268700.000			-10.184			-1.455
268800.000			-10.183			-1.455
268901.000			-10.183			-1.455
269000.000			-10.184			-1.455
269101.000			-10.184			-1.455
269202.000			-10.183			-1.455
269301.000			-10.183			-1.455
269400.000			-10.183			-1.455
269501.000			-10.183			-1.455
269600.000			-10.183			-1.455
269700.000			-10.182			-1.455
269801.000			-10.182			-1.455
269900.000			-10.182			-1.455
270000.000			-10.181			-1.454
270102.000			-10.182			-1.455
270201.000			-10.182			-1.455
270300.000			-10.182			-1.455
270401.000			-10.182			-1.455
270500.000			-10.182			-1.455
270600.000			-10.182			-1.455
270701.000			-10.181			-1.454
270800.000			-10.181			-1.454
270900.000			-10.180			-1.454
271002.000			-10.180			-1.454
271101.000			-10.180			-1.454
271200.000			-10.181			-1.454
271301.000			-10.181			-1.454
271400.000			-10.181			-1.454
271500.000			-10.180			-1.454
271601.000			-10.180			-1.454
271700.000			-10.180			-1.454
271802.000			-10.180			-1.454
271901.000			-10.179			-1.454
272001.000			-10.180			-1.454
272101.000			-10.180			-1.454
272200.000			-10.179			-1.454
272300.000			-10.179			-1.454
272401.000			-10.180			-1.454
272500.000			-10.179			-1.454
272600.000			-10.178			-1.454
272701.000			-10.178			-1.454
272801.000			-10.178			-1.454
272901.000			-10.178			-1.454
273001.000			-10.178			-1.454
273100.000			-10.178			-1.454
273200.000			-10.178			-1.454
273301.000			-10.178			-1.454
273400.000			-10.178			-1.454
273500.000			-10.178			-1.454
273601.000			-10.178			-1.454
273701.000			-10.178			-1.454
273801.000			-10.178			-1.454
273901.000			-10.178			-1.454
274000.000			-10.177			-1.454
274100.000			-10.178			-1.454
274201.000			-10.178			-1.454
274300.000			-10.177			-1.454
274400.000			-10.176			-1.454
274501.000			-10.177			-1.454
274601.000			-10.177			-1.454
274701.000			-10.178			-1.454
274802.000			-10.178			-1.454
274900.000			-10.178			-1.454
275000.000			-10.177			-1.454
275100.000			-10.177			-1.454
275200.000			-10.178			-1.454
275301.000			-10.178			-1.454
275400.000			-10.178			-1.454
275500.000			-10.177			-1.454
275602.000			-10.177			-1.454
275701.000			-10.177			-1.454
275800.000			-10.177			-1.454
275901.000			-10.176			-1.454
276000.000			-10.177			-1.454
276100.000			-10.176			-1.454
276201.000			-10.176			-1.454
276300.000			-10.176			-1.454
276400.000			-10.176			-1.454
276502.000			-10.176			-1.454
276601.000			-10.176			-1.454
276701.000			-10.177			-1.454
276801.000			-10.176			-1.454
276900.000			-10.175			-1.454
277000.000			-10.175			-1.454
277101.000			-10.175			-1.454
277200.000			-10.176			-1.454
277300.000			-10.175			-1.454
277401.000			-10.175			-1.454
277501.000			-10.175			-1.454
277601.000			-10.175			-1.454
277701.000			-10.176			-1.454
277800.000			-10.175			-1.454
277900.000			-10.174			-1.453
278001.000			-10.174			-1.453
278100.000			-10.174			-1.453
278200.000			-10.174			-1.453
278300.000			-10.174			-1.453
278401.000			-10.174			-1.453
278502.000			-10.173			-1.453
278601.000			-10.173			-1.453
278700.000			-10.173			-1.453
278801.000			-10.174			-1.453
278900.000			-10.174			-1.453
279000.000			-10.173			-1.453
279101.000			-10.173			-1.453
279200.000			-10.173			-1.453
279300.000			-10.173			-1.453
279402.000			-10.174			-1.453
279501.000			-10.174			-1.453
279600.000			-10.173			-1.453
279701.000			-10.173			-1.453
279800.000			-10.173			-1.453
279900.000			-10.172			-1.453
280001.000			-10.173			-1.453
280100.000			-10.173			-1.453
280200.000			-10.172			-1.453
280302.000			-10.173			-1.453
280401.000			-10.173			-1.453
280500.000			-10.172			-1.453
280601.000			-10.172			-1.453
280700.000			-10.171			-1.453
280800.000			-10.171			-1.453
280901.000			-10.171			-1.453
281000.000			-10.172			-1.453
281100.000			-10.173			-1.453
281202.000			-10.173			-1.453
281301.000			-10.171			-1.453
281400.000			-10.171			-1.453
281500.000			-10.171			-1.453
281600.000			-10.171			-1.453
281701.000			-10.171			-1.453
281800.000			-10.172			-1.453
281900.000			-10.171			-1.453
282001.000			-10.171			-1.453
282101.000			-10.171			-1.453
282201.000			-10.172			-1.453
282301.000			-10.171			-1.453
282400.000			-10.171			-1.453
282500.000			-10.171			-1.453
282601.000			-10.172			-1.453
282700.000			-10.171			-1.453
282800.000			-10.170			-1.453
282901.000			-10.170			-1.453
283001.000			-10.169			-1.453
283101.000			-10.169			-1.453
283201.000			-10.169			-1.453
283300.000			-10.170			-1.453
283400.000			-10.170			-1.453
283501.000			-10.169			-1.453
283600.000			-10.169			-1.453
283700.000			-10.168			-1.453
283801.000			-10.170			-1.453
283901.000			-10.170			-1.453
284001.000			-10.168			-1.453
284102.000			-10.169			-1.453
284200.000			-10.167			-1.452
284300.000			-10.167			-1.452
284401.000			-10.169			-1.453
284500.000			-10.168			-1.453
284600.000			-10.167			-1.452
284700.000			-10.167			-1.452
284800.000			-10.166			-1.452
284902.000			-10.167			-1.452
285001.000			-10.168			-1.453
285100.000			-10.168			-1.453
285201.000			-10.167			-1.452
285300.000			-10.167			-1.452
285400.000			-10.166			-1.452
285501.000			-10.165			-1.452
285600.000			-10.167			-1.452
285700.000			-10.166			-1.452
285802.000			-10.166			-1.452
285901.000			-10.166			-1.452
286000.000			-10.165			-1.452
286101.000			-10.165			-1.452
286200.000			-10.165			-1.452
286300.000			-10.165			-1.452
286401.000			-10.166			-1.452
286500.000			-10.165			-1.452
286600.000			-10.165			-1.452
286702.000			-10.165			-1.452
286801.000			-10.165			-1.452
286901.000			-10.165			-1.452
287001.000			-10.165			-1.452
287100.000			-10.165			-1.452
287200.000			-10.165			-1.452
287301.000			-10.164			-1.452
287400.000			-10.164			-1.452
287500.000			-10.164			-1.452
287601.000			-10.164			-1.452
287701.000			-10.165			-1.452
287802.000			-10.165			-1.452
287900.000			-10.164			-1.452
288000.000			-10.165			-1.452
288101.000			-10.165			-1.452
288200.000			-10.165			-1.452
288300.000			-10.164			-1.452
288401.000			-10.163			-1.452
288500.000			-10.163			-1.452
288601.000			-10.163			-1.452
288702.000			-10.163			-1.452
288801.000			-10.163			-1.452
288900.000			-10.163			-1.452
289001.000			-10.163			-1.452
289100.000			-10.163			-1.452
289200.000			-10.164			-1.452
289301.000			-10.163			-1.452
289400.000			-10.164			-1.452
289500.000			-10.163			-1.452
289602.000			-10.163			-1.452
289701.000			-10.164			-1.452
289800.000			-10.164			-1.452
289901.000			-10.163			-1.452
290000.000			-10.163			-1.452
290100.000			-10.162			-1.452
290201.000			-10.163			-1.452
290300.000			-10.163			-1.452
290400.000			-10.162			-1.452
290502.000			-10.162			-1.452
290601.000			-10.161			-1.452
290700.000			-10.162			-1.452
290801.000			-10.162			-1.452
290900.000			-10.161			-1.452
291000.000			-10.162			-1.452
291100.000			-10.163			-1.452
291200.000			-10.163			-1.452
291301.000			-10.162			-1.452
291401.000			-10.161			-1.452
291501.000			-10.161			-1.452
291601.000			-10.161			-1.452
291700.000			-10.161			-1.452
291800.000			-10.160			-1.451
291901.000			-10.161			-1.452
292000.000			-10.161			-1.452
292100.000			-10.161			-1.452
292201.000			-10.161			-1.452
292301.000			-10.161			-1.452
292401.000			-10.162			-1.452
292501.000			-10.161			-1.452
292600.000			-10.161			-1.452
292700.000			-10.162			-1.452
292801.000			-10.161			-1.452
292900.000			-10.160			-1.451
293000.000			-10.161			-1.452
293101.000			-10.161			-1.452
293201.000			-10.161			-1.452
293301.000			-10.161			-1.452
293401.000			-10.160			-1.451
293500.000			-10.159			-1.451
293600.000			-10.160			-1.451
293701.000			-10.160			-1.451
293800.000			-10.159			-1.451
293900.000			-10.159			-1.451
294001.000			-10.161			-1.452
294101.000			-10.159			-1.451
294202.000			-10.159			-1.451
294301.000			-10.160			-1.451
294400.000			-10.160			-1.451
294501.000			-10.159			-1.451
294600.000			-10.159			-1.451
294700.000			-10.158			-1.451
294801.000			-10.159			-1.451
294900.000			-10.159			-1.451
295000.000			-10.159			-1.451
295102.000			-10.158			-1.451
295201.000			-10.158			-1.451
295300.000			-10.157			-1.451
295401.000			-10.157			-1.451
295500.000			-10.157			-1.451
295600.000			-10.157			-1.451
295701.000			-10.158			-1.451
295800.000			-10.157			-1.451
295900.000			-10.156			-1.451
296002.000			-10.156			-1.451
296101.000			-10.156			-1.451
296200.000			-10.157			-1.451
296301.000			-10.157			-1.451
296400.000			-10.156			-1.451
296500.000			-10.156			-1.451
296601.000			-10.156			-1.451
296700.000			-10.156			-1.451
296800.000			-10.157			-1.451
296902.000			-10.156			-1.451
297001.000			-10.156			-1.451
297101.000			-10.155			-1.451
297201.000			-10.155			-1.451
297300.000			-10.156			-1.451
297400.000			-10.156			-1.451
297500.000			-10.155			-1.451
297600.000			-10.155			-1.451
297701.000			-10.154			-1.451
297800.000			-10.155			-1.451
297901.000			-10.155			-1.451
298002.000			-10.156			-1.451
298100.000			-10.155			-1.451
298200.000			-10.155			-1.451
298301.000			-10.155			-1.451
298400.000			-10.154			-1.451
298500.000			-10.154			-1.451
298601.000			-10.154			-1.451
298700.000			-10.154			-1.451
298801.000			-10.153			-1.450
298902.000			-10.153			-1.450
299001.000			-10.154			-1.451
299100.000			-10.154			-1.451
299201.000			-10.153			-1.450
299300.000			-10.153			-1.450
299400.000			-10.153			-1.450
299501.000			-10.153			-1.450
299600.000			-10.152			-1.450
299700.000			-10.152			-1.450
299802.000			-10.152			-1.450
299901.000			-10.152			-1.450
