# Acquired on 30/01/2024 12:07:54 
# SPIDER: Creep_-11mm_GRPCNT1454A-2
# CREEP MEASUREMENT

# time [ms]		force [N]		stiffness [N/mm]
1.000			50.980			-4.635
105.000			51.808			-4.710
204.000			51.771			-4.706
304.000			51.220			-4.656
404.000			50.511			-4.592
504.000			50.272			-4.570
604.000			50.065			-4.551
705.000			49.881			-4.535
804.000			49.716			-4.520
903.000			49.567			-4.506
1005.000			49.431			-4.494
1104.000			49.192			-4.472
1204.000			49.085			-4.462
1305.000			48.983			-4.453
1404.000			48.889			-4.444
1505.000			48.800			-4.436
1603.000			48.715			-4.429
1704.000			48.636			-4.421
1805.000			48.489			-4.408
1904.000			48.419			-4.402
2004.000			48.354			-4.396
2105.000			48.291			-4.390
2204.000			48.230			-4.385
2303.000			48.172			-4.379
2405.000			48.116			-4.374
2504.000			48.062			-4.369
2604.000			47.958			-4.360
2705.000			47.909			-4.355
2804.000			47.862			-4.351
2904.000			47.816			-4.347
3004.000			47.772			-4.343
3104.000			47.728			-4.339
3204.000			47.687			-4.335
3305.000			47.606			-4.328
3404.000			47.567			-4.324
3503.000			47.529			-4.321
3605.000			47.494			-4.318
3704.000			47.458			-4.314
3804.000			47.422			-4.311
3905.000			47.389			-4.308
4004.000			47.323			-4.302
4104.000			47.292			-4.299
4204.000			47.261			-4.296
4304.000			47.230			-4.294
4404.000			47.200			-4.291
4504.000			47.170			-4.288
4604.000			47.142			-4.286
4705.000			47.086			-4.281
4804.000			47.058			-4.278
4903.000			47.032			-4.276
5005.000			47.005			-4.273
5104.000			46.981			-4.271
5204.000			46.955			-4.269
5305.000			46.931			-4.266
5403.000			46.906			-4.264
5504.000			46.860			-4.260
5605.000			46.837			-4.258
5704.000			46.813			-4.256
5804.000			46.791			-4.254
5905.000			46.769			-4.252
6004.000			46.748			-4.250
6103.000			46.726			-4.248
6205.000			46.684			-4.244
6304.000			46.664			-4.242
6404.000			46.644			-4.240
6505.000			46.624			-4.239
6604.000			46.604			-4.237
6704.000			46.584			-4.235
6804.000			46.565			-4.233
6904.000			46.527			-4.230
7004.000			46.508			-4.228
7105.000			46.491			-4.226
7204.000			46.474			-4.225
7304.000			46.456			-4.223
7405.000			46.438			-4.222
7503.000			46.420			-4.220
7604.000			46.387			-4.217
7705.000			46.371			-4.216
7804.000			46.354			-4.214
7905.000			46.337			-4.212
8004.000			46.320			-4.211
8104.000			46.305			-4.210
8205.000			46.289			-4.208
8304.000			46.274			-4.207
8404.000			46.243			-4.204
8505.000			46.228			-4.203
8604.000			46.213			-4.201
8703.000			46.198			-4.200
8805.000			46.185			-4.199
8904.000			46.170			-4.197
9004.000			46.156			-4.196
9105.000			46.128			-4.193
9204.000			46.113			-4.192
9304.000			46.099			-4.191
9404.000			46.085			-4.190
9504.000			46.072			-4.188
9604.000			46.059			-4.187
9705.000			46.046			-4.186
9804.000			46.021			-4.184
9903.000			46.008			-4.183
10005.000			45.995			-4.181
10104.000			45.982			-4.180
10204.000			45.970			-4.179
10305.000			45.957			-4.178
10404.000			45.945			-4.177
10504.000			45.921			-4.175
10604.000			45.909			-4.174
10704.000			45.897			-4.172
10804.000			45.884			-4.171
10904.000			45.873			-4.170
11004.000			45.862			-4.169
11105.000			45.850			-4.168
11204.000			45.839			-4.167
11303.000			45.817			-4.165
11405.000			45.805			-4.164
11504.000			45.794			-4.163
11604.000			45.783			-4.162
11705.000			45.773			-4.161
11804.000			45.763			-4.160
11904.000			45.752			-4.159
12004.000			45.730			-4.157
12104.000			45.720			-4.156
12204.000			45.710			-4.155
12305.000			45.699			-4.154
12404.000			45.689			-4.154
12504.000			45.679			-4.153
12605.000			45.669			-4.152
12703.000			45.650			-4.150
12804.000			45.641			-4.149
12905.000			45.631			-4.148
13004.000			45.621			-4.147
13104.000			45.610			-4.146
13205.000			45.601			-4.146
13304.000			45.591			-4.145
13403.000			45.581			-4.144
13505.000			45.562			-4.142
13604.000			45.553			-4.141
13704.000			45.544			-4.140
13805.000			45.535			-4.140
13904.000			45.526			-4.139
14004.000			45.517			-4.138
14103.000			45.509			-4.137
14204.000			45.490			-4.135
14305.000			45.482			-4.135
14404.000			45.473			-4.134
14504.000			45.464			-4.133
14605.000			45.455			-4.132
14704.000			45.447			-4.132
14803.000			45.438			-4.131
14905.000			45.421			-4.129
15004.000			45.412			-4.128
15104.000			45.403			-4.128
15205.000			45.396			-4.127
15304.000			45.388			-4.126
15404.000			45.379			-4.125
15504.000			45.371			-4.125
15604.000			45.356			-4.123
15704.000			45.347			-4.122
15805.000			45.339			-4.122
15904.000			45.332			-4.121
16004.000			45.325			-4.120
16105.000			45.317			-4.120
16204.000			45.309			-4.119
16304.000			45.301			-4.118
16405.000			45.285			-4.117
16504.000			45.278			-4.116
16604.000			45.269			-4.115
16704.000			45.262			-4.115
16804.000			45.256			-4.114
16904.000			45.248			-4.113
17005.000			45.241			-4.113
17104.000			45.227			-4.112
17204.000			45.220			-4.111
17305.000			45.212			-4.110
17403.000			45.204			-4.109
17505.000			45.198			-4.109
17604.000			45.191			-4.108
17704.000			45.183			-4.108
17805.000			45.168			-4.106
17904.000			45.162			-4.106
18004.000			45.155			-4.105
18104.000			45.148			-4.104
18204.000			45.141			-4.104
18304.000			45.134			-4.103
18405.000			45.127			-4.102
18504.000			45.114			-4.101
18604.000			45.108			-4.101
18705.000			45.100			-4.100
18803.000			45.093			-4.099
18904.000			45.088			-4.099
19005.000			45.081			-4.098
19104.000			45.074			-4.098
19204.000			45.068			-4.097
19305.000			45.054			-4.096
19404.000			45.047			-4.095
19503.000			45.042			-4.095
19605.000			45.036			-4.094
19704.000			45.030			-4.094
19804.000			45.024			-4.093
19905.000			45.017			-4.092
20003.000			45.004			-4.091
20104.000			44.999			-4.091
20205.000			44.993			-4.090
20304.000			44.987			-4.090
20404.000			44.981			-4.089
20504.000			44.974			-4.089
20604.000			44.968			-4.088
20703.000			44.956			-4.087
20804.000			44.951			-4.086
20904.000			44.945			-4.086
21005.000			44.938			-4.085
21104.000			44.931			-4.085
21204.000			44.926			-4.084
21305.000			44.920			-4.084
21403.000			44.909			-4.083
21504.000			44.904			-4.082
21605.000			44.898			-4.082
21704.000			44.892			-4.081
21804.000			44.885			-4.080
21905.000			44.880			-4.080
22004.000			44.875			-4.080
22103.000			44.869			-4.079
22205.000			44.857			-4.078
22304.000			44.853			-4.078
22404.000			44.847			-4.077
22505.000			44.842			-4.077
22604.000			44.835			-4.076
22704.000			44.829			-4.075
22804.000			44.824			-4.075
22904.000			44.813			-4.074
23004.000			44.808			-4.073
23105.000			44.803			-4.073
23204.000			44.798			-4.073
23304.000			44.792			-4.072
23405.000			44.785			-4.071
23503.000			44.780			-4.071
23604.000			44.770			-4.070
23705.000			44.765			-4.070
23804.000			44.760			-4.069
23905.000			44.754			-4.069
24004.000			44.749			-4.068
24104.000			44.745			-4.068
24204.000			44.740			-4.067
24304.000			44.735			-4.067
24404.000			44.724			-4.066
24505.000			44.719			-4.065
24604.000			44.714			-4.065
24703.000			44.710			-4.065
24805.000			44.705			-4.064
24904.000			44.699			-4.064
25004.000			44.695			-4.063
25105.000			44.684			-4.062
25204.000			44.679			-4.062
25304.000			44.675			-4.061
25404.000			44.670			-4.061
25504.000			44.664			-4.060
25603.000			44.660			-4.060
25705.000			44.656			-4.060
25804.000			44.646			-4.059
25904.000			44.640			-4.058
26005.000			44.635			-4.058
26103.000			44.631			-4.057
26204.000			44.627			-4.057
26305.000			44.623			-4.057
26404.000			44.618			-4.056
26504.000			44.608			-4.055
26605.000			44.603			-4.055
26704.000			44.599			-4.054
26803.000			44.595			-4.054
26905.000			44.590			-4.054
27004.000			44.585			-4.053
27105.000			44.580			-4.053
27204.000			44.575			-4.052
27304.000			44.567			-4.052
27405.000			44.562			-4.051
27503.000			44.558			-4.051
27604.000			44.554			-4.050
27705.000			44.549			-4.050
27804.000			44.544			-4.049
27904.000			44.540			-4.049
28005.000			44.532			-4.048
28104.000			44.527			-4.048
28203.000			44.523			-4.048
28305.000			44.517			-4.047
28404.000			44.513			-4.047
28504.000			44.510			-4.046
28605.000			44.505			-4.046
28704.000			44.496			-4.045
28804.000			44.492			-4.045
28904.000			44.488			-4.044
29004.000			44.484			-4.044
29104.000			44.479			-4.044
29205.000			44.475			-4.043
29304.000			44.470			-4.043
29404.000			44.463			-4.042
29505.000			44.459			-4.042
29603.000			44.454			-4.041
29704.000			44.449			-4.041
29805.000			44.445			-4.040
29904.000			44.442			-4.040
30004.000			44.437			-4.040
30104.000			44.433			-4.039
30204.000			44.425			-4.039
30303.000			44.420			-4.038
30404.000			44.417			-4.038
30504.000			44.413			-4.038
30605.000			44.409			-4.037
30704.000			44.405			-4.037
30804.000			44.401			-4.036
30905.000			44.393			-4.036
31003.000			44.388			-4.035
31104.000			44.385			-4.035
31205.000			44.381			-4.035
31304.000			44.377			-4.034
31404.000			44.375			-4.034
31505.000			44.369			-4.034
31604.000			44.362			-4.033
31703.000			44.358			-4.033
31805.000			44.355			-4.032
31904.000			44.350			-4.032
32004.000			44.346			-4.031
32105.000			44.342			-4.031
32204.000			44.339			-4.031
32304.000			44.335			-4.030
32404.000			44.327			-4.030
32504.000			44.323			-4.029
32604.000			44.319			-4.029
32705.000			44.316			-4.029
32804.000			44.312			-4.028
32903.000			44.310			-4.028
33005.000			44.306			-4.028
33104.000			44.298			-4.027
33204.000			44.293			-4.027
33305.000			44.289			-4.026
33404.000			44.287			-4.026
33505.000			44.282			-4.026
33603.000			44.278			-4.025
33704.000			44.276			-4.025
33805.000			44.267			-4.024
33904.000			44.263			-4.024
34004.000			44.260			-4.024
34105.000			44.258			-4.023
34204.000			44.255			-4.023
34303.000			44.250			-4.023
34405.000			44.246			-4.022
34504.000			44.239			-4.022
34604.000			44.235			-4.021
34705.000			44.232			-4.021
34804.000			44.228			-4.021
34904.000			44.224			-4.020
35004.000			44.222			-4.020
35104.000			44.218			-4.020
35204.000			44.213			-4.019
35305.000			44.209			-4.019
35404.000			44.205			-4.019
35504.000			44.201			-4.018
35605.000			44.197			-4.018
35703.000			44.194			-4.018
35804.000			44.191			-4.017
35905.000			44.186			-4.017
36004.000			44.180			-4.016
36104.000			44.175			-4.016
36204.000			44.172			-4.016
36304.000			44.169			-4.015
36403.000			44.166			-4.015
36505.000			44.164			-4.015
36604.000			44.160			-4.015
36705.000			44.154			-4.014
36804.000			44.150			-4.014
36903.000			44.146			-4.013
37005.000			44.143			-4.013
37104.000			44.140			-4.013
37204.000			44.136			-4.012
37305.000			44.134			-4.012
37404.000			44.128			-4.012
37504.000			44.124			-4.011
37604.000			44.121			-4.011
37704.000			44.117			-4.011
37804.000			44.113			-4.010
37905.000			44.110			-4.010
38004.000			44.107			-4.010
38104.000			44.104			-4.009
38205.000			44.097			-4.009
38303.000			44.095			-4.009
38404.000			44.091			-4.008
38505.000			44.088			-4.008
38604.000			44.085			-4.008
38704.000			44.082			-4.007
38805.000			44.078			-4.007
38904.000			44.071			-4.006
39003.000			44.069			-4.006
39105.000			44.066			-4.006
39204.000			44.062			-4.006
39304.000			44.058			-4.005
39405.000			44.055			-4.005
39504.000			44.053			-4.005
39604.000			44.046			-4.004
39703.000			44.044			-4.004
39804.000			44.042			-4.004
39905.000			44.038			-4.003
40004.000			44.035			-4.003
40104.000			44.031			-4.003
40204.000			44.028			-4.003
40304.000			44.022			-4.002
40404.000			44.020			-4.002
40505.000			44.017			-4.002
40604.000			44.013			-4.001
40704.000			44.010			-4.001
40805.000			44.007			-4.001
40903.000			44.005			-4.000
41004.000			44.002			-4.000
41105.000			43.995			-4.000
41204.000			43.992			-3.999
41304.000			43.990			-3.999
41405.000			43.986			-3.999
41504.000			43.983			-3.998
41603.000			43.980			-3.998
41705.000			43.978			-3.998
41804.000			43.971			-3.997
41904.000			43.968			-3.997
42005.000			43.967			-3.997
42104.000			43.963			-3.997
42204.000			43.959			-3.996
42304.000			43.957			-3.996
42404.000			43.956			-3.996
42504.000			43.950			-3.995
42605.000			43.947			-3.995
42704.000			43.943			-3.995
42804.000			43.940			-3.995
42905.000			43.935			-3.994
43003.000			43.933			-3.994
43105.000			43.931			-3.994
43204.000			43.926			-3.993
43304.000			43.923			-3.993
43405.000			43.920			-3.993
43504.000			43.917			-3.992
43604.000			43.914			-3.992
43704.000			43.911			-3.992
43804.000			43.909			-3.992
43904.000			43.907			-3.992
44005.000			43.901			-3.991
44104.000			43.898			-3.991
44203.000			43.895			-3.990
44305.000			43.891			-3.990
44404.000			43.889			-3.990
44504.000			43.887			-3.990
44605.000			43.884			-3.989
44704.000			43.878			-3.989
44804.000			43.875			-3.989
44905.000			43.873			-3.988
45004.000			43.871			-3.988
45103.000			43.868			-3.988
45205.000			43.864			-3.988
45304.000			43.863			-3.988
45404.000			43.857			-3.987
45505.000			43.854			-3.987
45604.000			43.850			-3.986
45704.000			43.849			-3.986
45804.000			43.846			-3.986
45904.000			43.843			-3.986
46004.000			43.842			-3.986
46104.000			43.837			-3.985
46204.000			43.834			-3.985
46305.000			43.831			-3.985
46404.000			43.827			-3.984
46503.000			43.825			-3.984
46605.000			43.822			-3.984
46704.000			43.819			-3.984
46804.000			43.817			-3.983
46905.000			43.813			-3.983
47004.000			43.810			-3.983
47104.000			43.806			-3.982
47204.000			43.803			-3.982
47304.000			43.800			-3.982
47404.000			43.799			-3.982
47505.000			43.796			-3.981
47604.000			43.790			-3.981
47704.000			43.788			-3.981
47805.000			43.786			-3.981
47903.000			43.783			-3.980
48004.000			43.781			-3.980
48105.000			43.779			-3.980
48204.000			43.776			-3.980
48304.000			43.770			-3.979
48405.000			43.768			-3.979
48504.000			43.766			-3.979
48603.000			43.763			-3.978
48705.000			43.760			-3.978
48804.000			43.758			-3.978
48904.000			43.755			-3.978
49005.000			43.751			-3.977
49104.000			43.747			-3.977
49204.000			43.745			-3.977
49303.000			43.743			-3.977
49404.000			43.741			-3.976
49505.000			43.739			-3.976
49604.000			43.736			-3.976
49704.000			43.734			-3.976
49805.000			43.728			-3.975
49904.000			43.726			-3.975
50003.000			43.723			-3.975
50105.000			43.721			-3.975
50204.000			43.718			-3.974
50304.000			43.716			-3.974
50405.000			43.714			-3.974
50504.000			43.708			-3.973
50604.000			43.706			-3.973
50704.000			43.704			-3.973
50804.000			43.702			-3.973
50904.000			43.699			-3.973
51005.000			43.696			-3.972
51104.000			43.694			-3.972
51204.000			43.690			-3.972
51305.000			43.687			-3.972
51403.000			43.684			-3.971
51504.000			43.681			-3.971
51605.000			43.680			-3.971
51704.000			43.678			-3.971
51804.000			43.677			-3.971
51905.000			43.671			-3.970
52004.000			43.668			-3.970
52103.000			43.665			-3.970
52205.000			43.664			-3.969
52304.000			43.661			-3.969
52404.000			43.658			-3.969
52505.000			43.657			-3.969
52603.000			43.654			-3.969
52705.000			43.650			-3.968
52804.000			43.647			-3.968
52904.000			43.645			-3.968
53005.000			43.644			-3.968
53104.000			43.640			-3.967
53204.000			43.637			-3.967
53304.000			43.635			-3.967
53404.000			43.631			-3.966
53504.000			43.629			-3.966
53605.000			43.627			-3.966
53704.000			43.625			-3.966
53804.000			43.622			-3.966
53905.000			43.620			-3.965
54003.000			43.618			-3.965
54104.000			43.614			-3.965
54205.000			43.612			-3.965
54304.000			43.608			-3.964
54404.000			43.607			-3.964
54505.000			43.605			-3.964
54604.000			43.602			-3.964
54703.000			43.601			-3.964
54805.000			43.598			-3.963
54904.000			43.594			-3.963
55004.000			43.591			-3.963
55105.000			43.589			-3.963
55204.000			43.586			-3.962
55304.000			43.584			-3.962
55404.000			43.582			-3.962
55504.000			43.579			-3.962
55604.000			43.574			-3.961
55704.000			43.572			-3.961
55804.000			43.571			-3.961
55905.000			43.569			-3.961
56004.000			43.566			-3.961
56103.000			43.564			-3.960
56205.000			43.563			-3.960
56304.000			43.558			-3.960
56404.000			43.556			-3.960
56505.000			43.553			-3.959
56604.000			43.552			-3.959
56704.000			43.550			-3.959
56804.000			43.547			-3.959
56904.000			43.545			-3.959
57004.000			43.540			-3.958
57105.000			43.538			-3.958
57204.000			43.536			-3.958
57304.000			43.533			-3.958
57405.000			43.532			-3.957
57503.000			43.531			-3.957
57604.000			43.528			-3.957
57705.000			43.526			-3.957
57804.000			43.521			-3.956
57904.000			43.519			-3.956
58005.000			43.517			-3.956
58104.000			43.515			-3.956
58203.000			43.513			-3.956
58305.000			43.511			-3.956
58404.000			43.509			-3.955
58504.000			43.504			-3.955
58605.000			43.503			-3.955
58703.000			43.500			-3.955
58804.000			43.498			-3.954
58905.000			43.496			-3.954
59004.000			43.495			-3.954
59105.000			43.492			-3.954
59204.000			43.488			-3.953
59304.000			43.487			-3.953
59404.000			43.484			-3.953
59504.000			43.482			-3.953
59603.000			43.479			-3.953
59705.000			43.477			-3.952
59804.000			43.476			-3.952
59904.000			43.472			-3.952
60005.000			43.470			-3.952
60104.000			43.468			-3.952
60204.000			43.465			-3.951
60304.000			43.463			-3.951
60404.000			43.461			-3.951
60504.000			43.460			-3.951
60605.000			43.458			-3.951
60704.000			43.452			-3.950
60803.000			43.450			-3.950
60905.000			43.449			-3.950
61004.000			43.448			-3.950
61104.000			43.446			-3.950
61205.000			43.443			-3.949
61304.000			43.441			-3.949
61404.000			43.438			-3.949
61504.000			43.436			-3.949
61604.000			43.434			-3.949
61704.000			43.431			-3.948
61805.000			43.429			-3.948
61904.000			43.428			-3.948
62004.000			43.426			-3.948
62105.000			43.421			-3.947
62203.000			43.420			-3.947
62305.000			43.419			-3.947
62404.000			43.417			-3.947
62504.000			43.414			-3.947
62605.000			43.413			-3.947
62704.000			43.411			-3.946
62804.000			43.407			-3.946
62904.000			43.405			-3.946
63004.000			43.401			-3.946
63104.000			43.399			-3.945
63205.000			43.399			-3.945
63304.000			43.397			-3.945
63404.000			43.395			-3.945
63505.000			43.393			-3.945
63603.000			43.390			-3.945
63704.000			43.387			-3.944
63805.000			43.386			-3.944
63904.000			43.384			-3.944
64004.000			43.381			-3.944
64105.000			43.379			-3.944
64204.000			43.377			-3.943
64303.000			43.372			-3.943
64405.000			43.371			-3.943
64504.000			43.371			-3.943
64604.000			43.369			-3.943
64705.000			43.366			-3.942
64804.000			43.363			-3.942
64904.000			43.362			-3.942
65004.000			43.359			-3.942
65104.000			43.357			-3.942
65204.000			43.355			-3.941
65304.000			43.353			-3.941
65404.000			43.351			-3.941
65503.000			43.349			-3.941
65604.000			43.348			-3.941
65703.000			43.344			-3.940
65805.000			43.342			-3.940
65904.000			43.340			-3.940
66004.000			43.338			-3.940
66105.000			43.336			-3.940
66204.000			43.334			-3.939
66304.000			43.332			-3.939
66405.000			43.330			-3.939
66504.000			43.327			-3.939
66604.000			43.327			-3.939
66705.000			43.323			-3.938
66804.000			43.321			-3.938
66903.000			43.320			-3.938
67005.000			43.318			-3.938
67104.000			43.316			-3.938
67204.000			43.312			-3.938
67305.000			43.310			-3.937
67404.000			43.307			-3.937
67504.000			43.306			-3.937
67604.000			43.305			-3.937
67704.000			43.303			-3.937
67804.000			43.301			-3.936
67905.000			43.298			-3.936
68004.000			43.296			-3.936
68104.000			43.294			-3.936
68205.000			43.291			-3.936
68303.000			43.291			-3.936
68404.000			43.288			-3.935
68503.000			43.286			-3.935
68604.000			43.282			-3.935
68705.000			43.282			-3.935
68804.000			43.280			-3.935
68904.000			43.278			-3.934
69005.000			43.276			-3.934
69104.000			43.274			-3.934
69203.000			43.272			-3.934
69305.000			43.270			-3.934
69404.000			43.268			-3.933
69504.000			43.266			-3.933
69605.000			43.264			-3.933
69704.000			43.262			-3.933
69804.000			43.260			-3.933
69904.000			43.258			-3.933
70004.000			43.256			-3.932
70104.000			43.253			-3.932
70205.000			43.251			-3.932
70304.000			43.250			-3.932
70403.000			43.247			-3.932
70505.000			43.246			-3.931
70604.000			43.246			-3.931
70704.000			43.245			-3.931
70805.000			43.240			-3.931
70904.000			43.237			-3.931
71004.000			43.236			-3.931
71104.000			43.234			-3.930
71204.000			43.233			-3.930
71304.000			43.232			-3.930
71405.000			43.229			-3.930
71504.000			43.227			-3.930
71604.000			43.226			-3.930
71705.000			43.224			-3.929
71803.000			43.222			-3.929
71905.000			43.219			-3.929
72004.000			43.219			-3.929
72104.000			43.217			-3.929
72205.000			43.213			-3.928
72304.000			43.210			-3.928
72404.000			43.208			-3.928
72504.000			43.207			-3.928
72604.000			43.206			-3.928
72704.000			43.205			-3.928
72805.000			43.203			-3.928
72904.000			43.202			-3.927
73004.000			43.196			-3.927
73105.000			43.196			-3.927
73203.000			43.194			-3.927
73304.000			43.191			-3.926
73405.000			43.191			-3.926
73504.000			43.189			-3.926
73604.000			43.187			-3.926
73705.000			43.184			-3.926
73804.000			43.182			-3.926
73903.000			43.181			-3.926
74005.000			43.179			-3.925
74104.000			43.178			-3.925
74204.000			43.178			-3.925
74305.000			43.175			-3.925
74404.000			43.173			-3.925
74504.000			43.169			-3.924
74604.000			43.168			-3.924
74704.000			43.166			-3.924
74804.000			43.165			-3.924
74904.000			43.164			-3.924
75004.000			43.162			-3.924
75105.000			43.160			-3.924
75204.000			43.157			-3.923
75303.000			43.155			-3.923
75405.000			43.152			-3.923
75504.000			43.152			-3.923
75604.000			43.151			-3.923
75705.000			43.149			-3.923
75804.000			43.147			-3.922
75904.000			43.144			-3.922
76004.000			43.142			-3.922
76104.000			43.141			-3.922
76204.000			43.139			-3.922
76305.000			43.137			-3.922
76404.000			43.134			-3.921
76503.000			43.133			-3.921
76605.000			43.131			-3.921
76704.000			43.129			-3.921
76804.000			43.128			-3.921
76905.000			43.126			-3.921
77004.000			43.125			-3.920
77104.000			43.124			-3.920
77204.000			43.122			-3.920
77304.000			43.119			-3.920
77403.000			43.117			-3.920
77505.000			43.115			-3.920
77604.000			43.113			-3.919
77704.000			43.112			-3.919
77805.000			43.110			-3.919
77903.000			43.108			-3.919
78004.000			43.107			-3.919
78103.000			43.104			-3.919
78204.000			43.102			-3.918
78305.000			43.100			-3.918
78404.000			43.099			-3.918
78504.000			43.098			-3.918
78605.000			43.097			-3.918
78704.000			43.096			-3.918
78803.000			43.092			-3.917
78905.000			43.091			-3.917
79004.000			43.088			-3.917
79104.000			43.087			-3.917
79205.000			43.085			-3.917
79304.000			43.083			-3.917
79404.000			43.082			-3.917
79504.000			43.079			-3.916
79604.000			43.078			-3.916
79704.000			43.076			-3.916
79805.000			43.074			-3.916
79904.000			43.073			-3.916
80004.000			43.072			-3.916
80105.000			43.070			-3.915
80203.000			43.068			-3.915
80304.000			43.065			-3.915
80405.000			43.065			-3.915
80504.000			43.063			-3.915
80604.000			43.062			-3.915
80705.000			43.060			-3.915
80804.000			43.058			-3.914
80903.000			43.056			-3.914
81005.000			43.054			-3.914
81104.000			43.052			-3.914
81204.000			43.050			-3.914
81305.000			43.049			-3.914
81403.000			43.048			-3.913
81505.000			43.046			-3.913
81604.000			43.044			-3.913
81704.000			43.041			-3.913
81805.000			43.040			-3.913
81904.000			43.038			-3.913
82004.000			43.037			-3.912
82104.000			43.036			-3.912
82204.000			43.034			-3.912
82304.000			43.032			-3.912
82405.000			43.029			-3.912
82504.000			43.027			-3.912
82604.000			43.027			-3.912
82705.000			43.025			-3.911
82803.000			43.023			-3.911
82904.000			43.022			-3.911
83005.000			43.021			-3.911
83104.000			43.020			-3.911
83204.000			43.015			-3.910
83305.000			43.014			-3.910
83404.000			43.013			-3.910
83503.000			43.012			-3.910
83605.000			43.011			-3.910
83704.000			43.010			-3.910
83804.000			43.008			-3.910
83905.000			43.006			-3.910
84004.000			43.004			-3.909
84104.000			43.002			-3.909
84204.000			42.999			-3.909
84304.000			42.999			-3.909
84404.000			42.998			-3.909
84504.000			42.996			-3.909
84604.000			42.993			-3.908
84705.000			42.992			-3.908
84804.000			42.990			-3.908
84903.000			42.988			-3.908
85005.000			42.987			-3.908
85104.000			42.986			-3.908
85204.000			42.984			-3.908
85305.000			42.982			-3.907
85404.000			42.980			-3.907
85504.000			42.978			-3.907
85604.000			42.976			-3.907
85704.000			42.975			-3.907
85804.000			42.974			-3.907
85905.000			42.973			-3.907
86004.000			42.971			-3.906
86104.000			42.970			-3.906
86205.000			42.968			-3.906
86304.000			42.965			-3.906
86404.000			42.964			-3.906
86504.000			42.963			-3.906
86604.000			42.963			-3.906
86704.000			42.960			-3.905
86805.000			42.957			-3.905
86904.000			42.956			-3.905
87004.000			42.955			-3.905
87105.000			42.954			-3.905
87203.000			42.951			-3.905
87304.000			42.950			-3.905
87405.000			42.949			-3.904
87504.000			42.946			-3.904
87604.000			42.945			-3.904
87704.000			42.944			-3.904
87804.000			42.942			-3.904
87903.000			42.941			-3.904
88004.000			42.940			-3.904
88104.000			42.938			-3.903
88205.000			42.935			-3.903
88304.000			42.934			-3.903
88404.000			42.932			-3.903
88505.000			42.930			-3.903
88603.000			42.930			-3.903
88704.000			42.928			-3.903
88805.000			42.926			-3.902
88904.000			42.925			-3.902
89004.000			42.923			-3.902
89105.000			42.921			-3.902
89204.000			42.918			-3.902
89303.000			42.919			-3.902
89405.000			42.917			-3.902
89504.000			42.916			-3.901
89604.000			42.914			-3.901
89705.000			42.912			-3.901
89804.000			42.910			-3.901
89904.000			42.909			-3.901
90005.000			42.907			-3.901
90104.000			42.906			-3.901
90203.000			42.905			-3.900
90305.000			42.904			-3.900
90404.000			42.901			-3.900
90504.000			42.900			-3.900
90605.000			42.898			-3.900
90704.000			42.897			-3.900
90804.000			42.897			-3.900
90903.000			42.895			-3.900
91004.000			42.893			-3.899
91105.000			42.891			-3.899
91204.000			42.890			-3.899
91304.000			42.888			-3.899
91405.000			42.886			-3.899
91504.000			42.885			-3.899
91603.000			42.885			-3.899
91705.000			42.883			-3.898
91804.000			42.881			-3.898
91904.000			42.878			-3.898
92005.000			42.876			-3.898
92104.000			42.875			-3.898
92204.000			42.875			-3.898
92304.000			42.873			-3.898
92404.000			42.872			-3.897
92504.000			42.870			-3.897
92605.000			42.869			-3.897
92704.000			42.867			-3.897
92804.000			42.865			-3.897
92905.000			42.864			-3.897
93003.000			42.862			-3.897
93104.000			42.861			-3.896
93205.000			42.860			-3.896
93304.000			42.857			-3.896
93404.000			42.855			-3.896
93505.000			42.855			-3.896
93604.000			42.853			-3.896
93703.000			42.852			-3.896
93805.000			42.850			-3.895
93904.000			42.850			-3.895
94004.000			42.846			-3.895
94105.000			42.845			-3.895
94204.000			42.844			-3.895
94305.000			42.842			-3.895
94403.000			42.842			-3.895
94504.000			42.841			-3.895
94605.000			42.840			-3.895
94704.000			42.838			-3.894
94804.000			42.836			-3.894
94905.000			42.834			-3.894
95004.000			42.832			-3.894
95103.000			42.831			-3.894
95205.000			42.831			-3.894
95304.000			42.829			-3.894
95404.000			42.827			-3.893
95505.000			42.825			-3.893
95604.000			42.824			-3.893
95704.000			42.822			-3.893
95804.000			42.821			-3.893
95904.000			42.820			-3.893
96004.000			42.819			-3.893
96105.000			42.817			-3.892
96204.000			42.814			-3.892
96304.000			42.813			-3.892
96405.000			42.812			-3.892
96503.000			42.810			-3.892
96604.000			42.809			-3.892
96705.000			42.807			-3.892
96804.000			42.807			-3.892
96904.000			42.805			-3.891
97005.000			42.804			-3.891
97104.000			42.803			-3.891
97203.000			42.801			-3.891
97305.000			42.799			-3.891
97404.000			42.798			-3.891
97505.000			42.796			-3.891
97604.000			42.795			-3.890
97704.000			42.793			-3.890
97805.000			42.793			-3.890
97904.000			42.792			-3.890
98004.000			42.791			-3.890
98104.000			42.790			-3.890
98204.000			42.788			-3.890
98304.000			42.786			-3.890
98405.000			42.784			-3.889
98504.000			42.783			-3.889
98604.000			42.782			-3.889
98705.000			42.780			-3.889
98803.000			42.778			-3.889
98904.000			42.777			-3.889
99005.000			42.776			-3.889
99104.000			42.773			-3.888
99204.000			42.772			-3.888
99305.000			42.770			-3.888
99404.000			42.769			-3.888
99503.000			42.768			-3.888
99605.000			42.767			-3.888
99703.000			42.766			-3.888
99804.000			42.764			-3.888
99905.000			42.763			-3.888
100004.000			42.762			-3.887
100104.000			42.760			-3.887
100205.000			42.758			-3.887
100304.000			42.757			-3.887
100403.000			42.756			-3.887
100505.000			42.755			-3.887
100604.000			42.753			-3.887
100705.000			42.752			-3.887
100804.000			42.750			-3.886
100904.000			42.749			-3.886
101005.000			42.747			-3.886
101103.000			42.745			-3.886
101204.000			42.745			-3.886
101305.000			42.742			-3.886
101404.000			42.741			-3.886
101504.000			42.741			-3.886
101605.000			42.740			-3.885
101704.000			42.739			-3.885
101803.000			42.738			-3.885
101905.000			42.736			-3.885
102004.000			42.733			-3.885
102104.000			42.732			-3.885
102205.000			42.730			-3.885
102304.000			42.729			-3.884
102404.000			42.728			-3.884
102504.000			42.728			-3.884
102604.000			42.727			-3.884
102704.000			42.724			-3.884
102805.000			42.723			-3.884
102904.000			42.722			-3.884
103004.000			42.721			-3.884
103105.000			42.719			-3.884
103203.000			42.718			-3.883
103304.000			42.717			-3.883
103405.000			42.715			-3.883
103504.000			42.714			-3.883
103604.000			42.711			-3.883
103704.000			42.710			-3.883
103804.000			42.708			-3.883
103905.000			42.707			-3.882
104004.000			42.706			-3.882
104103.000			42.707			-3.882
104205.000			42.704			-3.882
104304.000			42.703			-3.882
104404.000			42.701			-3.882
104505.000			42.700			-3.882
104604.000			42.699			-3.882
104704.000			42.698			-3.882
104804.000			42.697			-3.882
104904.000			42.696			-3.881
105004.000			42.693			-3.881
105105.000			42.690			-3.881
105204.000			42.690			-3.881
105304.000			42.691			-3.881
105405.000			42.690			-3.881
105503.000			42.689			-3.881
105604.000			42.687			-3.881
105705.000			42.684			-3.880
105804.000			42.683			-3.880
105904.000			42.682			-3.880
106005.000			42.681			-3.880
106104.000			42.679			-3.880
106203.000			42.679			-3.880
106305.000			42.678			-3.880
106404.000			42.676			-3.880
106504.000			42.675			-3.880
106605.000			42.674			-3.879
106704.000			42.672			-3.879
106804.000			42.670			-3.879
106904.000			42.670			-3.879
107004.000			42.668			-3.879
107103.000			42.667			-3.879
107204.000			42.666			-3.879
107304.000			42.663			-3.878
107405.000			42.662			-3.878
107504.000			42.661			-3.878
107604.000			42.661			-3.878
107705.000			42.660			-3.878
107803.000			42.656			-3.878
107904.000			42.655			-3.878
108005.000			42.655			-3.878
108104.000			42.654			-3.878
108204.000			42.652			-3.877
108305.000			42.651			-3.877
108404.000			42.650			-3.877
108503.000			42.650			-3.877
108605.000			42.647			-3.877
108704.000			42.646			-3.877
108804.000			42.646			-3.877
108905.000			42.645			-3.877
109004.000			42.643			-3.877
109104.000			42.642			-3.877
109204.000			42.641			-3.876
109304.000			42.638			-3.876
109404.000			42.637			-3.876
109505.000			42.636			-3.876
109604.000			42.635			-3.876
109704.000			42.634			-3.876
109805.000			42.633			-3.876
109903.000			42.632			-3.876
110004.000			42.629			-3.875
110103.000			42.628			-3.875
110204.000			42.627			-3.875
110305.000			42.627			-3.875
110404.000			42.625			-3.875
110504.000			42.623			-3.875
110604.000			42.622			-3.875
110704.000			42.620			-3.875
110803.000			42.619			-3.874
110905.000			42.617			-3.874
111004.000			42.616			-3.874
111104.000			42.616			-3.874
111205.000			42.615			-3.874
111304.000			42.614			-3.874
111404.000			42.612			-3.874
111504.000			42.611			-3.874
111604.000			42.610			-3.874
111704.000			42.608			-3.873
111805.000			42.607			-3.873
111904.000			42.606			-3.873
112004.000			42.605			-3.873
112105.000			42.604			-3.873
112203.000			42.602			-3.873
112304.000			42.600			-3.873
112405.000			42.600			-3.873
112504.000			42.598			-3.873
112604.000			42.597			-3.872
112705.000			42.596			-3.872
112804.000			42.594			-3.872
112903.000			42.592			-3.872
113005.000			42.593			-3.872
113104.000			42.591			-3.872
113204.000			42.590			-3.872
113305.000			42.589			-3.872
113404.000			42.588			-3.872
113505.000			42.587			-3.872
113603.000			42.583			-3.871
113704.000			42.583			-3.871
113805.000			42.582			-3.871
113904.000			42.581			-3.871
114004.000			42.580			-3.871
114105.000			42.579			-3.871
114204.000			42.578			-3.871
114303.000			42.576			-3.871
114405.000			42.574			-3.870
114504.000			42.574			-3.870
114604.000			42.572			-3.870
114705.000			42.572			-3.870
114804.000			42.571			-3.870
114904.000			42.569			-3.870
115005.000			42.569			-3.870
115104.000			42.567			-3.870
115203.000			42.565			-3.870
115305.000			42.564			-3.869
115404.000			42.563			-3.869
115504.000			42.561			-3.869
115605.000			42.561			-3.869
115704.000			42.560			-3.869
115804.000			42.557			-3.869
115904.000			42.556			-3.869
116004.000			42.555			-3.869
116104.000			42.555			-3.869
116205.000			42.555			-3.869
116304.000			42.553			-3.868
116404.000			42.552			-3.868
116505.000			42.550			-3.868
116603.000			42.549			-3.868
116705.000			42.548			-3.868
116804.000			42.546			-3.868
116904.000			42.545			-3.868
117005.000			42.545			-3.868
117104.000			42.545			-3.868
117204.000			42.541			-3.867
117304.000			42.540			-3.867
117404.000			42.539			-3.867
117504.000			42.539			-3.867
117605.000			42.537			-3.867
117704.000			42.536			-3.867
117804.000			42.535			-3.867
117905.000			42.533			-3.867
118003.000			42.531			-3.866
118104.000			42.530			-3.866
118205.000			42.530			-3.866
118304.000			42.529			-3.866
118404.000			42.528			-3.866
118505.000			42.526			-3.866
118604.000			42.526			-3.866
118703.000			42.524			-3.866
118805.000			42.523			-3.866
118904.000			42.523			-3.866
119004.000			42.523			-3.866
119105.000			42.521			-3.866
119204.000			42.519			-3.865
119304.000			42.517			-3.865
119404.000			42.515			-3.865
119504.000			42.514			-3.865
119603.000			42.513			-3.865
119705.000			42.512			-3.865
119804.000			42.512			-3.865
119905.000			42.511			-3.865
120004.000			42.509			-3.864
120104.000			42.507			-3.864
120205.000			42.505			-3.864
120303.000			42.505			-3.864
120404.000			42.505			-3.864
120505.000			42.502			-3.864
120604.000			42.501			-3.864
120704.000			42.501			-3.864
120805.000			42.500			-3.864
120904.000			42.499			-3.864
121003.000			42.498			-3.863
121105.000			42.497			-3.863
121204.000			42.496			-3.863
121304.000			42.494			-3.863
121405.000			42.492			-3.863
121504.000			42.492			-3.863
121604.000			42.490			-3.863
121704.000			42.489			-3.863
121804.000			42.488			-3.863
121904.000			42.486			-3.862
122005.000			42.486			-3.862
122104.000			42.486			-3.862
122204.000			42.484			-3.862
122305.000			42.481			-3.862
122403.000			42.480			-3.862
122504.000			42.479			-3.862
122605.000			42.478			-3.862
122704.000			42.478			-3.862
122804.000			42.477			-3.862
122904.000			42.476			-3.861
123004.000			42.474			-3.861
123103.000			42.473			-3.861
123204.000			42.473			-3.861
123303.000			42.473			-3.861
123405.000			42.471			-3.861
123504.000			42.468			-3.861
123604.000			42.469			-3.861
123705.000			42.468			-3.861
123804.000			42.465			-3.860
123904.000			42.463			-3.860
124004.000			42.462			-3.860
124104.000			42.463			-3.860
124204.000			42.463			-3.860
124305.000			42.462			-3.860
124404.000			42.461			-3.860
124504.000			42.458			-3.860
124605.000			42.456			-3.860
124703.000			42.455			-3.860
124804.000			42.455			-3.860
124905.000			42.454			-3.859
125004.000			42.452			-3.859
125104.000			42.452			-3.859
125205.000			42.450			-3.859
125304.000			42.449			-3.859
125403.000			42.448			-3.859
125505.000			42.447			-3.859
125604.000			42.446			-3.859
125704.000			42.445			-3.859
125805.000			42.444			-3.859
125904.000			42.443			-3.858
126004.000			42.442			-3.858
126103.000			42.440			-3.858
126204.000			42.438			-3.858
126305.000			42.437			-3.858
126404.000			42.437			-3.858
126504.000			42.436			-3.858
126605.000			42.436			-3.858
126704.000			42.433			-3.858
126803.000			42.432			-3.857
126905.000			42.431			-3.857
127004.000			42.430			-3.857
127104.000			42.430			-3.857
127205.000			42.428			-3.857
127304.000			42.427			-3.857
127404.000			42.425			-3.857
127504.000			42.424			-3.857
127604.000			42.424			-3.857
127704.000			42.423			-3.857
127805.000			42.422			-3.857
127904.000			42.421			-3.856
128004.000			42.420			-3.856
128105.000			42.418			-3.856
128203.000			42.416			-3.856
128304.000			42.416			-3.856
128405.000			42.416			-3.856
128504.000			42.414			-3.856
128604.000			42.413			-3.856
128705.000			42.413			-3.856
128804.000			42.411			-3.856
128904.000			42.409			-3.855
129005.000			42.409			-3.855
129103.000			42.408			-3.855
129204.000			42.406			-3.855
129305.000			42.405			-3.855
129404.000			42.405			-3.855
129505.000			42.405			-3.855
129604.000			42.401			-3.855
129704.000			42.400			-3.855
129804.000			42.400			-3.855
129904.000			42.399			-3.854
130004.000			42.397			-3.854
130105.000			42.396			-3.854
130204.000			42.396			-3.854
130304.000			42.394			-3.854
130405.000			42.393			-3.854
130503.000			42.393			-3.854
130604.000			42.392			-3.854
130705.000			42.390			-3.854
130804.000			42.389			-3.854
130904.000			42.389			-3.854
131005.000			42.388			-3.853
131104.000			42.386			-3.853
131204.000			42.385			-3.853
131305.000			42.384			-3.853
131403.000			42.382			-3.853
131504.000			42.383			-3.853
131605.000			42.383			-3.853
131704.000			42.381			-3.853
131804.000			42.379			-3.853
131905.000			42.378			-3.853
132004.000			42.377			-3.852
132103.000			42.376			-3.852
132205.000			42.375			-3.852
132303.000			42.374			-3.852
132404.000			42.372			-3.852
132505.000			42.371			-3.852
132604.000			42.371			-3.852
132705.000			42.369			-3.852
132804.000			42.369			-3.852
132904.000			42.367			-3.852
133004.000			42.366			-3.851
133104.000			42.365			-3.851
133203.000			42.365			-3.851
133305.000			42.364			-3.851
133404.000			42.362			-3.851
133504.000			42.360			-3.851
133605.000			42.360			-3.851
133704.000			42.359			-3.851
133804.000			42.358			-3.851
133904.000			42.357			-3.851
134004.000			42.356			-3.851
134104.000			42.355			-3.850
134205.000			42.354			-3.850
134304.000			42.353			-3.850
134404.000			42.352			-3.850
134505.000			42.352			-3.850
134604.000			42.351			-3.850
134704.000			42.349			-3.850
134804.000			42.348			-3.850
134904.000			42.346			-3.850
135004.000			42.345			-3.850
135105.000			42.345			-3.850
135204.000			42.344			-3.849
135304.000			42.342			-3.849
135405.000			42.340			-3.849
135504.000			42.339			-3.849
135604.000			42.339			-3.849
135703.000			42.337			-3.849
135804.000			42.336			-3.849
135905.000			42.337			-3.849
136004.000			42.337			-3.849
136104.000			42.334			-3.849
136205.000			42.333			-3.848
136304.000			42.333			-3.848
136404.000			42.332			-3.848
136505.000			42.331			-3.848
136603.000			42.330			-3.848
136704.000			42.330			-3.848
136805.000			42.328			-3.848
136904.000			42.327			-3.848
137004.000			42.325			-3.848
137105.000			42.323			-3.848
137204.000			42.323			-3.848
137304.000			42.321			-3.847
137405.000			42.321			-3.847
137503.000			42.320			-3.847
137604.000			42.319			-3.847
137705.000			42.318			-3.847
137804.000			42.317			-3.847
137904.000			42.316			-3.847
138005.000			42.315			-3.847
138104.000			42.314			-3.847
138203.000			42.313			-3.847
138305.000			42.312			-3.847
138404.000			42.310			-3.846
138504.000			42.310			-3.846
138605.000			42.309			-3.846
138704.000			42.308			-3.846
138804.000			42.307			-3.846
138904.000			42.306			-3.846
139004.000			42.306			-3.846
139103.000			42.305			-3.846
139204.000			42.303			-3.846
139304.000			42.303			-3.846
139405.000			42.302			-3.846
139504.000			42.301			-3.846
139604.000			42.300			-3.845
139705.000			42.297			-3.845
139804.000			42.295			-3.845
139904.000			42.295			-3.845
140004.000			42.295			-3.845
140104.000			42.294			-3.845
140204.000			42.293			-3.845
140305.000			42.291			-3.845
140404.000			42.291			-3.845
140504.000			42.290			-3.845
140605.000			42.289			-3.844
140704.000			42.289			-3.844
140804.000			42.288			-3.844
140904.000			42.287			-3.844
141004.000			42.286			-3.844
141104.000			42.284			-3.844
141205.000			42.283			-3.844
141304.000			42.283			-3.844
141404.000			42.282			-3.844
141505.000			42.281			-3.844
141604.000			42.280			-3.844
141704.000			42.280			-3.844
141804.000			42.278			-3.843
141904.000			42.276			-3.843
142004.000			42.275			-3.843
142104.000			42.274			-3.843
142204.000			42.273			-3.843
142305.000			42.272			-3.843
142404.000			42.272			-3.843
142503.000			42.271			-3.843
142605.000			42.269			-3.843
142703.000			42.268			-3.843
142804.000			42.268			-3.843
142905.000			42.267			-3.842
143004.000			42.266			-3.842
143104.000			42.264			-3.842
143205.000			42.264			-3.842
143304.000			42.262			-3.842
143403.000			42.261			-3.842
143505.000			42.261			-3.842
143603.000			42.260			-3.842
143704.000			42.259			-3.842
143805.000			42.258			-3.842
143904.000			42.258			-3.842
144004.000			42.257			-3.842
144105.000			42.254			-3.841
144204.000			42.254			-3.841
144303.000			42.252			-3.841
144405.000			42.251			-3.841
144504.000			42.251			-3.841
144604.000			42.251			-3.841
144705.000			42.250			-3.841
144804.000			42.249			-3.841
144904.000			42.246			-3.841
145005.000			42.247			-3.841
145104.000			42.246			-3.841
145203.000			42.245			-3.840
145305.000			42.244			-3.840
145404.000			42.243			-3.840
145505.000			42.241			-3.840
145604.000			42.241			-3.840
145704.000			42.240			-3.840
145805.000			42.237			-3.840
145904.000			42.237			-3.840
146004.000			42.236			-3.840
146104.000			42.235			-3.840
146204.000			42.235			-3.840
146304.000			42.233			-3.839
146405.000			42.233			-3.839
146504.000			42.232			-3.839
146604.000			42.231			-3.839
146705.000			42.231			-3.839
146804.000			42.230			-3.839
146904.000			42.229			-3.839
147004.000			42.227			-3.839
147104.000			42.225			-3.839
147204.000			42.225			-3.839
147305.000			42.223			-3.838
147404.000			42.222			-3.838
147504.000			42.222			-3.838
147605.000			42.222			-3.838
147703.000			42.220			-3.838
147804.000			42.220			-3.838
147904.000			42.218			-3.838
148004.000			42.217			-3.838
148104.000			42.216			-3.838
148205.000			42.216			-3.838
148304.000			42.215			-3.838
148404.000			42.214			-3.838
148505.000			42.213			-3.838
148603.000			42.211			-3.837
148705.000			42.210			-3.837
148804.000			42.209			-3.837
148904.000			42.209			-3.837
149005.000			42.209			-3.837
149104.000			42.206			-3.837
149204.000			42.205			-3.837
149305.000			42.205			-3.837
149404.000			42.203			-3.837
149503.000			42.204			-3.837
149605.000			42.204			-3.837
149704.000			42.204			-3.837
149804.000			42.202			-3.837
149905.000			42.199			-3.836
150004.000			42.198			-3.836
150104.000			42.197			-3.836
150205.000			42.197			-3.836
150304.000			42.196			-3.836
150403.000			42.196			-3.836
150505.000			42.196			-3.836
150604.000			42.193			-3.836
150704.000			42.193			-3.836
150805.000			42.192			-3.836
150904.000			42.191			-3.836
151004.000			42.191			-3.836
151104.000			42.190			-3.835
151204.000			42.189			-3.835
151303.000			42.187			-3.835
151405.000			42.186			-3.835
151504.000			42.185			-3.835
151604.000			42.184			-3.835
151705.000			42.184			-3.835
151804.000			42.183			-3.835
151905.000			42.182			-3.835
152004.000			42.180			-3.835
152104.000			42.180			-3.835
152204.000			42.178			-3.834
152304.000			42.178			-3.834
152404.000			42.177			-3.834
152505.000			42.176			-3.834
152604.000			42.176			-3.834
152704.000			42.175			-3.834
152805.000			42.174			-3.834
152904.000			42.173			-3.834
153004.000			42.171			-3.834
153104.000			42.170			-3.834
153204.000			42.170			-3.834
153304.000			42.169			-3.834
153405.000			42.167			-3.833
153504.000			42.167			-3.833
153604.000			42.166			-3.833
153705.000			42.165			-3.833
153803.000			42.165			-3.833
153904.000			42.164			-3.833
154004.000			42.163			-3.833
154104.000			42.161			-3.833
154204.000			42.161			-3.833
154305.000			42.160			-3.833
154404.000			42.159			-3.833
154504.000			42.158			-3.833
154605.000			42.157			-3.832
154703.000			42.157			-3.832
154804.000			42.156			-3.832
154905.000			42.154			-3.832
155004.000			42.153			-3.832
155105.000			42.152			-3.832
155204.000			42.152			-3.832
155304.000			42.151			-3.832
155405.000			42.150			-3.832
155504.000			42.150			-3.832
155603.000			42.148			-3.832
155705.000			42.147			-3.832
155804.000			42.146			-3.831
155904.000			42.145			-3.831
156005.000			42.145			-3.831
156104.000			42.144			-3.831
156204.000			42.143			-3.831
156304.000			42.143			-3.831
156404.000			42.140			-3.831
156503.000			42.139			-3.831
156605.000			42.139			-3.831
156704.000			42.139			-3.831
156804.000			42.138			-3.831
156905.000			42.137			-3.831
157004.000			42.136			-3.831
157104.000			42.135			-3.830
157204.000			42.133			-3.830
157304.000			42.132			-3.830
157404.000			42.131			-3.830
157505.000			42.129			-3.830
157604.000			42.130			-3.830
157704.000			42.130			-3.830
157805.000			42.128			-3.830
157904.000			42.127			-3.830
158004.000			42.127			-3.830
158103.000			42.126			-3.830
158204.000			42.126			-3.830
158305.000			42.125			-3.830
158404.000			42.124			-3.829
158504.000			42.123			-3.829
158605.000			42.121			-3.829
158704.000			42.121			-3.829
158804.000			42.120			-3.829
158905.000			42.119			-3.829
159003.000			42.118			-3.829
159104.000			42.118			-3.829
159205.000			42.118			-3.829
159304.000			42.114			-3.829
159404.000			42.113			-3.828
159505.000			42.113			-3.828
159604.000			42.112			-3.828
159703.000			42.112			-3.828
159805.000			42.111			-3.828
159903.000			42.111			-3.828
160004.000			42.109			-3.828
160105.000			42.108			-3.828
160204.000			42.107			-3.828
160304.000			42.106			-3.828
160405.000			42.106			-3.828
160504.000			42.105			-3.828
160603.000			42.104			-3.828
160705.000			42.104			-3.828
160804.000			42.102			-3.827
160904.000			42.101			-3.827
161005.000			42.101			-3.827
161104.000			42.100			-3.827
161204.000			42.099			-3.827
161304.000			42.098			-3.827
161404.000			42.097			-3.827
161503.000			42.097			-3.827
161604.000			42.096			-3.827
161704.000			42.096			-3.827
161805.000			42.095			-3.827
161904.000			42.093			-3.827
162004.000			42.091			-3.826
162105.000			42.090			-3.826
162204.000			42.089			-3.826
162304.000			42.088			-3.826
162404.000			42.089			-3.826
162504.000			42.088			-3.826
162604.000			42.087			-3.826
162705.000			42.086			-3.826
162804.000			42.086			-3.826
162904.000			42.084			-3.826
163005.000			42.084			-3.826
163104.000			42.083			-3.826
163204.000			42.082			-3.826
163304.000			42.080			-3.825
163404.000			42.080			-3.825
163504.000			42.079			-3.825
163605.000			42.077			-3.825
163704.000			42.076			-3.825
163804.000			42.077			-3.825
163905.000			42.076			-3.825
164003.000			42.075			-3.825
164104.000			42.074			-3.825
164204.000			42.074			-3.825
164304.000			42.073			-3.825
164404.000			42.071			-3.825
164504.000			42.071			-3.825
164604.000			42.070			-3.825
164705.000			42.069			-3.824
164804.000			42.068			-3.824
164903.000			42.067			-3.824
165005.000			42.066			-3.824
165104.000			42.065			-3.824
165204.000			42.064			-3.824
165305.000			42.064			-3.824
165404.000			42.063			-3.824
165504.000			42.062			-3.824
165605.000			42.061			-3.824
165704.000			42.060			-3.824
165803.000			42.060			-3.824
165905.000			42.059			-3.824
166004.000			42.058			-3.823
166104.000			42.057			-3.823
166205.000			42.057			-3.823
166304.000			42.056			-3.823
166404.000			42.055			-3.823
166505.000			42.053			-3.823
166604.000			42.052			-3.823
166703.000			42.052			-3.823
166805.000			42.051			-3.823
166904.000			42.050			-3.823
167004.000			42.050			-3.823
167105.000			42.050			-3.823
167204.000			42.049			-3.823
167304.000			42.047			-3.822
167405.000			42.047			-3.822
167504.000			42.047			-3.822
167603.000			42.046			-3.822
167705.000			42.044			-3.822
167804.000			42.043			-3.822
167905.000			42.043			-3.822
168004.000			42.041			-3.822
168104.000			42.040			-3.822
168205.000			42.040			-3.822
168304.000			42.039			-3.822
168404.000			42.038			-3.822
168504.000			42.038			-3.822
168604.000			42.037			-3.822
168704.000			42.036			-3.821
168805.000			42.035			-3.821
168904.000			42.034			-3.821
169004.000			42.033			-3.821
169105.000			42.033			-3.821
169204.000			42.032			-3.821
169304.000			42.032			-3.821
169404.000			42.030			-3.821
169504.000			42.030			-3.821
169604.000			42.029			-3.821
169705.000			42.028			-3.821
169804.000			42.028			-3.821
169904.000			42.028			-3.821
170005.000			42.026			-3.821
170103.000			42.025			-3.820
170204.000			42.023			-3.820
170304.000			42.023			-3.820
170404.000			42.022			-3.820
170504.000			42.021			-3.820
170605.000			42.020			-3.820
170704.000			42.019			-3.820
170804.000			42.019			-3.820
170905.000			42.019			-3.820
171003.000			42.017			-3.820
171105.000			42.016			-3.820
171204.000			42.016			-3.820
171304.000			42.014			-3.819
171405.000			42.014			-3.819
171504.000			42.013			-3.819
171604.000			42.012			-3.819
171704.000			42.012			-3.819
171804.000			42.011			-3.819
171903.000			42.009			-3.819
172005.000			42.009			-3.819
172104.000			42.009			-3.819
172204.000			42.008			-3.819
172305.000			42.007			-3.819
172404.000			42.007			-3.819
172504.000			42.005			-3.819
172604.000			42.003			-3.818
172704.000			42.002			-3.818
172804.000			42.002			-3.818
172905.000			42.003			-3.818
173004.000			42.002			-3.818
173104.000			42.001			-3.818
173205.000			41.999			-3.818
173304.000			41.999			-3.818
173404.000			41.998			-3.818
173504.000			41.997			-3.818
173604.000			41.997			-3.818
173704.000			41.996			-3.818
173805.000			41.994			-3.818
173904.000			41.994			-3.818
174004.000			41.993			-3.818
174105.000			41.993			-3.818
174204.000			41.991			-3.817
174305.000			41.989			-3.817
174403.000			41.989			-3.817
174504.000			41.989			-3.817
174604.000			41.988			-3.817
174704.000			41.986			-3.817
174804.000			41.986			-3.817
174905.000			41.986			-3.817
175004.000			41.986			-3.817
175104.000			41.985			-3.817
175205.000			41.984			-3.817
175303.000			41.982			-3.817
175404.000			41.982			-3.817
175504.000			41.981			-3.816
175604.000			41.980			-3.816
175704.000			41.979			-3.816
175805.000			41.978			-3.816
175904.000			41.978			-3.816
176004.000			41.977			-3.816
176105.000			41.976			-3.816
176204.000			41.975			-3.816
176304.000			41.975			-3.816
176404.000			41.975			-3.816
176504.000			41.973			-3.816
176604.000			41.972			-3.816
176705.000			41.971			-3.816
176804.000			41.970			-3.815
176904.000			41.970			-3.815
177005.000			41.968			-3.815
177104.000			41.967			-3.815
177204.000			41.967			-3.815
177304.000			41.967			-3.815
177404.000			41.965			-3.815
177503.000			41.966			-3.815
177604.000			41.965			-3.815
177704.000			41.963			-3.815
177805.000			41.962			-3.815
177904.000			41.961			-3.815
178004.000			41.961			-3.815
178105.000			41.960			-3.815
178204.000			41.959			-3.814
178304.000			41.958			-3.814
178404.000			41.957			-3.814
178504.000			41.956			-3.814
178604.000			41.956			-3.814
178705.000			41.956			-3.814
178804.000			41.954			-3.814
178904.000			41.953			-3.814
179005.000			41.953			-3.814
179104.000			41.951			-3.814
179204.000			41.951			-3.814
179304.000			41.951			-3.814
179404.000			41.950			-3.814
179503.000			41.950			-3.814
179605.000			41.948			-3.813
179704.000			41.948			-3.813
179804.000			41.947			-3.813
179905.000			41.947			-3.813
180004.000			41.946			-3.813
180104.000			41.945			-3.813
180205.000			41.944			-3.813
180304.000			41.942			-3.813
180403.000			41.942			-3.813
180505.000			41.942			-3.813
180604.000			41.942			-3.813
180705.000			41.941			-3.813
180804.000			41.939			-3.813
180904.000			41.938			-3.813
181005.000			41.938			-3.813
181104.000			41.937			-3.812
181204.000			41.936			-3.812
181304.000			41.934			-3.812
181404.000			41.933			-3.812
181504.000			41.933			-3.812
181605.000			41.933			-3.812
181704.000			41.931			-3.812
181804.000			41.930			-3.812
181905.000			41.930			-3.812
182004.000			41.930			-3.812
182104.000			41.929			-3.812
182204.000			41.929			-3.812
182304.000			41.928			-3.812
182404.000			41.927			-3.812
182505.000			41.926			-3.811
182604.000			41.926			-3.811
182704.000			41.925			-3.811
182805.000			41.923			-3.811
182904.000			41.922			-3.811
183004.000			41.922			-3.811
183104.000			41.922			-3.811
183204.000			41.921			-3.811
183304.000			41.920			-3.811
183405.000			41.918			-3.811
183504.000			41.918			-3.811
183604.000			41.918			-3.811
183705.000			41.918			-3.811
183804.000			41.916			-3.811
183905.000			41.915			-3.810
184003.000			41.915			-3.810
184104.000			41.914			-3.810
184204.000			41.914			-3.810
184304.000			41.914			-3.810
184404.000			41.912			-3.810
184505.000			41.911			-3.810
184604.000			41.910			-3.810
184704.000			41.909			-3.810
184805.000			41.909			-3.810
184903.000			41.908			-3.810
185004.000			41.908			-3.810
185104.000			41.907			-3.810
185204.000			41.905			-3.810
185304.000			41.905			-3.810
185405.000			41.905			-3.810
185504.000			41.904			-3.809
185604.000			41.902			-3.809
185705.000			41.901			-3.809
185803.000			41.901			-3.809
185904.000			41.901			-3.809
186004.000			41.899			-3.809
186104.000			41.899			-3.809
186204.000			41.898			-3.809
186305.000			41.897			-3.809
186404.000			41.896			-3.809
186504.000			41.896			-3.809
186605.000			41.896			-3.809
186704.000			41.896			-3.809
186804.000			41.893			-3.808
186903.000			41.893			-3.808
187004.000			41.893			-3.808
187105.000			41.891			-3.808
187204.000			41.890			-3.808
187304.000			41.889			-3.808
187405.000			41.889			-3.808
187504.000			41.888			-3.808
187604.000			41.888			-3.808
187705.000			41.887			-3.808
187803.000			41.886			-3.808
187904.000			41.886			-3.808
188004.000			41.886			-3.808
188104.000			41.884			-3.808
188204.000			41.882			-3.807
188305.000			41.883			-3.808
188404.000			41.881			-3.807
188504.000			41.879			-3.807
188605.000			41.880			-3.807
188704.000			41.880			-3.807
188804.000			41.879			-3.807
188904.000			41.879			-3.807
189004.000			41.877			-3.807
189104.000			41.877			-3.807
189205.000			41.876			-3.807
189304.000			41.875			-3.807
189404.000			41.874			-3.807
189505.000			41.872			-3.807
189604.000			41.872			-3.807
189704.000			41.871			-3.806
189804.000			41.871			-3.806
189904.000			41.870			-3.806
190003.000			41.869			-3.806
190105.000			41.868			-3.806
190204.000			41.868			-3.806
190305.000			41.867			-3.806
190404.000			41.867			-3.806
190504.000			41.865			-3.806
190605.000			41.865			-3.806
190704.000			41.865			-3.806
190804.000			41.863			-3.806
190904.000			41.863			-3.806
191004.000			41.863			-3.806
191104.000			41.862			-3.806
191205.000			41.860			-3.805
191304.000			41.859			-3.805
191404.000			41.859			-3.805
191505.000			41.859			-3.805
191604.000			41.858			-3.805
191704.000			41.857			-3.805
191804.000			41.857			-3.805
191904.000			41.854			-3.805
192004.000			41.855			-3.805
192105.000			41.854			-3.805
192204.000			41.853			-3.805
192304.000			41.852			-3.805
192405.000			41.852			-3.805
192504.000			41.851			-3.805
192604.000			41.849			-3.804
192704.000			41.848			-3.804
192804.000			41.849			-3.804
192904.000			41.849			-3.804
193005.000			41.847			-3.804
193104.000			41.847			-3.804
193204.000			41.847			-3.804
193305.000			41.846			-3.804
193404.000			41.845			-3.804
193505.000			41.843			-3.804
193603.000			41.843			-3.804
193704.000			41.842			-3.804
193804.000			41.841			-3.804
193904.000			41.841			-3.804
194004.000			41.841			-3.804
194105.000			41.840			-3.804
194204.000			41.838			-3.803
194304.000			41.837			-3.803
194405.000			41.837			-3.803
194503.000			41.837			-3.803
194604.000			41.836			-3.803
194704.000			41.836			-3.803
194804.000			41.835			-3.803
194904.000			41.835			-3.803
195005.000			41.834			-3.803
195104.000			41.833			-3.803
195204.000			41.832			-3.803
195305.000			41.832			-3.803
195403.000			41.830			-3.803
195504.000			41.831			-3.803
195604.000			41.830			-3.803
195704.000			41.828			-3.803
195804.000			41.826			-3.802
195905.000			41.826			-3.802
196004.000			41.826			-3.802
196104.000			41.826			-3.802
196205.000			41.825			-3.802
196304.000			41.824			-3.802
196404.000			41.824			-3.802
196503.000			41.823			-3.802
196604.000			41.822			-3.802
196705.000			41.822			-3.802
196804.000			41.822			-3.802
196904.000			41.821			-3.802
197005.000			41.819			-3.802
197104.000			41.818			-3.802
197204.000			41.818			-3.802
197305.000			41.817			-3.802
197403.000			41.816			-3.801
197504.000			41.816			-3.801
197605.000			41.815			-3.801
197704.000			41.814			-3.801
197804.000			41.813			-3.801
197905.000			41.813			-3.801
198004.000			41.813			-3.801
198104.000			41.812			-3.801
198205.000			41.811			-3.801
198303.000			41.810			-3.801
198404.000			41.809			-3.801
198504.000			41.808			-3.801
198604.000			41.808			-3.801
198704.000			41.809			-3.801
198805.000			41.807			-3.801
198904.000			41.806			-3.801
199004.000			41.805			-3.800
199105.000			41.805			-3.800
199203.000			41.804			-3.800
199304.000			41.803			-3.800
199404.000			41.804			-3.800
199504.000			41.803			-3.800
199604.000			41.801			-3.800
199704.000			41.800			-3.800
199804.000			41.800			-3.800
199905.000			41.798			-3.800
200004.000			41.799			-3.800
200104.000			41.798			-3.800
200205.000			41.797			-3.800
200303.000			41.796			-3.800
200404.000			41.796			-3.800
200505.000			41.796			-3.800
200604.000			41.794			-3.799
200704.000			41.794			-3.799
200805.000			41.793			-3.799
200904.000			41.791			-3.799
201003.000			41.791			-3.799
201105.000			41.791			-3.799
201204.000			41.791			-3.799
201304.000			41.789			-3.799
201405.000			41.788			-3.799
201504.000			41.788			-3.799
201604.000			41.788			-3.799
201705.000			41.788			-3.799
201804.000			41.788			-3.799
201903.000			41.786			-3.799
202005.000			41.784			-3.799
202104.000			41.783			-3.798
202204.000			41.782			-3.798
202305.000			41.782			-3.798
202404.000			41.781			-3.798
202504.000			41.780			-3.798
202605.000			41.779			-3.798
202704.000			41.780			-3.798
202803.000			41.778			-3.798
202905.000			41.778			-3.798
203004.000			41.777			-3.798
203105.000			41.776			-3.798
203204.000			41.777			-3.798
203304.000			41.776			-3.798
203405.000			41.775			-3.798
203504.000			41.774			-3.798
203604.000			41.773			-3.798
203704.000			41.773			-3.798
203804.000			41.772			-3.797
203904.000			41.771			-3.797
204005.000			41.771			-3.797
204104.000			41.771			-3.797
204204.000			41.768			-3.797
204305.000			41.767			-3.797
204404.000			41.767			-3.797
204504.000			41.768			-3.797
204604.000			41.767			-3.797
204704.000			41.766			-3.797
204804.000			41.765			-3.797
204905.000			41.765			-3.797
205004.000			41.764			-3.797
205104.000			41.763			-3.797
205205.000			41.762			-3.797
205304.000			41.761			-3.796
205404.000			41.761			-3.796
205504.000			41.760			-3.796
205604.000			41.759			-3.796
205704.000			41.759			-3.796
205805.000			41.759			-3.796
205904.000			41.759			-3.796
206004.000			41.758			-3.796
206105.000			41.757			-3.796
206203.000			41.756			-3.796
206305.000			41.755			-3.796
206403.000			41.754			-3.796
206504.000			41.753			-3.796
206605.000			41.754			-3.796
206704.000			41.753			-3.796
206804.000			41.752			-3.796
206905.000			41.751			-3.796
207004.000			41.751			-3.796
207103.000			41.749			-3.795
207205.000			41.748			-3.795
207303.000			41.748			-3.795
207404.000			41.747			-3.795
207505.000			41.747			-3.795
207604.000			41.747			-3.795
207704.000			41.746			-3.795
207805.000			41.745			-3.795
207904.000			41.743			-3.795
208003.000			41.742			-3.795
208105.000			41.743			-3.795
208203.000			41.742			-3.795
208304.000			41.741			-3.795
208405.000			41.740			-3.795
208504.000			41.740			-3.795
208604.000			41.739			-3.794
208705.000			41.739			-3.794
208804.000			41.738			-3.794
208903.000			41.738			-3.794
209005.000			41.737			-3.794
209104.000			41.737			-3.794
209204.000			41.735			-3.794
209305.000			41.735			-3.794
209404.000			41.734			-3.794
209505.000			41.733			-3.794
209604.000			41.732			-3.794
209704.000			41.732			-3.794
209804.000			41.732			-3.794
209904.000			41.732			-3.794
210004.000			41.729			-3.794
210105.000			41.729			-3.794
210204.000			41.729			-3.794
210304.000			41.728			-3.793
210405.000			41.727			-3.793
210504.000			41.728			-3.793
210604.000			41.727			-3.793
210704.000			41.725			-3.793
210804.000			41.724			-3.793
210904.000			41.723			-3.793
211005.000			41.723			-3.793
211104.000			41.723			-3.793
211204.000			41.722			-3.793
211305.000			41.723			-3.793
211403.000			41.723			-3.793
211504.000			41.720			-3.793
211605.000			41.720			-3.793
211704.000			41.719			-3.793
211804.000			41.718			-3.793
211905.000			41.718			-3.793
212004.000			41.717			-3.792
212104.000			41.718			-3.793
212205.000			41.716			-3.792
212303.000			41.714			-3.792
212404.000			41.713			-3.792
212505.000			41.713			-3.792
212604.000			41.713			-3.792
212705.000			41.712			-3.792
212804.000			41.711			-3.792
212904.000			41.709			-3.792
213004.000			41.710			-3.792
213104.000			41.710			-3.792
213203.000			41.710			-3.792
213305.000			41.709			-3.792
213404.000			41.707			-3.792
213504.000			41.707			-3.792
213605.000			41.707			-3.792
213704.000			41.706			-3.791
213804.000			41.704			-3.791
213904.000			41.703			-3.791
214004.000			41.703			-3.791
214104.000			41.703			-3.791
214205.000			41.703			-3.791
214304.000			41.702			-3.791
214404.000			41.701			-3.791
214505.000			41.701			-3.791
214604.000			41.700			-3.791
214704.000			41.700			-3.791
214804.000			41.699			-3.791
214904.000			41.699			-3.791
215004.000			41.698			-3.791
215105.000			41.696			-3.791
215204.000			41.696			-3.791
215304.000			41.696			-3.791
215405.000			41.694			-3.790
215504.000			41.693			-3.790
215604.000			41.693			-3.790
215703.000			41.694			-3.790
215804.000			41.692			-3.790
215905.000			41.692			-3.790
216004.000			41.691			-3.790
216104.000			41.691			-3.790
216205.000			41.690			-3.790
216304.000			41.689			-3.790
216404.000			41.688			-3.790
216505.000			41.687			-3.790
216603.000			41.687			-3.790
216704.000			41.686			-3.790
216805.000			41.686			-3.790
216904.000			41.684			-3.789
217004.000			41.683			-3.789
217105.000			41.684			-3.789
217204.000			41.684			-3.789
217304.000			41.681			-3.789
217405.000			41.681			-3.789
217503.000			41.681			-3.789
217604.000			41.681			-3.789
217705.000			41.680			-3.789
217804.000			41.680			-3.789
217904.000			41.679			-3.789
218005.000			41.677			-3.789
218104.000			41.676			-3.789
218204.000			41.677			-3.789
218305.000			41.677			-3.789
218403.000			41.676			-3.789
218504.000			41.675			-3.789
218605.000			41.675			-3.789
218704.000			41.674			-3.789
218804.000			41.673			-3.788
218904.000			41.672			-3.788
219004.000			41.671			-3.788
219105.000			41.670			-3.788
219204.000			41.671			-3.788
219303.000			41.670			-3.788
219405.000			41.668			-3.788
219504.000			41.668			-3.788
219604.000			41.668			-3.788
219705.000			41.668			-3.788
219804.000			41.667			-3.788
219904.000			41.667			-3.788
220005.000			41.666			-3.788
220104.000			41.665			-3.788
220203.000			41.664			-3.788
220305.000			41.663			-3.788
220404.000			41.663			-3.788
220504.000			41.663			-3.788
220605.000			41.662			-3.787
220704.000			41.661			-3.787
220804.000			41.659			-3.787
220905.000			41.660			-3.787
221004.000			41.659			-3.787
221103.000			41.658			-3.787
221205.000			41.657			-3.787
221304.000			41.657			-3.787
221404.000			41.656			-3.787
221505.000			41.656			-3.787
221604.000			41.655			-3.787
221704.000			41.655			-3.787
221805.000			41.655			-3.787
221904.000			41.654			-3.787
222003.000			41.653			-3.787
222105.000			41.652			-3.787
222204.000			41.651			-3.786
222305.000			41.650			-3.786
222404.000			41.650			-3.786
222504.000			41.650			-3.786
222605.000			41.650			-3.786
222704.000			41.648			-3.786
222804.000			41.647			-3.786
222904.000			41.648			-3.786
223004.000			41.647			-3.786
223104.000			41.646			-3.786
223205.000			41.645			-3.786
223304.000			41.645			-3.786
223404.000			41.644			-3.786
223505.000			41.644			-3.786
223603.000			41.643			-3.786
223704.000			41.643			-3.786
223804.000			41.641			-3.786
223904.000			41.641			-3.786
224004.000			41.640			-3.785
224105.000			41.640			-3.785
224204.000			41.640			-3.785
224304.000			41.639			-3.785
224405.000			41.638			-3.785
224503.000			41.637			-3.785
224604.000			41.637			-3.785
224705.000			41.636			-3.785
224804.000			41.636			-3.785
224904.000			41.636			-3.785
225005.000			41.635			-3.785
225104.000			41.634			-3.785
225204.000			41.632			-3.785
225305.000			41.632			-3.785
225403.000			41.631			-3.785
225505.000			41.631			-3.785
225604.000			41.631			-3.785
225704.000			41.630			-3.785
225805.000			41.630			-3.785
225904.000			41.628			-3.784
226004.000			41.627			-3.784
226105.000			41.626			-3.784
226204.000			41.626			-3.784
226303.000			41.626			-3.784
226405.000			41.625			-3.784
226504.000			41.624			-3.784
226604.000			41.623			-3.784
226705.000			41.621			-3.784
226804.000			41.622			-3.784
226904.000			41.621			-3.784
227005.000			41.622			-3.784
227104.000			41.621			-3.784
227203.000			41.620			-3.784
227305.000			41.620			-3.784
227404.000			41.618			-3.783
227504.000			41.617			-3.783
227605.000			41.617			-3.783
227704.000			41.617			-3.783
227804.000			41.616			-3.783
227904.000			41.615			-3.783
228004.000			41.616			-3.783
228103.000			41.614			-3.783
228205.000			41.614			-3.783
228304.000			41.613			-3.783
228404.000			41.612			-3.783
228505.000			41.612			-3.783
228604.000			41.613			-3.783
228705.000			41.612			-3.783
228803.000			41.611			-3.783
228904.000			41.609			-3.783
229004.000			41.609			-3.783
229104.000			41.608			-3.783
229204.000			41.607			-3.782
229305.000			41.607			-3.782
229404.000			41.607			-3.782
229504.000			41.606			-3.782
229605.000			41.605			-3.782
229703.000			41.605			-3.782
229804.000			41.605			-3.782
229904.000			41.605			-3.782
230004.000			41.604			-3.782
230104.000			41.604			-3.782
230205.000			41.603			-3.782
230304.000			41.601			-3.782
230404.000			41.600			-3.782
230505.000			41.600			-3.782
230603.000			41.599			-3.782
230704.000			41.599			-3.782
230805.000			41.598			-3.782
230904.000			41.598			-3.782
231004.000			41.597			-3.782
231105.000			41.596			-3.781
231204.000			41.595			-3.781
231304.000			41.595			-3.781
231405.000			41.595			-3.781
231503.000			41.595			-3.781
231604.000			41.594			-3.781
231705.000			41.593			-3.781
231804.000			41.592			-3.781
231905.000			41.592			-3.781
232004.000			41.591			-3.781
232104.000			41.590			-3.781
232205.000			41.590			-3.781
232304.000			41.589			-3.781
232403.000			41.588			-3.781
232505.000			41.589			-3.781
232604.000			41.587			-3.781
232704.000			41.585			-3.780
232805.000			41.585			-3.780
232904.000			41.586			-3.781
233004.000			41.585			-3.780
233105.000			41.585			-3.780
233204.000			41.583			-3.780
233303.000			41.584			-3.780
233405.000			41.583			-3.780
233504.000			41.582			-3.780
233604.000			41.581			-3.780
233705.000			41.581			-3.780
233804.000			41.581			-3.780
233904.000			41.580			-3.780
234004.000			41.579			-3.780
234104.000			41.579			-3.780
234203.000			41.578			-3.780
234305.000			41.576			-3.780
234404.000			41.577			-3.780
234504.000			41.577			-3.780
234605.000			41.576			-3.780
234704.000			41.575			-3.780
234804.000			41.575			-3.780
234904.000			41.575			-3.780
235004.000			41.573			-3.779
235103.000			41.573			-3.779
235204.000			41.573			-3.779
235304.000			41.572			-3.779
235405.000			41.571			-3.779
235504.000			41.570			-3.779
235604.000			41.570			-3.779
235705.000			41.569			-3.779
235803.000			41.569			-3.779
235904.000			41.569			-3.779
236004.000			41.568			-3.779
236104.000			41.565			-3.779
236204.000			41.566			-3.779
236305.000			41.565			-3.779
236404.000			41.564			-3.779
236504.000			41.564			-3.779
236605.000			41.564			-3.779
236703.000			41.564			-3.779
236804.000			41.563			-3.778
236905.000			41.563			-3.778
237004.000			41.562			-3.778
237104.000			41.560			-3.778
237205.000			41.560			-3.778
237304.000			41.560			-3.778
237404.000			41.560			-3.778
237505.000			41.559			-3.778
237603.000			41.557			-3.778
237704.000			41.556			-3.778
237805.000			41.556			-3.778
237904.000			41.557			-3.778
238004.000			41.556			-3.778
238104.000			41.554			-3.778
238204.000			41.554			-3.778
238305.000			41.553			-3.778
238404.000			41.551			-3.777
238503.000			41.552			-3.777
238605.000			41.552			-3.777
238704.000			41.552			-3.777
238804.000			41.551			-3.777
238905.000			41.550			-3.777
239004.000			41.550			-3.777
239104.000			41.549			-3.777
239205.000			41.548			-3.777
239304.000			41.548			-3.777
239403.000			41.548			-3.777
239505.000			41.547			-3.777
239604.000			41.546			-3.777
239704.000			41.546			-3.777
239805.000			41.545			-3.777
239904.000			41.544			-3.777
240004.000			41.543			-3.777
240105.000			41.543			-3.777
240204.000			41.543			-3.777
240303.000			41.542			-3.777
240405.000			41.542			-3.777
240504.000			41.541			-3.776
240604.000			41.540			-3.776
240705.000			41.539			-3.776
240804.000			41.539			-3.776
240904.000			41.538			-3.776
241005.000			41.538			-3.776
241104.000			41.538			-3.776
241203.000			41.536			-3.776
241305.000			41.535			-3.776
241404.000			41.535			-3.776
241505.000			41.534			-3.776
241604.000			41.534			-3.776
241704.000			41.534			-3.776
241805.000			41.533			-3.776
241903.000			41.531			-3.776
242004.000			41.531			-3.776
242104.000			41.530			-3.775
242204.000			41.530			-3.775
242304.000			41.530			-3.775
242405.000			41.529			-3.775
242504.000			41.529			-3.775
242604.000			41.528			-3.775
242705.000			41.528			-3.775
242803.000			41.527			-3.775
242904.000			41.526			-3.775
243005.000			41.526			-3.775
243104.000			41.525			-3.775
243204.000			41.525			-3.775
243305.000			41.523			-3.775
243404.000			41.524			-3.775
243504.000			41.523			-3.775
243605.000			41.522			-3.775
243703.000			41.522			-3.775
243804.000			41.522			-3.775
243905.000			41.522			-3.775
244004.000			41.521			-3.775
244104.000			41.519			-3.774
244205.000			41.518			-3.774
244304.000			41.517			-3.774
244404.000			41.518			-3.774
244505.000			41.517			-3.774
244603.000			41.517			-3.774
244705.000			41.516			-3.774
244804.000			41.515			-3.774
244904.000			41.516			-3.774
245005.000			41.515			-3.774
245104.000			41.513			-3.774
245204.000			41.513			-3.774
245304.000			41.513			-3.774
245404.000			41.513			-3.774
245503.000			41.512			-3.774
245605.000			41.511			-3.774
245704.000			41.510			-3.774
245804.000			41.510			-3.774
245905.000			41.509			-3.774
246004.000			41.509			-3.774
246104.000			41.509			-3.774
246204.000			41.508			-3.773
246304.000			41.507			-3.773
246403.000			41.506			-3.773
246505.000			41.506			-3.773
246604.000			41.506			-3.773
246704.000			41.505			-3.773
246805.000			41.505			-3.773
246904.000			41.505			-3.773
247004.000			41.503			-3.773
247104.000			41.503			-3.773
247204.000			41.502			-3.773
247304.000			41.501			-3.773
247405.000			41.501			-3.773
247504.000			41.501			-3.773
247604.000			41.501			-3.773
247705.000			41.499			-3.773
247804.000			41.499			-3.773
247905.000			41.498			-3.773
248003.000			41.498			-3.773
248104.000			41.497			-3.772
248205.000			41.496			-3.772
248304.000			41.496			-3.772
248404.000			41.496			-3.772
248505.000			41.495			-3.772
248604.000			41.494			-3.772
248704.000			41.494			-3.772
248805.000			41.493			-3.772
248903.000			41.493			-3.772
249004.000			41.492			-3.772
249105.000			41.492			-3.772
249204.000			41.490			-3.772
249304.000			41.489			-3.772
249405.000			41.490			-3.772
249504.000			41.490			-3.772
249604.000			41.488			-3.772
249705.000			41.488			-3.772
249804.000			41.489			-3.772
249904.000			41.488			-3.772
250004.000			41.487			-3.772
250104.000			41.486			-3.771
250204.000			41.484			-3.771
250305.000			41.485			-3.771
250404.000			41.484			-3.771
250504.000			41.483			-3.771
250605.000			41.483			-3.771
250703.000			41.483			-3.771
250804.000			41.482			-3.771
250903.000			41.482			-3.771
251004.000			41.481			-3.771
251105.000			41.480			-3.771
251204.000			41.481			-3.771
251304.000			41.480			-3.771
251405.000			41.479			-3.771
251504.000			41.478			-3.771
251603.000			41.478			-3.771
251705.000			41.477			-3.771
251803.000			41.476			-3.771
251904.000			41.475			-3.770
252005.000			41.475			-3.770
252104.000			41.474			-3.770
252204.000			41.472			-3.770
252305.000			41.472			-3.770
252404.000			41.473			-3.770
252503.000			41.472			-3.770
252605.000			41.472			-3.770
252704.000			41.472			-3.770
252804.000			41.470			-3.770
252905.000			41.470			-3.770
253004.000			41.469			-3.770
253104.000			41.469			-3.770
253205.000			41.468			-3.770
253304.000			41.467			-3.770
253403.000			41.467			-3.770
253505.000			41.465			-3.770
253604.000			41.466			-3.770
253704.000			41.465			-3.770
253805.000			41.465			-3.770
253904.000			41.465			-3.770
254004.000			41.464			-3.769
254104.000			41.463			-3.769
254204.000			41.462			-3.769
254303.000			41.462			-3.769
254404.000			41.461			-3.769
254504.000			41.461			-3.769
254605.000			41.460			-3.769
254704.000			41.459			-3.769
254804.000			41.460			-3.769
254905.000			41.459			-3.769
255004.000			41.458			-3.769
255104.000			41.458			-3.769
255204.000			41.456			-3.769
255304.000			41.456			-3.769
255403.000			41.456			-3.769
255505.000			41.456			-3.769
255604.000			41.455			-3.769
255704.000			41.455			-3.769
255805.000			41.454			-3.769
255904.000			41.452			-3.768
256004.000			41.452			-3.768
256104.000			41.452			-3.768
256204.000			41.451			-3.768
256303.000			41.451			-3.768
256405.000			41.450			-3.768
256504.000			41.449			-3.768
256604.000			41.449			-3.768
256705.000			41.448			-3.768
256804.000			41.448			-3.768
256904.000			41.448			-3.768
257004.000			41.447			-3.768
257104.000			41.446			-3.768
257203.000			41.445			-3.768
257305.000			41.445			-3.768
257404.000			41.445			-3.768
257505.000			41.444			-3.768
257604.000			41.443			-3.768
257704.000			41.443			-3.768
257805.000			41.443			-3.768
257903.000			41.441			-3.767
258004.000			41.442			-3.767
258105.000			41.441			-3.767
258204.000			41.440			-3.767
258304.000			41.440			-3.767
258405.000			41.439			-3.767
258504.000			41.440			-3.767
258604.000			41.438			-3.767
258705.000			41.438			-3.767
258803.000			41.437			-3.767
258904.000			41.436			-3.767
259005.000			41.436			-3.767
259104.000			41.435			-3.767
259204.000			41.436			-3.767
259305.000			41.435			-3.767
259404.000			41.434			-3.767
259504.000			41.433			-3.767
259605.000			41.433			-3.767
259703.000			41.432			-3.767
259804.000			41.431			-3.766
259905.000			41.431			-3.766
260004.000			41.431			-3.766
260104.000			41.431			-3.766
260205.000			41.430			-3.766
260304.000			41.430			-3.766
260404.000			41.429			-3.766
260505.000			41.428			-3.766
260603.000			41.427			-3.766
260705.000			41.428			-3.766
260804.000			41.426			-3.766
260904.000			41.426			-3.766
261005.000			41.426			-3.766
261104.000			41.426			-3.766
261204.000			41.425			-3.766
261304.000			41.424			-3.766
261404.000			41.424			-3.766
261503.000			41.423			-3.766
261605.000			41.422			-3.766
261704.000			41.422			-3.766
261804.000			41.421			-3.766
261905.000			41.420			-3.765
262004.000			41.420			-3.765
262104.000			41.419			-3.765
262204.000			41.419			-3.765
262304.000			41.419			-3.765
262403.000			41.419			-3.765
262505.000			41.418			-3.765
262604.000			41.417			-3.765
262704.000			41.417			-3.765
262805.000			41.417			-3.765
262904.000			41.415			-3.765
263004.000			41.416			-3.765
263104.000			41.415			-3.765
263204.000			41.414			-3.765
263304.000			41.413			-3.765
263405.000			41.412			-3.765
263504.000			41.412			-3.765
263604.000			41.412			-3.765
263705.000			41.411			-3.765
263804.000			41.411			-3.765
263905.000			41.410			-3.765
264003.000			41.410			-3.765
264104.000			41.410			-3.765
264205.000			41.409			-3.764
264304.000			41.408			-3.764
264404.000			41.406			-3.764
264505.000			41.407			-3.764
264604.000			41.407			-3.764
264703.000			41.407			-3.764
264805.000			41.405			-3.764
264903.000			41.404			-3.764
265004.000			41.404			-3.764
265105.000			41.404			-3.764
265204.000			41.402			-3.764
265304.000			41.401			-3.764
265405.000			41.402			-3.764
265504.000			41.401			-3.764
265603.000			41.401			-3.764
265705.000			41.400			-3.764
265804.000			41.399			-3.764
265904.000			41.399			-3.764
266005.000			41.399			-3.764
266104.000			41.398			-3.763
266204.000			41.398			-3.763
266305.000			41.398			-3.763
266404.000			41.398			-3.763
266503.000			41.398			-3.763
266605.000			41.395			-3.763
266704.000			41.396			-3.763
266804.000			41.395			-3.763
266905.000			41.394			-3.763
267004.000			41.394			-3.763
267105.000			41.393			-3.763
267204.000			41.393			-3.763
267304.000			41.392			-3.763
267404.000			41.391			-3.763
267504.000			41.392			-3.763
267603.000			41.391			-3.763
267705.000			41.390			-3.763
267804.000			41.389			-3.763
267904.000			41.389			-3.763
268005.000			41.389			-3.763
268104.000			41.388			-3.763
268204.000			41.387			-3.762
268304.000			41.386			-3.762
268404.000			41.387			-3.762
268503.000			41.386			-3.762
268605.000			41.386			-3.762
268704.000			41.384			-3.762
268804.000			41.384			-3.762
268905.000			41.384			-3.762
269004.000			41.383			-3.762
269104.000			41.383			-3.762
269204.000			41.381			-3.762
269304.000			41.382			-3.762
269403.000			41.381			-3.762
269505.000			41.380			-3.762
269604.000			41.380			-3.762
269704.000			41.379			-3.762
269805.000			41.380			-3.762
269904.000			41.379			-3.762
270004.000			41.378			-3.762
270104.000			41.378			-3.762
270204.000			41.376			-3.761
270303.000			41.376			-3.761
270404.000			41.375			-3.761
270504.000			41.375			-3.761
270605.000			41.376			-3.761
270704.000			41.375			-3.761
270804.000			41.373			-3.761
270905.000			41.373			-3.761
271003.000			41.373			-3.761
271104.000			41.372			-3.761
271204.000			41.372			-3.761
271304.000			41.372			-3.761
271404.000			41.370			-3.761
271505.000			41.371			-3.761
271604.000			41.371			-3.761
271704.000			41.370			-3.761
271805.000			41.370			-3.761
271903.000			41.370			-3.761
272004.000			41.368			-3.761
272105.000			41.369			-3.761
272204.000			41.367			-3.761
272304.000			41.365			-3.760
272405.000			41.365			-3.760
272504.000			41.365			-3.760
272604.000			41.364			-3.760
272705.000			41.363			-3.760
272803.000			41.363			-3.760
272904.000			41.362			-3.760
273005.000			41.362			-3.760
273104.000			41.361			-3.760
273204.000			41.361			-3.760
273304.000			41.361			-3.760
273404.000			41.360			-3.760
273505.000			41.361			-3.760
273604.000			41.360			-3.760
273703.000			41.359			-3.760
273805.000			41.358			-3.760
273904.000			41.358			-3.760
274004.000			41.357			-3.760
274105.000			41.357			-3.760
274204.000			41.357			-3.760
274304.000			41.357			-3.760
274405.000			41.355			-3.760
274504.000			41.355			-3.760
274603.000			41.355			-3.760
274705.000			41.354			-3.759
274804.000			41.354			-3.759
274904.000			41.354			-3.759
275005.000			41.351			-3.759
275104.000			41.351			-3.759
275204.000			41.351			-3.759
275305.000			41.351			-3.759
275404.000			41.350			-3.759
275503.000			41.350			-3.759
275605.000			41.350			-3.759
275704.000			41.350			-3.759
275804.000			41.349			-3.759
275905.000			41.349			-3.759
276004.000			41.348			-3.759
276104.000			41.346			-3.759
276205.000			41.345			-3.759
276304.000			41.345			-3.759
276403.000			41.345			-3.759
276505.000			41.344			-3.759
276604.000			41.343			-3.758
276705.000			41.344			-3.759
276804.000			41.344			-3.759
276904.000			41.344			-3.759
277005.000			41.343			-3.758
277104.000			41.342			-3.758
277204.000			41.342			-3.758
277304.000			41.342			-3.758
277404.000			41.341			-3.758
277504.000			41.340			-3.758
277605.000			41.339			-3.758
277704.000			41.339			-3.758
277804.000			41.339			-3.758
277905.000			41.339			-3.758
278004.000			41.337			-3.758
278104.000			41.336			-3.758
278204.000			41.338			-3.758
278304.000			41.336			-3.758
278404.000			41.334			-3.758
278505.000			41.335			-3.758
278604.000			41.334			-3.758
278704.000			41.334			-3.758
278805.000			41.333			-3.758
278904.000			41.332			-3.757
279004.000			41.332			-3.757
279104.000			41.331			-3.757
279204.000			41.331			-3.757
279304.000			41.330			-3.757
279405.000			41.330			-3.757
279504.000			41.330			-3.757
279604.000			41.328			-3.757
279705.000			41.328			-3.757
279804.000			41.328			-3.757
279905.000			41.328			-3.757
280003.000			41.327			-3.757
280104.000			41.326			-3.757
280205.000			41.326			-3.757
280304.000			41.326			-3.757
280404.000			41.325			-3.757
280505.000			41.324			-3.757
280604.000			41.323			-3.757
280704.000			41.323			-3.757
280805.000			41.323			-3.757
280903.000			41.322			-3.757
281004.000			41.322			-3.757
281105.000			41.321			-3.756
281204.000			41.321			-3.756
281304.000			41.322			-3.757
281405.000			41.321			-3.756
281504.000			41.320			-3.756
281603.000			41.318			-3.756
281705.000			41.318			-3.756
281804.000			41.318			-3.756
281904.000			41.318			-3.756
282005.000			41.318			-3.756
282104.000			41.317			-3.756
282204.000			41.315			-3.756
282305.000			41.315			-3.756
282404.000			41.315			-3.756
282503.000			41.314			-3.756
282605.000			41.313			-3.756
282704.000			41.313			-3.756
282804.000			41.313			-3.756
282905.000			41.312			-3.756
283004.000			41.311			-3.756
283105.000			41.310			-3.755
283203.000			41.311			-3.756
283304.000			41.310			-3.755
283405.000			41.310			-3.755
283504.000			41.310			-3.755
283604.000			41.309			-3.755
283705.000			41.308			-3.755
283804.000			41.308			-3.755
283904.000			41.308			-3.755
284005.000			41.308			-3.755
284103.000			41.307			-3.755
284204.000			41.306			-3.755
284305.000			41.305			-3.755
284404.000			41.304			-3.755
284504.000			41.304			-3.755
284605.000			41.304			-3.755
284704.000			41.303			-3.755
284804.000			41.303			-3.755
284905.000			41.303			-3.755
285003.000			41.303			-3.755
285104.000			41.301			-3.755
285205.000			41.300			-3.755
285304.000			41.300			-3.755
285404.000			41.300			-3.755
285505.000			41.299			-3.754
285604.000			41.299			-3.754
285704.000			41.298			-3.754
285805.000			41.297			-3.754
285903.000			41.297			-3.754
286004.000			41.297			-3.754
286105.000			41.296			-3.754
286204.000			41.297			-3.754
286305.000			41.297			-3.754
286404.000			41.296			-3.754
286504.000			41.294			-3.754
286605.000			41.294			-3.754
286704.000			41.294			-3.754
286803.000			41.293			-3.754
286905.000			41.292			-3.754
287003.000			41.291			-3.754
287104.000			41.291			-3.754
287205.000			41.289			-3.754
287304.000			41.290			-3.754
287404.000			41.290			-3.754
287505.000			41.290			-3.754
287604.000			41.290			-3.754
287703.000			41.289			-3.754
287805.000			41.289			-3.754
287903.000			41.288			-3.753
288004.000			41.287			-3.753
288105.000			41.286			-3.753
288204.000			41.285			-3.753
288304.000			41.285			-3.753
288405.000			41.285			-3.753
288504.000			41.285			-3.753
288604.000			41.285			-3.753
288705.000			41.284			-3.753
288803.000			41.283			-3.753
288904.000			41.284			-3.753
289005.000			41.281			-3.753
289104.000			41.281			-3.753
289204.000			41.281			-3.753
289304.000			41.281			-3.753
289404.000			41.280			-3.753
289505.000			41.280			-3.753
289604.000			41.280			-3.753
289703.000			41.280			-3.753
289805.000			41.279			-3.753
289904.000			41.278			-3.753
290004.000			41.278			-3.753
290105.000			41.277			-3.752
290204.000			41.277			-3.752
290304.000			41.276			-3.752
290405.000			41.276			-3.752
290504.000			41.275			-3.752
290603.000			41.274			-3.752
290705.000			41.274			-3.752
290804.000			41.273			-3.752
290904.000			41.273			-3.752
291005.000			41.272			-3.752
291104.000			41.272			-3.752
291204.000			41.273			-3.752
291305.000			41.272			-3.752
291404.000			41.272			-3.752
291503.000			41.270			-3.752
291605.000			41.269			-3.752
291704.000			41.270			-3.752
291804.000			41.269			-3.752
291905.000			41.268			-3.752
292004.000			41.267			-3.752
292104.000			41.268			-3.752
292205.000			41.268			-3.752
292304.000			41.267			-3.752
292403.000			41.266			-3.751
292505.000			41.266			-3.751
292604.000			41.265			-3.751
292705.000			41.265			-3.751
292804.000			41.264			-3.751
292904.000			41.263			-3.751
293005.000			41.262			-3.751
293104.000			41.262			-3.751
293204.000			41.261			-3.751
293304.000			41.262			-3.751
293404.000			41.262			-3.751
293504.000			41.261			-3.751
293605.000			41.259			-3.751
293704.000			41.259			-3.751
293804.000			41.260			-3.751
293905.000			41.259			-3.751
294004.000			41.258			-3.751
294104.000			41.257			-3.751
294204.000			41.257			-3.751
294304.000			41.256			-3.751
294404.000			41.257			-3.751
294505.000			41.256			-3.751
294604.000			41.255			-3.750
294704.000			41.255			-3.750
294805.000			41.255			-3.750
294903.000			41.254			-3.750
295004.000			41.254			-3.750
295104.000			41.253			-3.750
295204.000			41.252			-3.750
295304.000			41.252			-3.750
295405.000			41.252			-3.750
295504.000			41.250			-3.750
295604.000			41.250			-3.750
295705.000			41.251			-3.750
295803.000			41.251			-3.750
295905.000			41.250			-3.750
296003.000			41.249			-3.750
296104.000			41.247			-3.750
296205.000			41.246			-3.750
296304.000			41.247			-3.750
296404.000			41.246			-3.750
296505.000			41.245			-3.750
296604.000			41.246			-3.750
296703.000			41.245			-3.750
296805.000			41.244			-3.749
296903.000			41.244			-3.749
297004.000			41.243			-3.749
297105.000			41.243			-3.749
297204.000			41.243			-3.749
297304.000			41.243			-3.749
297405.000			41.241			-3.749
297504.000			41.241			-3.749
297603.000			41.240			-3.749
297705.000			41.240			-3.749
297804.000			41.240			-3.749
297904.000			41.239			-3.749
298005.000			41.239			-3.749
298104.000			41.238			-3.749
298204.000			41.239			-3.749
298305.000			41.239			-3.749
298404.000			41.238			-3.749
298503.000			41.236			-3.749
298605.000			41.235			-3.749
298703.000			41.236			-3.749
298804.000			41.235			-3.749
298905.000			41.234			-3.749
299004.000			41.233			-3.748
299105.000			41.234			-3.749
299204.000			41.234			-3.749
299304.000			41.233			-3.748
299405.000			41.232			-3.748
299504.000			41.232			-3.748
299603.000			41.232			-3.748
299705.000			41.232			-3.748
299804.000			41.231			-3.748
299904.000			41.229			-3.748
