# Acquired on 24/01/2024 10:47:23 
# SPIDER: Creep_3mm_GRPCNT1454A-1
# CREEP MEASUREMENT

# time [ms]		force [N]		stiffness [N/mm]
0.000			-6.506			-2.169
103.000			-6.912			-2.304
205.000			-6.980			-2.327
304.000			-6.909			-2.303
404.000			-6.844			-2.281
505.000			-6.756			-2.252
604.000			-6.723			-2.241
704.000			-6.694			-2.231
805.000			-6.668			-2.223
904.000			-6.646			-2.215
1004.000			-6.626			-2.209
1105.000			-6.607			-2.202
1204.000			-6.574			-2.191
1303.000			-6.560			-2.187
1405.000			-6.545			-2.182
1504.000			-6.533			-2.178
1605.000			-6.520			-2.173
1704.000			-6.509			-2.170
1804.000			-6.499			-2.166
1905.000			-6.479			-2.160
2003.000			-6.470			-2.157
2104.000			-6.461			-2.154
2205.000			-6.453			-2.151
2304.000			-6.445			-2.148
2404.000			-6.438			-2.146
2504.000			-6.430			-2.143
2604.000			-6.422			-2.141
2704.000			-6.409			-2.136
2805.000			-6.403			-2.134
2904.000			-6.396			-2.132
3004.000			-6.390			-2.130
3105.000			-6.384			-2.128
3203.000			-6.378			-2.126
3304.000			-6.373			-2.124
3405.000			-6.362			-2.121
3504.000			-6.357			-2.119
3604.000			-6.352			-2.117
3704.000			-6.349			-2.116
3804.000			-6.343			-2.114
3904.000			-6.338			-2.113
4005.000			-6.334			-2.111
4104.000			-6.326			-2.109
4204.000			-6.321			-2.107
4305.000			-6.318			-2.106
4403.000			-6.314			-2.105
4504.000			-6.310			-2.103
4605.000			-6.305			-2.102
4704.000			-6.303			-2.101
4805.000			-6.300			-2.100
4903.000			-6.293			-2.098
5004.000			-6.288			-2.096
5105.000			-6.285			-2.095
5204.000			-6.281			-2.094
5304.000			-6.279			-2.093
5405.000			-6.275			-2.092
5504.000			-6.272			-2.091
5603.000			-6.265			-2.088
5705.000			-6.263			-2.088
5804.000			-6.261			-2.087
5904.000			-6.257			-2.086
6005.000			-6.256			-2.085
6104.000			-6.253			-2.084
6204.000			-6.250			-2.083
6304.000			-6.243			-2.081
6404.000			-6.241			-2.080
6504.000			-6.239			-2.080
6605.000			-6.236			-2.079
6704.000			-6.234			-2.078
6803.000			-6.232			-2.077
6905.000			-6.230			-2.077
7004.000			-6.226			-2.075
7104.000			-6.221			-2.074
7205.000			-6.218			-2.073
7304.000			-6.216			-2.072
7404.000			-6.214			-2.071
7504.000			-6.212			-2.071
7604.000			-6.209			-2.070
7704.000			-6.207			-2.069
7804.000			-6.203			-2.068
7904.000			-6.200			-2.067
8004.000			-6.200			-2.067
8104.000			-6.198			-2.066
8204.000			-6.196			-2.065
8305.000			-6.194			-2.065
8404.000			-6.192			-2.064
8504.000			-6.188			-2.063
8605.000			-6.186			-2.062
8703.000			-6.184			-2.061
8804.000			-6.181			-2.060
8905.000			-6.178			-2.059
9004.000			-6.177			-2.059
9104.000			-6.176			-2.059
9204.000			-6.174			-2.058
9304.000			-6.171			-2.057
9404.000			-6.169			-2.056
9505.000			-6.168			-2.056
9604.000			-6.165			-2.055
9704.000			-6.163			-2.054
9805.000			-6.161			-2.054
9903.000			-6.159			-2.053
10004.000			-6.156			-2.052
10105.000			-6.155			-2.052
10204.000			-6.153			-2.051
10304.000			-6.151			-2.050
10405.000			-6.150			-2.050
10504.000			-6.148			-2.049
10603.000			-6.146			-2.049
10705.000			-6.144			-2.048
10804.000			-6.143			-2.048
10904.000			-6.142			-2.047
11005.000			-6.140			-2.047
11103.000			-6.138			-2.046
11205.000			-6.136			-2.045
11304.000			-6.134			-2.045
11404.000			-6.132			-2.044
11505.000			-6.130			-2.043
11604.000			-6.129			-2.043
11704.000			-6.128			-2.043
11804.000			-6.126			-2.042
11904.000			-6.125			-2.042
12004.000			-6.124			-2.041
12105.000			-6.122			-2.041
12204.000			-6.121			-2.040
12303.000			-6.118			-2.039
12405.000			-6.117			-2.039
12504.000			-6.116			-2.039
12604.000			-6.114			-2.038
12705.000			-6.113			-2.038
12804.000			-6.112			-2.037
12904.000			-6.108			-2.036
13004.000			-6.108			-2.036
13104.000			-6.106			-2.035
13204.000			-6.105			-2.035
13305.000			-6.104			-2.035
13404.000			-6.102			-2.034
13503.000			-6.101			-2.034
13605.000			-6.098			-2.033
13704.000			-6.098			-2.033
13804.000			-6.097			-2.032
13905.000			-6.096			-2.032
14004.000			-6.094			-2.031
14104.000			-6.093			-2.031
14203.000			-6.092			-2.031
14304.000			-6.091			-2.030
14405.000			-6.088			-2.029
14504.000			-6.087			-2.029
14604.000			-6.086			-2.029
14705.000			-6.085			-2.028
14804.000			-6.085			-2.028
14903.000			-6.083			-2.028
15005.000			-6.082			-2.027
15104.000			-6.080			-2.027
15204.000			-6.079			-2.026
15305.000			-6.078			-2.026
15404.000			-6.077			-2.026
15504.000			-6.076			-2.025
15604.000			-6.075			-2.025
15704.000			-6.075			-2.025
15804.000			-6.074			-2.025
15905.000			-6.072			-2.024
16004.000			-6.070			-2.023
16103.000			-6.069			-2.023
16205.000			-6.068			-2.023
16304.000			-6.067			-2.022
16404.000			-6.066			-2.022
16505.000			-6.065			-2.022
16604.000			-6.064			-2.021
16704.000			-6.064			-2.021
16804.000			-6.062			-2.021
16904.000			-6.061			-2.020
17004.000			-6.060			-2.020
17105.000			-6.059			-2.020
17204.000			-6.058			-2.019
17304.000			-6.057			-2.019
17405.000			-6.056			-2.019
17503.000			-6.055			-2.018
17605.000			-6.053			-2.018
17704.000			-6.052			-2.017
17804.000			-6.052			-2.017
17905.000			-6.051			-2.017
18004.000			-6.048			-2.016
18104.000			-6.048			-2.016
18204.000			-6.046			-2.015
18304.000			-6.046			-2.015
18404.000			-6.046			-2.015
18505.000			-6.045			-2.015
18604.000			-6.043			-2.014
18703.000			-6.042			-2.014
18805.000			-6.040			-2.013
18904.000			-6.041			-2.014
19004.000			-6.040			-2.013
19105.000			-6.039			-2.013
19204.000			-6.038			-2.013
19304.000			-6.037			-2.012
19404.000			-6.037			-2.012
19504.000			-6.034			-2.011
19604.000			-6.034			-2.011
19705.000			-6.033			-2.011
19804.000			-6.032			-2.011
19904.000			-6.032			-2.011
20005.000			-6.031			-2.010
20103.000			-6.030			-2.010
20204.000			-6.027			-2.009
20305.000			-6.027			-2.009
20404.000			-6.027			-2.009
20504.000			-6.026			-2.009
20603.000			-6.025			-2.008
20704.000			-6.024			-2.008
20805.000			-6.024			-2.008
20904.000			-6.022			-2.007
21004.000			-6.020			-2.007
21105.000			-6.021			-2.007
21204.000			-6.021			-2.007
21303.000			-6.019			-2.006
21405.000			-6.019			-2.006
21504.000			-6.018			-2.006
21604.000			-6.017			-2.006
21705.000			-6.015			-2.005
21803.000			-6.015			-2.005
21904.000			-6.014			-2.005
22005.000			-6.013			-2.004
22104.000			-6.013			-2.004
22204.000			-6.012			-2.004
22305.000			-6.011			-2.004
22404.000			-6.009			-2.003
22503.000			-6.009			-2.003
22605.000			-6.009			-2.003
22704.000			-6.009			-2.003
22804.000			-6.008			-2.003
22905.000			-6.006			-2.002
23004.000			-6.006			-2.002
23104.000			-6.004			-2.001
23205.000			-6.003			-2.001
23304.000			-6.003			-2.001
23404.000			-6.003			-2.001
23505.000			-6.000			-2.000
23604.000			-6.000			-2.000
23703.000			-6.000			-2.000
23805.000			-6.000			-2.000
23904.000			-6.000			-2.000
24005.000			-5.998			-1.999
24104.000			-5.998			-1.999
24204.000			-5.997			-1.999
24305.000			-5.997			-1.999
24403.000			-5.995			-1.998
24504.000			-5.994			-1.998
24605.000			-5.993			-1.998
24704.000			-5.993			-1.998
24804.000			-5.993			-1.998
24905.000			-5.991			-1.997
25004.000			-5.991			-1.997
25103.000			-5.990			-1.997
25205.000			-5.989			-1.996
25304.000			-5.989			-1.996
25404.000			-5.988			-1.996
25505.000			-5.988			-1.996
25604.000			-5.988			-1.996
25704.000			-5.988			-1.996
25804.000			-5.986			-1.995
25904.000			-5.984			-1.995
26004.000			-5.984			-1.995
26105.000			-5.983			-1.994
26204.000			-5.982			-1.994
26304.000			-5.982			-1.994
26405.000			-5.980			-1.993
26503.000			-5.980			-1.993
26604.000			-5.979			-1.993
26705.000			-5.979			-1.993
26804.000			-5.979			-1.993
26904.000			-5.977			-1.992
27004.000			-5.976			-1.992
27104.000			-5.976			-1.992
27204.000			-5.976			-1.992
27304.000			-5.974			-1.991
27404.000			-5.975			-1.992
27505.000			-5.973			-1.991
27604.000			-5.972			-1.991
27704.000			-5.971			-1.990
27805.000			-5.972			-1.991
27903.000			-5.972			-1.991
28004.000			-5.970			-1.990
28105.000			-5.970			-1.990
28204.000			-5.968			-1.989
28304.000			-5.967			-1.989
28405.000			-5.967			-1.989
28504.000			-5.966			-1.989
28603.000			-5.965			-1.988
28705.000			-5.966			-1.989
28804.000			-5.965			-1.988
28904.000			-5.965			-1.988
29005.000			-5.963			-1.988
29104.000			-5.962			-1.987
29204.000			-5.961			-1.987
29304.000			-5.961			-1.987
29404.000			-5.961			-1.987
29504.000			-5.961			-1.987
29605.000			-5.961			-1.987
29704.000			-5.960			-1.987
29804.000			-5.960			-1.987
29905.000			-5.958			-1.986
30003.000			-5.957			-1.986
30104.000			-5.956			-1.985
30205.000			-5.956			-1.985
30304.000			-5.955			-1.985
30405.000			-5.956			-1.985
30504.000			-5.955			-1.985
30604.000			-5.954			-1.985
30704.000			-5.953			-1.984
30804.000			-5.952			-1.984
30904.000			-5.952			-1.984
31005.000			-5.951			-1.984
31104.000			-5.952			-1.984
31203.000			-5.950			-1.983
31305.000			-5.950			-1.983
31404.000			-5.949			-1.983
31504.000			-5.948			-1.983
31605.000			-5.948			-1.983
31704.000			-5.949			-1.983
31804.000			-5.949			-1.983
31904.000			-5.947			-1.982
32004.000			-5.946			-1.982
32104.000			-5.945			-1.982
32205.000			-5.945			-1.982
32304.000			-5.944			-1.981
32404.000			-5.944			-1.981
32505.000			-5.944			-1.981
32603.000			-5.943			-1.981
32704.000			-5.942			-1.981
32805.000			-5.941			-1.980
32904.000			-5.941			-1.980
33004.000			-5.940			-1.980
33104.000			-5.940			-1.980
33204.000			-5.939			-1.980
33303.000			-5.939			-1.980
33405.000			-5.939			-1.980
33504.000			-5.938			-1.979
33605.000			-5.937			-1.979
33704.000			-5.937			-1.979
33803.000			-5.937			-1.979
33905.000			-5.936			-1.979
34004.000			-5.936			-1.979
34104.000			-5.935			-1.978
34205.000			-5.934			-1.978
34304.000			-5.933			-1.978
34404.000			-5.933			-1.978
34504.000			-5.932			-1.977
34604.000			-5.932			-1.977
34704.000			-5.931			-1.977
34805.000			-5.931			-1.977
34904.000			-5.930			-1.977
35004.000			-5.930			-1.977
35105.000			-5.929			-1.976
35203.000			-5.929			-1.976
35304.000			-5.928			-1.976
35405.000			-5.928			-1.976
35504.000			-5.927			-1.976
35604.000			-5.925			-1.975
35705.000			-5.925			-1.975
35804.000			-5.925			-1.975
35903.000			-5.924			-1.975
36005.000			-5.923			-1.974
36104.000			-5.924			-1.975
36204.000			-5.924			-1.975
36305.000			-5.923			-1.974
36404.000			-5.923			-1.974
36504.000			-5.922			-1.974
36605.000			-5.922			-1.974
36704.000			-5.920			-1.973
36805.000			-5.919			-1.973
36904.000			-5.919			-1.973
37004.000			-5.918			-1.973
37104.000			-5.917			-1.972
37204.000			-5.917			-1.972
37304.000			-5.917			-1.972
37405.000			-5.918			-1.973
37504.000			-5.917			-1.972
37604.000			-5.916			-1.972
37705.000			-5.914			-1.971
37803.000			-5.914			-1.971
37904.000			-5.914			-1.971
38005.000			-5.914			-1.971
38104.000			-5.914			-1.971
38204.000			-5.914			-1.971
38305.000			-5.912			-1.971
38404.000			-5.911			-1.970
38503.000			-5.911			-1.970
38605.000			-5.910			-1.970
38704.000			-5.910			-1.970
38804.000			-5.909			-1.970
38905.000			-5.909			-1.970
39004.000			-5.909			-1.970
39104.000			-5.908			-1.969
39204.000			-5.907			-1.969
39304.000			-5.907			-1.969
39404.000			-5.907			-1.969
39505.000			-5.906			-1.969
39604.000			-5.906			-1.969
39704.000			-5.906			-1.969
39805.000			-5.906			-1.969
39903.000			-5.904			-1.968
40005.000			-5.903			-1.968
40104.000			-5.903			-1.968
40204.000			-5.903			-1.968
40305.000			-5.903			-1.968
40403.000			-5.903			-1.968
40504.000			-5.902			-1.967
40605.000			-5.901			-1.967
40704.000			-5.901			-1.967
40804.000			-5.900			-1.967
40905.000			-5.899			-1.966
41004.000			-5.899			-1.966
41103.000			-5.900			-1.967
41205.000			-5.900			-1.967
41304.000			-5.900			-1.967
41404.000			-5.900			-1.967
41505.000			-5.899			-1.966
41604.000			-5.897			-1.966
41704.000			-5.897			-1.966
41804.000			-5.898			-1.966
41904.000			-5.897			-1.966
42004.000			-5.896			-1.965
42105.000			-5.897			-1.966
42204.000			-5.896			-1.965
42304.000			-5.895			-1.965
42405.000			-5.895			-1.965
42503.000			-5.895			-1.965
42604.000			-5.895			-1.965
42705.000			-5.895			-1.965
42804.000			-5.894			-1.965
42904.000			-5.893			-1.964
43004.000			-5.893			-1.964
43104.000			-5.893			-1.964
43204.000			-5.892			-1.964
43304.000			-5.893			-1.964
43404.000			-5.892			-1.964
43505.000			-5.891			-1.964
43604.000			-5.890			-1.963
43704.000			-5.890			-1.963
43805.000			-5.890			-1.963
43903.000			-5.890			-1.963
44004.000			-5.889			-1.963
44105.000			-5.889			-1.963
44204.000			-5.889			-1.963
44304.000			-5.888			-1.963
44405.000			-5.888			-1.963
44504.000			-5.888			-1.963
44603.000			-5.888			-1.963
44705.000			-5.886			-1.962
44804.000			-5.886			-1.962
44904.000			-5.886			-1.962
45005.000			-5.886			-1.962
45104.000			-5.885			-1.962
45204.000			-5.884			-1.961
45304.000			-5.884			-1.961
45404.000			-5.885			-1.962
45504.000			-5.884			-1.961
45605.000			-5.883			-1.961
45704.000			-5.883			-1.961
45804.000			-5.882			-1.961
45905.000			-5.881			-1.960
46003.000			-5.882			-1.961
46104.000			-5.882			-1.961
46205.000			-5.881			-1.960
46304.000			-5.881			-1.960
46405.000			-5.880			-1.960
46504.000			-5.879			-1.960
46604.000			-5.880			-1.960
46704.000			-5.879			-1.960
46804.000			-5.877			-1.959
46904.000			-5.878			-1.959
47005.000			-5.878			-1.959
47104.000			-5.877			-1.959
47204.000			-5.877			-1.959
47305.000			-5.877			-1.959
47403.000			-5.876			-1.959
47504.000			-5.876			-1.959
47605.000			-5.876			-1.959
47704.000			-5.875			-1.958
47804.000			-5.875			-1.958
47905.000			-5.874			-1.958
48004.000			-5.874			-1.958
48103.000			-5.873			-1.958
48205.000			-5.873			-1.958
48304.000			-5.873			-1.958
48404.000			-5.873			-1.958
48505.000			-5.872			-1.957
48604.000			-5.872			-1.957
48704.000			-5.872			-1.957
48804.000			-5.870			-1.957
48904.000			-5.871			-1.957
49004.000			-5.871			-1.957
49105.000			-5.870			-1.957
49204.000			-5.871			-1.957
49304.000			-5.870			-1.957
49405.000			-5.869			-1.956
49503.000			-5.868			-1.956
49605.000			-5.868			-1.956
49704.000			-5.868			-1.956
49804.000			-5.869			-1.956
49905.000			-5.868			-1.956
50004.000			-5.867			-1.956
50104.000			-5.867			-1.956
50204.000			-5.866			-1.955
50304.000			-5.866			-1.955
50404.000			-5.865			-1.955
50505.000			-5.865			-1.955
50604.000			-5.865			-1.955
50704.000			-5.865			-1.955
50805.000			-5.864			-1.955
50903.000			-5.864			-1.955
51004.000			-5.863			-1.954
51105.000			-5.864			-1.955
51204.000			-5.863			-1.954
51304.000			-5.862			-1.954
51405.000			-5.863			-1.954
51504.000			-5.862			-1.954
51603.000			-5.863			-1.954
51705.000			-5.862			-1.954
51804.000			-5.861			-1.954
51904.000			-5.861			-1.954
52005.000			-5.860			-1.953
52104.000			-5.860			-1.953
52204.000			-5.859			-1.953
52304.000			-5.859			-1.953
52404.000			-5.859			-1.953
52504.000			-5.860			-1.953
52604.000			-5.859			-1.953
52704.000			-5.859			-1.953
52805.000			-5.858			-1.953
52904.000			-5.856			-1.952
53003.000			-5.857			-1.952
53105.000			-5.858			-1.953
53204.000			-5.857			-1.952
53304.000			-5.855			-1.952
53405.000			-5.856			-1.952
53504.000			-5.856			-1.952
53604.000			-5.855			-1.952
53704.000			-5.855			-1.952
53804.000			-5.854			-1.951
53904.000			-5.854			-1.951
54005.000			-5.853			-1.951
54104.000			-5.854			-1.951
54204.000			-5.853			-1.951
54305.000			-5.853			-1.951
54403.000			-5.852			-1.951
54504.000			-5.851			-1.950
54605.000			-5.851			-1.950
54704.000			-5.851			-1.950
54804.000			-5.851			-1.950
54905.000			-5.850			-1.950
55004.000			-5.850			-1.950
55103.000			-5.850			-1.950
55205.000			-5.848			-1.949
55304.000			-5.849			-1.950
55404.000			-5.848			-1.949
55505.000			-5.848			-1.949
55604.000			-5.847			-1.949
55704.000			-5.847			-1.949
55803.000			-5.847			-1.949
55904.000			-5.846			-1.949
56005.000			-5.846			-1.949
56104.000			-5.845			-1.948
56204.000			-5.844			-1.948
56304.000			-5.844			-1.948
56404.000			-5.844			-1.948
56503.000			-5.844			-1.948
56605.000			-5.843			-1.948
56704.000			-5.842			-1.947
56804.000			-5.843			-1.948
56905.000			-5.843			-1.948
57003.000			-5.842			-1.947
57104.000			-5.842			-1.947
57205.000			-5.842			-1.947
57304.000			-5.842			-1.947
57404.000			-5.839			-1.946
57505.000			-5.840			-1.947
57604.000			-5.840			-1.947
57703.000			-5.840			-1.947
57805.000			-5.840			-1.947
57904.000			-5.839			-1.946
58004.000			-5.839			-1.946
58105.000			-5.838			-1.946
58204.000			-5.839			-1.946
58304.000			-5.838			-1.946
58404.000			-5.837			-1.946
58504.000			-5.838			-1.946
58604.000			-5.837			-1.946
58705.000			-5.837			-1.946
58804.000			-5.836			-1.945
58904.000			-5.836			-1.945
59005.000			-5.836			-1.945
59103.000			-5.836			-1.945
59205.000			-5.835			-1.945
59304.000			-5.835			-1.945
59404.000			-5.834			-1.945
59505.000			-5.835			-1.945
59604.000			-5.834			-1.945
59704.000			-5.833			-1.944
59804.000			-5.832			-1.944
59904.000			-5.832			-1.944
60003.000			-5.832			-1.944
60105.000			-5.832			-1.944
60204.000			-5.832			-1.944
60304.000			-5.832			-1.944
60405.000			-5.832			-1.944
60503.000			-5.831			-1.944
60604.000			-5.831			-1.944
60705.000			-5.831			-1.944
60804.000			-5.830			-1.943
60904.000			-5.831			-1.944
61005.000			-5.830			-1.943
61104.000			-5.830			-1.943
61203.000			-5.830			-1.943
61305.000			-5.831			-1.944
61404.000			-5.830			-1.943
61504.000			-5.830			-1.943
61605.000			-5.829			-1.943
61704.000			-5.830			-1.943
61804.000			-5.829			-1.943
61904.000			-5.829			-1.943
62004.000			-5.828			-1.943
62104.000			-5.828			-1.943
62204.000			-5.829			-1.943
62304.000			-5.828			-1.943
62405.000			-5.827			-1.942
62504.000			-5.828			-1.943
62603.000			-5.827			-1.942
62705.000			-5.826			-1.942
62804.000			-5.826			-1.942
62904.000			-5.827			-1.942
63005.000			-5.825			-1.942
63104.000			-5.825			-1.942
63204.000			-5.826			-1.942
63304.000			-5.825			-1.942
63404.000			-5.825			-1.942
63504.000			-5.825			-1.942
63605.000			-5.825			-1.942
63704.000			-5.825			-1.942
63804.000			-5.825			-1.942
63905.000			-5.823			-1.941
64003.000			-5.824			-1.941
64104.000			-5.823			-1.941
64205.000			-5.823			-1.941
64304.000			-5.822			-1.941
64404.000			-5.822			-1.941
64504.000			-5.821			-1.940
64604.000			-5.821			-1.940
64704.000			-5.821			-1.940
64805.000			-5.822			-1.941
64904.000			-5.822			-1.941
65004.000			-5.822			-1.941
65105.000			-5.820			-1.940
65203.000			-5.820			-1.940
65304.000			-5.819			-1.940
65405.000			-5.820			-1.940
65504.000			-5.820			-1.940
65605.000			-5.820			-1.940
65704.000			-5.819			-1.940
65804.000			-5.819			-1.940
65904.000			-5.819			-1.940
66004.000			-5.819			-1.940
66104.000			-5.818			-1.939
66205.000			-5.818			-1.939
66304.000			-5.817			-1.939
66404.000			-5.817			-1.939
66505.000			-5.816			-1.939
66603.000			-5.816			-1.939
66704.000			-5.815			-1.938
66805.000			-5.815			-1.938
66904.000			-5.815			-1.938
67004.000			-5.816			-1.939
67105.000			-5.816			-1.939
67204.000			-5.815			-1.938
67303.000			-5.814			-1.938
67405.000			-5.814			-1.938
67504.000			-5.815			-1.938
67604.000			-5.813			-1.938
67705.000			-5.813			-1.938
67804.000			-5.813			-1.938
67904.000			-5.813			-1.938
68004.000			-5.812			-1.937
68104.000			-5.812			-1.937
68204.000			-5.813			-1.938
68305.000			-5.813			-1.938
68404.000			-5.811			-1.937
68504.000			-5.812			-1.937
68605.000			-5.811			-1.937
68703.000			-5.812			-1.937
68805.000			-5.811			-1.937
68904.000			-5.811			-1.937
69004.000			-5.810			-1.937
69105.000			-5.811			-1.937
69204.000			-5.810			-1.937
69304.000			-5.810			-1.937
69404.000			-5.809			-1.936
69504.000			-5.809			-1.936
69603.000			-5.809			-1.936
69705.000			-5.810			-1.937
69804.000			-5.809			-1.936
69904.000			-5.808			-1.936
70005.000			-5.807			-1.936
70104.000			-5.808			-1.936
70204.000			-5.807			-1.936
70304.000			-5.806			-1.935
70404.000			-5.807			-1.936
70504.000			-5.806			-1.935
70605.000			-5.806			-1.935
70704.000			-5.807			-1.936
70803.000			-5.806			-1.935
70905.000			-5.805			-1.935
71004.000			-5.804			-1.935
71104.000			-5.804			-1.935
71205.000			-5.806			-1.935
71304.000			-5.805			-1.935
71404.000			-5.804			-1.935
71504.000			-5.804			-1.935
71604.000			-5.805			-1.935
71704.000			-5.803			-1.934
71804.000			-5.804			-1.935
71904.000			-5.804			-1.935
72005.000			-5.803			-1.934
72104.000			-5.802			-1.934
72203.000			-5.802			-1.934
72305.000			-5.803			-1.934
72404.000			-5.802			-1.934
72504.000			-5.802			-1.934
72605.000			-5.801			-1.934
72704.000			-5.802			-1.934
72804.000			-5.801			-1.934
72904.000			-5.801			-1.934
73004.000			-5.801			-1.934
73104.000			-5.800			-1.933
73205.000			-5.799			-1.933
73304.000			-5.800			-1.933
73404.000			-5.800			-1.933
73505.000			-5.799			-1.933
73603.000			-5.799			-1.933
73704.000			-5.799			-1.933
73805.000			-5.798			-1.933
73904.000			-5.799			-1.933
74004.000			-5.800			-1.933
74105.000			-5.800			-1.933
74204.000			-5.798			-1.933
74303.000			-5.798			-1.933
74405.000			-5.798			-1.933
74504.000			-5.798			-1.933
74604.000			-5.797			-1.932
74705.000			-5.797			-1.932
74804.000			-5.797			-1.932
74904.000			-5.797			-1.932
75003.000			-5.796			-1.932
75104.000			-5.796			-1.932
75205.000			-5.796			-1.932
75304.000			-5.796			-1.932
75404.000			-5.796			-1.932
75505.000			-5.795			-1.932
75604.000			-5.795			-1.932
75703.000			-5.794			-1.931
75805.000			-5.795			-1.932
75904.000			-5.795			-1.932
76004.000			-5.794			-1.931
76105.000			-5.795			-1.932
76204.000			-5.795			-1.932
76304.000			-5.794			-1.931
76404.000			-5.793			-1.931
76504.000			-5.793			-1.931
76603.000			-5.792			-1.931
76705.000			-5.792			-1.931
76804.000			-5.792			-1.931
76904.000			-5.791			-1.930
77005.000			-5.791			-1.930
77104.000			-5.791			-1.930
77204.000			-5.791			-1.930
77304.000			-5.790			-1.930
77404.000			-5.790			-1.930
77504.000			-5.789			-1.930
77605.000			-5.790			-1.930
77704.000			-5.791			-1.930
77804.000			-5.790			-1.930
77905.000			-5.789			-1.930
78003.000			-5.789			-1.930
78104.000			-5.788			-1.929
78205.000			-5.788			-1.929
78304.000			-5.788			-1.929
78405.000			-5.788			-1.929
78504.000			-5.788			-1.929
78604.000			-5.787			-1.929
78704.000			-5.787			-1.929
78804.000			-5.786			-1.929
78904.000			-5.785			-1.928
79005.000			-5.786			-1.929
79104.000			-5.787			-1.929
79204.000			-5.786			-1.929
79305.000			-5.786			-1.929
79403.000			-5.786			-1.929
79504.000			-5.787			-1.929
79604.000			-5.787			-1.929
79704.000			-5.786			-1.929
79804.000			-5.785			-1.928
79905.000			-5.786			-1.929
80004.000			-5.784			-1.928
80104.000			-5.784			-1.928
80205.000			-5.784			-1.928
80303.000			-5.784			-1.928
80404.000			-5.784			-1.928
80505.000			-5.783			-1.928
80604.000			-5.783			-1.928
80704.000			-5.783			-1.928
80805.000			-5.783			-1.928
80904.000			-5.782			-1.927
81003.000			-5.782			-1.927
81105.000			-5.783			-1.928
81204.000			-5.782			-1.927
81304.000			-5.782			-1.927
81405.000			-5.782			-1.927
81504.000			-5.781			-1.927
81605.000			-5.781			-1.927
81703.000			-5.781			-1.927
81804.000			-5.780			-1.927
81905.000			-5.780			-1.927
82004.000			-5.781			-1.927
82104.000			-5.780			-1.927
82205.000			-5.780			-1.927
82304.000			-5.779			-1.926
82403.000			-5.779			-1.926
82505.000			-5.779			-1.926
82604.000			-5.779			-1.926
82704.000			-5.779			-1.926
82805.000			-5.779			-1.926
82904.000			-5.779			-1.926
83004.000			-5.778			-1.926
83104.000			-5.777			-1.926
83204.000			-5.777			-1.926
83304.000			-5.777			-1.926
83405.000			-5.777			-1.926
83504.000			-5.776			-1.925
83604.000			-5.776			-1.925
83705.000			-5.777			-1.926
83803.000			-5.776			-1.925
83904.000			-5.777			-1.926
84005.000			-5.776			-1.925
84104.000			-5.776			-1.925
84204.000			-5.775			-1.925
84305.000			-5.775			-1.925
84404.000			-5.774			-1.925
84503.000			-5.774			-1.925
84605.000			-5.774			-1.925
84704.000			-5.774			-1.925
84805.000			-5.773			-1.924
84904.000			-5.774			-1.925
85004.000			-5.774			-1.925
85105.000			-5.773			-1.924
85203.000			-5.773			-1.924
85304.000			-5.774			-1.925
85405.000			-5.774			-1.925
85504.000			-5.774			-1.925
85604.000			-5.774			-1.925
85705.000			-5.773			-1.924
85804.000			-5.772			-1.924
85903.000			-5.772			-1.924
86005.000			-5.771			-1.924
86103.000			-5.771			-1.924
86204.000			-5.772			-1.924
86305.000			-5.771			-1.924
86404.000			-5.770			-1.923
86504.000			-5.772			-1.924
86605.000			-5.771			-1.924
86704.000			-5.771			-1.924
86803.000			-5.771			-1.924
86905.000			-5.770			-1.923
87004.000			-5.770			-1.923
87104.000			-5.770			-1.923
87205.000			-5.770			-1.923
87304.000			-5.768			-1.923
87404.000			-5.768			-1.923
87504.000			-5.769			-1.923
87604.000			-5.769			-1.923
87704.000			-5.770			-1.923
87804.000			-5.768			-1.923
87904.000			-5.767			-1.922
88005.000			-5.767			-1.922
88104.000			-5.767			-1.922
88203.000			-5.768			-1.923
88305.000			-5.767			-1.922
88404.000			-5.768			-1.923
88504.000			-5.767			-1.922
88605.000			-5.766			-1.922
88704.000			-5.766			-1.922
88804.000			-5.766			-1.922
88905.000			-5.766			-1.922
89004.000			-5.766			-1.922
89103.000			-5.766			-1.922
89205.000			-5.765			-1.922
89304.000			-5.765			-1.922
89404.000			-5.766			-1.922
89505.000			-5.765			-1.922
89604.000			-5.765			-1.922
89704.000			-5.765			-1.922
89804.000			-5.766			-1.922
89904.000			-5.765			-1.922
90004.000			-5.764			-1.921
90105.000			-5.764			-1.921
90204.000			-5.764			-1.921
90304.000			-5.764			-1.921
90405.000			-5.763			-1.921
90503.000			-5.764			-1.921
90604.000			-5.763			-1.921
90705.000			-5.764			-1.921
90804.000			-5.763			-1.921
90904.000			-5.762			-1.921
91004.000			-5.763			-1.921
91104.000			-5.762			-1.921
91204.000			-5.761			-1.920
91304.000			-5.761			-1.920
91404.000			-5.762			-1.921
91505.000			-5.761			-1.920
91604.000			-5.761			-1.920
91704.000			-5.760			-1.920
91805.000			-5.761			-1.920
91903.000			-5.761			-1.920
92004.000			-5.760			-1.920
92105.000			-5.760			-1.920
92204.000			-5.760			-1.920
92304.000			-5.760			-1.920
92405.000			-5.762			-1.921
92504.000			-5.761			-1.920
92603.000			-5.761			-1.920
92705.000			-5.760			-1.920
92804.000			-5.759			-1.920
92904.000			-5.758			-1.919
93005.000			-5.759			-1.920
93104.000			-5.759			-1.920
93204.000			-5.759			-1.920
93304.000			-5.758			-1.919
93404.000			-5.758			-1.919
93504.000			-5.757			-1.919
93605.000			-5.757			-1.919
93704.000			-5.757			-1.919
93804.000			-5.757			-1.919
93905.000			-5.757			-1.919
94003.000			-5.756			-1.919
94104.000			-5.755			-1.918
94205.000			-5.756			-1.919
94304.000			-5.756			-1.919
94405.000			-5.756			-1.919
94504.000			-5.757			-1.919
94604.000			-5.755			-1.918
94704.000			-5.755			-1.918
94804.000			-5.755			-1.918
94904.000			-5.756			-1.919
95005.000			-5.756			-1.919
95104.000			-5.754			-1.918
95204.000			-5.755			-1.918
95305.000			-5.755			-1.918
95403.000			-5.755			-1.918
95504.000			-5.754			-1.918
95605.000			-5.754			-1.918
95704.000			-5.754			-1.918
95804.000			-5.754			-1.918
95905.000			-5.754			-1.918
96004.000			-5.753			-1.918
96103.000			-5.753			-1.918
96205.000			-5.753			-1.918
96304.000			-5.753			-1.918
96404.000			-5.752			-1.917
96505.000			-5.752			-1.917
96604.000			-5.753			-1.918
96704.000			-5.753			-1.918
96804.000			-5.752			-1.917
96904.000			-5.752			-1.917
97004.000			-5.753			-1.918
97105.000			-5.752			-1.917
97204.000			-5.751			-1.917
97304.000			-5.752			-1.917
97405.000			-5.751			-1.917
97503.000			-5.751			-1.917
97605.000			-5.751			-1.917
97704.000			-5.751			-1.917
97804.000			-5.751			-1.917
97905.000			-5.750			-1.917
98004.000			-5.749			-1.916
98104.000			-5.748			-1.916
98204.000			-5.749			-1.916
98304.000			-5.749			-1.916
98404.000			-5.749			-1.916
98505.000			-5.749			-1.916
98604.000			-5.749			-1.916
98704.000			-5.749			-1.916
98805.000			-5.749			-1.916
98904.000			-5.749			-1.916
99004.000			-5.749			-1.916
99104.000			-5.748			-1.916
99204.000			-5.748			-1.916
99304.000			-5.748			-1.916
99405.000			-5.748			-1.916
99504.000			-5.747			-1.916
99604.000			-5.747			-1.916
99705.000			-5.748			-1.916
99803.000			-5.747			-1.916
99904.000			-5.747			-1.916
100005.000			-5.748			-1.916
100104.000			-5.746			-1.915
100204.000			-5.746			-1.915
100305.000			-5.747			-1.916
100404.000			-5.746			-1.915
100503.000			-5.744			-1.915
100605.000			-5.745			-1.915
100704.000			-5.745			-1.915
100805.000			-5.746			-1.915
100904.000			-5.746			-1.915
101004.000			-5.746			-1.915
101105.000			-5.746			-1.915
101203.000			-5.745			-1.915
101304.000			-5.745			-1.915
101405.000			-5.744			-1.915
101504.000			-5.744			-1.915
101604.000			-5.745			-1.915
101705.000			-5.744			-1.915
101804.000			-5.743			-1.914
101903.000			-5.745			-1.915
102005.000			-5.744			-1.915
102104.000			-5.743			-1.914
102204.000			-5.742			-1.914
102305.000			-5.742			-1.914
102404.000			-5.743			-1.914
102504.000			-5.743			-1.914
102604.000			-5.742			-1.914
102704.000			-5.742			-1.914
102804.000			-5.742			-1.914
102905.000			-5.741			-1.914
103004.000			-5.741			-1.914
103104.000			-5.742			-1.914
103205.000			-5.741			-1.914
103303.000			-5.741			-1.914
103404.000			-5.739			-1.913
103505.000			-5.740			-1.913
103604.000			-5.740			-1.913
103704.000			-5.740			-1.913
103804.000			-5.740			-1.913
103904.000			-5.739			-1.913
104004.000			-5.739			-1.913
104104.000			-5.739			-1.913
104204.000			-5.739			-1.913
104305.000			-5.739			-1.913
104404.000			-5.739			-1.913
104504.000			-5.739			-1.913
104605.000			-5.739			-1.913
104703.000			-5.738			-1.913
104804.000			-5.738			-1.913
104905.000			-5.737			-1.912
105004.000			-5.737			-1.912
105104.000			-5.738			-1.913
105205.000			-5.738			-1.913
105304.000			-5.737			-1.912
105404.000			-5.738			-1.913
105505.000			-5.737			-1.912
105603.000			-5.738			-1.913
105704.000			-5.737			-1.912
105805.000			-5.737			-1.912
105904.000			-5.738			-1.913
106004.000			-5.738			-1.913
106105.000			-5.737			-1.912
106204.000			-5.736			-1.912
106303.000			-5.737			-1.912
106405.000			-5.736			-1.912
106504.000			-5.736			-1.912
106604.000			-5.736			-1.912
106705.000			-5.736			-1.912
106804.000			-5.737			-1.912
106904.000			-5.737			-1.912
107003.000			-5.735			-1.912
107104.000			-5.734			-1.911
107205.000			-5.734			-1.911
107304.000			-5.735			-1.912
107404.000			-5.735			-1.912
107505.000			-5.734			-1.911
107604.000			-5.734			-1.911
107703.000			-5.734			-1.911
107805.000			-5.733			-1.911
107904.000			-5.732			-1.911
108004.000			-5.732			-1.911
108105.000			-5.733			-1.911
108204.000			-5.734			-1.911
108304.000			-5.733			-1.911
108405.000			-5.732			-1.911
108504.000			-5.732			-1.911
108603.000			-5.732			-1.911
108705.000			-5.732			-1.911
108804.000			-5.731			-1.910
108904.000			-5.730			-1.910
109005.000			-5.731			-1.910
109104.000			-5.731			-1.910
109204.000			-5.731			-1.910
109304.000			-5.730			-1.910
109404.000			-5.729			-1.910
109504.000			-5.730			-1.910
109605.000			-5.731			-1.910
109704.000			-5.730			-1.910
109804.000			-5.730			-1.910
109905.000			-5.730			-1.910
110003.000			-5.729			-1.910
110104.000			-5.730			-1.910
110205.000			-5.730			-1.910
110304.000			-5.729			-1.910
110405.000			-5.729			-1.910
110504.000			-5.728			-1.909
110604.000			-5.728			-1.909
110704.000			-5.728			-1.909
110804.000			-5.729			-1.910
110904.000			-5.729			-1.910
111005.000			-5.728			-1.909
111104.000			-5.729			-1.910
111204.000			-5.729			-1.910
111305.000			-5.728			-1.909
111403.000			-5.728			-1.909
111504.000			-5.727			-1.909
111605.000			-5.727			-1.909
111704.000			-5.727			-1.909
111804.000			-5.727			-1.909
111905.000			-5.728			-1.909
112004.000			-5.727			-1.909
112103.000			-5.727			-1.909
112205.000			-5.727			-1.909
112304.000			-5.726			-1.909
112404.000			-5.726			-1.909
112505.000			-5.726			-1.909
112604.000			-5.726			-1.909
112704.000			-5.726			-1.909
112804.000			-5.726			-1.909
112904.000			-5.724			-1.908
113004.000			-5.725			-1.908
113105.000			-5.726			-1.909
113204.000			-5.725			-1.908
113304.000			-5.725			-1.908
113405.000			-5.726			-1.909
113503.000			-5.725			-1.908
113605.000			-5.724			-1.908
113704.000			-5.726			-1.909
113804.000			-5.726			-1.909
113905.000			-5.724			-1.908
114004.000			-5.723			-1.908
114104.000			-5.724			-1.908
114204.000			-5.724			-1.908
114304.000			-5.723			-1.908
114403.000			-5.722			-1.907
114505.000			-5.723			-1.908
114604.000			-5.724			-1.908
114704.000			-5.722			-1.907
114805.000			-5.723			-1.908
114904.000			-5.723			-1.908
115004.000			-5.722			-1.907
115104.000			-5.722			-1.907
115204.000			-5.722			-1.907
115304.000			-5.721			-1.907
115405.000			-5.722			-1.907
115504.000			-5.721			-1.907
115604.000			-5.720			-1.907
115705.000			-5.721			-1.907
115803.000			-5.721			-1.907
115904.000			-5.719			-1.906
116005.000			-5.720			-1.907
116104.000			-5.719			-1.906
116204.000			-5.719			-1.906
116305.000			-5.719			-1.906
116404.000			-5.718			-1.906
116503.000			-5.718			-1.906
116605.000			-5.718			-1.906
116704.000			-5.719			-1.906
116805.000			-5.718			-1.906
116904.000			-5.718			-1.906
117004.000			-5.718			-1.906
117105.000			-5.718			-1.906
117203.000			-5.719			-1.906
117304.000			-5.718			-1.906
117405.000			-5.718			-1.906
117504.000			-5.718			-1.906
117604.000			-5.717			-1.906
117705.000			-5.717			-1.906
117804.000			-5.717			-1.906
117904.000			-5.717			-1.906
118005.000			-5.718			-1.906
118103.000			-5.718			-1.906
118204.000			-5.718			-1.906
118305.000			-5.717			-1.906
118404.000			-5.717			-1.906
118504.000			-5.717			-1.906
118605.000			-5.717			-1.906
118704.000			-5.717			-1.906
118803.000			-5.716			-1.905
118905.000			-5.715			-1.905
119004.000			-5.716			-1.905
119104.000			-5.715			-1.905
119205.000			-5.716			-1.905
119304.000			-5.716			-1.905
119404.000			-5.715			-1.905
119504.000			-5.716			-1.905
119604.000			-5.716			-1.905
119704.000			-5.716			-1.905
119804.000			-5.715			-1.905
119904.000			-5.714			-1.905
120005.000			-5.715			-1.905
120104.000			-5.715			-1.905
120203.000			-5.714			-1.905
120305.000			-5.715			-1.905
120404.000			-5.714			-1.905
120504.000			-5.714			-1.905
120605.000			-5.714			-1.905
120704.000			-5.715			-1.905
120804.000			-5.715			-1.905
120904.000			-5.714			-1.905
121004.000			-5.714			-1.905
121104.000			-5.714			-1.905
121205.000			-5.713			-1.904
121304.000			-5.714			-1.905
121404.000			-5.714			-1.905
121505.000			-5.714			-1.905
121603.000			-5.713			-1.904
121704.000			-5.713			-1.904
121805.000			-5.714			-1.905
121904.000			-5.713			-1.904
122004.000			-5.712			-1.904
122105.000			-5.712			-1.904
122204.000			-5.712			-1.904
122303.000			-5.712			-1.904
122405.000			-5.712			-1.904
122504.000			-5.712			-1.904
122604.000			-5.713			-1.904
122705.000			-5.713			-1.904
122804.000			-5.713			-1.904
122904.000			-5.713			-1.904
123003.000			-5.712			-1.904
123104.000			-5.710			-1.903
123205.000			-5.710			-1.903
123304.000			-5.710			-1.903
123404.000			-5.711			-1.904
123505.000			-5.711			-1.904
123604.000			-5.710			-1.903
123703.000			-5.710			-1.903
123805.000			-5.710			-1.903
123904.000			-5.710			-1.903
124004.000			-5.710			-1.903
124105.000			-5.710			-1.903
124204.000			-5.709			-1.903
124304.000			-5.709			-1.903
124404.000			-5.709			-1.903
124504.000			-5.709			-1.903
124603.000			-5.709			-1.903
124705.000			-5.709			-1.903
124804.000			-5.708			-1.903
124904.000			-5.708			-1.903
125005.000			-5.708			-1.903
125104.000			-5.708			-1.903
125204.000			-5.708			-1.903
125304.000			-5.708			-1.903
125404.000			-5.707			-1.902
125504.000			-5.707			-1.902
125605.000			-5.707			-1.902
125704.000			-5.707			-1.902
125804.000			-5.707			-1.902
125905.000			-5.707			-1.902
126003.000			-5.707			-1.902
126104.000			-5.707			-1.902
126205.000			-5.707			-1.902
126304.000			-5.707			-1.902
126405.000			-5.708			-1.903
126504.000			-5.708			-1.903
126604.000			-5.707			-1.902
126704.000			-5.705			-1.902
126804.000			-5.705			-1.902
126904.000			-5.706			-1.902
127005.000			-5.706			-1.902
127104.000			-5.705			-1.902
127204.000			-5.705			-1.902
127305.000			-5.706			-1.902
127403.000			-5.706			-1.902
127504.000			-5.705			-1.902
127605.000			-5.705			-1.902
127704.000			-5.705			-1.902
127804.000			-5.705			-1.902
127905.000			-5.706			-1.902
128004.000			-5.705			-1.902
128103.000			-5.704			-1.901
128205.000			-5.703			-1.901
128304.000			-5.704			-1.901
128404.000			-5.704			-1.901
128505.000			-5.704			-1.901
128604.000			-5.703			-1.901
128704.000			-5.704			-1.901
128804.000			-5.704			-1.901
128904.000			-5.703			-1.901
129004.000			-5.703			-1.901
129105.000			-5.703			-1.901
129204.000			-5.703			-1.901
129304.000			-5.703			-1.901
129405.000			-5.702			-1.901
129503.000			-5.703			-1.901
129605.000			-5.702			-1.901
129704.000			-5.702			-1.901
129804.000			-5.702			-1.901
129905.000			-5.702			-1.901
130004.000			-5.702			-1.901
130104.000			-5.702			-1.901
130204.000			-5.703			-1.901
130304.000			-5.702			-1.901
130403.000			-5.701			-1.900
130505.000			-5.701			-1.900
130604.000			-5.701			-1.900
130704.000			-5.701			-1.900
130805.000			-5.700			-1.900
130903.000			-5.700			-1.900
131004.000			-5.701			-1.900
131105.000			-5.699			-1.900
131204.000			-5.700			-1.900
131304.000			-5.700			-1.900
131405.000			-5.700			-1.900
131504.000			-5.700			-1.900
131604.000			-5.698			-1.899
131705.000			-5.698			-1.899
131803.000			-5.699			-1.900
131904.000			-5.700			-1.900
132005.000			-5.699			-1.900
132104.000			-5.699			-1.900
132204.000			-5.698			-1.899
132305.000			-5.698			-1.899
132404.000			-5.698			-1.899
132504.000			-5.698			-1.899
132605.000			-5.697			-1.899
132703.000			-5.697			-1.899
132805.000			-5.698			-1.899
132904.000			-5.698			-1.899
133004.000			-5.698			-1.899
133105.000			-5.697			-1.899
133204.000			-5.697			-1.899
133304.000			-5.697			-1.899
133405.000			-5.697			-1.899
133504.000			-5.697			-1.899
133603.000			-5.697			-1.899
133705.000			-5.696			-1.899
133804.000			-5.696			-1.899
133904.000			-5.696			-1.899
134005.000			-5.696			-1.899
134104.000			-5.697			-1.899
134204.000			-5.696			-1.899
134305.000			-5.696			-1.899
134404.000			-5.696			-1.899
134503.000			-5.697			-1.899
134605.000			-5.696			-1.899
134704.000			-5.695			-1.898
134804.000			-5.696			-1.899
134905.000			-5.696			-1.899
135004.000			-5.695			-1.898
135104.000			-5.695			-1.898
135205.000			-5.695			-1.898
135304.000			-5.696			-1.899
135403.000			-5.695			-1.898
135505.000			-5.694			-1.898
135604.000			-5.694			-1.898
135704.000			-5.693			-1.898
135805.000			-5.693			-1.898
135904.000			-5.693			-1.898
136005.000			-5.693			-1.898
136104.000			-5.692			-1.897
136204.000			-5.691			-1.897
136304.000			-5.692			-1.897
136404.000			-5.691			-1.897
136503.000			-5.691			-1.897
136605.000			-5.691			-1.897
136704.000			-5.691			-1.897
136804.000			-5.691			-1.897
136905.000			-5.690			-1.897
137004.000			-5.690			-1.897
137104.000			-5.690			-1.897
137204.000			-5.689			-1.896
137304.000			-5.689			-1.896
137403.000			-5.690			-1.897
137505.000			-5.690			-1.897
137604.000			-5.690			-1.897
137704.000			-5.689			-1.896
137805.000			-5.689			-1.896
137904.000			-5.689			-1.896
138004.000			-5.689			-1.896
138104.000			-5.689			-1.896
138204.000			-5.690			-1.897
138303.000			-5.690			-1.897
138405.000			-5.689			-1.896
138504.000			-5.689			-1.896
138604.000			-5.690			-1.897
138705.000			-5.689			-1.896
138804.000			-5.690			-1.897
138904.000			-5.690			-1.897
139004.000			-5.689			-1.896
139104.000			-5.689			-1.896
139204.000			-5.690			-1.897
139304.000			-5.689			-1.896
139404.000			-5.688			-1.896
139505.000			-5.689			-1.896
139604.000			-5.689			-1.896
139704.000			-5.689			-1.896
139805.000			-5.688			-1.896
139904.000			-5.688			-1.896
140004.000			-5.689			-1.896
140104.000			-5.689			-1.896
140204.000			-5.689			-1.896
140303.000			-5.689			-1.896
140405.000			-5.689			-1.896
140504.000			-5.688			-1.896
140604.000			-5.688			-1.896
140705.000			-5.688			-1.896
140804.000			-5.688			-1.896
140904.000			-5.688			-1.896
141004.000			-5.689			-1.896
141104.000			-5.688			-1.896
141203.000			-5.687			-1.896
141305.000			-5.688			-1.896
141404.000			-5.687			-1.896
141504.000			-5.687			-1.896
141605.000			-5.687			-1.896
141704.000			-5.686			-1.895
141804.000			-5.687			-1.896
141904.000			-5.687			-1.896
142004.000			-5.686			-1.895
142103.000			-5.686			-1.895
142205.000			-5.687			-1.896
142304.000			-5.686			-1.895
142405.000			-5.687			-1.896
142504.000			-5.687			-1.896
142604.000			-5.687			-1.896
142705.000			-5.686			-1.895
142803.000			-5.686			-1.895
142904.000			-5.685			-1.895
143004.000			-5.686			-1.895
143104.000			-5.685			-1.895
143204.000			-5.685			-1.895
143305.000			-5.685			-1.895
143404.000			-5.684			-1.895
143504.000			-5.685			-1.895
143605.000			-5.684			-1.895
143703.000			-5.685			-1.895
143804.000			-5.685			-1.895
143904.000			-5.684			-1.895
144004.000			-5.684			-1.895
144104.000			-5.684			-1.895
144205.000			-5.683			-1.894
144304.000			-5.684			-1.895
144404.000			-5.684			-1.895
144505.000			-5.682			-1.894
144603.000			-5.682			-1.894
144704.000			-5.683			-1.894
144804.000			-5.683			-1.894
144904.000			-5.683			-1.894
145004.000			-5.683			-1.894
145105.000			-5.682			-1.894
145204.000			-5.682			-1.894
145304.000			-5.683			-1.894
145405.000			-5.683			-1.894
145503.000			-5.682			-1.894
145605.000			-5.682			-1.894
145704.000			-5.682			-1.894
145804.000			-5.681			-1.894
145905.000			-5.681			-1.894
146004.000			-5.681			-1.894
146104.000			-5.681			-1.894
146205.000			-5.681			-1.894
146304.000			-5.680			-1.893
146403.000			-5.680			-1.893
146505.000			-5.679			-1.893
146604.000			-5.680			-1.893
146704.000			-5.680			-1.893
146805.000			-5.680			-1.893
146904.000			-5.680			-1.893
147004.000			-5.680			-1.893
147105.000			-5.678			-1.893
147204.000			-5.677			-1.892
147303.000			-5.678			-1.893
147405.000			-5.679			-1.893
147504.000			-5.678			-1.893
147604.000			-5.677			-1.892
147705.000			-5.678			-1.893
147804.000			-5.678			-1.893
147904.000			-5.678			-1.893
148005.000			-5.678			-1.893
148104.000			-5.678			-1.893
148203.000			-5.678			-1.893
148305.000			-5.677			-1.892
148404.000			-5.678			-1.893
148504.000			-5.678			-1.893
148605.000			-5.677			-1.892
148704.000			-5.677			-1.892
148805.000			-5.677			-1.892
148904.000			-5.677			-1.892
149004.000			-5.676			-1.892
149104.000			-5.676			-1.892
149204.000			-5.677			-1.892
149303.000			-5.676			-1.892
149405.000			-5.677			-1.892
149504.000			-5.677			-1.892
149604.000			-5.676			-1.892
149705.000			-5.676			-1.892
149804.000			-5.677			-1.892
149904.000			-5.677			-1.892
150005.000			-5.676			-1.892
150104.000			-5.676			-1.892
150203.000			-5.676			-1.892
150305.000			-5.675			-1.892
150404.000			-5.676			-1.892
150504.000			-5.676			-1.892
150605.000			-5.676			-1.892
150704.000			-5.677			-1.892
150804.000			-5.677			-1.892
150904.000			-5.676			-1.892
151004.000			-5.677			-1.892
151103.000			-5.676			-1.892
151205.000			-5.676			-1.892
151304.000			-5.676			-1.892
151404.000			-5.675			-1.892
151505.000			-5.675			-1.892
151604.000			-5.675			-1.892
151704.000			-5.675			-1.892
151803.000			-5.675			-1.892
151904.000			-5.675			-1.892
152004.000			-5.675			-1.892
152104.000			-5.675			-1.892
152204.000			-5.675			-1.892
152305.000			-5.676			-1.892
152404.000			-5.675			-1.892
152504.000			-5.675			-1.892
152605.000			-5.674			-1.891
152703.000			-5.675			-1.892
152804.000			-5.675			-1.892
152904.000			-5.674			-1.891
153004.000			-5.674			-1.891
153104.000			-5.675			-1.892
153205.000			-5.675			-1.892
153304.000			-5.674			-1.891
153404.000			-5.674			-1.891
153505.000			-5.675			-1.892
153603.000			-5.674			-1.891
153704.000			-5.674			-1.891
153804.000			-5.673			-1.891
153904.000			-5.674			-1.891
154004.000			-5.673			-1.891
154105.000			-5.674			-1.891
154204.000			-5.673			-1.891
154304.000			-5.674			-1.891
154405.000			-5.673			-1.891
154503.000			-5.672			-1.891
154604.000			-5.673			-1.891
154704.000			-5.674			-1.891
154804.000			-5.673			-1.891
154904.000			-5.673			-1.891
155004.000			-5.672			-1.891
155104.000			-5.673			-1.891
155205.000			-5.673			-1.891
155304.000			-5.673			-1.891
155403.000			-5.673			-1.891
155505.000			-5.673			-1.891
155603.000			-5.672			-1.891
155704.000			-5.672			-1.891
155805.000			-5.672			-1.891
155904.000			-5.671			-1.890
156004.000			-5.671			-1.890
156105.000			-5.671			-1.890
156204.000			-5.671			-1.890
156303.000			-5.672			-1.891
156405.000			-5.672			-1.891
156503.000			-5.671			-1.890
156604.000			-5.671			-1.890
156705.000			-5.671			-1.890
156804.000			-5.671			-1.890
156904.000			-5.672			-1.891
157005.000			-5.672			-1.891
157104.000			-5.671			-1.890
157203.000			-5.671			-1.890
157305.000			-5.670			-1.890
157403.000			-5.670			-1.890
157504.000			-5.670			-1.890
157605.000			-5.669			-1.890
157704.000			-5.669			-1.890
157804.000			-5.669			-1.890
157905.000			-5.670			-1.890
158004.000			-5.670			-1.890
158104.000			-5.670			-1.890
158205.000			-5.669			-1.890
158303.000			-5.668			-1.889
158405.000			-5.670			-1.890
158504.000			-5.669			-1.890
158604.000			-5.669			-1.890
158705.000			-5.669			-1.890
158804.000			-5.668			-1.889
158904.000			-5.668			-1.889
159005.000			-5.668			-1.889
159104.000			-5.669			-1.890
159203.000			-5.669			-1.890
159305.000			-5.668			-1.889
159403.000			-5.668			-1.889
159504.000			-5.667			-1.889
159605.000			-5.668			-1.889
159704.000			-5.668			-1.889
159804.000			-5.667			-1.889
159905.000			-5.667			-1.889
160004.000			-5.667			-1.889
160103.000			-5.667			-1.889
160205.000			-5.666			-1.889
160303.000			-5.667			-1.889
160404.000			-5.667			-1.889
160505.000			-5.667			-1.889
160604.000			-5.667			-1.889
160704.000			-5.666			-1.889
160805.000			-5.666			-1.889
160904.000			-5.667			-1.889
161003.000			-5.667			-1.889
161105.000			-5.667			-1.889
161203.000			-5.667			-1.889
161304.000			-5.666			-1.889
161405.000			-5.665			-1.888
161504.000			-5.665			-1.888
161605.000			-5.664			-1.888
161704.000			-5.666			-1.889
161804.000			-5.665			-1.888
161904.000			-5.664			-1.888
162004.000			-5.664			-1.888
162103.000			-5.665			-1.888
162205.000			-5.664			-1.888
162304.000			-5.665			-1.888
162404.000			-5.664			-1.888
162505.000			-5.664			-1.888
162604.000			-5.664			-1.888
162704.000			-5.665			-1.888
162804.000			-5.664			-1.888
162904.000			-5.664			-1.888
163003.000			-5.663			-1.888
163105.000			-5.665			-1.888
163204.000			-5.665			-1.888
163304.000			-5.664			-1.888
163405.000			-5.664			-1.888
163504.000			-5.663			-1.888
163604.000			-5.663			-1.888
163704.000			-5.663			-1.888
163804.000			-5.663			-1.888
163903.000			-5.663			-1.888
164005.000			-5.663			-1.888
164104.000			-5.663			-1.888
164204.000			-5.662			-1.887
164305.000			-5.662			-1.887
164404.000			-5.663			-1.888
164504.000			-5.662			-1.887
164603.000			-5.662			-1.887
164704.000			-5.662			-1.887
164805.000			-5.663			-1.888
164904.000			-5.664			-1.888
165004.000			-5.663			-1.888
165105.000			-5.662			-1.887
165204.000			-5.663			-1.888
165304.000			-5.662			-1.887
165405.000			-5.661			-1.887
165503.000			-5.661			-1.887
165604.000			-5.661			-1.887
165705.000			-5.661			-1.887
165804.000			-5.662			-1.887
165904.000			-5.662			-1.887
166005.000			-5.661			-1.887
166104.000			-5.661			-1.887
166204.000			-5.661			-1.887
166305.000			-5.661			-1.887
166403.000			-5.661			-1.887
166504.000			-5.661			-1.887
166605.000			-5.661			-1.887
166704.000			-5.660			-1.887
166804.000			-5.660			-1.887
166905.000			-5.660			-1.887
167004.000			-5.659			-1.886
167104.000			-5.659			-1.886
167205.000			-5.660			-1.887
167303.000			-5.660			-1.887
167404.000			-5.659			-1.886
167505.000			-5.659			-1.886
167604.000			-5.660			-1.887
167704.000			-5.660			-1.887
167804.000			-5.659			-1.886
167904.000			-5.659			-1.886
168005.000			-5.659			-1.886
168104.000			-5.659			-1.886
168203.000			-5.658			-1.886
168305.000			-5.658			-1.886
168403.000			-5.658			-1.886
168504.000			-5.658			-1.886
168605.000			-5.658			-1.886
168704.000			-5.659			-1.886
168804.000			-5.658			-1.886
168905.000			-5.657			-1.886
169004.000			-5.657			-1.886
169104.000			-5.658			-1.886
169205.000			-5.657			-1.886
169303.000			-5.657			-1.886
169404.000			-5.657			-1.886
169505.000			-5.658			-1.886
169604.000			-5.658			-1.886
169704.000			-5.657			-1.886
169805.000			-5.657			-1.886
169904.000			-5.657			-1.886
170004.000			-5.658			-1.886
170105.000			-5.657			-1.886
170203.000			-5.656			-1.885
170304.000			-5.656			-1.885
170405.000			-5.657			-1.886
170504.000			-5.656			-1.885
170604.000			-5.656			-1.885
170705.000			-5.657			-1.886
170804.000			-5.657			-1.886
170904.000			-5.657			-1.886
171005.000			-5.657			-1.886
171103.000			-5.655			-1.885
171205.000			-5.656			-1.885
171304.000			-5.656			-1.885
171404.000			-5.656			-1.885
171505.000			-5.655			-1.885
171604.000			-5.654			-1.885
171704.000			-5.654			-1.885
171805.000			-5.655			-1.885
171904.000			-5.655			-1.885
172003.000			-5.655			-1.885
172105.000			-5.655			-1.885
172204.000			-5.655			-1.885
172304.000			-5.655			-1.885
172405.000			-5.655			-1.885
172504.000			-5.654			-1.885
172604.000			-5.654			-1.885
172704.000			-5.655			-1.885
172804.000			-5.654			-1.885
172903.000			-5.654			-1.885
173005.000			-5.654			-1.885
173104.000			-5.655			-1.885
173204.000			-5.654			-1.885
173305.000			-5.653			-1.884
173404.000			-5.653			-1.884
173504.000			-5.653			-1.884
173604.000			-5.653			-1.884
173704.000			-5.654			-1.885
173803.000			-5.653			-1.884
173905.000			-5.653			-1.884
174004.000			-5.653			-1.884
174104.000			-5.653			-1.884
174205.000			-5.653			-1.884
174304.000			-5.653			-1.884
174405.000			-5.653			-1.884
174503.000			-5.653			-1.884
174604.000			-5.654			-1.885
174704.000			-5.653			-1.884
174804.000			-5.652			-1.884
174904.000			-5.652			-1.884
175005.000			-5.652			-1.884
175104.000			-5.652			-1.884
175204.000			-5.652			-1.884
175305.000			-5.652			-1.884
175403.000			-5.652			-1.884
175504.000			-5.653			-1.884
175605.000			-5.652			-1.884
175704.000			-5.652			-1.884
175804.000			-5.652			-1.884
175905.000			-5.651			-1.884
176004.000			-5.651			-1.884
176104.000			-5.650			-1.883
176205.000			-5.650			-1.883
176303.000			-5.651			-1.884
176404.000			-5.651			-1.884
176505.000			-5.650			-1.883
176604.000			-5.651			-1.884
176704.000			-5.651			-1.884
176805.000			-5.650			-1.883
176904.000			-5.650			-1.883
177004.000			-5.650			-1.883
177105.000			-5.650			-1.883
177203.000			-5.650			-1.883
177304.000			-5.651			-1.884
177405.000			-5.650			-1.883
177504.000			-5.650			-1.883
177605.000			-5.649			-1.883
177704.000			-5.649			-1.883
177804.000			-5.649			-1.883
177905.000			-5.650			-1.883
178004.000			-5.650			-1.883
178103.000			-5.649			-1.883
178205.000			-5.649			-1.883
178303.000			-5.650			-1.883
178404.000			-5.649			-1.883
178505.000			-5.649			-1.883
178604.000			-5.649			-1.883
178704.000			-5.648			-1.883
178805.000			-5.648			-1.883
178904.000			-5.648			-1.883
179004.000			-5.648			-1.883
179105.000			-5.648			-1.883
179203.000			-5.647			-1.882
179304.000			-5.648			-1.883
179405.000			-5.649			-1.883
179504.000			-5.648			-1.883
179604.000			-5.649			-1.883
179705.000			-5.649			-1.883
179804.000			-5.648			-1.883
179904.000			-5.647			-1.882
180005.000			-5.647			-1.882
180103.000			-5.647			-1.882
180204.000			-5.648			-1.883
180305.000			-5.647			-1.882
180404.000			-5.646			-1.882
180504.000			-5.647			-1.882
180604.000			-5.648			-1.883
180704.000			-5.647			-1.882
180805.000			-5.647			-1.882
180904.000			-5.646			-1.882
181003.000			-5.646			-1.882
181105.000			-5.647			-1.882
181204.000			-5.646			-1.882
181304.000			-5.646			-1.882
181405.000			-5.648			-1.883
181504.000			-5.648			-1.883
181604.000			-5.646			-1.882
181705.000			-5.645			-1.882
181804.000			-5.646			-1.882
181903.000			-5.645			-1.882
182005.000			-5.646			-1.882
182104.000			-5.646			-1.882
182204.000			-5.646			-1.882
182305.000			-5.646			-1.882
182404.000			-5.645			-1.882
182504.000			-5.645			-1.882
182605.000			-5.645			-1.882
182704.000			-5.646			-1.882
182803.000			-5.646			-1.882
182905.000			-5.645			-1.882
183004.000			-5.644			-1.881
183104.000			-5.645			-1.882
183205.000			-5.645			-1.882
183304.000			-5.645			-1.882
183404.000			-5.644			-1.881
183505.000			-5.643			-1.881
183604.000			-5.642			-1.881
183703.000			-5.643			-1.881
183805.000			-5.643			-1.881
183904.000			-5.642			-1.881
184005.000			-5.643			-1.881
184104.000			-5.643			-1.881
184204.000			-5.641			-1.880
184305.000			-5.641			-1.880
184404.000			-5.640			-1.880
184504.000			-5.641			-1.880
184604.000			-5.641			-1.880
184704.000			-5.641			-1.880
184804.000			-5.641			-1.880
184905.000			-5.641			-1.880
185004.000			-5.640			-1.880
185104.000			-5.639			-1.880
185205.000			-5.640			-1.880
185304.000			-5.639			-1.880
185404.000			-5.639			-1.880
185504.000			-5.639			-1.880
185604.000			-5.640			-1.880
185704.000			-5.639			-1.880
185805.000			-5.639			-1.880
185904.000			-5.639			-1.880
186004.000			-5.639			-1.880
186105.000			-5.639			-1.880
186204.000			-5.637			-1.879
186304.000			-5.636			-1.879
186404.000			-5.637			-1.879
186504.000			-5.637			-1.879
186604.000			-5.638			-1.879
186705.000			-5.638			-1.879
186804.000			-5.638			-1.879
186904.000			-5.637			-1.879
187005.000			-5.638			-1.879
187104.000			17.305			5.768
187205.000			-48.269			-16.090
187303.000			-5.638			-1.879
187404.000			-5.639			-1.880
187504.000			-5.638			-1.879
187604.000			-5.637			-1.879
187704.000			-5.636			-1.879
187805.000			-5.636			-1.879
187904.000			-5.638			-1.879
188004.000			-5.637			-1.879
188105.000			-5.638			-1.879
188204.000			-5.638			-1.879
188304.000			-5.638			-1.879
188404.000			-5.636			-1.879
188504.000			-5.636			-1.879
188604.000			-5.637			-1.879
188705.000			-5.637			-1.879
188804.000			-5.638			-1.879
188904.000			-5.637			-1.879
189005.000			-5.637			-1.879
189104.000			-5.637			-1.879
189204.000			-5.636			-1.879
189304.000			-5.636			-1.879
189404.000			-5.637			-1.879
189503.000			-5.637			-1.879
189605.000			-5.636			-1.879
189704.000			-5.636			-1.879
189804.000			-5.635			-1.878
189905.000			-5.635			-1.878
190004.000			-5.635			-1.878
190104.000			-5.634			-1.878
190203.000			-5.635			-1.878
190304.000			-5.635			-1.878
190404.000			-5.635			-1.878
190504.000			-5.635			-1.878
190604.000			-5.634			-1.878
190705.000			-5.634			-1.878
190804.000			-5.634			-1.878
190904.000			-5.633			-1.878
191005.000			-5.633			-1.878
191103.000			-5.634			-1.878
191204.000			-5.634			-1.878
191305.000			-5.634			-1.878
191404.000			-5.634			-1.878
191504.000			-5.634			-1.878
191605.000			-5.634			-1.878
191704.000			-5.633			-1.878
191804.000			-5.634			-1.878
191905.000			-5.635			-1.878
192003.000			-5.634			-1.878
192104.000			-5.633			-1.878
192205.000			-5.634			-1.878
192304.000			-5.633			-1.878
192404.000			-5.633			-1.878
192505.000			-5.633			-1.878
192604.000			-5.633			-1.878
192704.000			-5.634			-1.878
192805.000			-5.633			-1.878
192903.000			-5.633			-1.878
193004.000			-5.634			-1.878
193105.000			-5.634			-1.878
193204.000			-5.633			-1.878
193304.000			-5.633			-1.878
193404.000			-5.633			-1.878
193504.000			-5.634			-1.878
193605.000			-5.634			-1.878
193704.000			-5.633			-1.878
193803.000			-5.632			-1.877
193905.000			-5.632			-1.877
194004.000			-5.633			-1.878
194104.000			-5.632			-1.877
194205.000			-5.631			-1.877
194304.000			-5.632			-1.877
194404.000			-5.632			-1.877
194505.000			-5.632			-1.877
194604.000			-5.632			-1.877
194703.000			-5.633			-1.878
194805.000			-5.633			-1.878
194904.000			-5.632			-1.877
195004.000			-5.632			-1.877
195105.000			-5.632			-1.877
195204.000			-5.631			-1.877
195304.000			-5.632			-1.877
195404.000			-5.632			-1.877
195504.000			-5.632			-1.877
195603.000			-5.631			-1.877
195705.000			-5.631			-1.877
195804.000			-5.633			-1.878
195904.000			-5.631			-1.877
196005.000			-5.631			-1.877
196104.000			-5.632			-1.877
196204.000			-5.632			-1.877
196304.000			-5.631			-1.877
196404.000			-5.631			-1.877
196503.000			-5.630			-1.877
196605.000			-5.631			-1.877
196704.000			-5.631			-1.877
196805.000			-5.631			-1.877
196904.000			-5.631			-1.877
197004.000			-5.630			-1.877
197105.000			-5.631			-1.877
197203.000			-5.630			-1.877
197304.000			-5.631			-1.877
197404.000			-5.631			-1.877
197504.000			-5.631			-1.877
197604.000			-5.631			-1.877
197705.000			-5.630			-1.877
197804.000			-5.631			-1.877
197904.000			-5.632			-1.877
198005.000			-5.630			-1.877
198103.000			-5.630			-1.877
198204.000			-5.629			-1.876
198304.000			-5.630			-1.877
198404.000			-5.630			-1.877
198504.000			-5.629			-1.876
198605.000			-5.629			-1.876
198704.000			-5.629			-1.876
198804.000			-5.629			-1.876
198905.000			-5.630			-1.877
199004.000			-5.629			-1.876
199104.000			-5.629			-1.876
199204.000			-5.630			-1.877
199304.000			-5.629			-1.876
199404.000			-5.629			-1.876
199505.000			-5.629			-1.876
199604.000			-5.629			-1.876
199704.000			-5.628			-1.876
199805.000			-5.629			-1.876
199904.000			-5.629			-1.876
200005.000			-5.628			-1.876
200103.000			-5.628			-1.876
200204.000			-5.629			-1.876
200305.000			-5.628			-1.876
200404.000			-5.628			-1.876
200504.000			-5.628			-1.876
200605.000			-5.629			-1.876
200704.000			-5.628			-1.876
200804.000			-5.628			-1.876
200905.000			-5.628			-1.876
201003.000			-5.628			-1.876
201104.000			-5.628			-1.876
201205.000			-5.628			-1.876
201304.000			-5.628			-1.876
201404.000			-5.627			-1.876
201505.000			-5.627			-1.876
201604.000			-5.628			-1.876
201704.000			-5.628			-1.876
201805.000			-5.629			-1.876
201903.000			-5.629			-1.876
202004.000			-5.628			-1.876
202105.000			-5.627			-1.876
202204.000			-5.628			-1.876
202304.000			-5.628			-1.876
202405.000			-5.627			-1.876
202504.000			-5.627			-1.876
202603.000			-5.628			-1.876
202705.000			-5.628			-1.876
202804.000			-5.627			-1.876
202904.000			-5.627			-1.876
203005.000			-5.627			-1.876
203104.000			-5.627			-1.876
203205.000			-5.625			-1.875
203304.000			-5.627			-1.876
203404.000			-5.627			-1.876
203504.000			-5.626			-1.875
203604.000			-5.626			-1.875
203704.000			-5.627			-1.876
203805.000			-5.627			-1.876
203904.000			-5.627			-1.876
204004.000			-5.626			-1.875
204105.000			-5.626			-1.875
204204.000			-5.627			-1.876
204304.000			-5.627			-1.876
204404.000			-5.626			-1.875
204504.000			-5.626			-1.875
204604.000			-5.626			-1.875
204705.000			-5.627			-1.876
204804.000			-5.627			-1.876
204904.000			-5.626			-1.875
205005.000			-5.627			-1.876
205103.000			-5.626			-1.875
205204.000			-5.626			-1.875
205304.000			-5.627			-1.876
205404.000			-5.627			-1.876
205504.000			-5.625			-1.875
205605.000			-5.625			-1.875
205704.000			-5.626			-1.875
205804.000			-5.625			-1.875
205905.000			-5.624			-1.875
206003.000			-5.624			-1.875
206104.000			-5.626			-1.875
206205.000			-5.625			-1.875
206304.000			-5.624			-1.875
206405.000			-5.624			-1.875
206504.000			-5.625			-1.875
206604.000			-5.625			-1.875
206705.000			-5.626			-1.875
206804.000			-5.623			-1.874
206903.000			-5.624			-1.875
207005.000			-5.625			-1.875
207104.000			-5.625			-1.875
207204.000			-5.624			-1.875
207305.000			-5.624			-1.875
207404.000			-5.624			-1.875
207504.000			-5.624			-1.875
207604.000			-5.624			-1.875
207704.000			-5.624			-1.875
207803.000			-5.625			-1.875
207905.000			-5.624			-1.875
208004.000			-5.624			-1.875
208104.000			-5.623			-1.874
208205.000			-5.623			-1.874
208304.000			-5.623			-1.874
208404.000			-5.623			-1.874
208504.000			-5.623			-1.874
208604.000			-5.623			-1.874
208704.000			-5.623			-1.874
208805.000			-5.622			-1.874
208904.000			-5.623			-1.874
209004.000			-5.622			-1.874
209105.000			-5.623			-1.874
209204.000			-5.623			-1.874
209304.000			-5.622			-1.874
209403.000			-5.623			-1.874
209504.000			-5.623			-1.874
209605.000			-5.623			-1.874
209704.000			-5.622			-1.874
209804.000			-5.621			-1.874
209905.000			-5.622			-1.874
210004.000			-5.622			-1.874
210103.000			-5.622			-1.874
210205.000			-5.622			-1.874
210303.000			-5.622			-1.874
210404.000			-5.623			-1.874
210505.000			-5.621			-1.874
210604.000			-5.621			-1.874
210704.000			-5.621			-1.874
210805.000			-5.621			-1.874
210904.000			-5.621			-1.874
211003.000			-5.620			-1.873
211105.000			-5.620			-1.873
211204.000			-5.621			-1.874
211304.000			-5.621			-1.874
211405.000			-5.622			-1.874
211504.000			-5.621			-1.874
211604.000			-5.620			-1.873
211704.000			-5.621			-1.874
211804.000			-5.620			-1.873
211904.000			-5.620			-1.873
212005.000			-5.620			-1.873
212104.000			-5.620			-1.873
212204.000			-5.620			-1.873
212305.000			-5.620			-1.873
212404.000			-5.621			-1.874
212504.000			-5.621			-1.874
212603.000			-5.619			-1.873
212704.000			-5.620			-1.873
212805.000			-5.621			-1.874
212904.000			-5.620			-1.873
213004.000			-5.619			-1.873
213105.000			-5.619			-1.873
213204.000			-5.618			-1.873
213303.000			-5.619			-1.873
213405.000			-5.618			-1.873
213503.000			-5.619			-1.873
213604.000			-5.619			-1.873
213705.000			-5.618			-1.873
213804.000			-5.619			-1.873
213904.000			-5.619			-1.873
214005.000			-5.618			-1.873
214104.000			-5.619			-1.873
214203.000			-5.619			-1.873
214305.000			-5.619			-1.873
214404.000			-5.618			-1.873
214504.000			-5.618			-1.873
214605.000			-5.618			-1.873
214704.000			-5.618			-1.873
214804.000			-5.617			-1.872
214905.000			-5.617			-1.872
215004.000			-5.618			-1.873
215103.000			-5.618			-1.873
215205.000			-5.618			-1.873
215304.000			-5.618			-1.873
215404.000			-5.618			-1.873
215505.000			-5.618			-1.873
215604.000			-5.617			-1.872
215704.000			-5.617			-1.872
215804.000			-5.617			-1.872
215904.000			-5.617			-1.872
216004.000			-5.618			-1.873
216104.000			-5.617			-1.872
216204.000			-5.616			-1.872
216305.000			-5.616			-1.872
216404.000			-5.616			-1.872
216504.000			-5.616			-1.872
216605.000			-5.617			-1.872
216704.000			-5.615			-1.872
216804.000			-5.615			-1.872
216904.000			-5.615			-1.872
217004.000			-5.615			-1.872
217104.000			-5.615			-1.872
217205.000			-5.615			-1.872
217304.000			-5.614			-1.871
217404.000			-5.613			-1.871
217505.000			-5.613			-1.871
217603.000			-5.614			-1.871
217704.000			-5.614			-1.871
217805.000			-5.614			-1.871
217904.000			-5.614			-1.871
218004.000			-5.614			-1.871
218105.000			-5.614			-1.871
218204.000			-5.615			-1.872
218304.000			-5.614			-1.871
218405.000			-5.614			-1.871
218503.000			-5.614			-1.871
218604.000			-5.614			-1.871
218705.000			-5.614			-1.871
218804.000			-5.614			-1.871
218904.000			-5.614			-1.871
219004.000			-5.615			-1.872
219104.000			-5.614			-1.871
219205.000			-5.614			-1.871
219304.000			-5.614			-1.871
219403.000			-5.615			-1.872
219505.000			-5.614			-1.871
219604.000			-5.615			-1.872
219704.000			-5.614			-1.871
219805.000			-5.615			-1.872
219904.000			-5.614			-1.871
220004.000			-5.614			-1.871
220105.000			-5.613			-1.871
220204.000			-5.614			-1.871
220303.000			-5.614			-1.871
220405.000			-5.614			-1.871
220504.000			-5.614			-1.871
220604.000			-5.614			-1.871
220705.000			-5.614			-1.871
220804.000			-5.614			-1.871
220904.000			-5.614			-1.871
221004.000			-5.614			-1.871
221104.000			-5.613			-1.871
221204.000			-5.614			-1.871
221305.000			-5.614			-1.871
221404.000			-5.612			-1.871
221504.000			-5.612			-1.871
221605.000			-5.613			-1.871
221704.000			-5.614			-1.871
221804.000			-5.613			-1.871
221904.000			-5.613			-1.871
222004.000			-5.613			-1.871
222104.000			-5.612			-1.871
222204.000			-5.613			-1.871
222304.000			-5.613			-1.871
222405.000			-5.612			-1.871
222504.000			-5.612			-1.871
222603.000			-5.613			-1.871
222705.000			-5.613			-1.871
222804.000			-5.613			-1.871
222904.000			-5.612			-1.871
223005.000			-5.613			-1.871
223104.000			-5.613			-1.871
223204.000			-5.613			-1.871
223305.000			-5.614			-1.871
223404.000			-5.613			-1.871
223503.000			-5.613			-1.871
223605.000			-5.612			-1.871
223704.000			-5.611			-1.870
223804.000			-5.612			-1.871
223905.000			-5.612			-1.871
224004.000			-5.612			-1.871
224104.000			-5.612			-1.871
224204.000			-5.612			-1.871
224304.000			-5.612			-1.871
224403.000			-5.611			-1.870
224505.000			-5.611			-1.870
224604.000			-5.611			-1.870
224704.000			-5.612			-1.871
224805.000			-5.611			-1.870
224904.000			-5.610			-1.870
225004.000			-5.611			-1.870
225104.000			-5.610			-1.870
225204.000			-5.610			-1.870
225304.000			-5.611			-1.870
225404.000			-5.611			-1.870
225504.000			-5.610			-1.870
225605.000			-5.611			-1.870
225704.000			-5.611			-1.870
225803.000			-5.610			-1.870
225905.000			-5.610			-1.870
226003.000			-5.611			-1.870
226104.000			-5.610			-1.870
226205.000			-5.610			-1.870
226304.000			-5.610			-1.870
226404.000			-5.610			-1.870
226505.000			-5.610			-1.870
226604.000			-5.609			-1.870
226703.000			-5.609			-1.870
226805.000			-5.610			-1.870
226904.000			-5.609			-1.870
227004.000			-5.610			-1.870
227105.000			-5.610			-1.870
227204.000			-5.609			-1.870
227304.000			-5.609			-1.870
227404.000			-5.609			-1.870
227504.000			-5.609			-1.870
227603.000			-5.609			-1.870
227705.000			-5.610			-1.870
227804.000			-5.609			-1.870
227904.000			-5.608			-1.869
228005.000			-5.608			-1.869
228104.000			-5.609			-1.870
228204.000			-5.610			-1.870
228304.000			-5.609			-1.870
228404.000			-5.609			-1.870
228503.000			-5.609			-1.870
228605.000			-5.609			-1.870
228704.000			-5.608			-1.869
228805.000			-5.608			-1.869
228904.000			-5.609			-1.870
229004.000			-5.608			-1.869
229105.000			-5.608			-1.869
229203.000			-5.609			-1.870
229304.000			-5.609			-1.870
229404.000			-5.608			-1.869
229504.000			-5.607			-1.869
229604.000			-5.607			-1.869
229705.000			-5.608			-1.869
229804.000			-5.608			-1.869
229904.000			-5.607			-1.869
230005.000			-5.608			-1.869
230103.000			-5.607			-1.869
230204.000			-5.608			-1.869
230305.000			-5.607			-1.869
230404.000			-5.607			-1.869
230504.000			-5.607			-1.869
230605.000			-5.606			-1.869
230704.000			-5.607			-1.869
230804.000			-5.606			-1.869
230905.000			-5.605			-1.868
231003.000			-5.605			-1.868
231104.000			-5.606			-1.869
231205.000			-5.607			-1.869
231304.000			-5.606			-1.869
231404.000			-5.605			-1.868
231505.000			-5.606			-1.869
231604.000			-5.606			-1.869
231703.000			-5.606			-1.869
231805.000			-5.607			-1.869
231904.000			-5.607			-1.869
232005.000			-5.606			-1.869
232104.000			-5.605			-1.868
232204.000			-5.605			-1.868
232305.000			-5.606			-1.869
232404.000			-5.606			-1.869
232504.000			-5.606			-1.869
232604.000			-5.606			-1.869
232704.000			-5.606			-1.869
232804.000			-5.606			-1.869
232905.000			-5.606			-1.869
233004.000			-5.606			-1.869
233104.000			-5.606			-1.869
233205.000			-5.606			-1.869
233303.000			-5.606			-1.869
233404.000			-5.606			-1.869
233504.000			-5.606			-1.869
233604.000			-5.605			-1.868
233704.000			-5.605			-1.868
233805.000			-5.605			-1.868
233904.000			-5.605			-1.868
234004.000			-5.606			-1.869
234105.000			-5.605			-1.868
234203.000			-5.604			-1.868
234304.000			-5.605			-1.868
234405.000			-5.604			-1.868
234504.000			-5.606			-1.869
234604.000			-5.606			-1.869
234705.000			-5.606			-1.869
234804.000			-5.605			-1.868
234904.000			-5.605			-1.868
235005.000			-5.605			-1.868
235103.000			-5.604			-1.868
235205.000			-5.605			-1.868
235304.000			-5.604			-1.868
235404.000			-5.603			-1.868
235505.000			-5.604			-1.868
235604.000			-5.603			-1.868
235704.000			-5.603			-1.868
235804.000			-5.604			-1.868
235904.000			-5.604			-1.868
236003.000			-5.604			-1.868
236105.000			-5.603			-1.868
236204.000			-5.603			-1.868
236304.000			-5.603			-1.868
236405.000			-5.604			-1.868
236504.000			-5.603			-1.868
236604.000			-5.603			-1.868
236704.000			-5.603			-1.868
236804.000			-5.604			-1.868
236904.000			-5.603			-1.868
237005.000			-5.603			-1.868
237104.000			-5.604			-1.868
237204.000			-5.603			-1.868
237305.000			-5.603			-1.868
237404.000			-5.603			-1.868
237504.000			-5.603			-1.868
237604.000			-5.603			-1.868
237704.000			-5.603			-1.868
237804.000			-5.603			-1.868
237905.000			-5.603			-1.868
238004.000			-5.603			-1.868
238104.000			-5.603			-1.868
238205.000			-5.603			-1.868
238303.000			-5.603			-1.868
238405.000			-5.602			-1.867
238503.000			-5.603			-1.868
238604.000			-5.603			-1.868
238705.000			-5.602			-1.867
238804.000			-5.603			-1.868
238904.000			-5.602			-1.867
239005.000			-5.602			-1.867
239104.000			-5.603			-1.868
239203.000			-5.604			-1.868
239305.000			-5.602			-1.867
239404.000			-5.601			-1.867
239504.000			-5.601			-1.867
239605.000			-5.601			-1.867
239704.000			-5.601			-1.867
239804.000			-5.601			-1.867
239905.000			-5.601			-1.867
240004.000			-5.601			-1.867
240103.000			-5.601			-1.867
240205.000			-5.601			-1.867
240304.000			-5.601			-1.867
240404.000			-5.600			-1.867
240505.000			-5.600			-1.867
240604.000			-5.601			-1.867
240704.000			-5.601			-1.867
240804.000			-5.601			-1.867
240904.000			-5.601			-1.867
241004.000			-5.601			-1.867
241105.000			-5.600			-1.867
241204.000			-5.601			-1.867
241304.000			-5.601			-1.867
241405.000			-5.600			-1.867
241504.000			-5.600			-1.867
241605.000			-5.600			-1.867
241703.000			-5.601			-1.867
241804.000			-5.600			-1.867
241905.000			-5.599			-1.866
242004.000			-5.599			-1.866
242104.000			-5.600			-1.867
242205.000			-5.600			-1.867
242304.000			-5.598			-1.866
242404.000			-5.599			-1.866
242505.000			-5.599			-1.866
242603.000			-5.600			-1.867
242704.000			-5.600			-1.867
242805.000			-5.599			-1.866
242904.000			-5.599			-1.866
243004.000			-5.599			-1.866
243105.000			-5.599			-1.866
243204.000			-5.599			-1.866
243304.000			-5.599			-1.866
243405.000			-5.599			-1.866
243503.000			-5.599			-1.866
243604.000			-5.599			-1.866
243705.000			-5.599			-1.866
243804.000			-5.599			-1.866
243904.000			-5.599			-1.866
244005.000			-5.600			-1.867
244104.000			-5.599			-1.866
244204.000			-5.597			-1.866
244305.000			-5.598			-1.866
244403.000			-5.598			-1.866
244504.000			-5.598			-1.866
244603.000			-5.598			-1.866
244704.000			-5.598			-1.866
244805.000			-5.598			-1.866
244904.000			-5.598			-1.866
245004.000			-5.599			-1.866
245105.000			-5.599			-1.866
245204.000			-5.598			-1.866
245303.000			-5.598			-1.866
245405.000			-5.598			-1.866
245503.000			-5.598			-1.866
245604.000			-5.597			-1.866
245705.000			-5.597			-1.866
245804.000			-5.597			-1.866
245904.000			-5.597			-1.866
246005.000			-5.596			-1.865
246104.000			-5.597			-1.866
246204.000			-5.597			-1.866
246305.000			-5.596			-1.865
246403.000			-5.596			-1.865
246504.000			-5.597			-1.866
246605.000			-5.596			-1.865
246704.000			-5.595			-1.865
246804.000			-5.596			-1.865
246905.000			-5.596			-1.865
247004.000			-5.595			-1.865
247104.000			-5.596			-1.865
247205.000			-5.597			-1.866
247303.000			-5.597			-1.866
247404.000			-5.597			-1.866
247505.000			-5.596			-1.865
247604.000			-5.595			-1.865
247704.000			-5.595			-1.865
247804.000			-5.595			-1.865
247904.000			-5.596			-1.865
248005.000			-5.596			-1.865
248104.000			-5.595			-1.865
248203.000			-5.595			-1.865
248305.000			-5.595			-1.865
248403.000			-5.595			-1.865
248504.000			-5.595			-1.865
248605.000			-5.595			-1.865
248704.000			-5.595			-1.865
248804.000			-5.596			-1.865
248905.000			-5.594			-1.865
249004.000			-5.594			-1.865
249104.000			-5.595			-1.865
249205.000			-5.594			-1.865
249303.000			-5.594			-1.865
249404.000			-5.594			-1.865
249505.000			-5.593			-1.864
249604.000			-5.594			-1.865
249704.000			-5.594			-1.865
249805.000			-5.594			-1.865
249904.000			-5.593			-1.864
250004.000			-5.592			-1.864
250105.000			-5.593			-1.864
250203.000			-5.593			-1.864
250304.000			-5.592			-1.864
250405.000			-5.592			-1.864
250504.000			-5.592			-1.864
250604.000			-5.593			-1.864
250705.000			-5.594			-1.865
250804.000			-5.594			-1.865
250904.000			-5.593			-1.864
251005.000			-5.592			-1.864
251103.000			-5.592			-1.864
251205.000			-5.593			-1.864
251304.000			-5.592			-1.864
251404.000			-5.591			-1.864
251505.000			-5.591			-1.864
251604.000			-5.592			-1.864
251704.000			-5.591			-1.864
251805.000			-5.591			-1.864
251904.000			-5.591			-1.864
252003.000			-5.590			-1.863
252105.000			-5.591			-1.864
252204.000			-5.591			-1.864
252304.000			-5.591			-1.864
252405.000			-5.591			-1.864
252504.000			-5.591			-1.864
252604.000			-5.591			-1.864
252704.000			-5.590			-1.863
252804.000			-5.590			-1.863
252903.000			-5.590			-1.863
253005.000			-5.591			-1.864
253104.000			-5.590			-1.863
253204.000			-5.590			-1.863
253305.000			-5.589			-1.863
253404.000			-5.589			-1.863
253504.000			-5.589			-1.863
253604.000			-5.589			-1.863
253704.000			-5.589			-1.863
253803.000			-5.589			-1.863
253905.000			-5.589			-1.863
254004.000			-5.589			-1.863
254104.000			-5.589			-1.863
254205.000			-5.590			-1.863
254304.000			-5.589			-1.863
254405.000			-5.589			-1.863
254504.000			-5.590			-1.863
254604.000			-5.590			-1.863
254704.000			-5.590			-1.863
254804.000			-5.589			-1.863
254904.000			-5.589			-1.863
255005.000			-5.588			-1.863
255104.000			-5.589			-1.863
255204.000			-5.590			-1.863
255305.000			-5.590			-1.863
255404.000			-5.589			-1.863
255504.000			-5.590			-1.863
255604.000			-5.590			-1.863
255704.000			-5.589			-1.863
255803.000			-5.589			-1.863
255905.000			-5.589			-1.863
256004.000			-5.590			-1.863
256104.000			-5.590			-1.863
256205.000			-5.588			-1.863
256304.000			-5.588			-1.863
256404.000			-5.589			-1.863
256504.000			-5.589			-1.863
256604.000			-5.589			-1.863
256703.000			-5.589			-1.863
256805.000			-5.589			-1.863
256904.000			-5.589			-1.863
257004.000			-5.589			-1.863
257105.000			-5.590			-1.863
257204.000			-5.589			-1.863
257304.000			-5.589			-1.863
257404.000			-5.589			-1.863
257504.000			-5.589			-1.863
257604.000			-5.589			-1.863
257704.000			-5.588			-1.863
257804.000			-5.588			-1.863
257905.000			-5.588			-1.863
258004.000			-5.589			-1.863
258104.000			-5.588			-1.863
258205.000			-5.588			-1.863
258304.000			-5.587			-1.862
258404.000			-5.587			-1.862
258504.000			-5.589			-1.863
258604.000			-5.589			-1.863
258703.000			-5.588			-1.863
258805.000			-5.588			-1.863
258904.000			-5.588			-1.863
259004.000			-5.588			-1.863
259105.000			-5.588			-1.863
259204.000			-5.589			-1.863
259304.000			-5.588			-1.863
259404.000			-5.588			-1.863
259504.000			-5.588			-1.863
259603.000			-5.588			-1.863
259705.000			-5.588			-1.863
259804.000			-5.588			-1.863
259904.000			-5.588			-1.863
260005.000			-5.589			-1.863
260104.000			-5.588			-1.863
260204.000			-5.587			-1.862
260305.000			-5.586			-1.862
260404.000			-5.587			-1.862
260503.000			-5.588			-1.863
260605.000			-5.589			-1.863
260704.000			-5.589			-1.863
260805.000			-5.589			-1.863
260904.000			-5.588			-1.863
261004.000			-5.587			-1.862
261105.000			-5.587			-1.862
261204.000			-5.585			-1.862
261304.000			-5.585			-1.862
261404.000			-5.587			-1.862
261504.000			-5.588			-1.863
261604.000			-5.589			-1.863
261705.000			-5.588			-1.863
261804.000			-5.587			-1.862
261904.000			-5.587			-1.862
262005.000			-5.586			-1.862
262104.000			-5.586			-1.862
262204.000			-5.587			-1.862
262304.000			-5.587			-1.862
262404.000			-5.587			-1.862
262504.000			-5.587			-1.862
262605.000			-5.587			-1.862
262704.000			-5.586			-1.862
262804.000			-5.587			-1.862
262905.000			-5.585			-1.862
263004.000			-5.586			-1.862
263104.000			-5.587			-1.862
263204.000			-5.586			-1.862
263304.000			-5.587			-1.862
263404.000			-5.588			-1.863
263505.000			-5.587			-1.862
263604.000			-5.587			-1.862
263704.000			-5.586			-1.862
263805.000			-5.586			-1.862
263904.000			-5.587			-1.862
264005.000			-5.587			-1.862
264103.000			-5.586			-1.862
264204.000			-5.586			-1.862
264305.000			-5.586			-1.862
264404.000			-5.586			-1.862
264504.000			-5.585			-1.862
264605.000			-5.585			-1.862
264704.000			-5.586			-1.862
264804.000			-5.586			-1.862
264905.000			-5.585			-1.862
265003.000			-5.584			-1.861
265104.000			-5.585			-1.862
265204.000			-5.585			-1.862
265304.000			-5.586			-1.862
265404.000			-5.585			-1.862
265505.000			-5.584			-1.861
265604.000			-5.585			-1.862
265704.000			-5.585			-1.862
265805.000			-5.584			-1.861
265903.000			-5.584			-1.861
266004.000			-5.584			-1.861
266104.000			-5.585			-1.862
266204.000			-5.584			-1.861
266304.000			-5.584			-1.861
266405.000			-5.585			-1.862
266504.000			-5.583			-1.861
266604.000			-5.584			-1.861
266705.000			-5.584			-1.861
266803.000			-5.584			-1.861
266904.000			-5.583			-1.861
267003.000			-5.582			-1.861
267104.000			-5.583			-1.861
267205.000			-5.584			-1.861
267304.000			-5.583			-1.861
267404.000			-5.583			-1.861
267505.000			-5.583			-1.861
267604.000			-5.583			-1.861
267703.000			-5.583			-1.861
267805.000			-5.584			-1.861
267903.000			-5.584			-1.861
268004.000			-5.582			-1.861
268105.000			-5.582			-1.861
268204.000			-5.583			-1.861
268304.000			-5.584			-1.861
268405.000			-5.583			-1.861
268504.000			-5.583			-1.861
268603.000			-5.583			-1.861
268705.000			-5.583			-1.861
268803.000			-5.582			-1.861
268904.000			-5.583			-1.861
269005.000			-5.584			-1.861
269104.000			-5.584			-1.861
269204.000			-5.583			-1.861
269305.000			-5.582			-1.861
269404.000			-5.583			-1.861
269504.000			-5.584			-1.861
269605.000			-5.583			-1.861
269703.000			-5.582			-1.861
269804.000			-5.582			-1.861
269905.000			-5.582			-1.861
270004.000			-5.582			-1.861
270104.000			-5.581			-1.860
270204.000			-5.582			-1.861
270304.000			-5.582			-1.861
270405.000			-5.582			-1.861
270504.000			-5.582			-1.861
270603.000			-5.582			-1.861
270705.000			-5.581			-1.860
270804.000			-5.581			-1.860
270904.000			-5.581			-1.860
271005.000			-5.580			-1.860
271104.000			-5.581			-1.860
271204.000			-5.580			-1.860
271304.000			-5.580			-1.860
271404.000			-5.580			-1.860
271503.000			-5.580			-1.860
271605.000			-5.579			-1.860
271704.000			-5.579			-1.860
271804.000			-5.579			-1.860
271905.000			-5.578			-1.859
272004.000			-5.579			-1.860
272104.000			-5.579			-1.860
272205.000			-5.579			-1.860
272304.000			-5.578			-1.859
272403.000			-5.577			-1.859
272505.000			-5.579			-1.860
272604.000			-5.578			-1.859
272704.000			-5.580			-1.860
272805.000			-5.580			-1.860
272904.000			-5.579			-1.860
273004.000			-5.578			-1.859
273105.000			-5.579			-1.860
273204.000			-5.579			-1.860
273303.000			-5.579			-1.860
273405.000			-5.578			-1.859
273504.000			-5.579			-1.860
273605.000			-5.579			-1.860
273704.000			-5.579			-1.860
273804.000			-5.579			-1.860
273905.000			-5.578			-1.859
274004.000			-5.578			-1.859
274104.000			-5.579			-1.860
274204.000			-5.580			-1.860
274304.000			-5.579			-1.860
274404.000			-5.578			-1.859
274505.000			-5.579			-1.860
274604.000			-5.578			-1.859
274704.000			-5.578			-1.859
274805.000			-5.579			-1.860
274904.000			-5.579			-1.860
275004.000			-5.579			-1.860
275104.000			-5.579			-1.860
275204.000			-5.578			-1.859
275304.000			-5.578			-1.859
275405.000			-5.578			-1.859
275504.000			-5.579			-1.860
275604.000			-5.578			-1.859
275705.000			-5.577			-1.859
275804.000			-5.577			-1.859
275904.000			-5.578			-1.859
276004.000			-5.578			-1.859
276104.000			-5.579			-1.860
276204.000			-5.579			-1.860
276305.000			-5.579			-1.860
276404.000			-5.579			-1.860
276504.000			-5.579			-1.860
276605.000			-5.579			-1.860
276704.000			-5.579			-1.860
276805.000			-5.578			-1.859
276903.000			-5.578			-1.859
277004.000			-5.579			-1.860
277104.000			-5.578			-1.859
277204.000			-5.578			-1.859
277304.000			-5.577			-1.859
277405.000			-5.577			-1.859
277504.000			-5.578			-1.859
277604.000			-5.578			-1.859
277705.000			-5.578			-1.859
277803.000			-5.577			-1.859
277904.000			-5.578			-1.859
278004.000			-5.577			-1.859
278104.000			-5.578			-1.859
278204.000			-5.577			-1.859
278305.000			-5.577			-1.859
278404.000			-5.577			-1.859
278504.000			-5.577			-1.859
278605.000			-5.576			-1.859
278704.000			-5.577			-1.859
278804.000			-5.577			-1.859
278904.000			-5.578			-1.859
279004.000			-5.578			-1.859
279104.000			-5.577			-1.859
279205.000			-5.577			-1.859
279304.000			-5.577			-1.859
279404.000			-5.576			-1.859
279505.000			-5.576			-1.859
279604.000			-5.576			-1.859
279704.000			-5.576			-1.859
279803.000			-5.576			-1.859
279904.000			-5.576			-1.859
280004.000			-5.577			-1.859
280104.000			-5.576			-1.859
280204.000			-5.576			-1.859
280305.000			-5.577			-1.859
280404.000			-5.576			-1.859
280504.000			-5.576			-1.859
280605.000			-5.576			-1.859
280703.000			-5.576			-1.859
280804.000			-5.576			-1.859
280904.000			-5.576			-1.859
281004.000			-5.576			-1.859
281104.000			-5.575			-1.858
281205.000			-5.576			-1.859
281304.000			-5.576			-1.859
281404.000			-5.576			-1.859
281505.000			-5.575			-1.858
281603.000			-5.575			-1.858
281704.000			-5.575			-1.858
281804.000			-5.576			-1.859
281904.000			-5.575			-1.858
282004.000			-5.575			-1.858
282105.000			-5.576			-1.859
282204.000			-5.575			-1.858
282304.000			-5.575			-1.858
282405.000			-5.575			-1.858
282503.000			-5.575			-1.858
282604.000			-5.575			-1.858
282704.000			-5.575			-1.858
282804.000			-5.574			-1.858
282904.000			-5.574			-1.858
283004.000			-5.575			-1.858
283104.000			-5.576			-1.859
283205.000			-5.575			-1.858
283304.000			-5.575			-1.858
283403.000			-5.575			-1.858
283505.000			-5.575			-1.858
283603.000			-5.575			-1.858
283704.000			-5.575			-1.858
283805.000			-5.575			-1.858
283904.000			-5.575			-1.858
284004.000			-5.575			-1.858
284105.000			-5.575			-1.858
284204.000			-5.574			-1.858
284304.000			-5.574			-1.858
284405.000			-5.574			-1.858
284503.000			-5.574			-1.858
284604.000			-5.573			-1.858
284705.000			-5.573			-1.858
284804.000			-5.574			-1.858
284904.000			-5.574			-1.858
285005.000			-5.574			-1.858
285104.000			-5.574			-1.858
285204.000			-5.573			-1.858
285305.000			-5.573			-1.858
285403.000			-5.574			-1.858
285504.000			-5.573			-1.858
285605.000			-5.573			-1.858
285704.000			-5.573			-1.858
285804.000			-5.572			-1.857
285905.000			-5.572			-1.857
286004.000			-5.572			-1.857
286104.000			-5.573			-1.858
286205.000			-5.574			-1.858
286303.000			-5.574			-1.858
286405.000			-5.573			-1.858
286504.000			-5.573			-1.858
286604.000			-5.572			-1.857
286705.000			-5.572			-1.857
286804.000			-5.572			-1.857
286904.000			-5.572			-1.857
287005.000			-5.572			-1.857
287104.000			-5.572			-1.857
287203.000			-5.572			-1.857
287305.000			-5.573			-1.858
287404.000			-5.572			-1.857
287504.000			-5.572			-1.857
287605.000			-5.571			-1.857
287704.000			-5.573			-1.858
287804.000			-5.572			-1.857
287905.000			-5.572			-1.857
288004.000			-5.573			-1.858
288103.000			-5.572			-1.857
288205.000			-5.572			-1.857
288304.000			-5.572			-1.857
288404.000			-5.571			-1.857
288505.000			-5.572			-1.857
288604.000			-5.573			-1.858
288704.000			-5.572			-1.857
288805.000			-5.571			-1.857
288904.000			-5.572			-1.857
289003.000			-5.572			-1.857
289105.000			-5.572			-1.857
289203.000			-5.571			-1.857
289304.000			-5.571			-1.857
289405.000			-5.572			-1.857
289504.000			-5.572			-1.857
289605.000			-5.571			-1.857
289704.000			-5.570			-1.857
289804.000			-5.571			-1.857
289905.000			-5.572			-1.857
290004.000			-5.571			-1.857
290103.000			-5.571			-1.857
290205.000			-5.571			-1.857
290304.000			-5.572			-1.857
290404.000			-5.572			-1.857
290505.000			-5.571			-1.857
290604.000			-5.570			-1.857
290704.000			-5.570			-1.857
290804.000			-5.571			-1.857
290904.000			-5.570			-1.857
291003.000			-5.569			-1.856
291105.000			-5.569			-1.856
291204.000			-5.569			-1.856
291304.000			-5.571			-1.857
291405.000			-5.569			-1.856
291504.000			-5.570			-1.857
291604.000			-5.570			-1.857
291704.000			-5.569			-1.856
291804.000			-5.570			-1.857
291903.000			-5.570			-1.857
292005.000			-5.569			-1.856
292104.000			-5.570			-1.857
292204.000			-5.570			-1.857
292305.000			-5.569			-1.856
292404.000			-5.568			-1.856
292504.000			-5.570			-1.857
292604.000			-5.569			-1.856
292704.000			-5.569			-1.856
292804.000			-5.569			-1.856
292904.000			-5.569			-1.856
293004.000			-5.569			-1.856
293105.000			-5.569			-1.856
293204.000			-5.569			-1.856
293304.000			-5.569			-1.856
293405.000			-5.569			-1.856
293504.000			-5.568			-1.856
293604.000			-5.568			-1.856
293704.000			-5.569			-1.856
293804.000			-5.568			-1.856
293904.000			-5.569			-1.856
294005.000			-5.568			-1.856
294104.000			-5.568			-1.856
294204.000			-5.568			-1.856
294305.000			-5.568			-1.856
294404.000			-5.570			-1.857
294504.000			-5.569			-1.856
294604.000			-5.569			-1.856
294704.000			-5.567			-1.856
294803.000			-5.567			-1.856
294905.000			-5.567			-1.856
295004.000			-5.567			-1.856
295104.000			-5.567			-1.856
295205.000			-5.567			-1.856
295304.000			-5.567			-1.856
295404.000			-5.567			-1.856
295504.000			-5.566			-1.855
295604.000			-5.566			-1.855
295703.000			-5.567			-1.856
295805.000			-5.567			-1.856
295904.000			-5.566			-1.855
296005.000			-5.565			-1.855
296104.000			-5.566			-1.855
296204.000			-5.566			-1.855
296305.000			-5.566			-1.855
296404.000			-5.565			-1.855
296504.000			-5.565			-1.855
296604.000			-5.565			-1.855
296704.000			-5.565			-1.855
296804.000			-5.565			-1.855
296905.000			-5.565			-1.855
297004.000			-5.565			-1.855
297104.000			-5.565			-1.855
297205.000			-5.564			-1.855
297304.000			-5.564			-1.855
297404.000			-5.564			-1.855
297504.000			-5.565			-1.855
297604.000			-5.565			-1.855
297704.000			-5.564			-1.855
297805.000			-5.564			-1.855
297904.000			-5.566			-1.855
298004.000			-5.565			-1.855
298105.000			-5.565			-1.855
298204.000			-5.565			-1.855
298304.000			-5.565			-1.855
298404.000			-5.566			-1.855
298504.000			-5.566			-1.855
298603.000			-5.565			-1.855
298705.000			-5.565			-1.855
298804.000			-5.565			-1.855
298904.000			-5.565			-1.855
299005.000			-5.565			-1.855
299104.000			-5.565			-1.855
299205.000			-5.564			-1.855
299304.000			-5.563			-1.854
299404.000			-5.564			-1.855
299504.000			-5.564			-1.855
299604.000			-5.565			-1.855
299704.000			-5.566			-1.855
299805.000			-5.565			-1.855
299904.000			-5.565			-1.855
