# Acquired on 29/01/2024 14:36:08 
# SPIDER: Creep_8mm_HM077x145x38AA-1
# CREEP MEASUREMENT

# time [ms]		force [N]		stiffness [N/mm]
0.000			-43.015			-5.377
105.000			-44.170			-5.521
204.000			-44.521			-5.565
304.000			-44.262			-5.533
405.000			-44.164			-5.520
504.000			-44.081			-5.510
604.000			-44.011			-5.501
705.000			-43.950			-5.494
804.000			-43.894			-5.487
904.000			-43.844			-5.480
1004.000			-43.753			-5.469
1104.000			-43.712			-5.464
1204.000			-43.675			-5.459
1305.000			-43.639			-5.455
1404.000			-43.605			-5.451
1504.000			-43.574			-5.447
1605.000			-43.544			-5.443
1703.000			-43.515			-5.439
1805.000			-43.462			-5.433
1904.000			-43.436			-5.430
2004.000			-43.411			-5.426
2105.000			-43.388			-5.424
2203.000			-43.365			-5.421
2304.000			-43.344			-5.418
2405.000			-43.323			-5.415
2504.000			-43.284			-5.410
2604.000			-43.265			-5.408
2705.000			-43.246			-5.406
2804.000			-43.226			-5.403
2903.000			-43.209			-5.401
3005.000			-43.193			-5.399
3104.000			-43.176			-5.397
3204.000			-43.143			-5.393
3305.000			-43.128			-5.391
3403.000			-43.113			-5.389
3504.000			-43.099			-5.387
3605.000			-43.085			-5.386
3704.000			-43.071			-5.384
3804.000			-43.056			-5.382
3905.000			-43.032			-5.379
4004.000			-43.020			-5.377
4103.000			-43.006			-5.376
4205.000			-42.993			-5.374
4304.000			-42.981			-5.373
4404.000			-42.969			-5.371
4505.000			-42.956			-5.370
4603.000			-42.944			-5.368
4704.000			-42.922			-5.365
4805.000			-42.911			-5.364
4904.000			-42.901			-5.363
5005.000			-42.891			-5.361
5104.000			-42.882			-5.360
5204.000			-42.871			-5.359
5304.000			-42.860			-5.358
5404.000			-42.842			-5.355
5504.000			-42.832			-5.354
5605.000			-42.822			-5.353
5704.000			-42.812			-5.351
5804.000			-42.803			-5.350
5905.000			-42.793			-5.349
6003.000			-42.785			-5.348
6104.000			-42.767			-5.346
6205.000			-42.758			-5.345
6304.000			-42.751			-5.344
6404.000			-42.742			-5.343
6504.000			-42.735			-5.342
6604.000			-42.727			-5.341
6704.000			-42.717			-5.340
6805.000			-42.701			-5.338
6904.000			-42.692			-5.337
7004.000			-42.685			-5.336
7105.000			-42.677			-5.335
7203.000			-42.671			-5.334
7304.000			-42.664			-5.333
7405.000			-42.656			-5.332
7504.000			-42.642			-5.330
7604.000			-42.635			-5.329
7705.000			-42.627			-5.328
7804.000			-42.621			-5.328
7903.000			-42.613			-5.327
8005.000			-42.607			-5.326
8104.000			-42.599			-5.325
8205.000			-42.593			-5.324
8304.000			-42.580			-5.323
8403.000			-42.573			-5.322
8505.000			-42.567			-5.321
8604.000			-42.561			-5.320
8704.000			-42.554			-5.319
8805.000			-42.548			-5.318
8904.000			-42.542			-5.318
9004.000			-42.530			-5.316
9104.000			-42.524			-5.315
9204.000			-42.517			-5.315
9304.000			-42.511			-5.314
9405.000			-42.505			-5.313
9504.000			-42.499			-5.312
9603.000			-42.494			-5.312
9705.000			-42.485			-5.311
9804.000			-42.478			-5.310
9904.000			-42.472			-5.309
10005.000			-42.466			-5.308
10104.000			-42.461			-5.308
10204.000			-42.456			-5.307
10304.000			-42.450			-5.306
10404.000			-42.440			-5.305
10504.000			-42.434			-5.304
10605.000			-42.428			-5.303
10704.000			-42.423			-5.303
10804.000			-42.419			-5.302
10905.000			-42.414			-5.302
11003.000			-42.408			-5.301
11104.000			-42.398			-5.300
11205.000			-42.393			-5.299
11304.000			-42.387			-5.298
11405.000			-42.382			-5.298
11504.000			-42.377			-5.297
11604.000			-42.372			-5.296
11704.000			-42.367			-5.296
11804.000			-42.362			-5.295
11904.000			-42.353			-5.294
12005.000			-42.348			-5.294
12104.000			-42.344			-5.293
12203.000			-42.339			-5.292
12305.000			-42.335			-5.292
12404.000			-42.331			-5.291
12504.000			-42.326			-5.291
12605.000			-42.317			-5.290
12704.000			-42.314			-5.289
12804.000			-42.309			-5.289
12904.000			-42.304			-5.288
13004.000			-42.299			-5.287
13104.000			-42.295			-5.287
13205.000			-42.290			-5.286
13304.000			-42.282			-5.285
13404.000			-42.277			-5.285
13505.000			-42.274			-5.284
13603.000			-42.270			-5.284
13704.000			-42.266			-5.283
13805.000			-42.262			-5.283
13904.000			-42.259			-5.282
14004.000			-42.249			-5.281
14105.000			-42.245			-5.281
14204.000			-42.242			-5.280
14303.000			-42.238			-5.280
14405.000			-42.234			-5.279
14504.000			-42.231			-5.279
14605.000			-42.226			-5.278
14704.000			-42.222			-5.278
14803.000			-42.213			-5.277
14905.000			-42.210			-5.276
15004.000			-42.206			-5.276
15104.000			-42.202			-5.275
15205.000			-42.199			-5.275
15304.000			-42.195			-5.274
15404.000			-42.190			-5.274
15504.000			-42.185			-5.273
15604.000			-42.180			-5.273
15704.000			-42.176			-5.272
15805.000			-42.174			-5.272
15904.000			-42.170			-5.271
16004.000			-42.166			-5.271
16105.000			-42.163			-5.270
16203.000			-42.155			-5.269
16304.000			-42.151			-5.269
16405.000			-42.149			-5.269
16504.000			-42.145			-5.268
16604.000			-42.142			-5.268
16705.000			-42.138			-5.267
16804.000			-42.134			-5.267
16903.000			-42.127			-5.266
17005.000			-42.124			-5.266
17104.000			-42.121			-5.265
17204.000			-42.118			-5.265
17305.000			-42.114			-5.264
17403.000			-42.111			-5.264
17504.000			-42.108			-5.263
17605.000			-42.102			-5.263
17704.000			-42.098			-5.262
17805.000			-42.096			-5.262
17904.000			-42.092			-5.262
18004.000			-42.087			-5.261
18104.000			-42.084			-5.260
18204.000			-42.082			-5.260
18304.000			-42.080			-5.260
18405.000			-42.073			-5.259
18504.000			-42.069			-5.259
18604.000			-42.067			-5.258
18705.000			-42.064			-5.258
18803.000			-42.060			-5.258
18904.000			-42.057			-5.257
19005.000			-42.054			-5.257
19104.000			-42.047			-5.256
19204.000			-42.045			-5.256
19305.000			-42.042			-5.255
19404.000			-42.040			-5.255
19503.000			-42.036			-5.254
19605.000			-42.034			-5.254
19704.000			-42.031			-5.254
19804.000			-42.026			-5.253
19905.000			-42.022			-5.253
20003.000			-42.019			-5.252
20104.000			-42.015			-5.252
20205.000			-42.012			-5.251
20304.000			-42.009			-5.251
20404.000			-42.007			-5.251
20505.000			-42.003			-5.250
20604.000			-42.000			-5.250
20703.000			-41.995			-5.249
20805.000			-41.992			-5.249
20904.000			-41.990			-5.249
21005.000			-41.988			-5.248
21104.000			-41.985			-5.248
21204.000			-41.982			-5.248
21305.000			-41.976			-5.247
21403.000			-41.974			-5.247
21504.000			-41.972			-5.247
21605.000			-41.970			-5.246
21704.000			-41.968			-5.246
21804.000			-41.964			-5.245
21905.000			-41.960			-5.245
22004.000			-41.956			-5.244
22103.000			-41.953			-5.244
22205.000			-41.950			-5.244
22304.000			-41.947			-5.243
22404.000			-41.944			-5.243
22505.000			-41.942			-5.243
22604.000			-41.940			-5.243
22704.000			-41.936			-5.242
22804.000			-41.933			-5.242
22904.000			-41.929			-5.241
23004.000			-41.927			-5.241
23105.000			-41.924			-5.241
23204.000			-41.921			-5.240
23303.000			-41.918			-5.240
23405.000			-41.914			-5.239
23504.000			-41.912			-5.239
23604.000			-41.910			-5.239
23705.000			-41.907			-5.238
23804.000			-41.904			-5.238
23904.000			-41.901			-5.238
24004.000			-41.900			-5.237
24104.000			-41.894			-5.237
24205.000			-41.892			-5.237
24304.000			-41.891			-5.236
24404.000			-41.889			-5.236
24505.000			-41.887			-5.236
24604.000			-41.884			-5.236
24703.000			-41.881			-5.235
24805.000			-41.879			-5.235
24904.000			-41.872			-5.234
25004.000			-41.870			-5.234
25105.000			-41.867			-5.233
25204.000			-41.865			-5.233
25304.000			-41.863			-5.233
25404.000			-41.861			-5.233
25504.000			-41.858			-5.232
25604.000			-41.854			-5.232
25705.000			-41.852			-5.232
25804.000			-41.850			-5.231
25904.000			-41.848			-5.231
26005.000			-41.845			-5.231
26103.000			-41.842			-5.230
26204.000			-41.840			-5.230
26305.000			-41.837			-5.230
26404.000			-41.834			-5.229
26504.000			-41.832			-5.229
26604.000			-41.830			-5.229
26704.000			-41.827			-5.228
26803.000			-41.825			-5.228
26905.000			-41.823			-5.228
27004.000			-41.819			-5.227
27104.000			-41.818			-5.227
27205.000			-41.816			-5.227
27303.000			-41.813			-5.227
27405.000			-41.811			-5.226
27504.000			-41.808			-5.226
27604.000			-41.805			-5.226
27705.000			-41.801			-5.225
27804.000			-41.800			-5.225
27904.000			-41.797			-5.225
28004.000			-41.795			-5.224
28104.000			-41.793			-5.224
28204.000			-41.792			-5.224
28305.000			-41.790			-5.224
28404.000			-41.786			-5.223
28504.000			-41.781			-5.223
28605.000			-41.780			-5.223
28703.000			-41.779			-5.222
28804.000			-41.776			-5.222
28904.000			-41.774			-5.222
29004.000			-41.773			-5.222
29104.000			-41.771			-5.221
29205.000			-41.766			-5.221
29304.000			-41.764			-5.220
29404.000			-41.762			-5.220
29505.000			-41.761			-5.220
29603.000			-41.758			-5.220
29704.000			-41.756			-5.219
29805.000			-41.753			-5.219
29904.000			-41.749			-5.219
30004.000			-41.748			-5.218
30105.000			-41.746			-5.218
30204.000			-41.744			-5.218
30303.000			-41.741			-5.218
30405.000			-41.740			-5.217
30504.000			-41.738			-5.217
30605.000			-41.734			-5.217
30704.000			-41.731			-5.216
30803.000			-41.728			-5.216
30905.000			-41.726			-5.216
31004.000			-41.725			-5.216
31104.000			-41.724			-5.215
31205.000			-41.723			-5.215
31304.000			-41.720			-5.215
31404.000			-41.716			-5.215
31504.000			-41.714			-5.214
31604.000			-41.713			-5.214
31704.000			-41.709			-5.214
31805.000			-41.707			-5.213
31904.000			-41.707			-5.213
32004.000			-41.706			-5.213
32105.000			-41.701			-5.213
32203.000			-41.698			-5.212
32304.000			-41.696			-5.212
32405.000			-41.696			-5.212
32504.000			-41.694			-5.212
32604.000			-41.692			-5.211
32705.000			-41.690			-5.211
32804.000			-41.686			-5.211
32903.000			-41.685			-5.211
33005.000			-41.684			-5.211
33104.000			-41.681			-5.210
33204.000			-41.678			-5.210
33305.000			-41.677			-5.210
33403.000			-41.675			-5.209
33504.000			-41.672			-5.209
33605.000			-41.670			-5.209
33704.000			-41.669			-5.209
33805.000			-41.668			-5.208
33904.000			-41.666			-5.208
34004.000			-41.663			-5.208
34104.000			-41.661			-5.208
34204.000			-41.657			-5.207
34304.000			-41.655			-5.207
34405.000			-41.652			-5.207
34504.000			-41.651			-5.206
34604.000			-41.651			-5.206
34705.000			-41.649			-5.206
34803.000			-41.647			-5.206
34904.000			-41.645			-5.206
35005.000			-41.642			-5.205
35104.000			-41.640			-5.205
35204.000			-41.639			-5.205
35305.000			-41.638			-5.205
35404.000			-41.635			-5.204
35503.000			-41.633			-5.204
35605.000			-41.632			-5.204
35704.000			-41.629			-5.204
35804.000			-41.627			-5.203
35905.000			-41.626			-5.203
36004.000			-41.624			-5.203
36104.000			-41.622			-5.203
36204.000			-41.620			-5.202
36304.000			-41.617			-5.202
36404.000			-41.615			-5.202
36505.000			-41.614			-5.202
36604.000			-41.613			-5.202
36703.000			-41.610			-5.201
36805.000			-41.608			-5.201
36904.000			-41.606			-5.201
37005.000			-41.605			-5.201
37104.000			-41.603			-5.200
37204.000			-41.601			-5.200
37305.000			-41.600			-5.200
37403.000			-41.598			-5.200
37504.000			-41.596			-5.199
37605.000			-41.593			-5.199
37704.000			-41.591			-5.199
37804.000			-41.589			-5.199
37905.000			-41.587			-5.198
38004.000			-41.586			-5.198
38103.000			-41.583			-5.198
38205.000			-41.581			-5.198
38304.000			-41.580			-5.197
38404.000			-41.578			-5.197
38505.000			-41.576			-5.197
38604.000			-41.575			-5.197
38704.000			-41.572			-5.197
38804.000			-41.571			-5.196
38904.000			-41.569			-5.196
39004.000			-41.568			-5.196
39105.000			-41.567			-5.196
39204.000			-41.565			-5.196
39304.000			-41.562			-5.195
39405.000			-41.561			-5.195
39503.000			-41.559			-5.195
39604.000			-41.557			-5.195
39705.000			-41.556			-5.195
39804.000			-41.554			-5.194
39904.000			-41.552			-5.194
40005.000			-41.549			-5.194
40104.000			-41.547			-5.193
40203.000			-41.546			-5.193
40304.000			-41.546			-5.193
40404.000			-41.544			-5.193
40505.000			-41.543			-5.193
40604.000			-41.542			-5.193
40704.000			-41.537			-5.192
40805.000			-41.536			-5.192
40903.000			-41.534			-5.192
41004.000			-41.533			-5.192
41105.000			-41.530			-5.191
41204.000			-41.529			-5.191
41304.000			-41.528			-5.191
41404.000			-41.526			-5.191
41504.000			-41.525			-5.191
41604.000			-41.523			-5.190
41705.000			-41.522			-5.190
41804.000			-41.520			-5.190
41904.000			-41.518			-5.190
42005.000			-41.516			-5.190
42103.000			-41.515			-5.189
42204.000			-41.513			-5.189
42305.000			-41.511			-5.189
42404.000			-41.509			-5.189
42504.000			-41.507			-5.188
42605.000			-41.506			-5.188
42704.000			-41.504			-5.188
42803.000			-41.503			-5.188
42905.000			-41.500			-5.187
43004.000			-41.499			-5.187
43104.000			-41.497			-5.187
43205.000			-41.496			-5.187
43304.000			-41.495			-5.187
43405.000			-41.494			-5.187
43503.000			-41.491			-5.186
43604.000			-41.489			-5.186
43705.000			-41.488			-5.186
43804.000			-41.486			-5.186
43904.000			-41.484			-5.186
44004.000			-41.483			-5.185
44104.000			-41.482			-5.185
44203.000			-41.481			-5.185
44305.000			-41.478			-5.185
44404.000			-41.476			-5.185
44504.000			-41.475			-5.184
44605.000			-41.474			-5.184
44703.000			-41.473			-5.184
44804.000			-41.471			-5.184
44905.000			-41.469			-5.184
45004.000			-41.469			-5.184
45104.000			-41.466			-5.183
45205.000			-41.464			-5.183
45304.000			-41.462			-5.183
45403.000			-41.461			-5.183
45505.000			-41.460			-5.183
45604.000			-41.458			-5.182
45704.000			-41.457			-5.182
45805.000			-41.455			-5.182
45904.000			-41.454			-5.182
46004.000			-41.453			-5.182
46104.000			-41.452			-5.182
46204.000			-41.450			-5.181
46304.000			-41.449			-5.181
46405.000			-41.448			-5.181
46504.000			-41.444			-5.181
46605.000			-41.443			-5.180
46704.000			-41.442			-5.180
46803.000			-41.442			-5.180
46905.000			-41.440			-5.180
47004.000			-41.438			-5.180
47104.000			-41.437			-5.180
47205.000			-41.434			-5.179
47303.000			-41.433			-5.179
47404.000			-41.432			-5.179
47505.000			-41.431			-5.179
47604.000			-41.430			-5.179
47704.000			-41.429			-5.179
47805.000			-41.426			-5.178
47904.000			-41.423			-5.178
48003.000			-41.422			-5.178
48105.000			-41.422			-5.178
48204.000			-41.421			-5.178
48304.000			-41.420			-5.177
48405.000			-41.419			-5.177
48504.000			-41.417			-5.177
48604.000			-41.416			-5.177
48704.000			-41.414			-5.177
48804.000			-41.413			-5.177
48904.000			-41.411			-5.176
49005.000			-41.410			-5.176
49104.000			-41.408			-5.176
49204.000			-41.405			-5.176
49305.000			-41.404			-5.176
49403.000			-41.402			-5.175
49504.000			-41.401			-5.175
49605.000			-41.400			-5.175
49704.000			-41.399			-5.175
49805.000			-41.397			-5.175
49904.000			-41.396			-5.174
50004.000			-41.396			-5.174
50104.000			-41.393			-5.174
50204.000			-41.392			-5.174
50304.000			-41.390			-5.174
50405.000			-41.389			-5.174
50504.000			-41.388			-5.173
50603.000			-41.386			-5.173
50705.000			-41.385			-5.173
50804.000			-41.383			-5.173
50904.000			-41.382			-5.173
51005.000			-41.382			-5.173
51104.000			-41.380			-5.173
51204.000			-41.379			-5.172
51304.000			-41.378			-5.172
51404.000			-41.375			-5.172
51504.000			-41.373			-5.172
51605.000			-41.372			-5.172
51704.000			-41.373			-5.172
51804.000			-41.372			-5.171
51905.000			-41.369			-5.171
52003.000			-41.367			-5.171
52104.000			-41.367			-5.171
52205.000			-41.365			-5.171
52304.000			-41.364			-5.170
52404.000			-41.362			-5.170
52504.000			-41.361			-5.170
52604.000			-41.359			-5.170
52704.000			-41.358			-5.170
52805.000			-41.355			-5.169
52904.000			-41.355			-5.169
53005.000			-41.354			-5.169
53104.000			-41.353			-5.169
53203.000			-41.352			-5.169
53305.000			-41.350			-5.169
53404.000			-41.349			-5.169
53504.000			-41.348			-5.169
53605.000			-41.346			-5.168
53704.000			-41.344			-5.168
53804.000			-41.345			-5.168
53904.000			-41.343			-5.168
54004.000			-41.341			-5.168
54104.000			-41.339			-5.167
54205.000			-41.338			-5.167
54304.000			-41.337			-5.167
54404.000			-41.335			-5.167
54505.000			-41.334			-5.167
54604.000			-41.333			-5.167
54704.000			-41.331			-5.166
54805.000			-41.330			-5.166
54904.000			-41.329			-5.166
55004.000			-41.328			-5.166
55104.000			-41.327			-5.166
55204.000			-41.325			-5.166
55304.000			-41.324			-5.165
55405.000			-41.322			-5.165
55504.000			-41.321			-5.165
55604.000			-41.320			-5.165
55705.000			-41.319			-5.165
55803.000			-41.318			-5.165
55904.000			-41.316			-5.164
56005.000			-41.315			-5.164
56104.000			-41.314			-5.164
56205.000			-41.313			-5.164
56304.000			-41.312			-5.164
56404.000			-41.311			-5.164
56504.000			-41.309			-5.164
56604.000			-41.307			-5.163
56704.000			-41.305			-5.163
56805.000			-41.304			-5.163
56904.000			-41.303			-5.163
57004.000			-41.303			-5.163
57105.000			-41.301			-5.163
57203.000			-41.299			-5.162
57304.000			-41.298			-5.162
57405.000			-41.297			-5.162
57504.000			-41.296			-5.162
57604.000			-41.295			-5.162
57704.000			-41.294			-5.162
57804.000			-41.293			-5.162
57903.000			-41.292			-5.161
58005.000			-41.290			-5.161
58104.000			-41.289			-5.161
58204.000			-41.286			-5.161
58305.000			-41.286			-5.161
58403.000			-41.285			-5.161
58504.000			-41.285			-5.161
58605.000			-41.284			-5.161
58704.000			-41.282			-5.160
58804.000			-41.278			-5.160
58905.000			-41.277			-5.160
59004.000			-41.277			-5.160
59103.000			-41.276			-5.160
59205.000			-41.276			-5.160
59304.000			-41.275			-5.159
59405.000			-41.273			-5.159
59504.000			-41.272			-5.159
59604.000			-41.271			-5.159
59705.000			-41.269			-5.159
59803.000			-41.268			-5.159
59904.000			-41.267			-5.158
60005.000			-41.266			-5.158
60104.000			-41.265			-5.158
60204.000			-41.263			-5.158
60305.000			-41.263			-5.158
60404.000			-41.262			-5.158
60503.000			-41.259			-5.157
60605.000			-41.258			-5.157
60704.000			-41.258			-5.157
60804.000			-41.257			-5.157
60905.000			-41.254			-5.157
61004.000			-41.253			-5.157
61104.000			-41.252			-5.156
61204.000			-41.252			-5.156
61304.000			-41.251			-5.156
61404.000			-41.249			-5.156
61505.000			-41.249			-5.156
61604.000			-41.246			-5.156
61703.000			-41.246			-5.156
61805.000			-41.246			-5.156
61904.000			-41.244			-5.155
62004.000			-41.243			-5.155
62105.000			-41.242			-5.155
62204.000			-41.240			-5.155
62304.000			-41.240			-5.155
62404.000			-41.237			-5.155
62504.000			-41.236			-5.155
62605.000			-41.236			-5.154
62704.000			-41.234			-5.154
62804.000			-41.233			-5.154
62905.000			-41.232			-5.154
63004.000			-41.233			-5.154
63103.000			-41.229			-5.154
63205.000			-41.228			-5.153
63304.000			-41.227			-5.153
63404.000			-41.226			-5.153
63505.000			-41.227			-5.153
63603.000			-41.225			-5.153
63704.000			-41.223			-5.153
63805.000			-41.221			-5.153
63904.000			-41.221			-5.153
64004.000			-41.220			-5.153
64105.000			-41.220			-5.153
64204.000			-41.219			-5.152
64303.000			-41.217			-5.152
64405.000			-41.215			-5.152
64504.000			-41.215			-5.152
64604.000			-41.214			-5.152
64705.000			-41.212			-5.152
64804.000			-41.211			-5.151
64904.000			-41.210			-5.151
65004.000			-41.208			-5.151
65104.000			-41.207			-5.151
65204.000			-41.206			-5.151
65305.000			-41.205			-5.151
65404.000			-41.204			-5.150
65503.000			-41.204			-5.150
65605.000			-41.203			-5.150
65704.000			-41.202			-5.150
65805.000			-41.200			-5.150
65904.000			-41.200			-5.150
66004.000			-41.197			-5.150
66105.000			-41.195			-5.149
66203.000			-41.196			-5.149
66304.000			-41.195			-5.149
66405.000			-41.193			-5.149
66504.000			-41.192			-5.149
66604.000			-41.191			-5.149
66705.000			-41.190			-5.149
66804.000			-41.189			-5.149
66903.000			-41.189			-5.149
67005.000			-41.187			-5.148
67104.000			-41.186			-5.148
67204.000			-41.185			-5.148
67305.000			-41.184			-5.148
67404.000			-41.183			-5.148
67504.000			-41.181			-5.148
67604.000			-41.180			-5.148
67704.000			-41.180			-5.147
67804.000			-41.180			-5.147
67905.000			-41.178			-5.147
68004.000			-41.176			-5.147
68104.000			-41.174			-5.147
68205.000			-41.174			-5.147
68303.000			-41.172			-5.147
68404.000			-41.171			-5.146
68505.000			-41.171			-5.146
68604.000			-41.169			-5.146
68704.000			-41.169			-5.146
68805.000			-41.167			-5.146
68904.000			-41.166			-5.146
69003.000			-41.166			-5.146
69104.000			-41.165			-5.146
69204.000			-41.164			-5.145
69305.000			-41.163			-5.145
69404.000			-41.162			-5.145
69504.000			-41.161			-5.145
69605.000			-41.158			-5.145
69703.000			-41.156			-5.145
69804.000			-41.156			-5.145
69905.000			-41.157			-5.145
70004.000			-41.156			-5.145
70104.000			-41.154			-5.144
70205.000			-41.153			-5.144
70304.000			-41.150			-5.144
70403.000			-41.149			-5.144
70505.000			-41.149			-5.144
70604.000			-41.147			-5.143
70704.000			-41.147			-5.143
70805.000			-41.148			-5.143
70904.000			-41.147			-5.143
71004.000			-41.145			-5.143
71104.000			-41.144			-5.143
71204.000			-41.143			-5.143
71304.000			-41.141			-5.143
71405.000			-41.141			-5.143
71504.000			-41.140			-5.142
71603.000			-41.139			-5.142
71705.000			-41.136			-5.142
71804.000			-41.136			-5.142
71904.000			-41.135			-5.142
72005.000			-41.135			-5.142
72104.000			-41.134			-5.142
72205.000			-41.132			-5.142
72303.000			-41.131			-5.141
72404.000			-41.130			-5.141
72505.000			-41.129			-5.141
72604.000			-41.128			-5.141
72704.000			-41.128			-5.141
72805.000			-41.127			-5.141
72904.000			-41.126			-5.141
73003.000			-41.124			-5.141
73105.000			-41.123			-5.140
73204.000			-41.123			-5.140
73304.000			-41.120			-5.140
73405.000			-41.119			-5.140
73504.000			-41.119			-5.140
73604.000			-41.118			-5.140
73704.000			-41.117			-5.140
73804.000			-41.116			-5.140
73904.000			-41.115			-5.139
74005.000			-41.114			-5.139
74104.000			-41.113			-5.139
74204.000			-41.112			-5.139
74305.000			-41.111			-5.139
74403.000			-41.110			-5.139
74504.000			-41.110			-5.139
74605.000			-41.108			-5.139
74704.000			-41.108			-5.138
74804.000			-41.107			-5.138
74904.000			-41.106			-5.138
75004.000			-41.105			-5.138
75103.000			-41.104			-5.138
75205.000			-41.102			-5.138
75304.000			-41.101			-5.138
75405.000			-41.099			-5.137
75504.000			-41.099			-5.137
75603.000			-41.099			-5.137
75705.000			-41.098			-5.137
75804.000			-41.097			-5.137
75904.000			-41.097			-5.137
76005.000			-41.096			-5.137
76104.000			-41.093			-5.137
76204.000			-41.091			-5.136
76304.000			-41.092			-5.136
76404.000			-41.091			-5.136
76503.000			-41.090			-5.136
76605.000			-41.088			-5.136
76704.000			-41.088			-5.136
76804.000			-41.085			-5.136
76905.000			-41.085			-5.136
77004.000			-41.085			-5.136
77104.000			-41.085			-5.136
77204.000			-41.084			-5.135
77304.000			-41.083			-5.135
77404.000			-41.081			-5.135
77505.000			-41.079			-5.135
77604.000			-41.078			-5.135
77704.000			-41.078			-5.135
77805.000			-41.078			-5.135
77903.000			-41.077			-5.135
78004.000			-41.075			-5.134
78105.000			-41.075			-5.134
78204.000			-41.073			-5.134
78304.000			-41.072			-5.134
78404.000			-41.072			-5.134
78504.000			-41.072			-5.134
78603.000			-41.072			-5.134
78704.000			-41.070			-5.134
78804.000			-41.068			-5.134
78905.000			-41.066			-5.133
79004.000			-41.066			-5.133
79104.000			-41.066			-5.133
79205.000			-41.065			-5.133
79303.000			-41.065			-5.133
79404.000			-41.063			-5.133
79505.000			-41.061			-5.133
79604.000			-41.061			-5.133
79704.000			-41.060			-5.132
79805.000			-41.060			-5.133
79904.000			-41.058			-5.132
80003.000			-41.057			-5.132
80105.000			-41.055			-5.132
80204.000			-41.054			-5.132
80304.000			-41.054			-5.132
80405.000			-41.053			-5.132
80504.000			-41.052			-5.131
80604.000			-41.051			-5.131
80705.000			-41.052			-5.131
80804.000			-41.050			-5.131
80904.000			-41.049			-5.131
81005.000			-41.048			-5.131
81104.000			-41.047			-5.131
81203.000			-41.047			-5.131
81305.000			-41.046			-5.131
81404.000			-41.045			-5.131
81504.000			-41.043			-5.130
81605.000			-41.043			-5.130
81704.000			-41.042			-5.130
81805.000			-41.039			-5.130
81903.000			-41.038			-5.130
82004.000			-41.038			-5.130
82105.000			-41.038			-5.130
82204.000			-41.037			-5.130
82304.000			-41.037			-5.130
82405.000			-41.036			-5.129
82504.000			-41.035			-5.129
82603.000			-41.034			-5.129
82705.000			-41.032			-5.129
82804.000			-41.031			-5.129
82904.000			-41.030			-5.129
83005.000			-41.029			-5.129
83104.000			-41.030			-5.129
83204.000			-41.029			-5.129
83304.000			-41.027			-5.128
83404.000			-41.027			-5.128
83504.000			-41.026			-5.128
83605.000			-41.024			-5.128
83704.000			-41.023			-5.128
83803.000			-41.022			-5.128
83905.000			-41.021			-5.128
84004.000			-41.022			-5.128
84104.000			-41.022			-5.128
84205.000			-41.020			-5.128
84304.000			-41.019			-5.127
84404.000			-41.017			-5.127
84504.000			-41.016			-5.127
84604.000			-41.016			-5.127
84704.000			-41.015			-5.127
84805.000			-41.015			-5.127
84904.000			-41.014			-5.127
85005.000			-41.013			-5.127
85104.000			-41.012			-5.126
85203.000			-41.011			-5.126
85305.000			-41.010			-5.126
85404.000			-41.008			-5.126
85504.000			-41.007			-5.126
85605.000			-41.007			-5.126
85704.000			-41.006			-5.126
85804.000			-41.006			-5.126
85904.000			-41.006			-5.126
86004.000			-41.005			-5.126
86104.000			-41.005			-5.126
86205.000			-41.001			-5.125
86304.000			-41.002			-5.125
86403.000			-41.002			-5.125
86505.000			-40.999			-5.125
86603.000			-40.997			-5.125
86704.000			-40.997			-5.125
86805.000			-40.997			-5.125
86904.000			-40.996			-5.125
87004.000			-40.995			-5.124
87105.000			-40.995			-5.124
87204.000			-40.994			-5.124
87303.000			-40.994			-5.124
87405.000			-40.993			-5.124
87504.000			-40.992			-5.124
87604.000			-40.990			-5.124
87705.000			-40.990			-5.124
87804.000			-40.989			-5.124
87904.000			-40.988			-5.124
88004.000			-40.988			-5.124
88104.000			-40.987			-5.123
88205.000			-40.985			-5.123
88304.000			-40.984			-5.123
88404.000			-40.983			-5.123
88505.000			-40.981			-5.123
88604.000			-40.982			-5.123
88703.000			-40.980			-5.123
88805.000			-40.979			-5.122
88904.000			-40.979			-5.122
89004.000			-40.978			-5.122
89105.000			-40.977			-5.122
89204.000			-40.977			-5.122
89304.000			-40.976			-5.122
89405.000			-40.974			-5.122
89504.000			-40.974			-5.122
89603.000			-40.973			-5.122
89705.000			-40.973			-5.122
89804.000			-40.971			-5.121
89904.000			-40.972			-5.121
90005.000			-40.971			-5.121
90104.000			-40.969			-5.121
90204.000			-40.968			-5.121
90304.000			-40.967			-5.121
90404.000			-40.967			-5.121
90504.000			-40.965			-5.121
90605.000			-40.965			-5.121
90704.000			-40.964			-5.121
90804.000			-40.964			-5.120
90905.000			-40.963			-5.120
91003.000			-40.961			-5.120
91104.000			-40.961			-5.120
91205.000			-40.960			-5.120
91304.000			-40.960			-5.120
91405.000			-40.959			-5.120
91504.000			-40.957			-5.120
91604.000			-40.956			-5.120
91704.000			-40.956			-5.120
91804.000			-40.955			-5.119
91904.000			-40.954			-5.119
92005.000			-40.952			-5.119
92104.000			-40.952			-5.119
92204.000			-40.952			-5.119
92305.000			-40.951			-5.119
92403.000			-40.950			-5.119
92504.000			-40.949			-5.119
92605.000			-40.949			-5.119
92704.000			-40.948			-5.119
92804.000			-40.947			-5.118
92905.000			-40.946			-5.118
93004.000			-40.945			-5.118
93103.000			-40.945			-5.118
93205.000			-40.945			-5.118
93304.000			-40.944			-5.118
93404.000			-40.943			-5.118
93505.000			-40.942			-5.118
93604.000			-40.942			-5.118
93704.000			-40.942			-5.118
93804.000			-40.940			-5.118
93904.000			-40.940			-5.117
94004.000			-40.937			-5.117
94105.000			-40.936			-5.117
94204.000			-40.935			-5.117
94304.000			-40.937			-5.117
94405.000			-40.936			-5.117
94503.000			-40.934			-5.117
94605.000			-40.933			-5.117
94704.000			-40.933			-5.117
94804.000			-40.931			-5.116
94905.000			-40.930			-5.116
95004.000			-40.929			-5.116
95104.000			-40.930			-5.116
95205.000			-40.930			-5.116
95304.000			-40.929			-5.116
95403.000			-40.928			-5.116
95505.000			-40.927			-5.116
95604.000			-40.927			-5.116
95704.000			-40.924			-5.116
95805.000			-40.924			-5.115
95904.000			-40.923			-5.115
96004.000			-40.923			-5.115
96104.000			-40.922			-5.115
96204.000			-40.921			-5.115
96304.000			-40.920			-5.115
96405.000			-40.919			-5.115
96504.000			-40.919			-5.115
96604.000			-40.918			-5.115
96705.000			-40.917			-5.115
96803.000			-40.916			-5.115
96904.000			-40.915			-5.114
97005.000			-40.913			-5.114
97104.000			-40.912			-5.114
97204.000			-40.912			-5.114
97305.000			-40.913			-5.114
97404.000			-40.913			-5.114
97503.000			-40.911			-5.114
97605.000			-40.910			-5.114
97704.000			-40.908			-5.114
97805.000			-40.908			-5.113
97904.000			-40.908			-5.113
98004.000			-40.908			-5.113
98105.000			-40.907			-5.113
98203.000			-40.905			-5.113
98304.000			-40.904			-5.113
98405.000			-40.904			-5.113
98504.000			-40.903			-5.113
98604.000			-40.902			-5.113
98705.000			-40.902			-5.113
98804.000			-40.901			-5.113
98903.000			-40.900			-5.112
99005.000			-40.899			-5.112
99104.000			-40.898			-5.112
99204.000			-40.897			-5.112
99305.000			-40.897			-5.112
99404.000			-40.896			-5.112
99504.000			-40.896			-5.112
99605.000			-40.896			-5.112
99704.000			-40.896			-5.112
99803.000			-40.895			-5.112
99905.000			-40.892			-5.112
100004.000			-40.892			-5.111
100104.000			-40.891			-5.111
100205.000			-40.891			-5.111
100304.000			-40.890			-5.111
100404.000			-40.889			-5.111
100504.000			-40.889			-5.111
100604.000			-40.887			-5.111
100704.000			-40.886			-5.111
100805.000			-40.885			-5.111
100904.000			-40.884			-5.111
101005.000			-40.885			-5.111
101104.000			-40.885			-5.111
101203.000			-40.883			-5.110
101305.000			-40.883			-5.110
101404.000			-40.882			-5.110
101504.000			-40.882			-5.110
101605.000			-40.881			-5.110
101704.000			-40.880			-5.110
101804.000			-40.879			-5.110
101904.000			-40.878			-5.110
102004.000			-40.878			-5.110
102103.000			-40.878			-5.110
102205.000			-40.877			-5.110
102304.000			-40.875			-5.109
102404.000			-40.875			-5.109
102505.000			-40.874			-5.109
102604.000			-40.873			-5.109
102704.000			-40.873			-5.109
102804.000			-40.872			-5.109
102904.000			-40.871			-5.109
103004.000			-40.870			-5.109
103105.000			-40.870			-5.109
103204.000			-40.869			-5.109
103304.000			-40.868			-5.109
103405.000			-40.867			-5.108
103503.000			-40.868			-5.108
103604.000			-40.867			-5.108
103705.000			-40.866			-5.108
103804.000			-40.865			-5.108
103904.000			-40.864			-5.108
104005.000			-40.863			-5.108
104104.000			-40.863			-5.108
104203.000			-40.862			-5.108
104304.000			-40.862			-5.108
104404.000			-40.860			-5.107
104505.000			-40.858			-5.107
104604.000			-40.858			-5.107
104704.000			-40.857			-5.107
104805.000			-40.857			-5.107
104903.000			-40.855			-5.107
105004.000			-40.855			-5.107
105105.000			-40.856			-5.107
105204.000			-40.855			-5.107
105304.000			-40.854			-5.107
105405.000			-40.853			-5.107
105504.000			-40.853			-5.107
105603.000			-40.851			-5.106
105705.000			-40.851			-5.106
105804.000			-40.850			-5.106
105904.000			-40.848			-5.106
106005.000			-40.848			-5.106
106104.000			-40.850			-5.106
106204.000			-40.849			-5.106
106304.000			-40.847			-5.106
106404.000			-40.846			-5.106
106504.000			-40.846			-5.106
106605.000			-40.844			-5.106
106704.000			-40.843			-5.105
106804.000			-40.843			-5.105
106905.000			-40.842			-5.105
107004.000			-40.842			-5.105
107104.000			-40.840			-5.105
107204.000			-40.839			-5.105
107304.000			-40.839			-5.105
107405.000			-40.838			-5.105
107504.000			-40.838			-5.105
107604.000			-40.836			-5.105
107705.000			-40.835			-5.104
107804.000			-40.836			-5.105
107903.000			-40.835			-5.104
108005.000			-40.835			-5.104
108104.000			-40.835			-5.104
108204.000			-40.834			-5.104
108305.000			-40.833			-5.104
108404.000			-40.833			-5.104
108504.000			-40.832			-5.104
108604.000			-40.831			-5.104
108704.000			-40.831			-5.104
108804.000			-40.830			-5.104
108905.000			-40.828			-5.104
109004.000			-40.828			-5.103
109104.000			-40.827			-5.103
109205.000			-40.826			-5.103
109303.000			-40.825			-5.103
109404.000			-40.824			-5.103
109505.000			-40.824			-5.103
109604.000			-40.825			-5.103
109704.000			-40.825			-5.103
109805.000			-40.825			-5.103
109904.000			-40.823			-5.103
110003.000			-40.822			-5.103
110105.000			-40.821			-5.103
110204.000			-40.820			-5.103
110304.000			-40.819			-5.102
110405.000			-40.818			-5.102
110504.000			-40.819			-5.102
110605.000			-40.819			-5.102
110703.000			-40.816			-5.102
110804.000			-40.816			-5.102
110905.000			-40.814			-5.102
111004.000			-40.810			-5.101
111104.000			-40.810			-5.101
111205.000			-40.808			-5.101
111304.000			-40.805			-5.101
111403.000			-40.805			-5.101
111505.000			-40.804			-5.101
111604.000			-40.806			-5.101
111704.000			-40.805			-5.101
111805.000			-40.802			-5.100
111904.000			-40.802			-5.100
112004.000			-40.804			-5.100
112104.000			-40.801			-5.100
112204.000			-40.801			-5.100
112304.000			-40.801			-5.100
112405.000			-40.800			-5.100
112504.000			-40.800			-5.100
112604.000			-40.799			-5.100
112705.000			-40.799			-5.100
112803.000			-40.798			-5.100
112904.000			-40.797			-5.100
113005.000			-40.797			-5.100
113104.000			-40.796			-5.100
113204.000			-40.794			-5.099
113305.000			-40.794			-5.099
113404.000			-40.794			-5.099
113503.000			-40.793			-5.099
113605.000			-40.792			-5.099
113704.000			-40.791			-5.099
113805.000			-40.791			-5.099
113904.000			-40.791			-5.099
114004.000			-40.790			-5.099
114105.000			-40.789			-5.099
114204.000			-40.788			-5.099
114304.000			-40.788			-5.099
114404.000			-40.787			-5.098
114504.000			-40.786			-5.098
114604.000			-40.786			-5.098
114705.000			-40.785			-5.098
114804.000			-40.785			-5.098
114904.000			-40.784			-5.098
115005.000			-40.782			-5.098
115103.000			-40.781			-5.098
115204.000			-40.781			-5.098
115305.000			-40.781			-5.098
115404.000			-40.781			-5.098
115504.000			-40.781			-5.098
115605.000			-40.780			-5.098
115704.000			-40.780			-5.097
115803.000			-40.778			-5.097
115905.000			-40.777			-5.097
116004.000			-40.776			-5.097
116104.000			-40.776			-5.097
116205.000			-40.775			-5.097
116304.000			-40.773			-5.097
116404.000			-40.773			-5.097
116504.000			-40.773			-5.097
116604.000			-40.773			-5.097
116704.000			-40.772			-5.096
116805.000			-40.771			-5.096
116904.000			-40.770			-5.096
117005.000			-40.770			-5.096
117104.000			-40.769			-5.096
117203.000			-40.768			-5.096
117305.000			-40.768			-5.096
117404.000			-40.767			-5.096
117504.000			-40.767			-5.096
117605.000			-40.767			-5.096
117704.000			-40.765			-5.096
117804.000			-40.765			-5.096
117905.000			-40.763			-5.095
118004.000			-40.763			-5.095
118103.000			-40.762			-5.095
118205.000			-40.761			-5.095
118304.000			-40.761			-5.095
118404.000			-40.761			-5.095
118505.000			-40.761			-5.095
118604.000			-40.759			-5.095
118704.000			-40.759			-5.095
118804.000			-40.758			-5.095
118904.000			-40.757			-5.095
119004.000			-40.756			-5.095
119105.000			-40.755			-5.094
119204.000			-40.755			-5.094
119304.000			-40.756			-5.094
119405.000			-40.755			-5.094
119504.000			-40.754			-5.094
119604.000			-40.752			-5.094
119704.000			-40.751			-5.094
119804.000			-40.751			-5.094
119904.000			-40.751			-5.094
120005.000			-40.752			-5.094
120104.000			-40.751			-5.094
120205.000			-40.751			-5.094
120304.000			-40.749			-5.094
120403.000			-40.749			-5.094
120505.000			-40.749			-5.094
120604.000			-40.747			-5.093
120704.000			-40.748			-5.094
120805.000			-40.746			-5.093
120904.000			-40.746			-5.093
121004.000			-40.745			-5.093
121104.000			-40.745			-5.093
121204.000			-40.745			-5.093
121304.000			-40.743			-5.093
121405.000			-40.743			-5.093
121504.000			-40.742			-5.093
121604.000			-40.740			-5.093
121705.000			-40.740			-5.092
121803.000			-40.739			-5.092
121904.000			-40.738			-5.092
122005.000			-40.738			-5.092
122104.000			-40.739			-5.092
122204.000			-40.737			-5.092
122305.000			-40.735			-5.092
122404.000			-40.735			-5.092
122503.000			-40.736			-5.092
122605.000			-40.735			-5.092
122704.000			-40.734			-5.092
122804.000			-40.734			-5.092
122905.000			-40.733			-5.092
123004.000			-40.732			-5.091
123104.000			-40.732			-5.091
123204.000			-40.731			-5.091
123304.000			-40.729			-5.091
123405.000			-40.729			-5.091
123504.000			-40.729			-5.091
123604.000			-40.729			-5.091
123705.000			-40.727			-5.091
123804.000			-40.728			-5.091
123904.000			-40.727			-5.091
124005.000			-40.725			-5.091
124103.000			-40.725			-5.091
124204.000			-40.724			-5.091
124305.000			-40.723			-5.090
124404.000			-40.723			-5.090
124504.000			-40.722			-5.090
124605.000			-40.722			-5.090
124704.000			-40.722			-5.090
124803.000			-40.722			-5.090
124905.000			-40.722			-5.090
125004.000			-40.722			-5.090
125104.000			-40.721			-5.090
125205.000			-40.720			-5.090
125304.000			-40.719			-5.090
125404.000			-40.718			-5.090
125504.000			-40.717			-5.090
125604.000			-40.717			-5.090
125704.000			-40.717			-5.090
125805.000			-40.717			-5.090
125904.000			-40.715			-5.089
126004.000			-40.715			-5.089
126105.000			-40.714			-5.089
126203.000			-40.714			-5.089
126304.000			-40.713			-5.089
126405.000			-40.711			-5.089
126504.000			-40.711			-5.089
126605.000			-40.711			-5.089
126704.000			-40.711			-5.089
126804.000			-40.710			-5.089
126904.000			-40.709			-5.089
127004.000			-40.709			-5.089
127104.000			-40.708			-5.088
127205.000			-40.708			-5.088
127304.000			-40.707			-5.088
127404.000			-40.706			-5.088
127505.000			-40.705			-5.088
127603.000			-40.704			-5.088
127704.000			-40.704			-5.088
127805.000			-40.705			-5.088
127904.000			-40.704			-5.088
128004.000			-40.701			-5.088
128105.000			-40.701			-5.088
128204.000			-40.700			-5.088
128303.000			-40.700			-5.088
128405.000			-40.699			-5.087
128504.000			-40.699			-5.087
128604.000			-40.698			-5.087
128705.000			-40.698			-5.087
128804.000			-40.698			-5.087
128904.000			-40.698			-5.087
129005.000			-40.697			-5.087
129104.000			-40.696			-5.087
129203.000			-40.697			-5.087
129305.000			-40.696			-5.087
129404.000			-40.695			-5.087
129504.000			-40.693			-5.087
129605.000			-40.692			-5.087
129704.000			-40.691			-5.086
129805.000			-40.692			-5.086
129903.000			-40.691			-5.086
130004.000			-40.691			-5.086
130105.000			-40.690			-5.086
130204.000			-40.688			-5.086
130304.000			-40.688			-5.086
130405.000			-40.688			-5.086
130504.000			-40.689			-5.086
130603.000			-40.688			-5.086
130705.000			-40.688			-5.086
130804.000			-40.687			-5.086
130904.000			-40.686			-5.086
131005.000			-40.685			-5.086
131104.000			-40.684			-5.086
131204.000			-40.684			-5.085
131305.000			-40.682			-5.085
131404.000			-40.681			-5.085
131503.000			-40.682			-5.085
131605.000			-40.680			-5.085
131704.000			-40.680			-5.085
131804.000			-40.679			-5.085
131905.000			-40.679			-5.085
132004.000			-40.679			-5.085
132104.000			-40.679			-5.085
132205.000			-40.678			-5.085
132304.000			-40.678			-5.085
132403.000			-40.676			-5.084
132505.000			-40.676			-5.084
132604.000			-40.676			-5.084
132704.000			-40.675			-5.084
132805.000			-40.674			-5.084
132904.000			-40.674			-5.084
133005.000			-40.673			-5.084
133104.000			-40.673			-5.084
133204.000			-40.672			-5.084
133304.000			-40.671			-5.084
133404.000			-40.670			-5.084
133504.000			-40.670			-5.084
133605.000			-40.670			-5.084
133704.000			-40.669			-5.084
133804.000			-40.668			-5.083
133905.000			-40.669			-5.084
134004.000			-40.668			-5.083
134104.000			-40.668			-5.083
134204.000			-40.668			-5.083
134304.000			-40.667			-5.083
134404.000			-40.665			-5.083
134505.000			-40.664			-5.083
134604.000			-40.664			-5.083
134704.000			-40.664			-5.083
134805.000			-40.663			-5.083
134904.000			-40.662			-5.083
135004.000			-40.661			-5.083
135104.000			-40.661			-5.083
135204.000			-40.663			-5.083
135304.000			-40.660			-5.083
135405.000			-40.659			-5.082
135504.000			-40.657			-5.082
135604.000			-40.657			-5.082
135705.000			-40.658			-5.082
135803.000			-40.657			-5.082
135904.000			-40.656			-5.082
136004.000			-40.657			-5.082
136104.000			-40.656			-5.082
136205.000			-40.655			-5.082
136304.000			-40.655			-5.082
136404.000			-40.655			-5.082
136505.000			-40.654			-5.082
136604.000			-40.654			-5.082
136703.000			-40.652			-5.081
136805.000			-40.651			-5.081
136904.000			-40.652			-5.081
137004.000			-40.651			-5.081
137105.000			-40.651			-5.081
137204.000			-40.651			-5.081
137304.000			-40.651			-5.081
137405.000			-40.649			-5.081
137504.000			-40.648			-5.081
137603.000			-40.647			-5.081
137705.000			-40.647			-5.081
137804.000			-40.647			-5.081
137904.000			-40.647			-5.081
138005.000			-40.646			-5.081
138104.000			-40.645			-5.081
138204.000			-40.644			-5.080
138305.000			-40.643			-5.080
138404.000			-40.643			-5.080
138503.000			-40.642			-5.080
138605.000			-40.642			-5.080
138704.000			-40.642			-5.080
138804.000			-40.642			-5.080
138905.000			-40.640			-5.080
139004.000			-40.639			-5.080
139104.000			-40.639			-5.080
139205.000			-40.640			-5.080
139304.000			-40.639			-5.080
139403.000			-40.637			-5.080
139504.000			-40.637			-5.080
139604.000			-40.638			-5.080
139705.000			-40.637			-5.080
139804.000			-40.636			-5.080
139904.000			-40.636			-5.079
140005.000			-40.636			-5.079
140104.000			-40.634			-5.079
140204.000			-40.634			-5.079
140304.000			-40.633			-5.079
140404.000			-40.632			-5.079
140504.000			-40.632			-5.079
140605.000			-40.632			-5.079
140704.000			-40.630			-5.079
140804.000			-40.629			-5.079
140905.000			-40.629			-5.079
141003.000			-40.629			-5.079
141104.000			-40.629			-5.079
141204.000			-40.630			-5.079
141304.000			-40.629			-5.079
141404.000			-40.628			-5.078
141505.000			-40.627			-5.078
141604.000			-40.627			-5.078
141704.000			-40.626			-5.078
141805.000			-40.624			-5.078
141903.000			-40.624			-5.078
142004.000			-40.625			-5.078
142105.000			-40.625			-5.078
142204.000			-40.624			-5.078
142304.000			-40.624			-5.078
142405.000			-40.623			-5.078
142504.000			-40.622			-5.078
142605.000			-40.622			-5.078
142704.000			-40.620			-5.078
142803.000			-40.620			-5.077
142905.000			-40.619			-5.077
143004.000			-40.618			-5.077
143104.000			-40.618			-5.077
143205.000			-40.619			-5.077
143304.000			-40.618			-5.077
143404.000			-40.616			-5.077
143505.000			-40.615			-5.077
143604.000			-40.615			-5.077
143703.000			-40.615			-5.077
143805.000			-40.614			-5.077
143904.000			-40.614			-5.077
144004.000			-40.614			-5.077
144105.000			-40.613			-5.077
144204.000			-40.612			-5.076
144304.000			-40.610			-5.076
144404.000			-40.610			-5.076
144504.000			-40.610			-5.076
144604.000			-40.610			-5.076
144705.000			-40.609			-5.076
144804.000			-40.609			-5.076
144904.000			-40.608			-5.076
145005.000			-40.609			-5.076
145104.000			-40.608			-5.076
145204.000			-40.607			-5.076
145304.000			-40.608			-5.076
145404.000			-40.606			-5.076
145504.000			-40.605			-5.076
145605.000			-40.606			-5.076
145704.000			-40.606			-5.076
145805.000			-40.605			-5.076
145904.000			-40.603			-5.075
146004.000			-40.603			-5.075
146105.000			-40.601			-5.075
146203.000			-40.601			-5.075
146304.000			-40.601			-5.075
146405.000			-40.600			-5.075
146504.000			-40.600			-5.075
146604.000			-40.600			-5.075
146705.000			-40.599			-5.075
146804.000			-40.599			-5.075
146904.000			-40.600			-5.075
147005.000			-40.599			-5.075
147103.000			-40.598			-5.075
147204.000			-40.597			-5.075
147305.000			-40.595			-5.074
147404.000			-40.595			-5.074
147504.000			-40.594			-5.074
147605.000			-40.594			-5.074
147704.000			-40.594			-5.074
147804.000			-40.593			-5.074
147905.000			-40.593			-5.074
148003.000			-40.592			-5.074
148104.000			-40.593			-5.074
148205.000			-40.590			-5.074
148304.000			-40.590			-5.074
148404.000			-40.590			-5.074
148505.000			-40.589			-5.074
148604.000			-40.588			-5.073
148704.000			-40.587			-5.073
148805.000			-40.587			-5.073
148903.000			-40.587			-5.073
149005.000			-40.587			-5.073
149103.000			-40.587			-5.073
149204.000			-40.587			-5.073
149305.000			-40.586			-5.073
149404.000			-40.585			-5.073
149504.000			-40.585			-5.073
149605.000			-40.585			-5.073
149704.000			-40.583			-5.073
149804.000			-40.583			-5.073
149905.000			-40.582			-5.073
150003.000			-40.582			-5.073
150104.000			-40.581			-5.073
150205.000			-40.581			-5.073
150304.000			-40.582			-5.073
150404.000			-40.581			-5.073
150505.000			-40.579			-5.072
150604.000			-40.578			-5.072
150703.000			-40.579			-5.072
150805.000			-40.579			-5.072
150903.000			-40.578			-5.072
151004.000			-40.578			-5.072
151105.000			-40.574			-5.072
151204.000			-40.575			-5.072
151304.000			-40.575			-5.072
151405.000			-40.575			-5.072
151504.000			-40.575			-5.072
151603.000			-40.575			-5.072
151705.000			-40.575			-5.072
151804.000			-40.574			-5.072
151904.000			-40.573			-5.072
152005.000			-40.572			-5.072
152104.000			-40.572			-5.072
152205.000			-40.571			-5.071
152304.000			-40.571			-5.071
152404.000			-40.571			-5.071
152504.000			-40.570			-5.071
152604.000			-40.569			-5.071
152704.000			-40.568			-5.071
152805.000			-40.568			-5.071
152904.000			-40.567			-5.071
153004.000			-40.566			-5.071
153105.000			-40.567			-5.071
153204.000			-40.568			-5.071
153304.000			-40.566			-5.071
153404.000			-40.564			-5.071
153504.000			-40.563			-5.070
153604.000			-40.563			-5.070
153705.000			-40.563			-5.070
153804.000			-40.563			-5.070
153904.000			-40.563			-5.070
154005.000			-40.561			-5.070
154104.000			-40.562			-5.070
154204.000			-40.562			-5.070
154304.000			-40.561			-5.070
154404.000			-40.560			-5.070
154504.000			-40.559			-5.070
154605.000			-40.559			-5.070
154704.000			-40.559			-5.070
154804.000			-40.558			-5.070
154905.000			-40.559			-5.070
155003.000			-40.558			-5.070
155104.000			-40.557			-5.070
155204.000			-40.556			-5.069
155304.000			-40.556			-5.070
155405.000			-40.555			-5.069
155504.000			-40.554			-5.069
155604.000			-40.554			-5.069
155705.000			-40.554			-5.069
155804.000			-40.553			-5.069
155903.000			-40.552			-5.069
156005.000			-40.553			-5.069
156103.000			-40.552			-5.069
156204.000			-40.551			-5.069
156305.000			-40.551			-5.069
156404.000			-40.550			-5.069
156504.000			-40.549			-5.069
156605.000			-40.550			-5.069
156704.000			-40.548			-5.069
156803.000			-40.549			-5.069
156905.000			-40.547			-5.068
157004.000			-40.547			-5.068
157104.000			-40.547			-5.068
157205.000			-40.546			-5.068
157304.000			-40.545			-5.068
157404.000			-40.545			-5.068
157505.000			-40.544			-5.068
157604.000			-40.544			-5.068
157703.000			-40.543			-5.068
157805.000			-40.544			-5.068
157904.000			-40.544			-5.068
158004.000			-40.542			-5.068
158105.000			-40.541			-5.068
158204.000			-40.542			-5.068
158304.000			-40.540			-5.068
158404.000			-40.541			-5.068
158504.000			-40.540			-5.068
158603.000			-40.539			-5.067
158704.000			-40.539			-5.067
158804.000			-40.539			-5.067
158905.000			-40.538			-5.067
159004.000			-40.537			-5.067
159104.000			-40.537			-5.067
159205.000			-40.536			-5.067
159304.000			-40.536			-5.067
159404.000			-40.536			-5.067
159504.000			-40.535			-5.067
159604.000			-40.533			-5.067
159704.000			-40.535			-5.067
159805.000			-40.534			-5.067
159904.000			-40.533			-5.067
160004.000			-40.533			-5.067
160105.000			-40.532			-5.067
160203.000			-40.532			-5.066
160304.000			-40.532			-5.066
160405.000			-40.532			-5.066
160504.000			-40.530			-5.066
160604.000			-40.529			-5.066
160705.000			-40.529			-5.066
160804.000			-40.529			-5.066
160904.000			-40.528			-5.066
161005.000			-40.528			-5.066
161103.000			-40.528			-5.066
161204.000			-40.528			-5.066
161305.000			-40.527			-5.066
161404.000			-40.526			-5.066
161504.000			-40.526			-5.066
161605.000			-40.527			-5.066
161704.000			-40.526			-5.066
161805.000			-40.525			-5.066
161904.000			-40.524			-5.065
162003.000			-40.523			-5.065
162105.000			-40.523			-5.065
162204.000			-40.522			-5.065
162304.000			-40.522			-5.065
162405.000			-40.521			-5.065
162504.000			-40.521			-5.065
162604.000			-40.520			-5.065
162704.000			-40.520			-5.065
162804.000			-40.520			-5.065
162903.000			-40.520			-5.065
163005.000			-40.519			-5.065
163104.000			-40.518			-5.065
163204.000			-40.516			-5.065
163305.000			-40.517			-5.065
163404.000			-40.517			-5.065
163504.000			-40.518			-5.065
163604.000			-40.516			-5.065
163704.000			-40.515			-5.064
163804.000			-40.514			-5.064
163905.000			-40.514			-5.064
164004.000			-40.513			-5.064
164104.000			-40.514			-5.064
164205.000			-40.513			-5.064
164304.000			-40.512			-5.064
164404.000			-40.512			-5.064
164504.000			-40.512			-5.064
164604.000			-40.511			-5.064
164704.000			-40.510			-5.064
164805.000			-40.510			-5.064
164904.000			-40.510			-5.064
165005.000			-40.510			-5.064
165104.000			-40.509			-5.064
165204.000			-40.508			-5.064
165305.000			-40.509			-5.064
165403.000			-40.507			-5.063
165504.000			-40.506			-5.063
165605.000			-40.506			-5.063
165704.000			-40.505			-5.063
165804.000			-40.506			-5.063
165905.000			-40.506			-5.063
166004.000			-40.505			-5.063
166103.000			-40.504			-5.063
166205.000			-40.503			-5.063
166303.000			-40.503			-5.063
166404.000			-40.503			-5.063
166505.000			-40.502			-5.063
166604.000			-40.501			-5.063
166704.000			-40.501			-5.063
166805.000			-40.500			-5.062
166904.000			-40.500			-5.062
167004.000			-40.501			-5.063
167105.000			-40.501			-5.063
167203.000			-40.500			-5.062
167304.000			-40.499			-5.062
167405.000			-40.498			-5.062
167504.000			-40.497			-5.062
167604.000			-40.497			-5.062
167705.000			-40.495			-5.062
167804.000			-40.496			-5.062
167904.000			-40.495			-5.062
168005.000			-40.495			-5.062
168103.000			-40.495			-5.062
168205.000			-40.494			-5.062
168304.000			-40.494			-5.062
168404.000			-40.493			-5.062
168505.000			-40.493			-5.062
168604.000			-40.493			-5.062
168704.000			-40.492			-5.062
168805.000			-40.491			-5.061
168904.000			-40.491			-5.061
169003.000			-40.490			-5.061
169105.000			-40.491			-5.061
169204.000			-40.490			-5.061
169304.000			-40.491			-5.061
169405.000			-40.490			-5.061
169504.000			-40.489			-5.061
169604.000			-40.488			-5.061
169705.000			-40.487			-5.061
169804.000			-40.486			-5.061
169903.000			-40.485			-5.061
170005.000			-40.485			-5.061
170104.000			-40.486			-5.061
170204.000			-40.486			-5.061
170305.000			-40.486			-5.061
170404.000			-40.485			-5.061
170504.000			-40.485			-5.061
170605.000			-40.483			-5.060
170704.000			-40.483			-5.060
170803.000			-40.482			-5.060
170905.000			-40.482			-5.060
171004.000			-40.482			-5.060
171104.000			-40.482			-5.060
171205.000			-40.480			-5.060
171304.000			-40.480			-5.060
171405.000			-40.479			-5.060
171504.000			-40.478			-5.060
171604.000			-40.479			-5.060
171704.000			-40.479			-5.060
171804.000			-40.479			-5.060
171904.000			-40.478			-5.060
172005.000			-40.477			-5.060
172104.000			-40.477			-5.060
172204.000			-40.476			-5.060
172305.000			-40.476			-5.059
172404.000			-40.476			-5.060
172504.000			-40.477			-5.060
172604.000			-40.475			-5.059
172704.000			-40.475			-5.059
172804.000			-40.474			-5.059
172905.000			-40.473			-5.059
173004.000			-40.472			-5.059
173104.000			-40.473			-5.059
173205.000			-40.472			-5.059
173304.000			-40.471			-5.059
173404.000			-40.471			-5.059
173504.000			-40.469			-5.059
173604.000			-40.469			-5.059
173704.000			-40.468			-5.058
173805.000			-40.469			-5.059
173904.000			-40.470			-5.059
174004.000			-40.469			-5.059
174105.000			-40.467			-5.058
174204.000			-40.468			-5.058
174304.000			-40.467			-5.058
174404.000			-40.466			-5.058
174504.000			-40.467			-5.058
174605.000			-40.466			-5.058
174704.000			-40.466			-5.058
174804.000			-40.466			-5.058
174905.000			-40.465			-5.058
175004.000			-40.463			-5.058
175104.000			-40.464			-5.058
175205.000			-40.462			-5.058
175303.000			-40.462			-5.058
175404.000			-40.462			-5.058
175505.000			-40.462			-5.058
175604.000			-40.461			-5.058
175704.000			-40.461			-5.058
175805.000			-40.460			-5.057
175904.000			-40.459			-5.057
176004.000			-40.459			-5.057
176105.000			-40.458			-5.057
176203.000			-40.459			-5.057
176304.000			-40.458			-5.057
176405.000			-40.457			-5.057
176504.000			-40.458			-5.057
176604.000			-40.457			-5.057
176705.000			-40.456			-5.057
176804.000			-40.456			-5.057
176904.000			-40.456			-5.057
177005.000			-40.456			-5.057
177103.000			-40.454			-5.057
177204.000			-40.454			-5.057
177305.000			-40.455			-5.057
177404.000			-40.454			-5.057
177504.000			-40.453			-5.057
177605.000			-40.453			-5.057
177704.000			-40.452			-5.057
177805.000			-40.452			-5.057
177904.000			-40.452			-5.056
178003.000			-40.450			-5.056
178105.000			-40.449			-5.056
178204.000			-40.451			-5.056
178304.000			-40.450			-5.056
178405.000			-40.449			-5.056
178504.000			-40.449			-5.056
178604.000			-40.447			-5.056
178705.000			-40.447			-5.056
178804.000			-40.447			-5.056
178903.000			-40.446			-5.056
179005.000			-40.446			-5.056
179104.000			-40.446			-5.056
179204.000			-40.446			-5.056
179305.000			-40.444			-5.055
179404.000			-40.444			-5.055
179504.000			-40.444			-5.056
179605.000			-40.444			-5.056
179704.000			-40.445			-5.056
179803.000			-40.443			-5.055
179905.000			-40.442			-5.055
180004.000			-40.441			-5.055
180104.000			-40.440			-5.055
180205.000			-40.441			-5.055
180304.000			-40.441			-5.055
180404.000			-40.440			-5.055
180505.000			-40.439			-5.055
180604.000			-40.438			-5.055
180703.000			-40.438			-5.055
180805.000			-40.437			-5.055
180904.000			-40.438			-5.055
181005.000			-40.437			-5.055
181104.000			-40.436			-5.055
181204.000			-40.436			-5.055
181305.000			-40.437			-5.055
181404.000			-40.436			-5.054
181504.000			-40.436			-5.055
181604.000			-40.435			-5.054
181704.000			-40.434			-5.054
181804.000			-40.434			-5.054
181905.000			-40.433			-5.054
182004.000			-40.433			-5.054
182104.000			-40.434			-5.054
182205.000			-40.433			-5.054
182303.000			-40.432			-5.054
182404.000			-40.432			-5.054
182504.000			-40.433			-5.054
182604.000			-40.432			-5.054
182704.000			-40.432			-5.054
182805.000			-40.430			-5.054
182904.000			-40.429			-5.054
183004.000			-40.429			-5.054
183105.000			-40.428			-5.053
183203.000			-40.427			-5.053
183304.000			-40.428			-5.053
183405.000			-40.427			-5.053
183504.000			-40.427			-5.053
183604.000			-40.426			-5.053
183705.000			-40.426			-5.053
183804.000			-40.426			-5.053
183904.000			-40.425			-5.053
184005.000			-40.425			-5.053
184103.000			-40.425			-5.053
184205.000			-40.424			-5.053
184304.000			-40.424			-5.053
184404.000			-40.424			-5.053
184505.000			-40.423			-5.053
184604.000			-40.422			-5.053
184704.000			-40.421			-5.053
184804.000			-40.420			-5.053
184904.000			-40.420			-5.052
185003.000			-40.421			-5.053
185105.000			-40.421			-5.053
185204.000			-40.421			-5.053
185304.000			-40.419			-5.052
185405.000			-40.419			-5.052
185504.000			-40.419			-5.052
185604.000			-40.418			-5.052
185704.000			-40.419			-5.052
185804.000			-40.417			-5.052
185903.000			-40.417			-5.052
186005.000			-40.416			-5.052
186104.000			-40.415			-5.052
186204.000			-40.415			-5.052
186305.000			-40.415			-5.052
186404.000			-40.415			-5.052
186504.000			-40.413			-5.052
186604.000			-40.414			-5.052
186704.000			-40.414			-5.052
186804.000			-40.413			-5.052
186905.000			-40.414			-5.052
187004.000			-40.413			-5.052
187104.000			-40.412			-5.051
187205.000			-40.412			-5.051
187304.000			-40.412			-5.051
187405.000			-40.410			-5.051
187503.000			-40.409			-5.051
187604.000			-40.408			-5.051
187705.000			-40.409			-5.051
187804.000			-40.408			-5.051
187904.000			-40.407			-5.051
188005.000			-40.408			-5.051
188104.000			-40.408			-5.051
188204.000			-40.407			-5.051
188305.000			-40.406			-5.051
188403.000			-40.407			-5.051
188504.000			-40.407			-5.051
188605.000			-40.405			-5.051
188704.000			-40.404			-5.051
188804.000			-40.405			-5.051
188905.000			-40.405			-5.051
189004.000			-40.403			-5.050
189104.000			-40.403			-5.050
189205.000			-40.403			-5.050
189303.000			-40.403			-5.050
189404.000			-40.402			-5.050
189505.000			-40.401			-5.050
189604.000			-40.401			-5.050
189704.000			-40.402			-5.050
189805.000			-40.401			-5.050
189904.000			-40.400			-5.050
190004.000			-40.400			-5.050
190105.000			-40.398			-5.050
190203.000			-40.398			-5.050
190304.000			-40.398			-5.050
190405.000			-40.397			-5.050
190504.000			-40.397			-5.050
190605.000			-40.397			-5.050
190704.000			-40.396			-5.049
190804.000			-40.396			-5.050
190905.000			-40.396			-5.049
191004.000			-40.396			-5.049
191103.000			-40.396			-5.049
191205.000			-40.395			-5.049
191304.000			-40.395			-5.049
191404.000			-40.396			-5.049
191505.000			-40.395			-5.049
191604.000			-40.394			-5.049
191704.000			-40.394			-5.049
191805.000			-40.394			-5.049
191904.000			-40.392			-5.049
192003.000			-40.390			-5.049
192105.000			-40.390			-5.049
192204.000			-40.390			-5.049
192304.000			-40.390			-5.049
192405.000			-40.390			-5.049
192504.000			-40.390			-5.049
192604.000			-40.390			-5.049
192705.000			-40.390			-5.049
192804.000			-40.389			-5.049
192903.000			-40.388			-5.048
193005.000			-40.387			-5.048
193104.000			-40.386			-5.048
193204.000			-40.387			-5.048
193305.000			-40.387			-5.048
193404.000			-40.386			-5.048
193504.000			-40.386			-5.048
193605.000			-40.385			-5.048
193704.000			-40.384			-5.048
193803.000			-40.383			-5.048
193904.000			-40.384			-5.048
194003.000			-40.384			-5.048
194105.000			-40.384			-5.048
194204.000			-40.383			-5.048
194304.000			-40.383			-5.048
194405.000			-40.383			-5.048
194504.000			-40.383			-5.048
194604.000			-40.382			-5.048
194704.000			-40.382			-5.048
194804.000			-40.382			-5.048
194903.000			-40.381			-5.048
195005.000			-40.381			-5.048
195104.000			-40.380			-5.047
195204.000			-40.379			-5.047
195305.000			-40.378			-5.047
195404.000			-40.378			-5.047
195504.000			-40.378			-5.047
195604.000			-40.378			-5.047
195704.000			-40.377			-5.047
195803.000			-40.378			-5.047
195905.000			-40.376			-5.047
196004.000			-40.375			-5.047
196104.000			-40.376			-5.047
196205.000			-40.376			-5.047
196304.000			-40.376			-5.047
196404.000			-40.376			-5.047
196504.000			-40.375			-5.047
196604.000			-40.374			-5.047
196703.000			-40.373			-5.047
196805.000			-40.374			-5.047
196904.000			-40.374			-5.047
197005.000			-40.373			-5.047
197104.000			-40.372			-5.046
197204.000			-40.373			-5.047
197305.000			-40.372			-5.046
197404.000			-40.371			-5.046
197504.000			-40.370			-5.046
197604.000			-40.371			-5.046
197704.000			-40.370			-5.046
197804.000			-40.369			-5.046
197905.000			-40.370			-5.046
198004.000			-40.368			-5.046
198104.000			-40.367			-5.046
198205.000			-40.367			-5.046
198304.000			-40.367			-5.046
198404.000			-40.367			-5.046
198504.000			-40.367			-5.046
198604.000			-40.367			-5.046
198704.000			-40.366			-5.046
198805.000			-40.365			-5.046
198904.000			-40.365			-5.046
199004.000			-40.365			-5.046
199105.000			-40.364			-5.046
199204.000			-40.364			-5.045
199304.000			-40.364			-5.046
199404.000			-40.363			-5.045
199504.000			-40.362			-5.045
199603.000			-40.362			-5.045
199705.000			-40.361			-5.045
199804.000			-40.361			-5.045
199904.000			-40.360			-5.045
200005.000			-40.360			-5.045
200104.000			-40.361			-5.045
200205.000			-40.360			-5.045
200303.000			-40.360			-5.045
200404.000			-40.359			-5.045
200505.000			-40.359			-5.045
200604.000			-40.359			-5.045
200704.000			-40.359			-5.045
200805.000			-40.358			-5.045
200904.000			-40.358			-5.045
201004.000			-40.357			-5.045
201105.000			-40.356			-5.045
201203.000			-40.356			-5.045
201304.000			-40.355			-5.044
201405.000			-40.354			-5.044
201504.000			-40.355			-5.044
201604.000			-40.354			-5.044
201705.000			-40.354			-5.044
201804.000			-40.353			-5.044
201903.000			-40.353			-5.044
202005.000			-40.352			-5.044
202104.000			-40.353			-5.044
202204.000			-40.352			-5.044
202305.000			-40.353			-5.044
202404.000			-40.352			-5.044
202504.000			-40.350			-5.044
202604.000			-40.350			-5.044
202704.000			-40.350			-5.044
202803.000			-40.348			-5.044
202905.000			-40.349			-5.044
203004.000			-40.350			-5.044
203104.000			-40.347			-5.043
203205.000			-40.347			-5.043
203304.000			-40.347			-5.043
203405.000			-40.348			-5.043
203503.000			-40.347			-5.043
203604.000			-40.347			-5.043
203705.000			-40.346			-5.043
203804.000			-40.346			-5.043
203904.000			-40.346			-5.043
204005.000			-40.346			-5.043
204104.000			-40.345			-5.043
204204.000			-40.345			-5.043
204305.000			-40.344			-5.043
204403.000			-40.343			-5.043
204504.000			-40.343			-5.043
204605.000			-40.343			-5.043
204704.000			-40.342			-5.043
204804.000			-40.342			-5.043
204905.000			-40.342			-5.043
205004.000			-40.341			-5.043
205103.000			-40.341			-5.043
205205.000			-40.340			-5.043
205304.000			-40.340			-5.042
205404.000			-40.340			-5.043
205505.000			-40.340			-5.042
205604.000			-40.338			-5.042
205704.000			-40.338			-5.042
205805.000			-40.339			-5.042
205904.000			-40.338			-5.042
206003.000			-40.337			-5.042
206105.000			-40.338			-5.042
206204.000			-40.338			-5.042
206304.000			-40.337			-5.042
206405.000			-40.337			-5.042
206504.000			-40.337			-5.042
206605.000			-40.336			-5.042
206703.000			-40.335			-5.042
206804.000			-40.334			-5.042
206904.000			-40.334			-5.042
207004.000			-40.334			-5.042
207104.000			-40.334			-5.042
207205.000			-40.334			-5.042
207304.000			-40.334			-5.042
207404.000			-40.333			-5.042
207505.000			-40.333			-5.042
207603.000			-40.332			-5.041
207704.000			-40.331			-5.041
207805.000			-40.331			-5.041
207904.000			-40.331			-5.041
208004.000			-40.331			-5.041
208105.000			-40.330			-5.041
208204.000			-40.330			-5.041
208303.000			-40.329			-5.041
208405.000			-40.329			-5.041
208504.000			-40.329			-5.041
208604.000			-40.328			-5.041
208705.000			-40.327			-5.041
208804.000			-40.328			-5.041
208904.000			-40.328			-5.041
209005.000			-40.327			-5.041
209104.000			-40.327			-5.041
209203.000			-40.327			-5.041
209305.000			-40.326			-5.041
209404.000			-40.325			-5.041
209504.000			-40.325			-5.041
209605.000			-40.325			-5.041
209704.000			-40.323			-5.040
209805.000			-40.323			-5.040
209904.000			-40.324			-5.041
210004.000			-40.324			-5.041
210104.000			-40.323			-5.040
210204.000			-40.322			-5.040
210304.000			-40.321			-5.040
210405.000			-40.321			-5.040
210504.000			-40.321			-5.040
210604.000			-40.321			-5.040
210705.000			-40.321			-5.040
210803.000			-40.322			-5.040
210904.000			-40.321			-5.040
211005.000			-40.318			-5.040
211104.000			-40.318			-5.040
211204.000			-40.317			-5.040
211305.000			-40.317			-5.040
211404.000			-40.317			-5.040
211503.000			-40.317			-5.040
211605.000			-40.317			-5.040
211704.000			-40.317			-5.040
211804.000			-40.317			-5.040
211905.000			-40.316			-5.039
212004.000			-40.316			-5.040
212104.000			-40.316			-5.039
212204.000			-40.315			-5.039
212304.000			-40.314			-5.039
212403.000			-40.312			-5.039
212505.000			-40.314			-5.039
212604.000			-40.314			-5.039
212704.000			-40.312			-5.039
212805.000			-40.311			-5.039
212904.000			-40.312			-5.039
213005.000			-40.313			-5.039
213103.000			-40.312			-5.039
213204.000			-40.310			-5.039
213305.000			-40.311			-5.039
213404.000			-40.311			-5.039
213504.000			-40.310			-5.039
213605.000			-40.310			-5.039
213704.000			-40.309			-5.039
213803.000			-40.309			-5.039
213905.000			-40.307			-5.038
214004.000			-40.307			-5.038
214104.000			-40.307			-5.038
214205.000			-40.307			-5.038
214304.000			-40.305			-5.038
214404.000			-40.305			-5.038
214504.000			-40.305			-5.038
214604.000			-40.307			-5.038
214703.000			-40.306			-5.038
214805.000			-40.304			-5.038
214904.000			-40.304			-5.038
215004.000			-40.304			-5.038
215105.000			-40.304			-5.038
215204.000			-40.303			-5.038
215304.000			-40.303			-5.038
215404.000			-40.302			-5.038
215504.000			-40.301			-5.038
215604.000			-40.302			-5.038
215705.000			-40.303			-5.038
215804.000			-40.300			-5.038
215904.000			-40.300			-5.038
216005.000			-40.300			-5.038
216103.000			-40.300			-5.038
216205.000			-40.301			-5.038
216304.000			-40.300			-5.038
216404.000			-40.299			-5.037
216505.000			-40.299			-5.037
216604.000			-40.298			-5.037
216704.000			-40.298			-5.037
216805.000			-40.297			-5.037
216904.000			-40.297			-5.037
217003.000			-40.296			-5.037
217105.000			-40.296			-5.037
217204.000			-40.296			-5.037
217304.000			-40.297			-5.037
217405.000			-40.297			-5.037
217504.000			-40.295			-5.037
217604.000			-40.295			-5.037
217705.000			-40.294			-5.037
217804.000			-40.294			-5.037
217903.000			-40.293			-5.037
218005.000			-40.293			-5.037
218104.000			-40.294			-5.037
218204.000			-40.292			-5.037
218305.000			-40.292			-5.037
218404.000			-40.292			-5.037
218504.000			-40.292			-5.036
218605.000			-40.291			-5.036
218704.000			-40.290			-5.036
218803.000			-40.291			-5.036
218905.000			-40.290			-5.036
219004.000			-40.290			-5.036
219104.000			-40.289			-5.036
219205.000			-40.289			-5.036
219304.000			-40.289			-5.036
219405.000			-40.289			-5.036
219504.000			-40.288			-5.036
219604.000			-40.287			-5.036
219704.000			-40.287			-5.036
219804.000			-40.286			-5.036
219904.000			-40.286			-5.036
220005.000			-40.285			-5.036
220104.000			-40.285			-5.036
220204.000			-40.284			-5.036
220305.000			-40.284			-5.035
220404.000			-40.284			-5.036
220504.000			-40.285			-5.036
220604.000			-40.285			-5.036
220704.000			-40.284			-5.035
220804.000			-40.284			-5.035
220905.000			-40.284			-5.036
221004.000			-40.284			-5.035
221104.000			-40.283			-5.035
221205.000			-40.282			-5.035
221303.000			-40.281			-5.035
221404.000			-40.281			-5.035
221505.000			-40.281			-5.035
221604.000			-40.281			-5.035
221704.000			-40.281			-5.035
221805.000			-40.280			-5.035
221904.000			-40.280			-5.035
222004.000			-40.278			-5.035
222105.000			-40.278			-5.035
222203.000			-40.278			-5.035
222304.000			-40.278			-5.035
222405.000			-40.278			-5.035
222504.000			-40.277			-5.035
222605.000			-40.277			-5.035
222704.000			-40.275			-5.034
222804.000			-40.275			-5.034
222904.000			-40.275			-5.034
223004.000			-40.275			-5.034
223103.000			-40.275			-5.034
223205.000			-40.274			-5.034
223304.000			-40.275			-5.034
223404.000			-40.274			-5.034
223505.000			-40.274			-5.034
223604.000			-40.274			-5.034
223704.000			-40.273			-5.034
223804.000			-40.273			-5.034
223904.000			-40.272			-5.034
224003.000			-40.272			-5.034
224105.000			-40.273			-5.034
224204.000			-40.272			-5.034
224304.000			-40.272			-5.034
224405.000			-40.271			-5.034
224504.000			-40.271			-5.034
224604.000			-40.271			-5.034
224704.000			-40.270			-5.034
224804.000			-40.269			-5.034
224904.000			-40.268			-5.034
225005.000			-40.268			-5.034
225104.000			-40.268			-5.034
225204.000			-40.267			-5.033
225305.000			-40.267			-5.033
225404.000			-40.267			-5.033
225504.000			-40.267			-5.033
225604.000			-40.266			-5.033
225704.000			-40.266			-5.033
225805.000			-40.267			-5.033
225904.000			-40.266			-5.033
226004.000			-40.266			-5.033
226105.000			-40.265			-5.033
226204.000			-40.265			-5.033
226303.000			-40.264			-5.033
226405.000			-40.264			-5.033
226503.000			-40.263			-5.033
226604.000			-40.262			-5.033
226705.000			-40.262			-5.033
226804.000			-40.262			-5.033
226904.000			-40.261			-5.033
227005.000			-40.262			-5.033
227104.000			-40.262			-5.033
227203.000			-40.262			-5.033
227305.000			-40.261			-5.033
227404.000			-40.262			-5.033
227504.000			-40.262			-5.033
227605.000			-40.260			-5.032
227704.000			-40.259			-5.032
227804.000			-40.259			-5.032
227905.000			-40.258			-5.032
228004.000			-40.258			-5.032
228103.000			-40.258			-5.032
228205.000			-40.257			-5.032
228304.000			-40.256			-5.032
228404.000			-40.256			-5.032
228505.000			-40.256			-5.032
228604.000			-40.256			-5.032
228704.000			-40.255			-5.032
228805.000			-40.254			-5.032
228904.000			-40.254			-5.032
229003.000			-40.253			-5.032
229104.000			-40.254			-5.032
229204.000			-40.254			-5.032
229305.000			-40.254			-5.032
229404.000			-40.254			-5.032
229504.000			-40.253			-5.032
229605.000			-40.252			-5.031
229704.000			-40.253			-5.032
229804.000			-40.252			-5.032
229904.000			-40.252			-5.031
230004.000			-40.252			-5.032
230104.000			-40.251			-5.031
230205.000			-40.250			-5.031
230304.000			-40.250			-5.031
230404.000			-40.250			-5.031
230505.000			-40.250			-5.031
230603.000			-40.248			-5.031
230704.000			-40.248			-5.031
230804.000			-40.248			-5.031
230904.000			-40.248			-5.031
231004.000			-40.249			-5.031
231105.000			-40.248			-5.031
231204.000			-40.246			-5.031
231304.000			-40.246			-5.031
231405.000			-40.246			-5.031
231503.000			-40.246			-5.031
231604.000			-40.246			-5.031
231705.000			-40.245			-5.031
231804.000			-40.244			-5.031
231904.000			-40.244			-5.030
232005.000			-40.244			-5.031
232104.000			-40.244			-5.030
232203.000			-40.244			-5.030
232304.000			-40.244			-5.030
232403.000			-40.244			-5.031
232505.000			-40.243			-5.030
232604.000			-40.241			-5.030
232704.000			-40.242			-5.030
232805.000			-40.242			-5.030
232904.000			-40.241			-5.030
233004.000			-40.241			-5.030
233104.000			-40.240			-5.030
233204.000			-40.240			-5.030
233304.000			-40.241			-5.030
233405.000			-40.240			-5.030
233504.000			-40.238			-5.030
233604.000			-40.238			-5.030
233705.000			-40.239			-5.030
233804.000			-40.239			-5.030
233904.000			-40.237			-5.030
234004.000			-40.237			-5.030
234104.000			-40.237			-5.030
234204.000			-40.237			-5.030
234305.000			-40.236			-5.030
234404.000			-40.236			-5.030
234504.000			-40.236			-5.029
234605.000			-40.236			-5.029
234703.000			-40.234			-5.029
234804.000			-40.236			-5.029
234905.000			-40.236			-5.030
235004.000			-40.235			-5.029
235104.000			-40.234			-5.029
235205.000			-40.235			-5.029
235304.000			-40.233			-5.029
235405.000			-40.233			-5.029
235504.000			-40.232			-5.029
235603.000			-40.231			-5.029
235705.000			-40.231			-5.029
235804.000			-40.231			-5.029
235904.000			-40.231			-5.029
236005.000			-40.231			-5.029
236104.000			-40.232			-5.029
236204.000			-40.231			-5.029
236304.000			-40.230			-5.029
236404.000			-40.230			-5.029
236503.000			-40.230			-5.029
236605.000			-40.230			-5.029
236704.000			-40.229			-5.029
236804.000			-40.229			-5.029
236905.000			-40.228			-5.028
237004.000			-40.228			-5.028
237104.000			-40.227			-5.028
237204.000			-40.226			-5.028
237304.000			-40.226			-5.028
237404.000			-40.226			-5.028
237505.000			-40.226			-5.028
237604.000			-40.226			-5.028
237704.000			-40.225			-5.028
237805.000			-40.225			-5.028
237904.000			-40.225			-5.028
238004.000			-40.225			-5.028
238104.000			-40.225			-5.028
238204.000			-40.225			-5.028
238304.000			-40.224			-5.028
238405.000			-40.222			-5.028
238504.000			-40.222			-5.028
238605.000			-40.221			-5.028
238704.000			-40.222			-5.028
238803.000			-40.222			-5.028
238905.000			-40.222			-5.028
239003.000			-40.221			-5.028
239104.000			-40.220			-5.027
239205.000			-40.220			-5.027
239304.000			-40.219			-5.027
239404.000			-40.218			-5.027
239505.000			-40.219			-5.027
239604.000			-40.219			-5.027
239703.000			-40.219			-5.027
239805.000			-40.218			-5.027
239904.000			-40.217			-5.027
240004.000			-40.217			-5.027
240105.000			-40.216			-5.027
240204.000			-40.216			-5.027
240304.000			-40.216			-5.027
240405.000			-40.217			-5.027
240504.000			-40.217			-5.027
240603.000			-40.216			-5.027
240705.000			-40.215			-5.027
240804.000			-40.214			-5.027
240904.000			-40.214			-5.027
241005.000			-40.215			-5.027
241104.000			-40.214			-5.027
241204.000			-40.213			-5.027
241304.000			-40.213			-5.027
241404.000			-40.212			-5.027
241503.000			-40.212			-5.027
241605.000			-40.212			-5.027
241704.000			-40.211			-5.026
241805.000			-40.211			-5.026
241904.000			-40.212			-5.027
242004.000			-40.212			-5.026
242105.000			-40.211			-5.026
242203.000			-40.210			-5.026
242304.000			-40.209			-5.026
242405.000			-40.209			-5.026
242504.000			-40.210			-5.026
242604.000			-40.209			-5.026
242705.000			-40.209			-5.026
242804.000			-40.208			-5.026
242903.000			-40.208			-5.026
243005.000			-40.208			-5.026
243103.000			-40.208			-5.026
243204.000			-40.208			-5.026
243305.000			-40.206			-5.026
243404.000			-40.206			-5.026
243504.000			-40.207			-5.026
243605.000			-40.207			-5.026
243704.000			-40.207			-5.026
243803.000			-40.205			-5.026
243905.000			-40.204			-5.025
244004.000			-40.204			-5.025
244104.000			-40.205			-5.026
244205.000			-40.204			-5.026
244304.000			-40.204			-5.026
244404.000			-40.202			-5.025
244504.000			-40.203			-5.025
244604.000			-40.204			-5.025
244704.000			-40.203			-5.025
244805.000			-40.203			-5.025
244904.000			-40.204			-5.025
245005.000			-40.203			-5.025
245104.000			-40.202			-5.025
245204.000			-40.201			-5.025
245305.000			-40.201			-5.025
245403.000			-40.200			-5.025
245504.000			-40.200			-5.025
245605.000			-40.200			-5.025
245704.000			-40.199			-5.025
245804.000			-40.200			-5.025
245905.000			-40.199			-5.025
246004.000			-40.198			-5.025
246103.000			-40.198			-5.025
246205.000			-40.197			-5.025
246303.000			-40.198			-5.025
246404.000			-40.198			-5.025
246505.000			-40.198			-5.025
246604.000			-40.197			-5.025
246704.000			-40.196			-5.025
246805.000			-40.196			-5.024
246904.000			-40.196			-5.024
247003.000			-40.195			-5.024
247105.000			-40.193			-5.024
247204.000			-40.193			-5.024
247304.000			-40.194			-5.024
247405.000			-40.193			-5.024
247504.000			-40.194			-5.024
247604.000			-40.194			-5.024
247705.000			-40.192			-5.024
247804.000			-40.193			-5.024
247903.000			-40.193			-5.024
248005.000			-40.192			-5.024
248104.000			-40.193			-5.024
248205.000			-40.192			-5.024
248304.000			-40.192			-5.024
248404.000			-40.191			-5.024
248505.000			-40.191			-5.024
248604.000			-40.191			-5.024
248704.000			-40.191			-5.024
248804.000			-40.190			-5.024
248904.000			-40.189			-5.024
249003.000			-40.188			-5.024
249105.000			-40.188			-5.024
249204.000			-40.188			-5.024
249304.000			-40.188			-5.023
249405.000			-40.188			-5.024
249504.000			-40.188			-5.024
249604.000			-40.187			-5.023
249704.000			-40.187			-5.023
249804.000			-40.188			-5.023
249903.000			-40.185			-5.023
250005.000			-40.186			-5.023
250104.000			-40.186			-5.023
250204.000			-40.185			-5.023
250305.000			-40.184			-5.023
250404.000			-40.183			-5.023
250504.000			-40.184			-5.023
250604.000			-40.183			-5.023
250704.000			-40.183			-5.023
250804.000			-40.183			-5.023
250905.000			-40.182			-5.023
251004.000			-40.182			-5.023
251104.000			-40.181			-5.023
251205.000			-40.181			-5.023
251304.000			-40.180			-5.023
251405.000			-40.180			-5.022
251503.000			-40.180			-5.022
251604.000			-40.179			-5.022
251705.000			-40.179			-5.022
251804.000			-40.179			-5.022
251904.000			-40.179			-5.022
252005.000			-40.179			-5.022
252104.000			-40.177			-5.022
252204.000			-40.178			-5.022
252305.000			-40.180			-5.022
252403.000			-40.179			-5.022
252504.000			-40.178			-5.022
252605.000			-40.178			-5.022
252704.000			-40.177			-5.022
252804.000			-40.177			-5.022
252905.000			-40.177			-5.022
253004.000			-40.176			-5.022
253104.000			-40.176			-5.022
253205.000			-40.176			-5.022
253303.000			-40.175			-5.022
253404.000			-40.174			-5.022
253505.000			-40.173			-5.022
253604.000			-40.173			-5.022
253704.000			-40.173			-5.022
253805.000			-40.173			-5.022
253904.000			-40.174			-5.022
254003.000			-40.173			-5.022
254105.000			-40.173			-5.022
254204.000			-40.172			-5.021
254304.000			-40.172			-5.022
254405.000			-40.171			-5.021
254504.000			-40.171			-5.021
254605.000			-40.169			-5.021
254704.000			-40.170			-5.021
254804.000			-40.171			-5.021
254904.000			-40.170			-5.021
255004.000			-40.170			-5.021
255104.000			-40.170			-5.021
255205.000			-40.169			-5.021
255304.000			-40.168			-5.021
255404.000			-40.168			-5.021
255505.000			-40.168			-5.021
255604.000			-40.168			-5.021
255704.000			-40.168			-5.021
255804.000			-40.167			-5.021
255904.000			-40.165			-5.021
256004.000			-40.166			-5.021
256105.000			-40.167			-5.021
256204.000			-40.167			-5.021
256304.000			-40.166			-5.021
256405.000			-40.166			-5.021
256504.000			-40.165			-5.021
256604.000			-40.165			-5.021
256704.000			-40.165			-5.021
256804.000			-40.164			-5.020
256904.000			-40.164			-5.021
257005.000			-40.165			-5.021
257104.000			-40.162			-5.020
257204.000			-40.162			-5.020
257305.000			-40.162			-5.020
257403.000			-40.161			-5.020
257504.000			-40.161			-5.020
257604.000			-40.162			-5.020
257704.000			-40.162			-5.020
257805.000			-40.162			-5.020
257904.000			-40.162			-5.020
258004.000			-40.161			-5.020
258105.000			-40.160			-5.020
258204.000			-40.161			-5.020
258303.000			-40.161			-5.020
258405.000			-40.161			-5.020
258504.000			-40.160			-5.020
258604.000			-40.159			-5.020
258705.000			-40.158			-5.020
258804.000			-40.158			-5.020
258904.000			-40.158			-5.020
259005.000			-40.158			-5.020
259104.000			-40.157			-5.020
259203.000			-40.157			-5.020
259305.000			-40.157			-5.020
259403.000			-40.156			-5.020
259504.000			-40.156			-5.019
259605.000			-40.155			-5.019
259704.000			-40.155			-5.019
259804.000			-40.156			-5.019
259905.000			-40.156			-5.020
260004.000			-40.155			-5.019
260103.000			-40.154			-5.019
260205.000			-40.153			-5.019
260304.000			-40.154			-5.019
260404.000			-40.153			-5.019
260505.000			-40.153			-5.019
260604.000			-40.153			-5.019
260704.000			-40.151			-5.019
260805.000			-40.152			-5.019
260904.000			-40.152			-5.019
261003.000			-40.152			-5.019
261104.000			-40.151			-5.019
261204.000			-40.151			-5.019
261305.000			-40.152			-5.019
261404.000			-40.150			-5.019
261504.000			-40.149			-5.019
261605.000			-40.148			-5.019
261703.000			-40.148			-5.018
261804.000			-40.148			-5.018
261904.000			-40.148			-5.018
262004.000			-40.149			-5.019
262104.000			-40.148			-5.019
262205.000			-40.150			-5.019
262304.000			-40.149			-5.019
262404.000			-40.148			-5.019
262505.000			-40.148			-5.018
262603.000			-40.147			-5.018
262704.000			-40.146			-5.018
262805.000			-40.147			-5.018
262904.000			-40.146			-5.018
263004.000			-40.144			-5.018
263105.000			-40.145			-5.018
263204.000			-40.145			-5.018
263304.000			-40.144			-5.018
263405.000			-40.144			-5.018
263503.000			-40.144			-5.018
263604.000			-40.144			-5.018
263705.000			-40.144			-5.018
263804.000			-40.143			-5.018
263904.000			-40.143			-5.018
264005.000			-40.143			-5.018
264104.000			-40.143			-5.018
264203.000			-40.142			-5.018
264304.000			-40.141			-5.018
264403.000			-40.141			-5.018
264505.000			-40.141			-5.018
264604.000			-40.141			-5.018
264704.000			-40.141			-5.018
264805.000			-40.140			-5.018
264904.000			-40.140			-5.018
265004.000			-40.140			-5.018
265104.000			-40.139			-5.017
265204.000			-40.140			-5.017
265304.000			-40.140			-5.017
265405.000			-40.140			-5.017
265504.000			-40.139			-5.017
265604.000			-40.138			-5.017
265705.000			-40.138			-5.017
265804.000			-40.138			-5.017
265904.000			-40.137			-5.017
266004.000			-40.137			-5.017
266104.000			-40.137			-5.017
266204.000			-40.136			-5.017
266305.000			-40.135			-5.017
266404.000			-40.135			-5.017
266504.000			-40.136			-5.017
266605.000			-40.135			-5.017
266704.000			-40.134			-5.017
266804.000			-40.135			-5.017
266904.000			-40.136			-5.017
267004.000			-40.135			-5.017
267104.000			-40.135			-5.017
267205.000			-40.134			-5.017
267304.000			-40.133			-5.017
267405.000			-40.134			-5.017
267504.000			-40.134			-5.017
267603.000			-40.131			-5.016
267705.000			-40.131			-5.016
267804.000			-40.132			-5.017
267904.000			-40.132			-5.016
268005.000			-40.132			-5.016
268104.000			-40.130			-5.016
268204.000			-40.131			-5.016
268305.000			-40.131			-5.016
268404.000			-40.130			-5.016
268503.000			-40.129			-5.016
268605.000			-40.129			-5.016
268704.000			-40.129			-5.016
268804.000			-40.129			-5.016
268905.000			-40.129			-5.016
269004.000			-40.127			-5.016
269104.000			-40.127			-5.016
269205.000			-40.127			-5.016
269304.000			-40.127			-5.016
269403.000			-40.127			-5.016
269505.000			-40.125			-5.016
269604.000			-40.126			-5.016
269704.000			-40.127			-5.016
269805.000			-40.125			-5.016
269904.000			-40.125			-5.016
270004.000			-40.124			-5.016
270105.000			-40.124			-5.015
270204.000			-40.124			-5.015
270303.000			-40.124			-5.015
270405.000			-40.124			-5.015
270504.000			-40.123			-5.015
270605.000			-40.123			-5.015
270704.000			-40.123			-5.015
270804.000			-40.121			-5.015
270905.000			-40.122			-5.015
271003.000			-40.122			-5.015
271104.000			-40.121			-5.015
271205.000			-40.121			-5.015
271304.000			-40.121			-5.015
271404.000			-40.121			-5.015
271505.000			-40.120			-5.015
271604.000			-40.119			-5.015
271704.000			-40.119			-5.015
271805.000			-40.119			-5.015
271903.000			-40.119			-5.015
272004.000			-40.119			-5.015
272105.000			-40.120			-5.015
272204.000			-40.119			-5.015
272304.000			-40.118			-5.015
272405.000			-40.118			-5.015
272504.000			-40.118			-5.015
272603.000			-40.118			-5.015
272705.000			-40.117			-5.015
272804.000			-40.117			-5.015
272904.000			-40.116			-5.015
273005.000			-40.116			-5.014
273104.000			-40.115			-5.014
273204.000			-40.115			-5.014
273305.000			-40.115			-5.014
273404.000			-40.116			-5.014
273503.000			-40.116			-5.015
273605.000			-40.115			-5.014
273704.000			-40.114			-5.014
273805.000			-40.114			-5.014
273904.000			-40.114			-5.014
274004.000			-40.115			-5.014
274105.000			-40.114			-5.014
274203.000			-40.112			-5.014
274304.000			-40.111			-5.014
274405.000			-40.112			-5.014
274504.000			-40.112			-5.014
274604.000			-40.112			-5.014
274705.000			-40.112			-5.014
274804.000			-40.112			-5.014
274904.000			-40.111			-5.014
275005.000			-40.109			-5.014
275103.000			-40.111			-5.014
275204.000			-40.111			-5.014
275305.000			-40.110			-5.014
275404.000			-40.109			-5.014
275504.000			-40.109			-5.014
275605.000			-40.109			-5.014
275704.000			-40.109			-5.014
275803.000			-40.108			-5.013
275905.000			-40.108			-5.013
276003.000			-40.108			-5.013
276104.000			-40.107			-5.013
276205.000			-40.106			-5.013
276304.000			-40.105			-5.013
276404.000			-40.106			-5.013
276505.000			-40.106			-5.013
276604.000			-40.105			-5.013
276703.000			-40.105			-5.013
276805.000			-40.105			-5.013
276904.000			-40.106			-5.013
277005.000			-40.106			-5.013
277104.000			-40.105			-5.013
277204.000			-40.104			-5.013
277305.000			-40.103			-5.013
277404.000			-40.103			-5.013
277504.000			-40.103			-5.013
277604.000			-40.103			-5.013
277704.000			-40.103			-5.013
277804.000			-40.103			-5.013
277905.000			-40.102			-5.013
278004.000			-40.101			-5.013
278104.000			-40.102			-5.013
278205.000			-40.103			-5.013
278303.000			-40.103			-5.013
278404.000			-40.104			-5.013
278505.000			-40.102			-5.013
278604.000			-40.101			-5.013
278704.000			-40.100			-5.012
278805.000			-40.099			-5.012
278904.000			-40.100			-5.012
279004.000			-40.100			-5.012
279105.000			-40.099			-5.012
279203.000			-40.098			-5.012
279304.000			-40.098			-5.012
279405.000			-40.097			-5.012
279504.000			-40.097			-5.012
279604.000			-40.096			-5.012
279705.000			-40.097			-5.012
279804.000			-40.097			-5.012
279904.000			-40.096			-5.012
280005.000			-40.097			-5.012
280103.000			-40.096			-5.012
280205.000			-40.096			-5.012
280304.000			-40.095			-5.012
280404.000			-40.095			-5.012
280505.000			-40.095			-5.012
280604.000			-40.094			-5.012
280704.000			-40.094			-5.012
280805.000			-40.093			-5.012
280904.000			-40.093			-5.012
281003.000			-40.093			-5.012
281105.000			-40.093			-5.012
281204.000			-40.093			-5.012
281304.000			-40.093			-5.012
281405.000			-40.093			-5.012
281504.000			-40.092			-5.011
281604.000			-40.091			-5.011
281705.000			-40.090			-5.011
281804.000			-40.090			-5.011
281903.000			-40.090			-5.011
282005.000			-40.090			-5.011
282104.000			-40.090			-5.011
282204.000			-40.090			-5.011
282305.000			-40.090			-5.011
282404.000			-40.090			-5.011
282504.000			-40.089			-5.011
282605.000			-40.090			-5.011
282704.000			-40.089			-5.011
282803.000			-40.088			-5.011
282905.000			-40.088			-5.011
283004.000			-40.088			-5.011
283104.000			-40.087			-5.011
283205.000			-40.088			-5.011
283304.000			-40.087			-5.011
283405.000			-40.087			-5.011
283504.000			-40.087			-5.011
283604.000			-40.085			-5.011
283704.000			-40.086			-5.011
283804.000			-40.085			-5.011
283904.000			-40.085			-5.011
284005.000			-40.085			-5.011
284104.000			-40.085			-5.011
284204.000			-40.084			-5.011
284305.000			-40.084			-5.011
284403.000			-40.083			-5.010
284504.000			-40.083			-5.010
284604.000			-40.082			-5.010
284704.000			-40.082			-5.010
284804.000			-40.082			-5.010
284905.000			-40.081			-5.010
285004.000			-40.081			-5.010
285104.000			-40.081			-5.010
285205.000			-40.081			-5.010
285303.000			-40.081			-5.010
285404.000			-40.081			-5.010
285505.000			-40.081			-5.010
285604.000			-40.081			-5.010
285704.000			-40.081			-5.010
285805.000			-40.080			-5.010
285904.000			-40.079			-5.010
286004.000			-40.080			-5.010
286105.000			-40.078			-5.010
286203.000			-40.078			-5.010
286304.000			-40.078			-5.010
286405.000			-40.078			-5.010
286504.000			-40.078			-5.010
286605.000			-40.078			-5.010
286704.000			-40.078			-5.010
286804.000			-40.078			-5.010
286905.000			-40.077			-5.010
287004.000			-40.077			-5.010
287103.000			-40.077			-5.010
287205.000			-40.077			-5.010
287303.000			-40.075			-5.009
287404.000			-40.076			-5.010
287505.000			-40.076			-5.009
287604.000			-40.075			-5.009
287704.000			-40.075			-5.009
287805.000			-40.074			-5.009
287904.000			-40.073			-5.009
288003.000			-40.073			-5.009
288105.000			-40.074			-5.009
288203.000			-40.074			-5.009
288304.000			-40.073			-5.009
288405.000			-40.073			-5.009
288504.000			-40.073			-5.009
288604.000			-40.073			-5.009
288705.000			-40.071			-5.009
288804.000			-40.070			-5.009
288903.000			-40.072			-5.009
289005.000			-40.072			-5.009
289104.000			-40.071			-5.009
289204.000			-40.070			-5.009
289305.000			-40.070			-5.009
289404.000			-40.070			-5.009
289504.000			-40.070			-5.009
289605.000			-40.069			-5.009
289704.000			-40.068			-5.008
289803.000			-40.069			-5.009
289904.000			-40.069			-5.009
290003.000			-40.068			-5.008
290105.000			-40.067			-5.008
290204.000			-40.065			-5.008
290304.000			-40.066			-5.008
290405.000			-40.066			-5.008
290504.000			-40.065			-5.008
290604.000			-40.065			-5.008
290704.000			-40.066			-5.008
290804.000			-40.066			-5.008
290904.000			-40.065			-5.008
291005.000			-40.064			-5.008
291104.000			-40.065			-5.008
291204.000			-40.066			-5.008
291305.000			-40.065			-5.008
291404.000			-40.064			-5.008
291504.000			-40.064			-5.008
291604.000			-40.064			-5.008
291704.000			-40.064			-5.008
291804.000			-40.063			-5.008
291905.000			-40.063			-5.008
292004.000			-40.063			-5.008
292104.000			-40.063			-5.008
292205.000			-40.062			-5.008
292303.000			-40.062			-5.008
292404.000			-40.062			-5.008
292504.000			-40.062			-5.008
292604.000			-40.060			-5.007
292704.000			-40.060			-5.008
292805.000			-40.060			-5.008
292904.000			-40.060			-5.007
293005.000			-40.060			-5.008
293104.000			-40.059			-5.007
293203.000			-40.060			-5.007
293305.000			-40.059			-5.007
293404.000			-40.058			-5.007
293504.000			-40.058			-5.007
293605.000			-40.058			-5.007
293704.000			-40.057			-5.007
293804.000			-40.057			-5.007
293905.000			-40.057			-5.007
294004.000			-40.057			-5.007
294103.000			-40.057			-5.007
294205.000			-40.057			-5.007
294304.000			-40.057			-5.007
294404.000			-40.056			-5.007
294505.000			-40.056			-5.007
294604.000			-40.055			-5.007
294704.000			-40.054			-5.007
294805.000			-40.056			-5.007
294904.000			-40.055			-5.007
295003.000			-40.054			-5.007
295105.000			-40.054			-5.007
295204.000			-40.054			-5.007
295304.000			-40.054			-5.007
295405.000			-40.053			-5.007
295504.000			-40.054			-5.007
295604.000			-40.054			-5.007
295705.000			-40.051			-5.006
295804.000			-40.052			-5.006
295903.000			-40.052			-5.006
296005.000			-40.051			-5.006
296104.000			-40.050			-5.006
296205.000			-40.050			-5.006
296304.000			-40.051			-5.006
296404.000			-40.051			-5.006
296505.000			-40.051			-5.006
296604.000			-40.051			-5.006
296704.000			-40.050			-5.006
296804.000			-40.050			-5.006
296904.000			-40.050			-5.006
297004.000			-40.048			-5.006
297105.000			-40.048			-5.006
297204.000			-40.048			-5.006
297304.000			-40.048			-5.006
297405.000			-40.047			-5.006
297504.000			-40.048			-5.006
297604.000			-40.048			-5.006
297704.000			-40.048			-5.006
297804.000			-40.047			-5.006
297904.000			-40.046			-5.006
298005.000			-40.046			-5.006
298104.000			-40.046			-5.006
298204.000			-40.046			-5.006
298305.000			-40.045			-5.006
298404.000			-40.045			-5.006
298504.000			-40.044			-5.006
298604.000			-40.043			-5.005
298704.000			-40.043			-5.005
298804.000			-40.044			-5.006
298905.000			-40.043			-5.005
299004.000			-40.042			-5.005
299104.000			-40.042			-5.005
299205.000			-40.043			-5.005
299304.000			-40.042			-5.005
299405.000			-40.042			-5.005
299503.000			-40.043			-5.005
299604.000			-40.041			-5.005
299705.000			-40.041			-5.005
299804.000			-40.041			-5.005
299904.000			-40.040			-5.005
