# Acquired on 10/01/2024 11:34:51 
# SPIDER: Creep_3mm_07714532C-1
# CREEP MEASUREMENT

# time [ms]		force [N]		stiffness [N/mm]
0.000			-3.051			-1.017
101.000			-3.542			-1.181
200.000			-3.848			-1.283
300.000			-3.836			-1.279
402.000			-3.818			-1.273
501.000			-3.804			-1.268
600.000			-3.791			-1.264
701.000			-3.782			-1.261
800.000			-3.773			-1.258
900.000			-3.766			-1.255
1001.000			-3.751			-1.250
1101.000			-3.745			-1.248
1201.000			-3.740			-1.247
1301.000			-3.736			-1.245
1400.000			-3.731			-1.244
1500.000			-3.726			-1.242
1601.000			-3.722			-1.241
1700.000			-3.715			-1.238
1801.000			-3.711			-1.237
1901.000			-3.707			-1.236
2001.000			-3.703			-1.234
2101.000			-3.699			-1.233
2200.000			-3.697			-1.232
2300.000			-3.695			-1.232
2401.000			-3.690			-1.230
2500.000			-3.687			-1.229
2600.000			-3.685			-1.228
2702.000			-3.682			-1.227
2801.000			-3.678			-1.226
2900.000			-3.675			-1.225
3001.000			-3.674			-1.225
3100.000			-3.671			-1.224
3200.000			-3.668			-1.223
3301.000			-3.665			-1.222
3401.000			-3.663			-1.221
3501.000			-3.662			-1.221
3601.000			-3.660			-1.220
3700.000			-3.658			-1.219
3800.000			-3.656			-1.219
3901.000			-3.653			-1.218
4000.000			-3.652			-1.217
4100.000			-3.651			-1.217
4202.000			-3.648			-1.216
4301.000			-3.647			-1.216
4400.000			-3.645			-1.215
4501.000			-3.643			-1.214
4600.000			-3.639			-1.213
4700.000			-3.638			-1.213
4801.000			-3.637			-1.212
4901.000			-3.636			-1.212
5002.000			-3.636			-1.212
5100.000			-3.633			-1.211
5200.000			-3.633			-1.211
5301.000			-3.630			-1.210
5400.000			-3.628			-1.209
5500.000			-3.627			-1.209
5601.000			-3.625			-1.208
5701.000			-3.624			-1.208
5801.000			-3.624			-1.208
5901.000			-3.622			-1.207
6000.000			-3.621			-1.207
6100.000			-3.619			-1.206
6201.000			-3.618			-1.206
6300.000			-3.617			-1.206
6401.000			-3.616			-1.205
6502.000			-3.615			-1.205
6600.000			-3.614			-1.205
6700.000			-3.612			-1.204
6801.000			-3.610			-1.203
6900.000			-3.609			-1.203
7000.000			-3.608			-1.203
7101.000			-3.607			-1.202
7201.000			-3.606			-1.202
7301.000			-3.605			-1.202
7401.000			-3.604			-1.201
7500.000			-3.603			-1.201
7600.000			-3.602			-1.201
7701.000			-3.601			-1.200
7800.000			-3.600			-1.200
7900.000			-3.598			-1.199
8002.000			-3.597			-1.199
8101.000			-3.596			-1.199
8201.000			-3.596			-1.199
8300.000			-3.595			-1.198
8400.000			-3.594			-1.198
8501.000			-3.594			-1.198
8600.000			-3.593			-1.198
8701.000			-3.592			-1.197
8802.000			-3.591			-1.197
8900.000			-3.591			-1.197
9000.000			-3.588			-1.196
9101.000			-3.587			-1.196
9200.000			-3.587			-1.196
9300.000			-3.586			-1.195
9401.000			-3.584			-1.195
9501.000			-3.583			-1.194
9601.000			-3.584			-1.195
9701.000			-3.583			-1.194
9800.000			-3.583			-1.194
9900.000			-3.581			-1.194
10001.000			-3.580			-1.193
10100.000			-3.581			-1.194
10200.000			-3.580			-1.193
10302.000			-3.579			-1.193
10401.000			-3.576			-1.192
10500.000			-3.577			-1.192
10601.000			-3.576			-1.192
10700.000			-3.574			-1.191
10800.000			-3.575			-1.192
10901.000			-3.574			-1.191
11000.000			-3.573			-1.191
11101.000			-3.572			-1.191
11202.000			-3.572			-1.191
11300.000			-3.571			-1.190
11401.000			-3.571			-1.190
11500.000			-3.570			-1.190
11600.000			-3.568			-1.189
11701.000			-3.567			-1.189
11800.000			-3.568			-1.189
11901.000			-3.566			-1.189
12002.000			-3.565			-1.188
12100.000			-3.565			-1.188
12200.000			-3.565			-1.188
12301.000			-3.564			-1.188
12400.000			-3.563			-1.188
12500.000			-3.562			-1.187
12601.000			-3.562			-1.187
12701.000			-3.562			-1.187
12801.000			-3.560			-1.187
12901.000			-3.560			-1.187
13000.000			-3.560			-1.187
13100.000			-3.560			-1.187
13201.000			-3.559			-1.186
13300.000			-3.558			-1.186
13400.000			-3.557			-1.186
13502.000			-3.557			-1.186
13601.000			-3.557			-1.186
13700.000			-3.556			-1.185
13801.000			-3.556			-1.185
13900.000			-3.554			-1.185
14000.000			-3.554			-1.185
14101.000			-3.553			-1.184
14201.000			-3.553			-1.184
14301.000			-3.552			-1.184
14401.000			-3.552			-1.184
14500.000			-3.551			-1.184
14601.000			-3.550			-1.183
14700.000			-3.550			-1.183
14800.000			-3.550			-1.183
14901.000			-3.549			-1.183
15001.000			-3.549			-1.183
15101.000			-3.549			-1.183
15201.000			-3.549			-1.183
15300.000			-3.547			-1.182
15400.000			-3.546			-1.182
15501.000			-3.546			-1.182
15600.000			-3.546			-1.182
15700.000			-3.545			-1.182
15802.000			-3.545			-1.182
15901.000			-3.544			-1.181
16000.000			-3.544			-1.181
16101.000			-3.543			-1.181
16200.000			-3.544			-1.181
16300.000			-3.541			-1.180
16401.000			-3.541			-1.180
16500.000			-3.541			-1.180
16601.000			-3.540			-1.180
16702.000			-3.540			-1.180
16800.000			-3.540			-1.180
16900.000			-3.540			-1.180
17001.000			-3.540			-1.180
17100.000			-3.539			-1.180
17200.000			-3.538			-1.179
17301.000			-3.538			-1.179
17401.000			-3.537			-1.179
17501.000			-3.536			-1.179
17601.000			-3.536			-1.179
17700.000			-3.535			-1.178
17801.000			-3.535			-1.178
17900.000			-3.535			-1.178
18000.000			-3.535			-1.178
18101.000			-3.535			-1.178
18201.000			-3.535			-1.178
18301.000			-3.534			-1.178
18401.000			-3.532			-1.177
18500.000			-3.533			-1.178
18600.000			-3.533			-1.178
18701.000			-3.531			-1.177
18800.000			-3.531			-1.177
18900.000			-3.531			-1.177
19002.000			-3.531			-1.177
19101.000			-3.530			-1.177
19200.000			-3.530			-1.177
19301.000			-3.530			-1.177
19400.000			-3.529			-1.176
19500.000			-3.526			-1.175
19601.000			-3.527			-1.176
19700.000			-3.528			-1.176
19801.000			-3.526			-1.175
19902.000			-3.527			-1.176
20000.000			-3.527			-1.176
20100.000			-3.526			-1.175
20201.000			-3.525			-1.175
20300.000			-3.525			-1.175
20400.000			-3.526			-1.175
20501.000			-3.524			-1.175
20601.000			-3.522			-1.174
20701.000			-3.523			-1.174
20801.000			-3.523			-1.174
20900.000			-3.522			-1.174
21001.000			-3.522			-1.174
21100.000			-3.523			-1.174
21200.000			-3.522			-1.174
21301.000			-3.522			-1.174
21401.000			-3.522			-1.174
21501.000			-3.521			-1.174
21601.000			-3.520			-1.173
21700.000			-3.520			-1.173
21800.000			-3.519			-1.173
21901.000			-3.519			-1.173
22000.000			-3.518			-1.173
22101.000			-3.518			-1.173
22202.000			-3.518			-1.173
22300.000			-3.518			-1.173
22400.000			-3.517			-1.172
22501.000			-3.517			-1.172
22600.000			-3.517			-1.172
22700.000			-3.516			-1.172
22801.000			-3.515			-1.172
22901.000			-3.515			-1.172
23001.000			-3.514			-1.171
23101.000			-3.514			-1.171
23200.000			-3.514			-1.171
23300.000			-3.514			-1.171
23401.000			-3.514			-1.171
23500.000			-3.513			-1.171
23600.000			-3.512			-1.171
23702.000			-3.512			-1.171
23801.000			-3.511			-1.170
23900.000			-3.512			-1.171
24001.000			-3.512			-1.171
24100.000			-3.512			-1.171
24201.000			-3.511			-1.170
24300.000			-3.510			-1.170
24401.000			-3.509			-1.170
24502.000			-3.509			-1.170
24601.000			-3.509			-1.170
24700.000			-3.509			-1.170
24801.000			-3.508			-1.169
24900.000			-3.508			-1.169
25000.000			-3.508			-1.169
25101.000			-3.507			-1.169
25201.000			-3.507			-1.169
25301.000			-3.505			-1.168
25401.000			-3.504			-1.168
25500.000			-3.505			-1.168
25600.000			-3.505			-1.168
25701.000			-3.504			-1.168
25800.000			-3.504			-1.168
25900.000			-3.503			-1.168
26002.000			-3.504			-1.168
26101.000			-3.503			-1.168
26200.000			-3.502			-1.167
26301.000			-3.501			-1.167
26400.000			-3.502			-1.167
26500.000			-3.502			-1.167
26601.000			-3.501			-1.167
26700.000			-3.501			-1.167
26801.000			-3.500			-1.167
26902.000			-3.498			-1.166
27000.000			-3.499			-1.166
27100.000			-3.499			-1.166
27201.000			-3.498			-1.166
27300.000			-3.498			-1.166
27401.000			-3.498			-1.166
27500.000			-3.497			-1.166
27601.000			-3.496			-1.165
27702.000			-3.497			-1.166
27800.000			-3.497			-1.166
27900.000			-3.495			-1.165
28001.000			-3.496			-1.165
28100.000			-3.496			-1.165
28200.000			-3.495			-1.165
28301.000			-3.494			-1.165
28401.000			-3.494			-1.165
28501.000			-3.495			-1.165
28601.000			-3.494			-1.165
28700.000			-3.492			-1.164
28800.000			-3.492			-1.164
28901.000			-3.492			-1.164
29000.000			-3.492			-1.164
29100.000			-3.491			-1.164
29202.000			-3.490			-1.163
29301.000			-3.491			-1.164
29400.000			-3.491			-1.164
29501.000			-3.491			-1.164
29600.000			-3.490			-1.163
29700.000			-3.490			-1.163
29801.000			-3.490			-1.163
29900.000			-3.489			-1.163
30000.000			-3.489			-1.163
30102.000			-3.489			-1.163
30201.000			-3.489			-1.163
30300.000			-3.488			-1.163
30401.000			-3.488			-1.163
30500.000			-3.487			-1.162
30601.000			-3.488			-1.163
30700.000			-3.487			-1.162
30800.000			-3.487			-1.162
30902.000			-3.487			-1.162
31001.000			-3.487			-1.162
31100.000			-3.487			-1.162
31201.000			-3.486			-1.162
31300.000			-3.486			-1.162
31400.000			-3.487			-1.162
31501.000			-3.486			-1.162
31601.000			-3.485			-1.162
31701.000			-3.485			-1.162
31801.000			-3.485			-1.162
31900.000			-3.486			-1.162
32000.000			-3.485			-1.162
32101.000			-3.486			-1.162
32200.000			-3.485			-1.162
32300.000			-3.485			-1.162
32402.000			-3.484			-1.161
32501.000			-3.483			-1.161
32601.000			-3.484			-1.161
32701.000			-3.485			-1.162
32800.000			-3.484			-1.161
32900.000			-3.484			-1.161
33001.000			-3.482			-1.161
33100.000			-3.483			-1.161
33201.000			-3.484			-1.161
33302.000			-3.483			-1.161
33401.000			-3.481			-1.160
33500.000			-3.481			-1.160
33601.000			-3.481			-1.160
33700.000			-3.481			-1.160
33801.000			-3.480			-1.160
33900.000			-3.480			-1.160
34001.000			-3.480			-1.160
34102.000			-3.481			-1.160
34200.000			-3.480			-1.160
34300.000			-3.480			-1.160
34401.000			-3.480			-1.160
34500.000			-3.480			-1.160
34600.000			-3.479			-1.160
34701.000			-3.479			-1.160
34801.000			-3.479			-1.160
34901.000			-3.478			-1.159
35001.000			-3.478			-1.159
35100.000			-3.477			-1.159
35200.000			-3.477			-1.159
35301.000			-3.476			-1.159
35400.000			-3.476			-1.159
35500.000			-3.475			-1.158
35602.000			-3.475			-1.158
35701.000			-3.475			-1.158
35800.000			-3.476			-1.159
35901.000			-3.476			-1.159
36000.000			-3.474			-1.158
36100.000			-3.473			-1.158
36201.000			-3.474			-1.158
36300.000			-3.474			-1.158
36401.000			-3.474			-1.158
36502.000			-3.473			-1.158
36600.000			-3.473			-1.158
36700.000			-3.473			-1.158
36801.000			-3.473			-1.158
36900.000			-3.473			-1.158
37001.000			-3.472			-1.157
37100.000			-3.472			-1.157
37201.000			-3.473			-1.158
37302.000			-3.473			-1.158
37400.000			-3.472			-1.157
37500.000			-3.471			-1.157
37601.000			-3.471			-1.157
37700.000			-3.470			-1.157
37800.000			-3.470			-1.157
37901.000			-3.470			-1.157
38001.000			-3.470			-1.157
38101.000			-3.471			-1.157
38201.000			-3.470			-1.157
38300.000			-3.469			-1.156
38400.000			-3.470			-1.157
38501.000			-3.470			-1.157
38600.000			-3.469			-1.156
38700.000			-3.468			-1.156
38802.000			-3.469			-1.156
38901.000			-3.467			-1.156
39000.000			-3.468			-1.156
39101.000			-3.469			-1.156
39200.000			-3.468			-1.156
39300.000			-3.467			-1.156
39401.000			-3.466			-1.155
39500.000			-3.467			-1.156
39601.000			-3.467			-1.156
39702.000			-3.466			-1.155
39800.000			-3.467			-1.156
39900.000			-3.467			-1.156
40001.000			-3.467			-1.156
40100.000			-3.467			-1.156
40201.000			-3.467			-1.156
40300.000			-3.465			-1.155
40401.000			-3.466			-1.155
40502.000			-3.466			-1.155
40600.000			-3.464			-1.155
40700.000			-3.464			-1.155
40801.000			-3.465			-1.155
40900.000			-3.465			-1.155
41000.000			-3.465			-1.155
41101.000			-3.464			-1.155
41201.000			-3.463			-1.154
41301.000			-3.463			-1.154
41401.000			-3.463			-1.154
41500.000			-3.462			-1.154
41600.000			-3.463			-1.154
41701.000			-3.463			-1.154
41800.000			-3.462			-1.154
41900.000			-3.462			-1.154
42002.000			-3.463			-1.154
42101.000			-3.463			-1.154
42200.000			-3.463			-1.154
42301.000			-3.462			-1.154
42400.000			-3.461			-1.154
42500.000			-3.462			-1.154
42601.000			-3.461			-1.154
42701.000			-3.460			-1.153
42801.000			-3.460			-1.153
42901.000			-3.460			-1.153
43000.000			-3.460			-1.153
43100.000			-3.460			-1.153
43201.000			-3.460			-1.153
43300.000			-3.460			-1.153
43401.000			-3.460			-1.153
43501.000			-3.460			-1.153
43601.000			-3.458			-1.153
43701.000			-3.459			-1.153
43800.000			-3.459			-1.153
43900.000			-3.458			-1.153
44001.000			-3.458			-1.153
44100.000			-3.458			-1.153
44200.000			-3.458			-1.153
44302.000			-3.458			-1.153
44401.000			-3.458			-1.153
44500.000			-3.457			-1.152
44601.000			-3.457			-1.152
44700.000			-3.457			-1.152
44800.000			-3.456			-1.152
44901.000			-3.456			-1.152
45000.000			-3.456			-1.152
45101.000			-3.456			-1.152
45202.000			-3.457			-1.152
45300.000			-3.455			-1.152
45400.000			-3.455			-1.152
45501.000			-3.455			-1.152
45600.000			-3.455			-1.152
45700.000			-3.456			-1.152
45801.000			-3.455			-1.152
45901.000			-3.454			-1.151
46001.000			-3.454			-1.151
46101.000			-3.454			-1.151
46200.000			-3.454			-1.151
46300.000			-3.454			-1.151
46401.000			-3.454			-1.151
46500.000			-3.453			-1.151
46601.000			-3.453			-1.151
46701.000			-3.453			-1.151
46801.000			-3.453			-1.151
46901.000			-3.452			-1.151
47000.000			-3.451			-1.150
47100.000			-3.451			-1.150
47201.000			-3.452			-1.151
47300.000			-3.452			-1.151
47400.000			-3.452			-1.151
47502.000			-3.452			-1.151
47601.000			-3.451			-1.150
47700.000			-3.449			-1.150
47801.000			-3.451			-1.150
47900.000			-3.451			-1.150
48000.000			-3.450			-1.150
48101.000			-3.450			-1.150
48201.000			-3.450			-1.150
48301.000			-3.450			-1.150
48401.000			-3.449			-1.150
48500.000			-3.449			-1.150
48600.000			-3.449			-1.150
48701.000			-3.449			-1.150
48800.000			-3.448			-1.149
48900.000			-3.449			-1.150
49002.000			-3.448			-1.149
49101.000			-3.448			-1.149
49201.000			-3.448			-1.149
49301.000			-3.447			-1.149
49400.000			-3.447			-1.149
49500.000			-3.447			-1.149
49601.000			-3.447			-1.149
49700.000			-3.446			-1.149
49801.000			-3.446			-1.149
49901.000			-3.447			-1.149
50001.000			-3.446			-1.149
50101.000			-3.446			-1.149
50200.000			-3.446			-1.149
50300.000			-3.447			-1.149
50401.000			-3.446			-1.149
50500.000			-3.446			-1.149
50600.000			-3.446			-1.149
50702.000			-3.445			-1.148
50801.000			-3.445			-1.148
50900.000			-3.445			-1.148
51001.000			-3.446			-1.149
51100.000			-3.446			-1.149
51200.000			-3.445			-1.148
51301.000			-3.444			-1.148
51401.000			-3.445			-1.148
51501.000			-3.445			-1.148
51601.000			-3.445			-1.148
51700.000			-3.445			-1.148
51800.000			-3.444			-1.148
51901.000			-3.443			-1.148
52000.000			-3.443			-1.148
52100.000			-3.443			-1.148
52202.000			-3.443			-1.148
52301.000			-3.442			-1.147
52400.000			-3.442			-1.147
52501.000			-3.443			-1.148
52600.000			-3.442			-1.147
52700.000			-3.442			-1.147
52801.000			-3.442			-1.147
52900.000			-3.443			-1.148
53002.000			-3.442			-1.147
53101.000			-3.442			-1.147
53200.000			-3.441			-1.147
53301.000			-3.441			-1.147
53400.000			-3.441			-1.147
53500.000			-3.442			-1.147
53601.000			-3.441			-1.147
53701.000			-3.441			-1.147
53801.000			-3.441			-1.147
53901.000			-3.440			-1.147
54000.000			-3.440			-1.147
54100.000			-3.440			-1.147
54201.000			-3.439			-1.146
54300.000			-3.440			-1.147
54400.000			-3.440			-1.147
54502.000			-3.441			-1.147
54601.000			-3.439			-1.146
54700.000			-3.439			-1.146
54801.000			-3.439			-1.146
54900.000			-3.438			-1.146
55000.000			-3.438			-1.146
55101.000			-3.439			-1.146
55200.000			-3.438			-1.146
55301.000			-3.438			-1.146
55402.000			-3.439			-1.146
55500.000			-3.439			-1.146
55600.000			-3.439			-1.146
55701.000			-3.438			-1.146
55800.000			-3.437			-1.146
55900.000			-3.437			-1.146
56001.000			-3.437			-1.146
56100.000			-3.437			-1.146
56202.000			-3.437			-1.146
56301.000			-3.438			-1.146
56400.000			-3.437			-1.146
56501.000			-3.437			-1.146
56600.000			-3.437			-1.146
56700.000			-3.437			-1.146
56801.000			-3.436			-1.145
56901.000			-3.437			-1.146
57001.000			-3.437			-1.146
57101.000			-3.436			-1.145
57200.000			-3.434			-1.145
57300.000			-3.435			-1.145
57401.000			-3.436			-1.145
57500.000			-3.436			-1.145
57600.000			-3.435			-1.145
57702.000			-3.434			-1.145
57801.000			-3.435			-1.145
57900.000			-3.434			-1.145
58001.000			-3.434			-1.145
58100.000			-3.435			-1.145
58200.000			-3.434			-1.145
58301.000			-3.434			-1.145
58400.000			-3.433			-1.144
58501.000			-3.433			-1.144
58602.000			-3.433			-1.144
58700.000			-3.433			-1.144
58800.000			-3.433			-1.144
58901.000			-3.433			-1.144
59000.000			-3.433			-1.144
59100.000			-3.432			-1.144
59201.000			-3.432			-1.144
59301.000			-3.432			-1.144
59402.000			-3.432			-1.144
59500.000			-3.432			-1.144
59600.000			-3.432			-1.144
59701.000			-3.432			-1.144
59800.000			-3.431			-1.144
59900.000			-3.431			-1.144
60001.000			-3.431			-1.144
60101.000			-3.430			-1.143
60201.000			-3.431			-1.144
60301.000			-3.430			-1.143
60400.000			-3.429			-1.143
60500.000			-3.429			-1.143
60601.000			-3.429			-1.143
60700.000			-3.429			-1.143
60801.000			-3.430			-1.143
60902.000			-3.428			-1.143
61001.000			-3.428			-1.143
61100.000			-3.429			-1.143
61201.000			-3.428			-1.143
61300.000			-3.427			-1.142
61400.000			-3.426			-1.142
61501.000			-3.426			-1.142
61601.000			-3.427			-1.142
61701.000			-3.426			-1.142
61801.000			-3.426			-1.142
61900.000			-3.426			-1.142
62000.000			-3.426			-1.142
62101.000			-3.426			-1.142
62200.000			-3.426			-1.142
62300.000			-3.425			-1.142
62402.000			-3.425			-1.142
62501.000			-3.425			-1.142
62601.000			-3.425			-1.142
62700.000			-3.424			-1.141
62800.000			-3.425			-1.142
62901.000			-3.426			-1.142
63000.000			-3.425			-1.142
63100.000			-3.425			-1.142
63202.000			-3.424			-1.141
63301.000			-3.425			-1.142
63400.000			-3.425			-1.142
63501.000			-3.425			-1.142
63600.000			-3.424			-1.141
63700.000			-3.424			-1.141
63801.000			-3.425			-1.142
63901.000			-3.425			-1.142
64001.000			-3.424			-1.141
64102.000			-3.424			-1.141
64200.000			-3.424			-1.141
64300.000			-3.424			-1.141
64401.000			-3.423			-1.141
64500.000			-3.423			-1.141
64600.000			-3.423			-1.141
64702.000			-3.423			-1.141
64801.000			-3.423			-1.141
64900.000			-3.422			-1.141
65001.000			-3.422			-1.141
65100.000			-3.423			-1.141
65200.000			-3.423			-1.141
65301.000			-3.422			-1.141
65400.000			-3.423			-1.141
65501.000			-3.423			-1.141
65602.000			-3.423			-1.141
65700.000			-3.423			-1.141
65801.000			-3.423			-1.141
65900.000			-3.422			-1.141
66000.000			-3.423			-1.141
66101.000			-3.422			-1.141
66200.000			-3.422			-1.141
66301.000			-3.421			-1.140
66402.000			-3.421			-1.140
66500.000			-3.422			-1.141
66600.000			-3.421			-1.140
66701.000			-3.421			-1.140
66800.000			-3.421			-1.140
66900.000			-3.420			-1.140
67002.000			-3.421			-1.140
67101.000			-3.421			-1.140
67201.000			-3.421			-1.140
67301.000			-3.419			-1.140
67400.000			-3.419			-1.140
67500.000			-3.419			-1.140
67601.000			-3.419			-1.140
67700.000			-3.420			-1.140
67800.000			-3.420			-1.140
67902.000			-3.419			-1.140
68001.000			-3.420			-1.140
68100.000			-3.421			-1.140
68201.000			-3.419			-1.140
68300.000			-3.418			-1.139
68400.000			-3.418			-1.139
68501.000			-3.418			-1.139
68600.000			-3.419			-1.140
68701.000			-3.419			-1.140
68802.000			-3.418			-1.139
68900.000			-3.418			-1.139
69001.000			-3.417			-1.139
69100.000			-3.417			-1.139
69200.000			-3.417			-1.139
69301.000			-3.417			-1.139
69400.000			-3.417			-1.139
69501.000			-3.417			-1.139
69602.000			-3.416			-1.139
69700.000			-3.417			-1.139
69800.000			-3.417			-1.139
69901.000			-3.416			-1.139
70000.000			-3.417			-1.139
70100.000			-3.418			-1.139
70201.000			-3.418			-1.139
70301.000			-3.417			-1.139
70401.000			-3.416			-1.139
70501.000			-3.416			-1.139
70600.000			-3.417			-1.139
70700.000			-3.416			-1.139
70801.000			-3.416			-1.139
70900.000			-3.416			-1.139
71000.000			-3.416			-1.139
71102.000			-3.416			-1.139
71201.000			-3.415			-1.138
71300.000			-3.415			-1.138
71401.000			-3.415			-1.138
71500.000			-3.415			-1.138
71600.000			-3.415			-1.138
71701.000			-3.416			-1.139
71801.000			-3.415			-1.138
71901.000			-3.414			-1.138
72002.000			-3.413			-1.138
72100.000			-3.414			-1.138
72201.000			-3.414			-1.138
72300.000			-3.414			-1.138
72400.000			-3.415			-1.138
72501.000			-3.414			-1.138
72601.000			-3.414			-1.138
72701.000			-3.413			-1.138
72801.000			-3.413			-1.138
72900.000			-3.413			-1.138
73000.000			-3.414			-1.138
73101.000			-3.414			-1.138
73200.000			-3.414			-1.138
73300.000			-3.413			-1.138
73402.000			-3.413			-1.138
73501.000			-3.413			-1.138
73600.000			-3.414			-1.138
73701.000			-3.412			-1.137
73800.000			-3.412			-1.137
73900.000			-3.411			-1.137
74001.000			-3.411			-1.137
74100.000			-3.412			-1.137
74201.000			-3.411			-1.137
74302.000			-3.411			-1.137
74400.000			-3.411			-1.137
74500.000			-3.410			-1.137
74601.000			-3.412			-1.137
74700.000			-3.412			-1.137
74800.000			-3.411			-1.137
74901.000			-3.411			-1.137
75001.000			-3.411			-1.137
75101.000			-3.411			-1.137
75201.000			-3.411			-1.137
75300.000			-3.410			-1.137
75401.000			-3.410			-1.137
75500.000			-3.410			-1.137
75600.000			-3.410			-1.137
75701.000			-3.411			-1.137
75801.000			-3.410			-1.137
75901.000			-3.411			-1.137
76001.000			-3.410			-1.137
76100.000			-3.410			-1.137
76200.000			-3.410			-1.137
76301.000			-3.409			-1.136
76400.000			-3.409			-1.136
76500.000			-3.409			-1.136
76602.000			-3.409			-1.136
76701.000			-3.408			-1.136
76800.000			-3.409			-1.136
76901.000			-3.408			-1.136
77000.000			-3.408			-1.136
77100.000			-3.407			-1.136
77201.000			-3.407			-1.136
77300.000			-3.408			-1.136
77401.000			-3.407			-1.136
77502.000			-3.406			-1.135
77600.000			-3.408			-1.136
77700.000			-3.408			-1.136
77801.000			-3.407			-1.136
77900.000			-3.408			-1.136
78000.000			-3.407			-1.136
78101.000			-3.406			-1.135
78201.000			-3.406			-1.135
78301.000			-3.406			-1.135
78401.000			-3.406			-1.135
78500.000			-3.407			-1.136
78601.000			-3.407			-1.136
78700.000			-3.407			-1.136
78800.000			-3.406			-1.135
78901.000			-3.406			-1.135
79001.000			-3.406			-1.135
79101.000			-3.406			-1.135
79202.000			-3.406			-1.135
79300.000			-3.406			-1.135
79400.000			-3.406			-1.135
79501.000			-3.407			-1.136
79600.000			-3.406			-1.135
79700.000			-3.405			-1.135
79801.000			-3.405			-1.135
79901.000			-3.405			-1.135
80001.000			-3.404			-1.135
80101.000			-3.404			-1.135
80200.000			-3.404			-1.135
80300.000			-3.405			-1.135
80401.000			-3.405			-1.135
80500.000			-3.404			-1.135
80601.000			-3.405			-1.135
80702.000			-3.404			-1.135
80800.000			-3.404			-1.135
80900.000			-3.404			-1.135
81001.000			-3.404			-1.135
81100.000			-3.405			-1.135
81200.000			-3.404			-1.135
81301.000			-3.405			-1.135
81401.000			-3.404			-1.135
81501.000			-3.404			-1.135
81601.000			-3.404			-1.135
81700.000			-3.403			-1.134
81801.000			-3.403			-1.134
81900.000			-3.403			-1.134
82000.000			-3.403			-1.134
82101.000			-3.402			-1.134
82201.000			-3.402			-1.134
82301.000			-3.401			-1.134
82401.000			-3.401			-1.134
82500.000			-3.402			-1.134
82600.000			-3.401			-1.134
82701.000			-3.401			-1.134
82800.000			-3.401			-1.134
82900.000			-3.402			-1.134
83002.000			-3.402			-1.134
83101.000			-3.401			-1.134
83200.000			-3.401			-1.134
83301.000			-3.400			-1.133
83400.000			-3.400			-1.133
83500.000			-3.401			-1.134
83601.000			-3.401			-1.134
83700.000			-3.401			-1.134
83801.000			-3.400			-1.133
83902.000			-3.400			-1.133
84000.000			-3.401			-1.134
84100.000			-3.400			-1.133
84201.000			-3.400			-1.133
84300.000			-3.400			-1.133
84400.000			-3.399			-1.133
84501.000			-3.398			-1.133
84601.000			-3.399			-1.133
84701.000			-3.399			-1.133
84801.000			-3.401			-1.134
84900.000			-3.400			-1.133
85001.000			-3.399			-1.133
85100.000			-3.399			-1.133
85200.000			-3.398			-1.133
85301.000			-3.398			-1.133
85401.000			-3.399			-1.133
85501.000			-3.400			-1.133
85601.000			-3.398			-1.133
85700.000			-3.398			-1.133
85800.000			-3.398			-1.133
85901.000			-3.399			-1.133
86000.000			-3.398			-1.133
86100.000			-3.398			-1.133
86202.000			-3.398			-1.133
86301.000			-3.398			-1.133
86401.000			-3.398			-1.133
86501.000			-3.397			-1.132
86600.000			-3.398			-1.133
86700.000			-3.399			-1.133
86801.000			-3.398			-1.133
86900.000			-3.397			-1.132
87000.000			-3.398			-1.133
87102.000			-3.397			-1.132
87201.000			-3.397			-1.132
87300.000			-3.397			-1.132
87401.000			-3.397			-1.132
87500.000			-3.397			-1.132
87600.000			-3.396			-1.132
87701.000			-3.396			-1.132
87800.000			-3.397			-1.132
87900.000			-3.396			-1.132
88002.000			-3.397			-1.132
88101.000			-3.396			-1.132
88201.000			-3.396			-1.132
88300.000			-3.396			-1.132
88400.000			-3.395			-1.132
88501.000			-3.395			-1.132
88600.000			-3.395			-1.132
88700.000			-3.395			-1.132
88802.000			-3.395			-1.132
88901.000			-3.395			-1.132
89000.000			-3.395			-1.132
89101.000			-3.395			-1.132
89200.000			-3.395			-1.132
89300.000			-3.395			-1.132
89401.000			-3.394			-1.131
89500.000			-3.394			-1.131
89601.000			-3.394			-1.131
89702.000			-3.395			-1.132
89801.000			-3.393			-1.131
89900.000			-3.394			-1.131
90001.000			-3.392			-1.131
90100.000			-3.393			-1.131
90200.000			-3.393			-1.131
90301.000			-3.393			-1.131
90400.000			-3.393			-1.131
90501.000			-3.394			-1.131
90602.000			-3.394			-1.131
90700.000			-3.393			-1.131
90800.000			-3.393			-1.131
90901.000			-3.393			-1.131
91000.000			-3.393			-1.131
91100.000			-3.393			-1.131
91201.000			-3.392			-1.131
91301.000			-3.392			-1.131
91402.000			-3.392			-1.131
91500.000			-3.392			-1.131
91600.000			-3.393			-1.131
91701.000			-3.393			-1.131
91800.000			-3.392			-1.131
91900.000			-3.392			-1.131
92001.000			-3.392			-1.131
92101.000			-3.392			-1.131
92201.000			-3.391			-1.130
92301.000			-3.391			-1.130
92400.000			-3.391			-1.130
92500.000			-3.391			-1.130
92601.000			-3.391			-1.130
92700.000			-3.390			-1.130
92800.000			-3.390			-1.130
92902.000			-3.390			-1.130
93001.000			-3.391			-1.130
93100.000			-3.390			-1.130
93201.000			-3.390			-1.130
93300.000			-3.389			-1.130
93400.000			-3.389			-1.130
93501.000			-3.390			-1.130
93600.000			-3.390			-1.130
93701.000			-3.391			-1.130
93802.000			-3.390			-1.130
93900.000			-3.390			-1.130
94000.000			-3.389			-1.130
94101.000			-3.389			-1.130
94200.000			-3.389			-1.130
94300.000			-3.389			-1.130
94401.000			-3.389			-1.130
94501.000			-3.389			-1.130
94602.000			-3.389			-1.130
94701.000			-3.388			-1.129
94800.000			-3.387			-1.129
94901.000			-3.387			-1.129
95000.000			-3.388			-1.129
95100.000			-3.388			-1.129
95201.000			-3.388			-1.129
95300.000			-3.388			-1.129
95401.000			-3.389			-1.130
95502.000			-3.389			-1.130
95600.000			-3.388			-1.129
95700.000			-3.387			-1.129
95801.000			-3.388			-1.129
95900.000			-3.387			-1.129
96000.000			-3.387			-1.129
96101.000			-3.387			-1.129
96201.000			-3.387			-1.129
96301.000			-3.387			-1.129
96401.000			-3.387			-1.129
96500.000			-3.387			-1.129
96600.000			-3.388			-1.129
96701.000			-3.387			-1.129
96800.000			-3.386			-1.129
96900.000			-3.386			-1.129
97001.000			-3.386			-1.129
97101.000			-3.387			-1.129
97201.000			-3.386			-1.129
97301.000			-3.386			-1.129
97400.000			-3.386			-1.129
97500.000			-3.385			-1.128
97601.000			-3.385			-1.128
97700.000			-3.385			-1.128
97801.000			-3.385			-1.128
97901.000			-3.385			-1.128
98001.000			-3.385			-1.128
98101.000			-3.386			-1.129
98200.000			-3.386			-1.129
98300.000			-3.386			-1.129
98401.000			-3.385			-1.128
98500.000			-3.386			-1.129
98600.000			-3.386			-1.129
98702.000			-3.385			-1.128
98801.000			-3.385			-1.128
98901.000			-3.385			-1.128
99001.000			-3.386			-1.129
99100.000			-3.385			-1.128
99200.000			-3.384			-1.128
99301.000			-3.384			-1.128
99400.000			-3.384			-1.128
99500.000			-3.384			-1.128
99602.000			-3.384			-1.128
99701.000			-3.384			-1.128
99800.000			-3.384			-1.128
99901.000			-3.384			-1.128
100000.000			-3.384			-1.128
100100.000			-3.383			-1.128
100201.000			-3.383			-1.128
100300.000			-3.383			-1.128
100401.000			-3.384			-1.128
100502.000			-3.383			-1.128
100600.000			-3.383			-1.128
100700.000			-3.384			-1.128
100801.000			-3.383			-1.128
100900.000			-3.383			-1.128
101001.000			-3.383			-1.128
101100.000			-3.383			-1.128
101200.000			-3.383			-1.128
101302.000			-3.383			-1.128
101401.000			-3.382			-1.127
101500.000			-3.382			-1.127
101601.000			-3.382			-1.127
101700.000			-3.381			-1.127
101800.000			-3.381			-1.127
101901.000			-3.383			-1.128
102000.000			-3.382			-1.127
102101.000			-3.381			-1.127
102202.000			-3.381			-1.127
102300.000			-3.382			-1.127
102400.000			-3.382			-1.127
102501.000			-3.380			-1.127
102600.000			-3.381			-1.127
102700.000			-3.381			-1.127
102801.000			-3.382			-1.127
102901.000			-3.381			-1.127
103001.000			-3.381			-1.127
103101.000			-3.381			-1.127
103200.000			-3.381			-1.127
103300.000			-3.381			-1.127
103401.000			-3.381			-1.127
103500.000			-3.381			-1.127
103600.000			-3.382			-1.127
103702.000			-3.380			-1.127
103801.000			-3.380			-1.127
103900.000			-3.380			-1.127
104001.000			-3.380			-1.127
104100.000			-3.381			-1.127
104201.000			-3.381			-1.127
104300.000			-3.381			-1.127
104400.000			-3.381			-1.127
104502.000			-3.382			-1.127
104601.000			-3.381			-1.127
104700.000			-3.381			-1.127
104801.000			-3.380			-1.127
104900.000			-3.379			-1.126
105000.000			-3.380			-1.127
105101.000			-3.380			-1.127
105200.000			-3.380			-1.127
105300.000			-3.380			-1.127
105402.000			-3.381			-1.127
105501.000			-3.380			-1.127
105600.000			-3.380			-1.127
105701.000			-3.380			-1.127
105800.000			-3.380			-1.127
105900.000			-3.380			-1.127
106001.000			-3.379			-1.126
106100.000			-3.379			-1.126
106201.000			-3.378			-1.126
106302.000			-3.378			-1.126
106400.000			-3.378			-1.126
106500.000			-3.378			-1.126
106601.000			-3.378			-1.126
106700.000			-3.378			-1.126
106800.000			-3.378			-1.126
106901.000			-3.378			-1.126
107001.000			-3.378			-1.126
107101.000			-3.378			-1.126
107201.000			-3.379			-1.126
107300.000			-3.379			-1.126
107401.000			-3.378			-1.126
107500.000			-3.377			-1.126
107600.000			-3.377			-1.126
107701.000			-3.377			-1.126
107800.000			-3.378			-1.126
107901.000			-3.378			-1.126
108002.000			-3.377			-1.126
108100.000			-3.377			-1.126
108200.000			-3.377			-1.126
108301.000			-3.377			-1.126
108400.000			-3.377			-1.126
108500.000			-3.376			-1.125
108601.000			-3.376			-1.125
108701.000			-3.377			-1.126
108801.000			-3.376			-1.125
108902.000			-3.377			-1.126
109000.000			-3.378			-1.126
109100.000			-3.377			-1.126
109201.000			-3.377			-1.126
109300.000			-3.376			-1.125
109400.000			-3.376			-1.125
109501.000			-3.375			-1.125
109601.000			-3.376			-1.125
109701.000			-3.376			-1.125
109801.000			-3.377			-1.126
109900.000			-3.376			-1.125
110000.000			-3.375			-1.125
110101.000			-3.376			-1.125
110200.000			-3.376			-1.125
110300.000			-3.375			-1.125
110402.000			-3.376			-1.125
110501.000			-3.376			-1.125
110602.000			-3.375			-1.125
110700.000			-3.375			-1.125
110800.000			-3.375			-1.125
110901.000			-3.374			-1.125
111000.000			-3.375			-1.125
111100.000			-3.375			-1.125
111201.000			-3.375			-1.125
111301.000			-3.375			-1.125
111401.000			-3.374			-1.125
111501.000			-3.374			-1.125
111600.000			-3.374			-1.125
111700.000			-3.374			-1.125
111801.000			-3.374			-1.125
111900.000			-3.374			-1.125
112000.000			-3.375			-1.125
112102.000			-3.375			-1.125
112201.000			-3.374			-1.125
112300.000			-3.374			-1.125
112401.000			-3.374			-1.125
112500.000			-3.373			-1.124
112600.000			-3.373			-1.124
112701.000			-3.374			-1.125
112800.000			-3.374			-1.125
112901.000			-3.375			-1.125
113002.000			-3.374			-1.125
113100.000			-3.374			-1.125
113200.000			-3.373			-1.124
113301.000			-3.373			-1.124
113400.000			-3.374			-1.125
113500.000			-3.374			-1.125
113601.000			-3.374			-1.125
113701.000			-3.374			-1.125
113802.000			-3.375			-1.125
113901.000			-3.374			-1.125
114000.000			-3.373			-1.124
114101.000			-3.373			-1.124
114200.000			-3.373			-1.124
114300.000			-3.373			-1.124
114401.000			-3.373			-1.124
114500.000			-3.373			-1.124
114601.000			-3.373			-1.124
114702.000			-3.371			-1.124
114800.000			-3.371			-1.124
114900.000			-3.372			-1.124
115001.000			-3.372			-1.124
115100.000			-3.371			-1.124
115200.000			-3.371			-1.124
115301.000			-3.371			-1.124
115401.000			-3.371			-1.124
115501.000			-3.371			-1.124
115601.000			-3.371			-1.124
115700.000			-3.371			-1.124
115800.000			-3.371			-1.124
115901.000			-3.371			-1.124
116000.000			-3.370			-1.123
116100.000			-3.370			-1.123
116202.000			-3.371			-1.124
116301.000			-3.371			-1.124
116401.000			-3.371			-1.124
116501.000			-3.371			-1.124
116600.000			-3.370			-1.123
116700.000			-3.371			-1.124
116801.000			-3.370			-1.123
116900.000			-3.370			-1.123
117001.000			-3.370			-1.123
117101.000			-3.369			-1.123
117201.000			-3.369			-1.123
117301.000			-3.370			-1.123
117400.000			-3.370			-1.123
117500.000			-3.369			-1.123
117601.000			-3.369			-1.123
117700.000			-3.370			-1.123
117800.000			-3.370			-1.123
117902.000			-3.370			-1.123
118001.000			-3.370			-1.123
118101.000			-3.370			-1.123
118201.000			-3.369			-1.123
118300.000			-3.369			-1.123
118400.000			-3.370			-1.123
118501.000			-3.370			-1.123
118600.000			-3.370			-1.123
118700.000			-3.369			-1.123
118802.000			-3.368			-1.123
118901.000			-3.368			-1.123
119000.000			-3.368			-1.123
119101.000			-3.367			-1.122
119200.000			-3.367			-1.122
119300.000			-3.368			-1.123
119401.000			-3.369			-1.123
119500.000			-3.368			-1.123
119600.000			-3.369			-1.123
119702.000			-3.368			-1.123
119801.000			-3.368			-1.123
119900.000			-3.368			-1.123
120001.000			-3.367			-1.122
120100.000			-3.368			-1.123
120201.000			-3.368			-1.123
120300.000			-3.368			-1.123
120400.000			-3.367			-1.122
120502.000			-3.368			-1.123
120601.000			-3.368			-1.123
120700.000			-3.368			-1.123
120801.000			-3.367			-1.122
120900.000			-3.367			-1.122
121000.000			-3.368			-1.123
121101.000			-3.367			-1.122
121200.000			-3.367			-1.122
121300.000			-3.368			-1.123
121402.000			-3.368			-1.123
121501.000			-3.368			-1.123
121600.000			-3.367			-1.122
121701.000			-3.366			-1.122
121800.000			-3.366			-1.122
121900.000			-3.366			-1.122
122001.000			-3.367			-1.122
122100.000			-3.367			-1.122
122201.000			-3.366			-1.122
122302.000			-3.365			-1.122
122400.000			-3.365			-1.122
122500.000			-3.366			-1.122
122601.000			-3.366			-1.122
122700.000			-3.367			-1.122
122800.000			-3.366			-1.122
122901.000			-3.365			-1.122
123001.000			-3.365			-1.122
123101.000			-3.365			-1.122
123201.000			-3.365			-1.122
123300.000			-3.365			-1.122
123401.000			-3.365			-1.122
123500.000			-3.365			-1.122
123600.000			-3.365			-1.122
123701.000			-3.364			-1.121
123801.000			-3.364			-1.121
123901.000			-3.364			-1.121
124002.000			-3.365			-1.122
124100.000			-3.364			-1.121
124200.000			-3.365			-1.122
124301.000			-3.365			-1.122
124400.000			-3.365			-1.122
124500.000			-3.365			-1.122
124601.000			-3.365			-1.122
124701.000			-3.365			-1.122
124801.000			-3.364			-1.121
124901.000			-3.364			-1.121
125000.000			-3.364			-1.121
125100.000			-3.364			-1.121
125201.000			-3.363			-1.121
125300.000			-3.363			-1.121
125400.000			-3.364			-1.121
125502.000			-3.363			-1.121
125601.000			-3.364			-1.121
125701.000			-3.363			-1.121
125801.000			-3.362			-1.121
125900.000			-3.362			-1.121
126000.000			-3.364			-1.121
126101.000			-3.363			-1.121
126200.000			-3.362			-1.121
126300.000			-3.363			-1.121
126402.000			-3.363			-1.121
126501.000			-3.362			-1.121
126601.000			-3.362			-1.121
126700.000			-3.362			-1.121
126800.000			-3.363			-1.121
126901.000			-3.363			-1.121
127000.000			-3.362			-1.121
127100.000			-3.362			-1.121
127202.000			-3.362			-1.121
127301.000			-3.362			-1.121
127400.000			-3.362			-1.121
127501.000			-3.361			-1.120
127600.000			-3.361			-1.120
127700.000			-3.361			-1.120
127801.000			-3.363			-1.121
127900.000			-3.362			-1.121
128001.000			-3.361			-1.120
128102.000			-3.362			-1.121
128201.000			-3.363			-1.121
128300.000			-3.363			-1.121
128401.000			-3.361			-1.120
128500.000			-3.362			-1.121
128600.000			-3.361			-1.120
128701.000			-3.361			-1.120
128800.000			-3.361			-1.120
128901.000			-3.361			-1.120
129002.000			-3.361			-1.120
129100.000			-3.361			-1.120
129200.000			-3.360			-1.120
129301.000			-3.361			-1.120
129400.000			-3.361			-1.120
129500.000			-3.361			-1.120
129601.000			-3.361			-1.120
129701.000			-3.360			-1.120
129802.000			-3.359			-1.120
129900.000			-3.360			-1.120
130000.000			-3.360			-1.120
130101.000			-3.361			-1.120
130200.000			-3.360			-1.120
130300.000			-3.360			-1.120
130401.000			-3.361			-1.120
130501.000			-3.360			-1.120
130601.000			-3.359			-1.120
130701.000			-3.359			-1.120
130800.000			-3.359			-1.120
130900.000			-3.359			-1.120
131001.000			-3.359			-1.120
131100.000			-3.359			-1.120
131200.000			-3.359			-1.120
131301.000			-3.359			-1.120
131401.000			-3.360			-1.120
131501.000			-3.359			-1.120
131601.000			-3.359			-1.120
131700.000			-3.359			-1.120
131800.000			-3.358			-1.119
131901.000			-3.359			-1.120
132000.000			-3.359			-1.120
132100.000			-3.358			-1.119
132201.000			-3.358			-1.119
132301.000			-3.358			-1.119
132401.000			-3.359			-1.120
132501.000			-3.359			-1.120
132600.000			-3.358			-1.119
132700.000			-3.358			-1.119
132801.000			-3.357			-1.119
132900.000			-3.358			-1.119
133001.000			-3.358			-1.119
133100.000			-3.358			-1.119
133201.000			-3.357			-1.119
133302.000			-3.358			-1.119
133401.000			-3.358			-1.119
133500.000			-3.358			-1.119
133601.000			-3.358			-1.119
133700.000			-3.356			-1.119
133800.000			-3.356			-1.119
133901.000			-3.357			-1.119
134000.000			-3.357			-1.119
134101.000			-3.356			-1.119
134202.000			-3.357			-1.119
134301.000			-3.356			-1.119
134400.000			-3.355			-1.118
134501.000			-3.355			-1.118
134600.000			-3.356			-1.119
134700.000			-3.355			-1.118
134801.000			-3.355			-1.118
134900.000			-3.356			-1.119
135001.000			-3.353			-1.118
135102.000			-3.354			-1.118
135201.000			-3.355			-1.118
135300.000			-3.354			-1.118
135401.000			-3.353			-1.118
135500.000			-3.354			-1.118
135600.000			-3.354			-1.118
135701.000			-3.354			-1.118
135800.000			-3.354			-1.118
135900.000			-3.354			-1.118
136002.000			-3.354			-1.118
136101.000			-3.354			-1.118
136201.000			-3.354			-1.118
136300.000			-3.354			-1.118
136400.000			-3.353			-1.118
136501.000			-3.354			-1.118
136600.000			-3.353			-1.118
136700.000			-3.353			-1.118
136802.000			-3.353			-1.118
136901.000			-3.353			-1.118
137001.000			-3.352			-1.117
137101.000			-3.352			-1.117
137200.000			-3.352			-1.117
137300.000			-3.352			-1.117
137401.000			-3.352			-1.117
137500.000			-3.353			-1.118
137600.000			-3.353			-1.118
137702.000			-3.353			-1.118
137801.000			-3.352			-1.117
137901.000			-3.352			-1.117
138001.000			-3.352			-1.117
138100.000			-3.353			-1.118
138200.000			-3.351			-1.117
138301.000			-3.351			-1.117
138400.000			-3.352			-1.117
138500.000			-3.351			-1.117
138602.000			-3.351			-1.117
138701.000			-3.351			-1.117
138801.000			-3.351			-1.117
138901.000			-3.351			-1.117
139000.000			-3.350			-1.117
139100.000			-3.351			-1.117
139201.000			-3.351			-1.117
139300.000			-3.350			-1.117
139401.000			-3.351			-1.117
139501.000			-3.351			-1.117
139601.000			-3.350			-1.117
139702.000			-3.349			-1.116
139800.000			-3.350			-1.117
139900.000			-3.350			-1.117
140001.000			-3.350			-1.117
140100.000			-3.350			-1.117
140200.000			-3.350			-1.117
140301.000			-3.349			-1.116
140400.000			-3.350			-1.117
140501.000			-3.351			-1.117
140602.000			-3.350			-1.117
140700.000			-3.350			-1.117
140800.000			-3.350			-1.117
140901.000			-3.350			-1.117
141000.000			-3.349			-1.116
141100.000			-3.349			-1.116
141201.000			-3.349			-1.116
141300.000			-3.350			-1.117
141401.000			-3.350			-1.117
141502.000			-3.350			-1.117
141600.000			-3.350			-1.117
141700.000			-3.350			-1.117
141801.000			-3.349			-1.116
141900.000			-3.349			-1.116
142000.000			-3.349			-1.116
142101.000			-3.348			-1.116
142200.000			-3.348			-1.116
142301.000			-3.348			-1.116
142402.000			-3.348			-1.116
142500.000			-3.349			-1.116
142601.000			-3.349			-1.116
142700.000			-3.349			-1.116
142800.000			-3.347			-1.116
142901.000			-3.347			-1.116
143000.000			-3.348			-1.116
143100.000			-3.349			-1.116
143202.000			-3.349			-1.116
143301.000			-3.349			-1.116
143401.000			-3.349			-1.116
143501.000			-3.348			-1.116
143600.000			-3.348			-1.116
143700.000			-3.348			-1.116
143801.000			-3.349			-1.116
143900.000			-3.347			-1.116
144000.000			-3.347			-1.116
144102.000			-3.349			-1.116
144201.000			-3.348			-1.116
144301.000			-3.348			-1.116
144401.000			-3.349			-1.116
144500.000			-3.347			-1.116
144600.000			-3.348			-1.116
144701.000			-3.348			-1.116
144800.000			-3.347			-1.116
144900.000			-3.348			-1.116
145001.000			-3.348			-1.116
145101.000			-3.347			-1.116
145201.000			-3.347			-1.116
145301.000			-3.347			-1.116
145400.000			-3.347			-1.116
145500.000			-3.346			-1.115
145601.000			-3.347			-1.116
145700.000			-3.347			-1.116
145801.000			-3.347			-1.116
145900.000			-3.347			-1.116
146001.000			-3.346			-1.115
146102.000			-3.346			-1.115
146200.000			-3.347			-1.116
146300.000			-3.347			-1.116
146401.000			-3.347			-1.116
146500.000			-3.346			-1.115
146600.000			-3.346			-1.115
146701.000			-3.347			-1.116
146800.000			-3.347			-1.116
146901.000			-3.347			-1.116
147002.000			-3.346			-1.115
147101.000			-3.346			-1.115
147200.000			-3.346			-1.115
147301.000			-3.346			-1.115
147400.000			-3.347			-1.116
147500.000			-3.346			-1.115
147601.000			-3.346			-1.115
147700.000			-3.346			-1.115
147800.000			-3.346			-1.115
147902.000			-3.347			-1.116
148001.000			-3.346			-1.115
148100.000			-3.347			-1.116
148201.000			-3.347			-1.116
148300.000			-3.346			-1.115
148400.000			-3.346			-1.115
148501.000			-3.346			-1.115
148600.000			-3.346			-1.115
148700.000			-3.347			-1.116
148802.000			-3.346			-1.115
148901.000			-3.345			-1.115
149001.000			-3.345			-1.115
149100.000			-3.346			-1.115
149200.000			-3.347			-1.116
149301.000			-3.346			-1.115
149400.000			-3.347			-1.116
149500.000			-3.347			-1.116
149601.000			-3.346			-1.115
149701.000			-3.346			-1.115
149801.000			-3.346			-1.115
149902.000			-3.346			-1.115
150000.000			-3.346			-1.115
150100.000			-3.346			-1.115
150201.000			-3.346			-1.115
150300.000			-3.345			-1.115
150400.000			-3.346			-1.115
150501.000			-3.347			-1.116
150601.000			-3.346			-1.115
150701.000			-3.346			-1.115
150802.000			-3.347			-1.116
150900.000			-3.347			-1.116
151000.000			-3.346			-1.115
151101.000			-3.345			-1.115
151200.000			-3.345			-1.115
151300.000			-3.346			-1.115
151401.000			-3.346			-1.115
151501.000			-3.347			-1.116
151601.000			-3.346			-1.115
151702.000			-3.346			-1.115
151800.000			-3.346			-1.115
151900.000			-3.346			-1.115
152001.000			-3.346			-1.115
152100.000			-3.345			-1.115
152201.000			-3.346			-1.115
152300.000			-3.345			-1.115
152401.000			-3.344			-1.115
152502.000			-3.345			-1.115
152601.000			-3.345			-1.115
152700.000			-3.344			-1.115
152801.000			-3.345			-1.115
152900.000			-3.344			-1.115
153000.000			-3.344			-1.115
153101.000			-3.345			-1.115
153200.000			-3.345			-1.115
153301.000			-3.345			-1.115
153402.000			-3.345			-1.115
153501.000			-3.344			-1.115
153600.000			-3.344			-1.115
153701.000			-3.345			-1.115
153800.000			-3.344			-1.115
153900.000			-3.344			-1.115
154001.000			-3.344			-1.115
154100.000			-3.345			-1.115
154201.000			-3.344			-1.115
154302.000			-3.345			-1.115
154401.000			-3.344			-1.115
154500.000			-3.343			-1.114
154601.000			-3.344			-1.115
154700.000			-3.344			-1.115
154800.000			-3.344			-1.115
154901.000			-3.343			-1.114
155000.000			-3.343			-1.114
155101.000			-3.343			-1.114
155202.000			-3.343			-1.114
155301.000			-3.343			-1.114
155401.000			-3.343			-1.114
155500.000			-3.343			-1.114
155600.000			-3.343			-1.114
155701.000			-3.343			-1.114
155800.000			-3.343			-1.114
155900.000			-3.343			-1.114
156002.000			-3.343			-1.114
156101.000			-3.343			-1.114
156201.000			-3.341			-1.114
156301.000			-3.342			-1.114
156400.000			-3.343			-1.114
156500.000			-3.343			-1.114
156601.000			-3.342			-1.114
156700.000			-3.342			-1.114
156800.000			-3.342			-1.114
156902.000			-3.343			-1.114
157001.000			-3.343			-1.114
157101.000			-3.342			-1.114
157201.000			-3.342			-1.114
157300.000			-3.341			-1.114
157400.000			-3.342			-1.114
157501.000			-3.342			-1.114
157600.000			-3.342			-1.114
157700.000			-3.342			-1.114
157802.000			-3.342			-1.114
157901.000			-3.342			-1.114
158001.000			-3.342			-1.114
158101.000			-3.342			-1.114
158200.000			-3.342			-1.114
158300.000			-3.342			-1.114
158401.000			-3.341			-1.114
158500.000			-3.341			-1.114
158601.000			-3.341			-1.114
158700.000			-3.341			-1.114
158801.000			-3.341			-1.114
158902.000			-3.342			-1.114
159000.000			-3.341			-1.114
159100.000			-3.341			-1.114
159201.000			-3.341			-1.114
159300.000			-3.340			-1.113
159400.000			-3.342			-1.114
159501.000			-3.342			-1.114
159600.000			-3.341			-1.114
159701.000			-3.341			-1.114
159802.000			-3.340			-1.113
159900.000			-3.341			-1.114
160000.000			-3.340			-1.113
160101.000			-3.340			-1.113
160200.000			-3.339			-1.113
160300.000			-3.340			-1.113
160401.000			-3.340			-1.113
160500.000			-3.340			-1.113
160601.000			-3.340			-1.113
160702.000			-3.340			-1.113
160800.000			-3.340			-1.113
160900.000			-3.340			-1.113
161001.000			-3.340			-1.113
161100.000			-3.339			-1.113
161200.000			-3.339			-1.113
161301.000			-3.339			-1.113
161400.000			-3.339			-1.113
161501.000			-3.339			-1.113
161602.000			-3.340			-1.113
161700.000			-3.339			-1.113
161801.000			-3.339			-1.113
161900.000			-3.340			-1.113
162000.000			-3.339			-1.113
162101.000			-3.339			-1.113
162200.000			-3.340			-1.113
162300.000			-3.339			-1.113
162402.000			-3.338			-1.113
162501.000			-3.338			-1.113
162601.000			-3.339			-1.113
162701.000			-3.338			-1.113
162800.000			-3.338			-1.113
162900.000			-3.339			-1.113
163001.000			-3.340			-1.113
163100.000			-3.339			-1.113
163200.000			-3.338			-1.113
163302.000			-3.338			-1.113
163401.000			-3.338			-1.113
163501.000			-3.339			-1.113
163601.000			-3.338			-1.113
163700.000			-3.338			-1.113
163800.000			-3.337			-1.112
163901.000			-3.338			-1.113
164000.000			-3.338			-1.113
164100.000			-3.338			-1.113
164201.000			-3.338			-1.113
164301.000			-3.338			-1.113
164401.000			-3.338			-1.113
164501.000			-3.338			-1.113
164600.000			-3.337			-1.112
164700.000			-3.338			-1.113
164801.000			-3.338			-1.113
164900.000			-3.338			-1.113
165001.000			-3.337			-1.112
165100.000			-3.337			-1.112
165201.000			-3.337			-1.112
165302.000			-3.337			-1.112
165401.000			-3.337			-1.112
165500.000			-3.337			-1.112
165601.000			-3.336			-1.112
165700.000			-3.336			-1.112
165800.000			-3.336			-1.112
165901.000			-3.335			-1.112
166000.000			-3.336			-1.112
166100.000			-3.337			-1.112
166202.000			-3.337			-1.112
166301.000			-3.335			-1.112
166400.000			-3.336			-1.112
166501.000			-3.337			-1.112
166600.000			-3.336			-1.112
166700.000			-3.335			-1.112
166801.000			-3.335			-1.112
166900.000			-3.335			-1.112
167000.000			-3.336			-1.112
167102.000			-3.335			-1.112
167201.000			-3.335			-1.112
167300.000			-3.334			-1.111
167401.000			-3.334			-1.111
167500.000			-3.336			-1.112
167600.000			-3.335			-1.112
167701.000			-3.335			-1.112
167800.000			-3.334			-1.111
167900.000			-3.335			-1.112
168002.000			-3.335			-1.112
168101.000			-3.335			-1.112
168201.000			-3.334			-1.111
168300.000			-3.334			-1.111
168400.000			-3.334			-1.111
168501.000			-3.334			-1.111
168600.000			-3.334			-1.111
168700.000			-3.334			-1.111
168801.000			-3.334			-1.111
168901.000			-3.334			-1.111
169001.000			-3.334			-1.111
169102.000			-3.334			-1.111
169200.000			-3.333			-1.111
169300.000			-3.333			-1.111
169401.000			-3.333			-1.111
169500.000			-3.333			-1.111
169600.000			-3.334			-1.111
169701.000			-3.334			-1.111
169801.000			-3.334			-1.111
169901.000			-3.334			-1.111
170002.000			-3.333			-1.111
170100.000			-3.334			-1.111
170200.000			-3.335			-1.112
170301.000			-3.334			-1.111
170400.000			-3.334			-1.111
170500.000			-3.334			-1.111
170601.000			-3.334			-1.111
170701.000			-3.334			-1.111
170801.000			-3.334			-1.111
170902.000			-3.334			-1.111
171000.000			-3.334			-1.111
171100.000			-3.334			-1.111
171201.000			-3.334			-1.111
171300.000			-3.334			-1.111
171401.000			-3.335			-1.112
171500.000			-3.334			-1.111
171600.000			-3.334			-1.111
171702.000			-3.333			-1.111
171801.000			-3.334			-1.111
171900.000			-3.333			-1.111
172001.000			-3.333			-1.111
172100.000			-3.334			-1.111
172200.000			-3.333			-1.111
172301.000			-3.332			-1.111
172400.000			-3.332			-1.111
172500.000			-3.332			-1.111
172602.000			-3.332			-1.111
172701.000			-3.333			-1.111
172800.000			-3.333			-1.111
172901.000			-3.332			-1.111
173000.000			-3.332			-1.111
173100.000			-3.331			-1.110
173201.000			-3.330			-1.110
173300.000			-3.330			-1.110
173400.000			-3.331			-1.110
173502.000			-3.331			-1.110
173601.000			-3.330			-1.110
173700.000			-3.330			-1.110
173801.000			-3.330			-1.110
173900.000			-3.329			-1.110
174000.000			-3.329			-1.110
174101.000			-3.330			-1.110
174200.000			-3.330			-1.110
174300.000			-3.329			-1.110
174402.000			-3.329			-1.110
174501.000			-3.330			-1.110
174601.000			-3.329			-1.110
174700.000			-3.329			-1.110
174800.000			-3.329			-1.110
174901.000			-3.329			-1.110
175000.000			-3.330			-1.110
175100.000			-3.328			-1.109
175201.000			-3.328			-1.109
175301.000			-3.329			-1.110
175401.000			-3.329			-1.110
175501.000			-3.329			-1.110
175600.000			-3.329			-1.110
175700.000			-3.329			-1.110
175801.000			-3.328			-1.109
175900.000			-3.328			-1.109
176000.000			-3.329			-1.110
176101.000			-3.330			-1.110
176201.000			-3.328			-1.109
176301.000			-3.329			-1.110
176401.000			-3.329			-1.110
176500.000			-3.328			-1.109
176600.000			-3.328			-1.109
176701.000			-3.327			-1.109
176800.000			-3.328			-1.109
176900.000			-3.328			-1.109
177001.000			-3.329			-1.110
177101.000			-3.329			-1.110
177201.000			-3.329			-1.110
177302.000			-3.329			-1.110
177400.000			-3.329			-1.110
177500.000			-3.328			-1.109
177601.000			-3.328			-1.109
177700.000			-3.327			-1.109
177801.000			-3.328			-1.109
177900.000			-3.329			-1.110
178000.000			-3.327			-1.109
178102.000			-3.326			-1.109
178201.000			-3.327			-1.109
178301.000			-3.327			-1.109
178401.000			-3.328			-1.109
178500.000			-3.327			-1.109
178600.000			-3.327			-1.109
178701.000			-3.327			-1.109
178800.000			-3.327			-1.109
178900.000			-3.327			-1.109
179001.000			-3.328			-1.109
179101.000			-3.327			-1.109
179201.000			-3.326			-1.109
179301.000			-3.326			-1.109
179400.000			-3.326			-1.109
179500.000			-3.326			-1.109
179601.000			-3.326			-1.109
179700.000			-3.326			-1.109
179800.000			-3.327			-1.109
179901.000			-3.327			-1.109
180001.000			-3.327			-1.109
180101.000			-3.326			-1.109
180201.000			-3.327			-1.109
180300.000			-3.326			-1.109
180400.000			-3.326			-1.109
180501.000			-3.327			-1.109
180600.000			-3.327			-1.109
180700.000			-3.327			-1.109
180801.000			-3.326			-1.109
180901.000			-3.327			-1.109
181002.000			-3.326			-1.109
181101.000			-3.325			-1.108
181200.000			-3.326			-1.109
181301.000			-3.326			-1.109
181400.000			-3.326			-1.109
181500.000			-3.325			-1.108
181601.000			-3.326			-1.109
181700.000			-3.326			-1.109
181801.000			-3.326			-1.109
181902.000			-3.325			-1.108
182001.000			-3.325			-1.108
182100.000			-3.325			-1.108
182201.000			-3.325			-1.108
182300.000			-3.326			-1.109
182400.000			-3.325			-1.108
182501.000			-3.325			-1.108
182600.000			-3.324			-1.108
182701.000			-3.324			-1.108
182802.000			-3.325			-1.108
182901.000			-3.326			-1.109
183000.000			-3.326			-1.109
183101.000			-3.326			-1.109
183200.000			-3.325			-1.108
183300.000			-3.326			-1.109
183401.000			-3.325			-1.108
183500.000			-3.324			-1.108
183600.000			-3.324			-1.108
183702.000			-3.325			-1.108
183801.000			-3.326			-1.109
183900.000			-3.325			-1.108
184001.000			-3.324			-1.108
184100.000			-3.324			-1.108
184201.000			-3.325			-1.108
184300.000			-3.325			-1.108
184400.000			-3.325			-1.108
184501.000			-3.325			-1.108
184601.000			-3.325			-1.108
184701.000			-3.324			-1.108
184801.000			-3.324			-1.108
184900.000			-3.324			-1.108
185000.000			-3.324			-1.108
185101.000			-3.325			-1.108
185200.000			-3.324			-1.108
185300.000			-3.324			-1.108
185401.000			-3.324			-1.108
185501.000			-3.325			-1.108
185601.000			-3.325			-1.108
185701.000			-3.325			-1.108
185800.000			-3.324			-1.108
185900.000			-3.325			-1.108
186001.000			-3.325			-1.108
186100.000			-3.325			-1.108
186200.000			-3.324			-1.108
186301.000			-3.325			-1.108
186401.000			-3.324			-1.108
186501.000			-3.325			-1.108
186601.000			-3.325			-1.108
186700.000			-3.325			-1.108
186800.000			-3.325			-1.108
186901.000			-3.325			-1.108
187000.000			-3.325			-1.108
187100.000			-3.325			-1.108
187201.000			-3.325			-1.108
187301.000			-3.325			-1.108
187402.000			-3.325			-1.108
187501.000			-3.325			-1.108
187600.000			-3.325			-1.108
187701.000			-3.324			-1.108
187800.000			-3.324			-1.108
187900.000			-3.325			-1.108
188001.000			-3.324			-1.108
188100.000			-3.325			-1.108
188200.000			-3.324			-1.108
188302.000			-3.324			-1.108
188401.000			-3.325			-1.108
188500.000			-3.324			-1.108
188601.000			-3.324			-1.108
188700.000			-3.325			-1.108
188800.000			-3.325			-1.108
188901.000			-3.324			-1.108
189000.000			-3.324			-1.108
189100.000			-3.324			-1.108
189202.000			-3.324			-1.108
189301.000			-3.324			-1.108
189400.000			-3.323			-1.108
189501.000			-3.323			-1.108
189600.000			-3.323			-1.108
189700.000			-3.324			-1.108
189801.000			-3.323			-1.108
189900.000			-3.322			-1.107
190000.000			-3.323			-1.108
190102.000			-3.324			-1.108
190201.000			-3.323			-1.108
190301.000			-3.323			-1.108
190401.000			-3.324			-1.108
190500.000			-3.324			-1.108
190601.000			-3.324			-1.108
190700.000			-3.324			-1.108
190800.000			-3.325			-1.108
190901.000			-3.325			-1.108
191001.000			-3.324			-1.108
191101.000			-3.324			-1.108
191202.000			-3.324			-1.108
191300.000			-3.323			-1.108
191400.000			-3.325			-1.108
191501.000			-3.324			-1.108
191600.000			-3.324			-1.108
191700.000			-3.324			-1.108
191801.000			-3.324			-1.108
191901.000			-3.323			-1.108
192001.000			-3.323			-1.108
192102.000			-3.323			-1.108
192200.000			-3.323			-1.108
192300.000			-3.323			-1.108
192401.000			-3.324			-1.108
192500.000			-3.323			-1.108
192600.000			-3.324			-1.108
192701.000			-3.324			-1.108
192801.000			-3.324			-1.108
192901.000			-3.324			-1.108
193002.000			-3.322			-1.107
193100.000			-3.323			-1.108
193200.000			-3.324			-1.108
193301.000			-3.323			-1.108
193400.000			-3.323			-1.108
193500.000			-3.323			-1.108
193601.000			-3.323			-1.108
193701.000			-3.324			-1.108
193802.000			-3.324			-1.108
193901.000			-3.325			-1.108
194000.000			-3.324			-1.108
194101.000			-3.325			-1.108
194200.000			-3.324			-1.108
194300.000			-3.323			-1.108
194401.000			-3.323			-1.108
194500.000			-3.323			-1.108
194600.000			-3.324			-1.108
194702.000			-3.324			-1.108
194801.000			-3.323			-1.108
194900.000			-3.324			-1.108
195001.000			-3.324			-1.108
195100.000			-3.324			-1.108
195200.000			-3.323			-1.108
195301.000			-3.323			-1.108
195400.000			-3.322			-1.107
195500.000			-3.324			-1.108
195602.000			-3.323			-1.108
195701.000			-3.323			-1.108
195801.000			-3.323			-1.108
195901.000			-3.322			-1.107
196000.000			-3.322			-1.107
196100.000			-3.324			-1.108
196201.000			-3.323			-1.108
196300.000			-3.323			-1.108
196400.000			-3.323			-1.108
196502.000			-3.323			-1.108
196601.000			-3.322			-1.107
196701.000			-3.322			-1.107
196801.000			-3.321			-1.107
196900.000			-3.322			-1.107
197001.000			-3.321			-1.107
197100.000			-3.322			-1.107
197200.000			-3.321			-1.107
197301.000			-3.322			-1.107
197401.000			-3.322			-1.107
197501.000			-3.322			-1.107
197602.000			-3.322			-1.107
197700.000			-3.322			-1.107
197800.000			-3.321			-1.107
197901.000			-3.322			-1.107
198000.000			-3.321			-1.107
198100.000			-3.321			-1.107
198201.000			-3.321			-1.107
198300.000			-3.320			-1.107
198401.000			-3.321			-1.107
198502.000			-3.322			-1.107
198600.000			-3.321			-1.107
198700.000			-3.321			-1.107
198801.000			-3.321			-1.107
198900.000			-3.321			-1.107
199000.000			-3.321			-1.107
199101.000			-3.320			-1.107
199200.000			-3.321			-1.107
199301.000			-3.321			-1.107
199402.000			-3.321			-1.107
199501.000			-3.320			-1.107
199600.000			-3.320			-1.107
199701.000			-3.321			-1.107
199800.000			-3.320			-1.107
199900.000			-3.319			-1.106
200001.000			-3.320			-1.107
200100.000			-3.320			-1.107
200202.000			-3.321			-1.107
200301.000			-3.320			-1.107
200401.000			-3.320			-1.107
200501.000			-3.320			-1.107
200600.000			-3.320			-1.107
200700.000			-3.320			-1.107
200801.000			-3.320			-1.107
200900.000			-3.320			-1.107
201000.000			-3.319			-1.106
201102.000			-3.319			-1.106
201201.000			-3.319			-1.106
201301.000			-3.320			-1.107
201401.000			-3.320			-1.107
201500.000			-3.319			-1.106
201600.000			-3.319			-1.106
201701.000			-3.319			-1.106
201800.000			-3.320			-1.107
201900.000			-3.320			-1.107
202002.000			-3.319			-1.106
202101.000			-3.320			-1.107
202200.000			-3.320			-1.107
202301.000			-3.319			-1.106
202400.000			-3.319			-1.106
202500.000			-3.319			-1.106
202601.000			-3.319			-1.106
202700.000			-3.318			-1.106
202800.000			-3.319			-1.106
202902.000			-3.318			-1.106
203001.000			-3.318			-1.106
203100.000			-3.319			-1.106
203201.000			-3.318			-1.106
203300.000			-3.318			-1.106
203401.000			-3.318			-1.106
203500.000			-3.318			-1.106
203600.000			-3.318			-1.106
203701.000			-3.318			-1.106
203801.000			-3.318			-1.106
203901.000			-3.319			-1.106
204001.000			-3.318			-1.106
204100.000			-3.318			-1.106
204200.000			-3.319			-1.106
204301.000			-3.318			-1.106
204400.000			-3.318			-1.106
204500.000			-3.318			-1.106
204601.000			-3.318			-1.106
204701.000			-3.319			-1.106
204801.000			-3.319			-1.106
204901.000			-3.317			-1.106
205000.000			-3.317			-1.106
205100.000			-3.317			-1.106
205201.000			-3.318			-1.106
205300.000			-3.318			-1.106
205400.000			-3.318			-1.106
205501.000			-3.318			-1.106
205601.000			-3.317			-1.106
205701.000			-3.316			-1.105
205801.000			-3.316			-1.105
205900.000			-3.316			-1.105
206000.000			-3.317			-1.106
206101.000			-3.317			-1.106
206200.000			-3.317			-1.106
206300.000			-3.317			-1.106
206401.000			-3.318			-1.106
206501.000			-3.317			-1.106
206602.000			-3.317			-1.106
206700.000			-3.317			-1.106
206800.000			-3.316			-1.105
206901.000			-3.316			-1.105
207000.000			-3.316			-1.105
207100.000			-3.316			-1.105
207201.000			-3.316			-1.105
207300.000			-3.316			-1.105
207401.000			-3.316			-1.105
207502.000			-3.317			-1.106
207600.000			-3.317			-1.106
207700.000			-3.317			-1.106
207801.000			-3.316			-1.105
207900.000			-3.315			-1.105
208000.000			-3.316			-1.105
208101.000			-3.315			-1.105
208200.000			-3.315			-1.105
208301.000			-3.315			-1.105
208402.000			-3.315			-1.105
208500.000			-3.316			-1.105
208600.000			-3.315			-1.105
208701.000			-3.316			-1.105
208800.000			-3.316			-1.105
208900.000			-3.315			-1.105
209001.000			-3.316			-1.105
209100.000			-3.316			-1.105
209201.000			-3.316			-1.105
209302.000			-3.316			-1.105
209400.000			-3.316			-1.105
209500.000			-3.316			-1.105
209601.000			-3.315			-1.105
209700.000			-3.315			-1.105
209801.000			-3.316			-1.105
209900.000			-3.315			-1.105
210000.000			-3.315			-1.105
210102.000			-3.316			-1.105
210201.000			-3.316			-1.105
210300.000			-3.315			-1.105
210401.000			-3.314			-1.105
210500.000			-3.315			-1.105
210600.000			-3.316			-1.105
210701.000			-3.315			-1.105
210800.000			-3.315			-1.105
210901.000			-3.314			-1.105
211002.000			-3.315			-1.105
211101.000			-3.315			-1.105
211200.000			-3.314			-1.105
211301.000			-3.315			-1.105
211400.000			-3.315			-1.105
211500.000			-3.315			-1.105
211601.000			-3.315			-1.105
211700.000			-3.314			-1.105
211801.000			-3.314			-1.105
211902.000			-3.314			-1.105
212000.000			-3.315			-1.105
212100.000			-3.314			-1.105
212201.000			-3.314			-1.105
212300.000			-3.314			-1.105
212400.000			-3.314			-1.105
212501.000			-3.314			-1.105
212601.000			-3.314			-1.105
212701.000			-3.314			-1.105
212802.000			-3.314			-1.105
212900.000			-3.314			-1.105
213001.000			-3.314			-1.105
213100.000			-3.314			-1.105
213200.000			-3.314			-1.105
213301.000			-3.314			-1.105
213400.000			-3.314			-1.105
213501.000			-3.313			-1.104
213602.000			-3.315			-1.105
213700.000			-3.313			-1.104
213800.000			-3.313			-1.104
213901.000			-3.313			-1.104
214000.000			-3.314			-1.105
214100.000			-3.313			-1.104
214201.000			-3.314			-1.105
214300.000			-3.313			-1.104
214401.000			-3.313			-1.104
214502.000			-3.313			-1.104
214600.000			-3.314			-1.105
214700.000			-3.314			-1.105
214801.000			-3.313			-1.104
214900.000			-3.313			-1.104
215000.000			-3.313			-1.104
215101.000			-3.313			-1.104
215200.000			-3.313			-1.104
215301.000			-3.313			-1.104
215402.000			-3.313			-1.104
215500.000			-3.312			-1.104
215600.000			-3.313			-1.104
215701.000			-3.313			-1.104
215800.000			-3.313			-1.104
215900.000			-3.313			-1.104
216001.000			-3.313			-1.104
216101.000			-3.313			-1.104
216202.000			-3.313			-1.104
216301.000			-3.313			-1.104
216400.000			-3.313			-1.104
216501.000			-3.312			-1.104
216600.000			-3.312			-1.104
216700.000			-3.312			-1.104
216801.000			-3.313			-1.104
216900.000			-3.313			-1.104
217001.000			-3.312			-1.104
217102.000			-3.311			-1.104
217201.000			-3.312			-1.104
217300.000			-3.312			-1.104
217401.000			-3.311			-1.104
217500.000			-3.311			-1.104
217600.000			-3.311			-1.104
217701.000			-3.310			-1.103
217800.000			-3.311			-1.104
217901.000			-3.311			-1.104
218002.000			-3.312			-1.104
218101.000			-3.311			-1.104
218200.000			-3.311			-1.104
218301.000			-3.310			-1.103
218400.000			-3.310			-1.103
218500.000			-3.311			-1.104
218601.000			-3.311			-1.104
218700.000			-3.311			-1.104
218801.000			-3.311			-1.104
218902.000			-3.311			-1.104
219001.000			-3.310			-1.103
219100.000			-3.311			-1.104
219201.000			-3.311			-1.104
219300.000			-3.311			-1.104
219401.000			-3.311			-1.104
219500.000			-3.312			-1.104
219600.000			-3.312			-1.104
219702.000			-3.311			-1.104
219801.000			-3.310			-1.103
219901.000			-3.310			-1.103
220001.000			-3.311			-1.104
220100.000			-3.311			-1.104
220200.000			-3.311			-1.104
220301.000			-3.310			-1.103
220400.000			-3.309			-1.103
220500.000			-3.310			-1.103
220602.000			-3.310			-1.103
220701.000			-3.310			-1.103
220800.000			-3.310			-1.103
220901.000			-3.309			-1.103
221000.000			-3.310			-1.103
221100.000			-3.310			-1.103
221201.000			-3.310			-1.103
221300.000			-3.310			-1.103
221400.000			-3.309			-1.103
221502.000			-3.309			-1.103
221601.000			-3.310			-1.103
221700.000			-3.309			-1.103
221801.000			-3.308			-1.103
221900.000			-3.309			-1.103
222000.000			-3.309			-1.103
222101.000			-3.309			-1.103
222200.000			-3.309			-1.103
222301.000			-3.309			-1.103
222402.000			-3.307			-1.102
222501.000			-3.307			-1.102
222601.000			-3.307			-1.102
222700.000			-3.307			-1.102
222800.000			-3.308			-1.103
222901.000			-3.309			-1.103
223000.000			-3.310			-1.103
223100.000			-3.309			-1.103
223202.000			-3.309			-1.103
223301.000			-3.308			-1.103
223401.000			-3.307			-1.102
223501.000			-3.308			-1.103
223600.000			-3.308			-1.103
223700.000			-3.307			-1.102
223801.000			-3.307			-1.102
223900.000			-3.307			-1.102
224000.000			-3.307			-1.102
224102.000			-3.307			-1.102
224201.000			-3.308			-1.103
224300.000			-3.308			-1.103
224401.000			-3.308			-1.103
224500.000			-3.307			-1.102
224600.000			-3.308			-1.103
224701.000			-3.307			-1.102
224800.000			-3.307			-1.102
224900.000			-3.306			-1.102
225002.000			-3.307			-1.102
225101.000			-3.308			-1.103
225200.000			-3.307			-1.102
225301.000			-3.307			-1.102
225400.000			-3.307			-1.102
225500.000			-3.306			-1.102
225601.000			-3.306			-1.102
225700.000			-3.306			-1.102
225801.000			-3.305			-1.102
225901.000			-3.306			-1.102
226001.000			-3.306			-1.102
226102.000			-3.306			-1.102
226200.000			-3.306			-1.102
226300.000			-3.305			-1.102
226401.000			-3.306			-1.102
226500.000			-3.306			-1.102
226600.000			-3.306			-1.102
226701.000			-3.306			-1.102
226801.000			-3.306			-1.102
226901.000			-3.306			-1.102
227002.000			-3.306			-1.102
227100.000			-3.306			-1.102
227200.000			-3.306			-1.102
227301.000			-3.306			-1.102
227400.000			-3.305			-1.102
227500.000			-3.305			-1.102
227601.000			-3.304			-1.101
227701.000			-3.304			-1.101
227801.000			-3.304			-1.101
227902.000			-3.304			-1.101
228000.000			-3.304			-1.101
228100.000			-3.304			-1.101
228201.000			-3.306			-1.102
228300.000			-3.305			-1.102
228400.000			-3.305			-1.102
228501.000			-3.305			-1.102
228601.000			-3.305			-1.102
228701.000			-3.305			-1.102
228802.000			-3.304			-1.101
228900.000			-3.304			-1.101
229001.000			-3.305			-1.102
229100.000			-3.304			-1.101
229200.000			-3.304			-1.101
229301.000			-3.302			-1.101
229400.000			-3.303			-1.101
229500.000			-3.304			-1.101
229602.000			-3.303			-1.101
229701.000			-3.304			-1.101
229800.000			-3.304			-1.101
229901.000			-3.304			-1.101
230000.000			-3.304			-1.101
230100.000			-3.304			-1.101
230201.000			-3.304			-1.101
230300.000			-3.304			-1.101
230401.000			-3.304			-1.101
230502.000			-3.303			-1.101
230601.000			-3.303			-1.101
230700.000			-3.303			-1.101
230801.000			-3.304			-1.101
230900.000			-3.303			-1.101
231000.000			-3.303			-1.101
231101.000			-3.304			-1.101
231200.000			-3.304			-1.101
231301.000			-3.303			-1.101
231402.000			-3.303			-1.101
231501.000			-3.302			-1.101
231600.000			-3.303			-1.101
231701.000			-3.304			-1.101
231800.000			-3.305			-1.102
231900.000			-3.302			-1.101
232001.000			-3.302			-1.101
232100.000			-3.303			-1.101
232202.000			-3.303			-1.101
232301.000			-3.304			-1.101
232400.000			-3.305			-1.102
232501.000			-3.304			-1.101
232600.000			-3.302			-1.101
232700.000			-3.303			-1.101
232801.000			-3.303			-1.101
232900.000			-3.303			-1.101
233000.000			-3.304			-1.101
233102.000			-3.304			-1.101
233201.000			-3.303			-1.101
233300.000			-3.303			-1.101
233401.000			-3.303			-1.101
233500.000			-3.303			-1.101
233600.000			-3.303			-1.101
233701.000			-3.303			-1.101
233800.000			-3.303			-1.101
233901.000			-3.302			-1.101
234002.000			-3.303			-1.101
234101.000			-3.303			-1.101
234200.000			-3.303			-1.101
234301.000			-3.303			-1.101
234400.000			-3.303			-1.101
234500.000			-3.303			-1.101
234601.000			-3.304			-1.101
234700.000			-3.304			-1.101
234801.000			-3.302			-1.101
234902.000			-3.303			-1.101
235001.000			-3.304			-1.101
235100.000			-3.304			-1.101
235201.000			-3.303			-1.101
235300.000			-3.303			-1.101
235401.000			-3.303			-1.101
235500.000			-3.303			-1.101
235600.000			-3.303			-1.101
235702.000			-3.304			-1.101
235801.000			-3.303			-1.101
235900.000			-3.302			-1.101
236001.000			-3.303			-1.101
236100.000			-3.304			-1.101
236200.000			-3.303			-1.101
236301.000			-3.304			-1.101
236400.000			-3.304			-1.101
236500.000			-3.303			-1.101
236602.000			-3.302			-1.101
236701.000			-3.302			-1.101
236800.000			-3.304			-1.101
236901.000			-3.304			-1.101
237000.000			-3.303			-1.101
237100.000			-3.304			-1.101
237201.000			-3.304			-1.101
237300.000			-3.303			-1.101
237400.000			-3.302			-1.101
237502.000			-3.301			-1.100
237601.000			-3.302			-1.101
237700.000			-3.302			-1.101
237801.000			-3.302			-1.101
237900.000			-3.303			-1.101
238000.000			-3.303			-1.101
238101.000			-3.301			-1.100
238200.000			-3.301			-1.100
238301.000			-3.301			-1.100
238402.000			-3.303			-1.101
238501.000			-3.303			-1.101
238601.000			-3.302			-1.101
238700.000			-3.301			-1.100
238800.000			-3.302			-1.101
238901.000			-3.302			-1.101
239000.000			-3.301			-1.100
239100.000			-3.302			-1.101
239202.000			-3.301			-1.100
239301.000			-3.301			-1.100
239401.000			-3.301			-1.100
239501.000			-3.302			-1.101
239600.000			-3.301			-1.100
239700.000			-3.301			-1.100
239801.000			-3.301			-1.100
239900.000			-3.301			-1.100
240000.000			-3.301			-1.100
240102.000			-3.301			-1.100
240201.000			-3.301			-1.100
240301.000			-3.300			-1.100
240401.000			-3.301			-1.100
240500.000			-3.301			-1.100
240600.000			-3.301			-1.100
240701.000			-3.301			-1.100
240800.000			-3.301			-1.100
240900.000			-3.300			-1.100
241002.000			-3.301			-1.100
241101.000			-3.301			-1.100
241200.000			-3.301			-1.100
241301.000			-3.301			-1.100
241400.000			-3.301			-1.100
241500.000			-3.301			-1.100
241601.000			-3.300			-1.100
241700.000			-3.300			-1.100
241801.000			-3.299			-1.100
241901.000			-3.300			-1.100
242001.000			-3.300			-1.100
242101.000			-3.300			-1.100
242200.000			-3.301			-1.100
242300.000			-3.299			-1.100
242401.000			-3.299			-1.100
242500.000			-3.300			-1.100
242600.000			-3.300			-1.100
242701.000			-3.300			-1.100
242801.000			-3.301			-1.100
242901.000			-3.300			-1.100
243001.000			-3.300			-1.100
243100.000			-3.300			-1.100
243200.000			-3.299			-1.100
243301.000			-3.299			-1.100
243400.000			-3.300			-1.100
243500.000			-3.300			-1.100
243601.000			-3.300			-1.100
243701.000			-3.300			-1.100
243801.000			-3.301			-1.100
243901.000			-3.301			-1.100
244000.000			-3.300			-1.100
244100.000			-3.299			-1.100
244201.000			-3.298			-1.099
244300.000			-3.298			-1.099
244400.000			-3.299			-1.100
244501.000			-3.300			-1.100
244601.000			-3.300			-1.100
244701.000			-3.300			-1.100
244802.000			-3.299			-1.100
244900.000			-3.299			-1.100
245001.000			-3.298			-1.099
245100.000			-3.298			-1.099
245200.000			-3.299			-1.100
245301.000			-3.300			-1.100
245400.000			-3.299			-1.100
245500.000			-3.298			-1.099
245602.000			-3.299			-1.100
245701.000			-3.299			-1.100
245800.000			-3.300			-1.100
245901.000			-3.300			-1.100
246000.000			-3.300			-1.100
246100.000			-3.299			-1.100
246201.000			-3.299			-1.100
246300.000			-3.299			-1.100
246400.000			-3.299			-1.100
246502.000			-3.299			-1.100
246601.000			-3.300			-1.100
246701.000			-3.300			-1.100
246801.000			-3.299			-1.100
246900.000			-3.299			-1.100
247000.000			-3.299			-1.100
247101.000			-3.298			-1.099
247200.000			-3.298			-1.099
247300.000			-3.298			-1.099
247401.000			-3.298			-1.099
247501.000			-3.297			-1.099
247601.000			-3.297			-1.099
247701.000			-3.297			-1.099
247800.000			-3.297			-1.099
247900.000			-3.299			-1.100
248001.000			-3.299			-1.100
248100.000			-3.299			-1.100
248201.000			-3.299			-1.100
248300.000			-3.298			-1.099
248400.000			-3.299			-1.100
248502.000			-3.299			-1.100
248601.000			-3.298			-1.099
248700.000			-3.298			-1.099
248801.000			-3.297			-1.099
248900.000			-3.298			-1.099
249000.000			-3.298			-1.099
249101.000			-3.297			-1.099
249200.000			-3.298			-1.099
249300.000			-3.299			-1.100
249402.000			-3.299			-1.100
249501.000			-3.299			-1.100
249601.000			-3.298			-1.099
249701.000			-3.298			-1.099
249800.000			-3.298			-1.099
249900.000			-3.298			-1.099
250001.000			-3.298			-1.099
250100.000			-3.298			-1.099
250200.000			-3.298			-1.099
250301.000			-3.297			-1.099
250401.000			-3.298			-1.099
250501.000			-3.298			-1.099
250602.000			-3.298			-1.099
250700.000			-3.298			-1.099
250800.000			-3.298			-1.099
250901.000			-3.297			-1.099
251000.000			-3.298			-1.099
251100.000			-3.299			-1.100
251201.000			-3.297			-1.099
251300.000			-3.298			-1.099
251402.000			-3.300			-1.100
251501.000			-3.299			-1.100
251600.000			-3.299			-1.100
251701.000			-3.298			-1.099
251800.000			-3.298			-1.099
251900.000			-3.298			-1.099
252001.000			-3.298			-1.099
252100.000			-3.297			-1.099
252200.000			-3.298			-1.099
252302.000			-3.298			-1.099
252401.000			-3.297			-1.099
252501.000			-3.296			-1.099
252601.000			-3.298			-1.099
252700.000			-3.298			-1.099
252800.000			-3.298			-1.099
252901.000			-3.297			-1.099
253000.000			-3.296			-1.099
253100.000			-3.297			-1.099
253201.000			-3.296			-1.099
253301.000			-3.296			-1.099
253401.000			-3.295			-1.098
253501.000			-3.295			-1.098
253600.000			-3.295			-1.098
253700.000			-3.296			-1.099
253801.000			-3.296			-1.099
253900.000			-3.296			-1.099
254000.000			-3.296			-1.099
254101.000			-3.297			-1.099
254201.000			-3.296			-1.099
254301.000			-3.297			-1.099
254401.000			-3.296			-1.099
254500.000			-3.295			-1.098
254601.000			-3.296			-1.099
254700.000			-3.296			-1.099
254800.000			-3.296			-1.099
254901.000			-3.296			-1.099
255000.000			-3.296			-1.099
255101.000			-3.296			-1.099
255202.000			-3.296			-1.099
255301.000			-3.296			-1.099
255400.000			-3.296			-1.099
255501.000			-3.296			-1.099
255600.000			-3.296			-1.099
255700.000			-3.296			-1.099
255801.000			-3.296			-1.099
255900.000			-3.296			-1.099
256000.000			-3.295			-1.098
256102.000			-3.296			-1.099
256201.000			-3.296			-1.099
256300.000			-3.296			-1.099
256401.000			-3.296			-1.099
256500.000			-3.296			-1.099
256600.000			-3.296			-1.099
256701.000			-3.296			-1.099
256800.000			-3.295			-1.098
256900.000			-3.295			-1.098
257002.000			-3.295			-1.098
257101.000			-3.294			-1.098
257201.000			-3.295			-1.098
257301.000			-3.296			-1.099
257400.000			-3.296			-1.099
257500.000			-3.296			-1.099
257601.000			-3.296			-1.099
257700.000			-3.295			-1.098
257801.000			-3.295			-1.098
257900.000			-3.295			-1.098
258001.000			-3.295			-1.098
258102.000			-3.295			-1.098
258201.000			-3.296			-1.099
258300.000			-3.296			-1.099
258401.000			-3.295			-1.098
258500.000			-3.295			-1.098
258600.000			-3.295			-1.098
258701.000			-3.294			-1.098
258800.000			-3.295			-1.098
258900.000			-3.295			-1.098
259002.000			-3.295			-1.098
259101.000			-3.295			-1.098
259200.000			-3.294			-1.098
259301.000			-3.295			-1.098
259400.000			-3.295			-1.098
259500.000			-3.295			-1.098
259601.000			-3.294			-1.098
259700.000			-3.294			-1.098
259800.000			-3.295			-1.098
259902.000			-3.295			-1.098
260001.000			-3.295			-1.098
260101.000			-3.295			-1.098
260201.000			-3.294			-1.098
260300.000			-3.294			-1.098
260400.000			-3.295			-1.098
260501.000			-3.294			-1.098
260600.000			-3.294			-1.098
260700.000			-3.295			-1.098
260801.000			-3.296			-1.099
260901.000			-3.295			-1.098
261002.000			-3.295			-1.098
261100.000			-3.294			-1.098
261200.000			-3.295			-1.098
261301.000			-3.295			-1.098
261400.000			-3.293			-1.098
261500.000			-3.294			-1.098
261601.000			-3.293			-1.098
261700.000			-3.295			-1.098
261801.000			-3.294			-1.098
261902.000			-3.294			-1.098
262001.000			-3.294			-1.098
262100.000			-3.295			-1.098
262201.000			-3.295			-1.098
262300.000			-3.294			-1.098
262400.000			-3.295			-1.098
262501.000			-3.295			-1.098
262600.000			-3.294			-1.098
262701.000			-3.293			-1.098
262802.000			-3.293			-1.098
262901.000			-3.293			-1.098
263000.000			-3.294			-1.098
263101.000			-3.293			-1.098
263200.000			-3.294			-1.098
263300.000			-3.294			-1.098
263401.000			-3.294			-1.098
263500.000			-3.294			-1.098
263600.000			-3.295			-1.098
263702.000			-3.293			-1.098
263801.000			-3.293			-1.098
263900.000			-3.294			-1.098
264001.000			-3.294			-1.098
264100.000			-3.293			-1.098
264201.000			-3.292			-1.097
264300.000			-3.293			-1.098
264400.000			-3.293			-1.098
264501.000			-3.292			-1.097
264601.000			-3.294			-1.098
264701.000			-3.293			-1.098
264801.000			-3.293			-1.098
264900.000			-3.293			-1.098
265000.000			-3.293			-1.098
265101.000			-3.292			-1.097
265200.000			-3.293			-1.098
265300.000			-3.292			-1.097
265401.000			-3.292			-1.097
265501.000			-3.292			-1.097
265601.000			-3.292			-1.097
265702.000			-3.292			-1.097
265800.000			-3.292			-1.097
265900.000			-3.292			-1.097
266001.000			-3.293			-1.098
266100.000			-3.291			-1.097
266200.000			-3.291			-1.097
266301.000			-3.290			-1.097
266401.000			-3.289			-1.096
266501.000			-3.290			-1.097
266602.000			-3.291			-1.097
266700.000			-3.290			-1.097
266800.000			-3.289			-1.096
266901.000			-3.290			-1.097
267000.000			-3.291			-1.097
267100.000			-3.290			-1.097
267201.000			-3.289			-1.096
267300.000			-3.289			-1.096
267402.000			-3.289			-1.096
267501.000			-3.289			-1.096
267600.000			-3.289			-1.096
267701.000			-3.289			-1.096
267800.000			-3.289			-1.096
267900.000			-3.288			-1.096
268001.000			-3.288			-1.096
268100.000			-3.289			-1.096
268200.000			-3.289			-1.096
268302.000			-3.289			-1.096
268401.000			-3.289			-1.096
268501.000			-3.290			-1.097
268601.000			-3.290			-1.097
268700.000			-3.289			-1.096
268800.000			-3.289			-1.096
268901.000			-3.289			-1.096
269000.000			-3.288			-1.096
269100.000			-3.288			-1.096
269201.000			-3.288			-1.096
269301.000			-3.288			-1.096
269401.000			-3.289			-1.096
269502.000			-3.288			-1.096
269600.000			-3.287			-1.096
269700.000			-3.288			-1.096
269801.000			-3.287			-1.096
269900.000			-3.287			-1.096
270000.000			-3.287			-1.096
270101.000			-3.288			-1.096
270200.000			-3.288			-1.096
270301.000			-3.288			-1.096
270402.000			-3.286			-1.095
270500.000			-3.286			-1.095
270601.000			-3.287			-1.096
270700.000			-3.287			-1.096
270800.000			-3.287			-1.096
270901.000			-3.288			-1.096
271000.000			-3.287			-1.096
271100.000			-3.287			-1.096
271202.000			-3.287			-1.096
271301.000			-3.288			-1.096
271400.000			-3.288			-1.096
271501.000			-3.288			-1.096
271600.000			-3.288			-1.096
271700.000			-3.287			-1.096
271801.000			-3.286			-1.095
271900.000			-3.288			-1.096
272000.000			-3.288			-1.096
272102.000			-3.288			-1.096
272201.000			-3.288			-1.096
272301.000			-3.288			-1.096
272401.000			-3.287			-1.096
272500.000			-3.286			-1.095
272600.000			-3.287			-1.096
272701.000			-3.286			-1.095
272800.000			-3.287			-1.096
272900.000			-3.286			-1.095
273001.000			-3.286			-1.095
273101.000			-3.287			-1.096
273201.000			-3.287			-1.096
273301.000			-3.287			-1.096
273400.000			-3.288			-1.096
273500.000			-3.287			-1.096
273601.000			-3.286			-1.095
273700.000			-3.286			-1.095
273801.000			-3.287			-1.096
273900.000			-3.287			-1.096
274001.000			-3.288			-1.096
274102.000			-3.287			-1.096
274201.000			-3.288			-1.096
274300.000			-3.289			-1.096
274401.000			-3.289			-1.096
274500.000			-3.289			-1.096
274600.000			-3.288			-1.096
274701.000			-3.288			-1.096
274800.000			-3.289			-1.096
274900.000			-3.288			-1.096
275002.000			-3.289			-1.096
275101.000			-3.289			-1.096
275200.000			-3.289			-1.096
275301.000			-3.289			-1.096
275400.000			-3.289			-1.096
275500.000			-3.288			-1.096
275601.000			-3.288			-1.096
275700.000			-3.289			-1.096
275800.000			-3.288			-1.096
275902.000			-3.289			-1.096
276001.000			-3.289			-1.096
276101.000			-3.288			-1.096
276201.000			-3.289			-1.096
276300.000			-3.288			-1.096
276400.000			-3.288			-1.096
276501.000			-3.289			-1.096
276600.000			-3.289			-1.096
276700.000			-3.288			-1.096
276801.000			-3.289			-1.096
276901.000			-3.289			-1.096
277002.000			-3.288			-1.096
277101.000			-3.288			-1.096
277200.000			-3.288			-1.096
277301.000			-3.288			-1.096
277400.000			-3.288			-1.096
277500.000			-3.288			-1.096
277601.000			-3.288			-1.096
277700.000			-3.287			-1.096
277800.000			-3.287			-1.096
277902.000			-3.287			-1.096
278001.000			-3.287			-1.096
278100.000			-3.287			-1.096
278201.000			-3.287			-1.096
278300.000			-3.286			-1.095
278400.000			-3.287			-1.096
278501.000			-3.287			-1.096
278600.000			-3.286			-1.095
278700.000			-3.287			-1.096
278802.000			-3.287			-1.096
278901.000			-3.287			-1.096
279001.000			-3.286			-1.095
279101.000			-3.287			-1.096
279200.000			-3.286			-1.095
279300.000			-3.285			-1.095
279401.000			-3.286			-1.095
279500.000			-3.286			-1.095
279600.000			-3.286			-1.095
279701.000			-3.285			-1.095
279801.000			-3.285			-1.095
279901.000			-3.285			-1.095
280001.000			-3.285			-1.095
280100.000			-3.286			-1.095
280201.000			-3.285			-1.095
280300.000			-3.285			-1.095
280400.000			-3.285			-1.095
280501.000			-3.285			-1.095
280600.000			-3.285			-1.095
280701.000			-3.285			-1.095
280802.000			-3.284			-1.095
280901.000			-3.284			-1.095
281000.000			-3.284			-1.095
281101.000			-3.285			-1.095
281200.000			-3.285			-1.095
281300.000			-3.284			-1.095
281401.000			-3.284			-1.095
281500.000			-3.283			-1.094
281601.000			-3.284			-1.095
281702.000			-3.285			-1.095
281801.000			-3.285			-1.095
281900.000			-3.285			-1.095
282001.000			-3.284			-1.095
282100.000			-3.285			-1.095
282200.000			-3.284			-1.095
282301.000			-3.284			-1.095
282400.000			-3.284			-1.095
282501.000			-3.284			-1.095
282602.000			-3.283			-1.094
282701.000			-3.284			-1.095
282800.000			-3.284			-1.095
282901.000			-3.284			-1.095
283000.000			-3.283			-1.094
283100.000			-3.284			-1.095
283201.000			-3.284			-1.095
283300.000			-3.284			-1.095
283401.000			-3.285			-1.095
283501.000			-3.284			-1.095
283601.000			-3.285			-1.095
283701.000			-3.285			-1.095
283800.000			-3.285			-1.095
283900.000			-3.284			-1.095
284001.000			-3.284			-1.095
284100.000			-3.285			-1.095
284200.000			-3.285			-1.095
284301.000			-3.285			-1.095
284401.000			-3.285			-1.095
284501.000			-3.285			-1.095
284602.000			-3.285			-1.095
284700.000			-3.285			-1.095
284800.000			-3.285			-1.095
284901.000			-3.285			-1.095
285000.000			-3.285			-1.095
285100.000			-3.285			-1.095
285201.000			-3.285			-1.095
285300.000			-3.286			-1.095
285401.000			-3.285			-1.095
285502.000			-3.285			-1.095
285601.000			-3.286			-1.095
285700.000			-3.284			-1.095
285801.000			-3.285			-1.095
285900.000			-3.285			-1.095
286000.000			-3.285			-1.095
286101.000			-3.286			-1.095
286200.000			-3.284			-1.095
286300.000			-3.284			-1.095
286402.000			-3.285			-1.095
286501.000			-3.285			-1.095
286601.000			-3.285			-1.095
286700.000			-3.285			-1.095
286800.000			-3.285			-1.095
286901.000			-3.285			-1.095
287000.000			-3.285			-1.095
287100.000			-3.285			-1.095
287201.000			-3.286			-1.095
287301.000			-3.285			-1.095
287401.000			-3.284			-1.095
287502.000			-3.285			-1.095
287600.000			-3.284			-1.095
287700.000			-3.284			-1.095
287801.000			-3.284			-1.095
287900.000			-3.284			-1.095
288000.000			-3.284			-1.095
288101.000			-3.284			-1.095
288200.000			-3.284			-1.095
288301.000			-3.285			-1.095
288402.000			-3.285			-1.095
288500.000			-3.284			-1.095
288600.000			-3.283			-1.094
288701.000			-3.283			-1.094
288800.000			-3.284			-1.095
288900.000			-3.283			-1.094
289001.000			-3.283			-1.094
289100.000			-3.284			-1.095
289201.000			-3.283			-1.094
289302.000			-3.284			-1.095
289401.000			-3.284			-1.095
289500.000			-3.283			-1.094
289601.000			-3.283			-1.094
289700.000			-3.283			-1.094
289801.000			-3.283			-1.094
289900.000			-3.283			-1.094
290000.000			-3.283			-1.094
290101.000			-3.283			-1.094
290201.000			-3.284			-1.095
290301.000			-3.286			-1.095
290401.000			-3.285			-1.095
290500.000			-3.283			-1.094
290600.000			-3.284			-1.095
290701.000			-3.283			-1.094
290800.000			-3.283			-1.094
290900.000			-3.283			-1.094
291001.000			-3.283			-1.094
291101.000			-3.284			-1.095
291201.000			-3.284			-1.095
291301.000			-3.284			-1.095
291400.000			-3.284			-1.095
291500.000			-3.283			-1.094
291601.000			-3.284			-1.095
291700.000			-3.285			-1.095
291800.000			-3.284			-1.095
291901.000			-3.284			-1.095
292001.000			-3.284			-1.095
292101.000			-3.283			-1.094
292202.000			-3.282			-1.094
292300.000			-3.282			-1.094
292400.000			-3.283			-1.094
292501.000			-3.284			-1.095
292600.000			-3.284			-1.095
292700.000			-3.284			-1.095
292801.000			-3.284			-1.095
292900.000			-3.284			-1.095
293002.000			-3.285			-1.095
293101.000			-3.284			-1.095
293200.000			-3.283			-1.094
293301.000			-3.282			-1.094
293400.000			-3.283			-1.094
293500.000			-3.284			-1.095
293601.000			-3.283			-1.094
293700.000			-3.283			-1.094
293800.000			-3.283			-1.094
293902.000			-3.283			-1.094
294001.000			-3.284			-1.095
294100.000			-3.284			-1.095
294201.000			-3.283			-1.094
294300.000			-3.283			-1.094
294400.000			-3.284			-1.095
294501.000			-3.283			-1.094
294600.000			-3.282			-1.094
294700.000			-3.283			-1.094
294802.000			-3.282			-1.094
294901.000			-3.282			-1.094
295001.000			-3.283			-1.094
295101.000			-3.284			-1.095
295200.000			-3.283			-1.094
295300.000			-3.283			-1.094
295401.000			-3.283			-1.094
295500.000			-3.282			-1.094
295600.000			-3.282			-1.094
295701.000			-3.282			-1.094
295801.000			-3.282			-1.094
295901.000			-3.282			-1.094
296001.000			-3.283			-1.094
296100.000			-3.282			-1.094
296201.000			-3.282			-1.094
296300.000			-3.282			-1.094
296400.000			-3.282			-1.094
296501.000			-3.281			-1.094
296600.000			-3.283			-1.094
296701.000			-3.283			-1.094
296802.000			-3.282			-1.094
296901.000			-3.283			-1.094
297000.000			-3.283			-1.094
297101.000			-3.283			-1.094
297200.000			-3.282			-1.094
297300.000			-3.282			-1.094
297401.000			-3.281			-1.094
297500.000			-3.281			-1.094
297600.000			-3.282			-1.094
297702.000			-3.282			-1.094
297801.000			-3.282			-1.094
297900.000			-3.282			-1.094
298001.000			-3.282			-1.094
298100.000			-3.281			-1.094
298200.000			-3.280			-1.093
298301.000			-3.281			-1.094
298400.000			-3.281			-1.094
298500.000			-3.281			-1.094
298602.000			-3.280			-1.093
298701.000			-3.280			-1.093
298801.000			-3.282			-1.094
298901.000			-3.282			-1.094
299000.000			-3.281			-1.094
299100.000			-3.282			-1.094
299201.000			-3.282			-1.094
299300.000			-3.281			-1.094
299401.000			-3.281			-1.094
299500.000			-3.280			-1.093
299601.000			-3.281			-1.094
299702.000			-3.281			-1.094
299800.000			-3.280			-1.093
299900.000			-3.280			-1.093
