# Acquired on 25/01/2024 17:30:18 
# SPIDER: Creep_-7mm_GRPCNT1454A-1
# CREEP MEASUREMENT

# time [ms]		force [N]		stiffness [N/mm]
1.000			21.256			-3.037
104.000			22.422			-3.203
204.000			22.356			-3.194
305.000			22.190			-3.170
404.000			22.059			-3.151
505.000			21.951			-3.136
604.000			21.861			-3.123
704.000			21.713			-3.102
805.000			21.650			-3.093
904.000			21.594			-3.085
1004.000			21.543			-3.078
1105.000			21.495			-3.071
1203.000			21.450			-3.064
1304.000			21.409			-3.058
1405.000			21.371			-3.053
1504.000			21.301			-3.043
1604.000			21.270			-3.039
1704.000			21.240			-3.034
1804.000			21.211			-3.030
1904.000			21.183			-3.026
2005.000			21.157			-3.022
2104.000			21.132			-3.019
2204.000			21.086			-3.012
2305.000			21.064			-3.009
2403.000			21.042			-3.006
2504.000			21.022			-3.003
2605.000			21.002			-3.000
2704.000			20.983			-2.998
2804.000			20.965			-2.995
2904.000			20.930			-2.990
3004.000			20.914			-2.988
3104.000			20.898			-2.985
3205.000			20.883			-2.983
3304.000			20.868			-2.981
3404.000			20.852			-2.979
3505.000			20.837			-2.977
3604.000			20.810			-2.973
3705.000			20.796			-2.971
3804.000			20.785			-2.969
3904.000			20.772			-2.967
4005.000			20.758			-2.965
4103.000			20.745			-2.964
4204.000			20.735			-2.962
4305.000			20.723			-2.960
4404.000			20.701			-2.957
4504.000			20.691			-2.956
4605.000			20.680			-2.954
4704.000			20.668			-2.953
4803.000			20.659			-2.951
4905.000			20.649			-2.950
5004.000			20.638			-2.948
5104.000			20.620			-2.946
5205.000			20.611			-2.944
5303.000			20.601			-2.943
5404.000			20.592			-2.942
5505.000			20.584			-2.941
5604.000			20.574			-2.939
5704.000			20.565			-2.938
5805.000			20.549			-2.936
5904.000			20.541			-2.934
6003.000			20.533			-2.933
6105.000			20.525			-2.932
6204.000			20.517			-2.931
6304.000			20.510			-2.930
6405.000			20.503			-2.929
6503.000			20.495			-2.928
6604.000			20.481			-2.926
6705.000			20.473			-2.925
6804.000			20.466			-2.924
6905.000			20.459			-2.923
7004.000			20.452			-2.922
7104.000			20.446			-2.921
7204.000			20.440			-2.920
7304.000			20.426			-2.918
7404.000			20.420			-2.917
7505.000			20.413			-2.916
7604.000			20.407			-2.915
7703.000			20.400			-2.914
7805.000			20.394			-2.913
7904.000			20.388			-2.913
8004.000			20.376			-2.911
8105.000			20.371			-2.910
8204.000			20.366			-2.909
8304.000			20.359			-2.908
8404.000			20.353			-2.908
8504.000			20.348			-2.907
8604.000			20.342			-2.906
8705.000			20.332			-2.905
8804.000			20.326			-2.904
8904.000			20.321			-2.903
9005.000			20.316			-2.902
9103.000			20.311			-2.902
9204.000			20.306			-2.901
9305.000			20.302			-2.900
9404.000			20.297			-2.900
9504.000			20.287			-2.898
9604.000			20.282			-2.897
9704.000			20.277			-2.897
9804.000			20.272			-2.896
9905.000			20.267			-2.895
10004.000			20.262			-2.895
10105.000			20.258			-2.894
10204.000			20.249			-2.893
10303.000			20.245			-2.892
10405.000			20.239			-2.891
10504.000			20.235			-2.891
10604.000			20.231			-2.890
10705.000			20.226			-2.889
10804.000			20.222			-2.889
10904.000			20.213			-2.888
11004.000			20.210			-2.887
11104.000			20.206			-2.887
11204.000			20.202			-2.886
11305.000			20.197			-2.885
11404.000			20.192			-2.885
11503.000			20.188			-2.884
11605.000			20.185			-2.884
11704.000			20.177			-2.882
11804.000			20.173			-2.882
11905.000			20.168			-2.881
12004.000			20.165			-2.881
12104.000			20.162			-2.880
12204.000			20.159			-2.880
12304.000			20.154			-2.879
12404.000			20.148			-2.878
12505.000			20.143			-2.878
12604.000			20.140			-2.877
12703.000			20.136			-2.877
12805.000			20.132			-2.876
12904.000			20.128			-2.875
13004.000			20.125			-2.875
13105.000			20.119			-2.874
13204.000			20.115			-2.874
13305.000			20.111			-2.873
13403.000			20.108			-2.873
13504.000			20.105			-2.872
13605.000			20.102			-2.872
13704.000			20.098			-2.871
13804.000			20.092			-2.870
13905.000			20.088			-2.870
14004.000			20.084			-2.869
14103.000			20.081			-2.869
14205.000			20.078			-2.868
14304.000			20.074			-2.868
14404.000			20.072			-2.867
14505.000			20.069			-2.867
14603.000			20.061			-2.866
14704.000			20.059			-2.866
14805.000			20.056			-2.865
14904.000			20.052			-2.865
15004.000			20.049			-2.864
15105.000			20.047			-2.864
15204.000			20.044			-2.863
15303.000			20.039			-2.863
15405.000			20.035			-2.862
15504.000			20.032			-2.862
15604.000			20.030			-2.861
15705.000			20.027			-2.861
15804.000			20.024			-2.861
15904.000			20.021			-2.860
16004.000			20.015			-2.859
16104.000			20.012			-2.859
16204.000			20.010			-2.859
16305.000			20.007			-2.858
16404.000			20.004			-2.858
16503.000			20.000			-2.857
16604.000			19.997			-2.857
16704.000			19.995			-2.856
16805.000			19.991			-2.856
16904.000			19.987			-2.855
17004.000			19.985			-2.855
17105.000			19.982			-2.855
17203.000			19.979			-2.854
17304.000			19.977			-2.854
17404.000			19.975			-2.854
17504.000			19.970			-2.853
17604.000			19.968			-2.853
17705.000			19.964			-2.852
17804.000			19.961			-2.852
17904.000			19.959			-2.851
18005.000			19.956			-2.851
18103.000			19.954			-2.851
18204.000			19.949			-2.850
18305.000			19.946			-2.849
18404.000			19.944			-2.849
18504.000			19.942			-2.849
18605.000			19.938			-2.848
18704.000			19.936			-2.848
18803.000			19.934			-2.848
18905.000			19.929			-2.847
19004.000			19.927			-2.847
19104.000			19.925			-2.846
19205.000			19.923			-2.846
19304.000			19.921			-2.846
19404.000			19.918			-2.845
19504.000			19.915			-2.845
19604.000			19.913			-2.845
19705.000			19.909			-2.844
19804.000			19.908			-2.844
19904.000			19.905			-2.844
20005.000			19.902			-2.843
20104.000			19.899			-2.843
20203.000			19.899			-2.843
20305.000			19.895			-2.842
20404.000			19.890			-2.841
20504.000			19.888			-2.841
20605.000			19.886			-2.841
20704.000			19.884			-2.841
20804.000			19.882			-2.840
20904.000			19.879			-2.840
21004.000			19.877			-2.840
21104.000			19.874			-2.839
21205.000			19.872			-2.839
21304.000			19.869			-2.838
21404.000			19.867			-2.838
21505.000			19.864			-2.838
21603.000			19.861			-2.837
21704.000			19.861			-2.837
21805.000			19.857			-2.837
21904.000			19.855			-2.836
22004.000			19.854			-2.836
22105.000			19.851			-2.836
22204.000			19.848			-2.835
22303.000			19.847			-2.835
22405.000			19.847			-2.835
22504.000			19.843			-2.835
22604.000			19.839			-2.834
22705.000			19.837			-2.834
22804.000			19.835			-2.834
22905.000			19.833			-2.833
23003.000			19.831			-2.833
23104.000			19.830			-2.833
23205.000			19.828			-2.833
23304.000			19.823			-2.832
23404.000			19.822			-2.832
23505.000			19.820			-2.831
23604.000			19.818			-2.831
23703.000			19.816			-2.831
23805.000			19.814			-2.831
23904.000			19.812			-2.830
24004.000			19.809			-2.830
24105.000			19.807			-2.830
24204.000			19.806			-2.829
24304.000			19.804			-2.829
24404.000			19.801			-2.829
24504.000			19.799			-2.828
24604.000			19.798			-2.828
24705.000			19.797			-2.828
24804.000			19.792			-2.827
24904.000			19.791			-2.827
25005.000			19.789			-2.827
25103.000			19.787			-2.827
25204.000			19.785			-2.826
25305.000			19.783			-2.826
25404.000			19.780			-2.826
25504.000			19.778			-2.825
25605.000			19.777			-2.825
25704.000			19.775			-2.825
25803.000			19.773			-2.825
25905.000			19.771			-2.824
26004.000			19.769			-2.824
26105.000			19.767			-2.824
26204.000			19.764			-2.823
26304.000			19.762			-2.823
26405.000			19.762			-2.823
26503.000			19.760			-2.823
26604.000			19.757			-2.822
26705.000			19.756			-2.822
26804.000			19.755			-2.822
26904.000			19.750			-2.821
27005.000			19.750			-2.821
27104.000			19.749			-2.821
27203.000			19.746			-2.821
27305.000			19.743			-2.820
27404.000			19.742			-2.820
27504.000			19.742			-2.820
27605.000			19.740			-2.820
27704.000			19.738			-2.820
27804.000			19.736			-2.819
27904.000			19.734			-2.819
28004.000			19.733			-2.819
28104.000			19.731			-2.819
28205.000			19.729			-2.818
28304.000			19.727			-2.818
28404.000			19.725			-2.818
28505.000			19.724			-2.818
28603.000			19.722			-2.817
28704.000			19.720			-2.817
28805.000			19.717			-2.817
28904.000			19.716			-2.817
29004.000			19.715			-2.816
29105.000			19.712			-2.816
29204.000			19.709			-2.816
29303.000			19.709			-2.816
29404.000			19.708			-2.815
29504.000			19.706			-2.815
29605.000			19.705			-2.815
29704.000			19.704			-2.815
29804.000			19.702			-2.815
29905.000			19.699			-2.814
30003.000			19.697			-2.814
30104.000			19.696			-2.814
30205.000			19.695			-2.814
30304.000			19.694			-2.813
30404.000			19.692			-2.813
30505.000			19.691			-2.813
30604.000			19.687			-2.812
30703.000			19.687			-2.812
30805.000			19.686			-2.812
30904.000			19.685			-2.812
31004.000			19.683			-2.812
31105.000			19.681			-2.812
31204.000			19.680			-2.811
31304.000			19.677			-2.811
31404.000			19.675			-2.811
31504.000			19.673			-2.810
31604.000			19.672			-2.810
31705.000			19.671			-2.810
31804.000			19.670			-2.810
31904.000			19.668			-2.810
32005.000			19.665			-2.809
32103.000			19.664			-2.809
32204.000			19.663			-2.809
32305.000			19.661			-2.809
32404.000			19.659			-2.808
32505.000			19.659			-2.808
32604.000			19.658			-2.808
32704.000			19.655			-2.808
32804.000			19.653			-2.808
32904.000			19.652			-2.807
33004.000			19.650			-2.807
33105.000			19.649			-2.807
33204.000			19.648			-2.807
33304.000			19.647			-2.807
33405.000			19.644			-2.806
33503.000			19.641			-2.806
33604.000			19.640			-2.806
33705.000			19.640			-2.806
33804.000			19.638			-2.805
33904.000			19.637			-2.805
34005.000			19.635			-2.805
34104.000			19.634			-2.805
34203.000			19.631			-2.804
34305.000			19.631			-2.804
34404.000			19.629			-2.804
34504.000			19.628			-2.804
34605.000			19.627			-2.804
34704.000			19.625			-2.804
34804.000			19.624			-2.803
34904.000			19.621			-2.803
35004.000			19.620			-2.803
35104.000			19.619			-2.803
35205.000			19.617			-2.802
35304.000			19.616			-2.802
35404.000			19.616			-2.802
35505.000			19.615			-2.802
35603.000			19.613			-2.802
35705.000			19.611			-2.802
35804.000			19.610			-2.801
35904.000			19.608			-2.801
36005.000			19.607			-2.801
36104.000			19.606			-2.801
36204.000			19.605			-2.801
36304.000			19.603			-2.800
36404.000			19.601			-2.800
36504.000			19.601			-2.800
36605.000			19.599			-2.800
36704.000			19.597			-2.800
36804.000			19.596			-2.799
36905.000			19.595			-2.799
37003.000			19.595			-2.799
37104.000			19.592			-2.799
37205.000			19.591			-2.799
37304.000			19.588			-2.798
37404.000			19.586			-2.798
37505.000			19.586			-2.798
37604.000			19.585			-2.798
37703.000			19.584			-2.798
37805.000			19.583			-2.798
37904.000			19.582			-2.797
38004.000			19.579			-2.797
38105.000			19.578			-2.797
38204.000			19.577			-2.797
38304.000			19.575			-2.796
38404.000			19.574			-2.796
38504.000			19.572			-2.796
38604.000			19.571			-2.796
38705.000			19.571			-2.796
38804.000			19.569			-2.796
38905.000			19.568			-2.795
39004.000			19.566			-2.795
39103.000			19.565			-2.795
39205.000			19.564			-2.795
39304.000			19.561			-2.794
39404.000			19.561			-2.794
39505.000			19.560			-2.794
39604.000			19.558			-2.794
39704.000			19.558			-2.794
39804.000			19.557			-2.794
39904.000			19.556			-2.794
40004.000			19.555			-2.794
40105.000			19.553			-2.793
40204.000			19.550			-2.793
40304.000			19.549			-2.793
40405.000			19.550			-2.793
40503.000			19.549			-2.793
40604.000			19.547			-2.792
40705.000			19.545			-2.792
40804.000			19.543			-2.792
40904.000			19.542			-2.792
41005.000			19.542			-2.792
41104.000			19.541			-2.792
41203.000			19.541			-2.792
41305.000			19.540			-2.791
41404.000			19.538			-2.791
41504.000			19.536			-2.791
41605.000			19.534			-2.791
41704.000			19.532			-2.790
41804.000			19.531			-2.790
41904.000			19.531			-2.790
42004.000			19.530			-2.790
42105.000			19.530			-2.790
42204.000			19.527			-2.790
42304.000			19.526			-2.789
42405.000			19.525			-2.789
42504.000			19.524			-2.789
42603.000			19.523			-2.789
42705.000			19.521			-2.789
42804.000			19.521			-2.789
42904.000			19.519			-2.788
43005.000			19.517			-2.788
43104.000			19.517			-2.788
43204.000			19.516			-2.788
43304.000			19.515			-2.788
43404.000			19.513			-2.788
43504.000			19.513			-2.788
43605.000			19.512			-2.787
43704.000			19.511			-2.787
43803.000			19.509			-2.787
43905.000			19.507			-2.787
44004.000			19.507			-2.787
44104.000			19.506			-2.787
44205.000			19.505			-2.786
44304.000			19.504			-2.786
44404.000			19.503			-2.786
44504.000			19.502			-2.786
44604.000			19.501			-2.786
44704.000			19.500			-2.786
44805.000			19.500			-2.786
44904.000			19.499			-2.786
45004.000			19.498			-2.785
45105.000			19.496			-2.785
45203.000			19.495			-2.785
45305.000			19.495			-2.785
45404.000			19.493			-2.785
45504.000			19.493			-2.785
45605.000			19.492			-2.785
45704.000			19.491			-2.784
45804.000			19.490			-2.784
45904.000			19.489			-2.784
46004.000			19.488			-2.784
46103.000			19.486			-2.784
46205.000			19.484			-2.783
46304.000			19.485			-2.784
46404.000			19.484			-2.783
46505.000			19.483			-2.783
46604.000			19.480			-2.783
46704.000			19.479			-2.783
46804.000			19.477			-2.782
46904.000			19.476			-2.782
47004.000			19.475			-2.782
47105.000			19.474			-2.782
47204.000			19.474			-2.782
47304.000			19.472			-2.782
47405.000			19.471			-2.782
47503.000			19.469			-2.781
47604.000			19.469			-2.781
47705.000			19.468			-2.781
47804.000			19.467			-2.781
47904.000			19.466			-2.781
48005.000			19.464			-2.781
48104.000			19.463			-2.780
48203.000			19.462			-2.780
48305.000			19.460			-2.780
48404.000			19.460			-2.780
48505.000			19.459			-2.780
48604.000			19.459			-2.780
48704.000			19.458			-2.780
48805.000			19.457			-2.780
48903.000			19.455			-2.779
49004.000			19.454			-2.779
49105.000			19.453			-2.779
49204.000			19.452			-2.779
49304.000			19.452			-2.779
49405.000			19.451			-2.779
49504.000			19.449			-2.778
49603.000			19.447			-2.778
49705.000			19.448			-2.778
49804.000			19.447			-2.778
49904.000			19.446			-2.778
50005.000			19.445			-2.778
50104.000			19.443			-2.778
50204.000			19.442			-2.777
50304.000			19.441			-2.777
50404.000			19.440			-2.777
50504.000			19.439			-2.777
50605.000			19.439			-2.777
50704.000			19.437			-2.777
50804.000			19.436			-2.777
50905.000			19.436			-2.777
51003.000			19.435			-2.776
51104.000			19.434			-2.776
51205.000			19.432			-2.776
51304.000			19.431			-2.776
51404.000			19.430			-2.776
51504.000			19.429			-2.776
51604.000			19.428			-2.775
51703.000			19.427			-2.775
51804.000			19.427			-2.775
51904.000			19.425			-2.775
52005.000			19.424			-2.775
52104.000			19.425			-2.775
52203.000			19.424			-2.775
52305.000			19.422			-2.775
52404.000			19.420			-2.774
52504.000			19.419			-2.774
52605.000			19.418			-2.774
52704.000			19.418			-2.774
52804.000			19.416			-2.774
52904.000			19.416			-2.774
53004.000			19.416			-2.774
53104.000			19.414			-2.773
53205.000			19.413			-2.773
53304.000			19.413			-2.773
53404.000			19.412			-2.773
53505.000			19.410			-2.773
53603.000			19.408			-2.773
53704.000			19.408			-2.773
53805.000			19.408			-2.773
53904.000			19.407			-2.772
54004.000			19.406			-2.772
54105.000			19.404			-2.772
54204.000			19.403			-2.772
54303.000			19.403			-2.772
54405.000			19.402			-2.772
54504.000			19.402			-2.772
54604.000			19.401			-2.772
54705.000			19.400			-2.771
54804.000			19.398			-2.771
54905.000			19.398			-2.771
55003.000			19.398			-2.771
55104.000			19.397			-2.771
55205.000			19.395			-2.771
55304.000			19.393			-2.770
55404.000			19.393			-2.770
55505.000			19.393			-2.770
55604.000			19.392			-2.770
55703.000			19.391			-2.770
55805.000			19.390			-2.770
55904.000			19.389			-2.770
56004.000			19.388			-2.770
56105.000			19.387			-2.770
56204.000			19.386			-2.769
56304.000			19.386			-2.769
56404.000			19.386			-2.769
56504.000			19.384			-2.769
56604.000			19.383			-2.769
56705.000			19.382			-2.769
56804.000			19.380			-2.769
56904.000			19.381			-2.769
57005.000			19.381			-2.769
57103.000			19.380			-2.769
57204.000			19.378			-2.768
57305.000			19.377			-2.768
57404.000			19.376			-2.768
57504.000			19.375			-2.768
57605.000			19.374			-2.768
57704.000			19.373			-2.768
57803.000			19.372			-2.767
57905.000			19.372			-2.767
58003.000			19.371			-2.767
58105.000			19.371			-2.767
58204.000			19.369			-2.767
58304.000			19.368			-2.767
58405.000			19.367			-2.767
58504.000			19.367			-2.767
58604.000			19.366			-2.767
58704.000			19.365			-2.766
58804.000			19.365			-2.766
58904.000			19.364			-2.766
59005.000			19.362			-2.766
59104.000			19.362			-2.766
59204.000			19.361			-2.766
59305.000			19.361			-2.766
59403.000			19.360			-2.766
59504.000			19.358			-2.765
59605.000			19.357			-2.765
59704.000			19.357			-2.765
59804.000			19.357			-2.765
59905.000			19.356			-2.765
60004.000			19.355			-2.765
60103.000			19.354			-2.765
60205.000			19.352			-2.765
60304.000			19.351			-2.764
60404.000			19.350			-2.764
60505.000			19.349			-2.764
60604.000			19.349			-2.764
60704.000			19.348			-2.764
60804.000			19.348			-2.764
60904.000			19.347			-2.764
61004.000			19.347			-2.764
61105.000			19.345			-2.764
61204.000			19.344			-2.763
61305.000			19.343			-2.763
61404.000			19.342			-2.763
61503.000			19.343			-2.763
61605.000			19.342			-2.763
61704.000			19.342			-2.763
61804.000			19.340			-2.763
61905.000			19.339			-2.763
62004.000			19.338			-2.763
62104.000			19.337			-2.762
62204.000			19.336			-2.762
62304.000			19.335			-2.762
62404.000			19.334			-2.762
62505.000			19.334			-2.762
62604.000			19.332			-2.762
62703.000			19.331			-2.762
62805.000			19.331			-2.762
62904.000			19.331			-2.762
63004.000			19.330			-2.761
63105.000			19.330			-2.761
63204.000			19.329			-2.761
63304.000			19.327			-2.761
63404.000			19.326			-2.761
63504.000			19.326			-2.761
63604.000			19.326			-2.761
63705.000			19.325			-2.761
63804.000			19.324			-2.761
63904.000			19.323			-2.760
64005.000			19.322			-2.760
64103.000			19.320			-2.760
64204.000			19.320			-2.760
64305.000			19.320			-2.760
64404.000			19.319			-2.760
64505.000			19.319			-2.760
64604.000			19.319			-2.760
64704.000			19.318			-2.760
64804.000			19.315			-2.759
64904.000			19.316			-2.759
65004.000			19.315			-2.759
65105.000			19.315			-2.759
65204.000			19.313			-2.759
65304.000			19.312			-2.759
65405.000			19.312			-2.759
65503.000			19.311			-2.759
65604.000			19.311			-2.759
65705.000			19.310			-2.759
65804.000			19.309			-2.758
65904.000			19.308			-2.758
66005.000			19.306			-2.758
66104.000			19.306			-2.758
66203.000			19.305			-2.758
66305.000			19.304			-2.758
66404.000			19.303			-2.758
66504.000			19.304			-2.758
66605.000			19.303			-2.758
66704.000			19.302			-2.757
66804.000			19.302			-2.757
66904.000			19.301			-2.757
67004.000			19.300			-2.757
67104.000			19.300			-2.757
67205.000			19.300			-2.757
67304.000			19.299			-2.757
67404.000			19.298			-2.757
67505.000			19.297			-2.757
67603.000			19.297			-2.757
67705.000			19.295			-2.756
67804.000			19.295			-2.756
67904.000			19.294			-2.756
68005.000			19.294			-2.756
68104.000			19.293			-2.756
68204.000			19.292			-2.756
68304.000			19.291			-2.756
68404.000			19.289			-2.756
68503.000			19.288			-2.755
68605.000			19.289			-2.756
68704.000			19.288			-2.755
68804.000			19.288			-2.755
68905.000			19.287			-2.755
69004.000			19.286			-2.755
69104.000			19.285			-2.755
69204.000			19.284			-2.755
69304.000			19.284			-2.755
69404.000			19.284			-2.755
69505.000			19.282			-2.755
69604.000			19.281			-2.754
69704.000			19.281			-2.754
69805.000			19.280			-2.754
69903.000			19.279			-2.754
70004.000			19.278			-2.754
70105.000			19.278			-2.754
70204.000			19.278			-2.754
70304.000			19.278			-2.754
70405.000			19.277			-2.754
70504.000			19.275			-2.754
70603.000			19.274			-2.753
70705.000			19.274			-2.753
70804.000			19.274			-2.753
70905.000			19.273			-2.753
71004.000			19.272			-2.753
71104.000			19.270			-2.753
71205.000			19.269			-2.753
71303.000			19.270			-2.753
71404.000			19.268			-2.753
71505.000			19.267			-2.752
71604.000			19.267			-2.752
71704.000			19.267			-2.752
71805.000			19.267			-2.752
71904.000			19.266			-2.752
72003.000			19.264			-2.752
72105.000			19.264			-2.752
72204.000			19.264			-2.752
72304.000			19.263			-2.752
72405.000			19.263			-2.752
72504.000			19.262			-2.752
72604.000			19.261			-2.752
72704.000			19.260			-2.751
72804.000			19.259			-2.751
72904.000			19.259			-2.751
73005.000			19.258			-2.751
73104.000			19.257			-2.751
73204.000			19.257			-2.751
73305.000			19.256			-2.751
73403.000			19.256			-2.751
73504.000			19.254			-2.751
73605.000			19.254			-2.751
73704.000			19.252			-2.750
73804.000			19.253			-2.750
73905.000			19.253			-2.750
74004.000			19.250			-2.750
74103.000			19.251			-2.750
74204.000			19.251			-2.750
74304.000			19.249			-2.750
74405.000			19.249			-2.750
74504.000			19.249			-2.750
74604.000			19.248			-2.750
74705.000			19.246			-2.749
74803.000			19.246			-2.749
74904.000			19.246			-2.749
75005.000			19.243			-2.749
75104.000			19.243			-2.749
75204.000			19.244			-2.749
75305.000			19.243			-2.749
75404.000			19.242			-2.749
75503.000			19.242			-2.749
75605.000			19.240			-2.749
75704.000			19.240			-2.749
75804.000			19.240			-2.749
75905.000			19.238			-2.748
76004.000			19.239			-2.748
76104.000			19.238			-2.748
76204.000			19.238			-2.748
76304.000			19.237			-2.748
76403.000			19.236			-2.748
76505.000			19.235			-2.748
76604.000			19.234			-2.748
76704.000			19.234			-2.748
76805.000			19.233			-2.748
76904.000			19.233			-2.748
77004.000			19.232			-2.747
77104.000			19.232			-2.747
77204.000			19.230			-2.747
77305.000			19.229			-2.747
77404.000			19.229			-2.747
77504.000			19.229			-2.747
77605.000			19.228			-2.747
77704.000			19.227			-2.747
77803.000			19.226			-2.747
77905.000			19.225			-2.746
78004.000			19.225			-2.746
78104.000			19.224			-2.746
78205.000			19.223			-2.746
78304.000			19.223			-2.746
78404.000			19.224			-2.746
78504.000			19.223			-2.746
78604.000			19.221			-2.746
78704.000			19.221			-2.746
78805.000			19.220			-2.746
78904.000			19.220			-2.746
79004.000			19.219			-2.746
79105.000			19.218			-2.745
79203.000			19.218			-2.745
79304.000			19.217			-2.745
79405.000			19.216			-2.745
79504.000			19.216			-2.745
79604.000			19.216			-2.745
79705.000			19.215			-2.745
79804.000			19.215			-2.745
79903.000			19.214			-2.745
80005.000			19.214			-2.745
80104.000			19.212			-2.745
80204.000			19.211			-2.744
80305.000			19.211			-2.744
80404.000			19.211			-2.744
80505.000			19.210			-2.744
80603.000			19.209			-2.744
80704.000			19.210			-2.744
80805.000			19.208			-2.744
80904.000			19.206			-2.744
81004.000			19.206			-2.744
81105.000			19.207			-2.744
81204.000			19.207			-2.744
81303.000			19.204			-2.743
81405.000			19.204			-2.743
81504.000			19.204			-2.743
81604.000			19.203			-2.743
81705.000			19.203			-2.743
81804.000			19.202			-2.743
81904.000			19.202			-2.743
82004.000			19.202			-2.743
82104.000			19.201			-2.743
82204.000			19.200			-2.743
82305.000			19.199			-2.743
82404.000			19.199			-2.743
82504.000			19.199			-2.743
82605.000			19.198			-2.743
82703.000			19.198			-2.743
82804.000			19.197			-2.742
82905.000			19.196			-2.742
83004.000			19.195			-2.742
83104.000			19.195			-2.742
83205.000			19.195			-2.742
83304.000			19.193			-2.742
83403.000			19.193			-2.742
83505.000			19.193			-2.742
83604.000			19.192			-2.742
83705.000			19.191			-2.742
83804.000			19.191			-2.742
83904.000			19.191			-2.742
84005.000			19.190			-2.741
84103.000			19.190			-2.741
84204.000			19.190			-2.741
84305.000			19.189			-2.741
84404.000			19.188			-2.741
84504.000			19.186			-2.741
84605.000			19.186			-2.741
84704.000			19.186			-2.741
84804.000			19.185			-2.741
84905.000			19.185			-2.741
85003.000			19.185			-2.741
85104.000			19.184			-2.741
85205.000			19.183			-2.740
85304.000			19.182			-2.740
85404.000			19.182			-2.740
85505.000			19.181			-2.740
85604.000			19.180			-2.740
85703.000			19.180			-2.740
85805.000			19.178			-2.740
85904.000			19.179			-2.740
86004.000			19.179			-2.740
86105.000			19.177			-2.740
86204.000			19.176			-2.739
86304.000			19.176			-2.739
86404.000			19.177			-2.740
86504.000			19.177			-2.740
86604.000			19.175			-2.739
86705.000			19.174			-2.739
86804.000			19.173			-2.739
86905.000			19.173			-2.739
87004.000			19.172			-2.739
87103.000			19.172			-2.739
87205.000			19.172			-2.739
87304.000			19.171			-2.739
87404.000			19.171			-2.739
87505.000			19.169			-2.738
87604.000			19.170			-2.739
87704.000			19.170			-2.739
87804.000			19.168			-2.738
87904.000			19.168			-2.738
88004.000			19.167			-2.738
88105.000			19.166			-2.738
88204.000			19.165			-2.738
88304.000			19.163			-2.738
88405.000			19.164			-2.738
88504.000			19.165			-2.738
88604.000			19.163			-2.738
88704.000			19.162			-2.737
88804.000			19.161			-2.737
88904.000			19.162			-2.737
89005.000			19.161			-2.737
89104.000			19.161			-2.737
89204.000			19.160			-2.737
89305.000			19.160			-2.737
89403.000			19.160			-2.737
89504.000			19.159			-2.737
89605.000			19.158			-2.737
89704.000			19.158			-2.737
89804.000			19.157			-2.737
89905.000			19.156			-2.737
90004.000			19.156			-2.737
90103.000			19.155			-2.736
90204.000			19.155			-2.736
90304.000			19.154			-2.736
90405.000			19.153			-2.736
90504.000			19.154			-2.736
90604.000			19.153			-2.736
90705.000			19.152			-2.736
90803.000			19.152			-2.736
90904.000			19.152			-2.736
91005.000			19.150			-2.736
91104.000			19.150			-2.736
91204.000			19.149			-2.736
91305.000			19.148			-2.735
91404.000			19.149			-2.736
91503.000			19.148			-2.735
91605.000			19.147			-2.735
91704.000			19.147			-2.735
91804.000			19.146			-2.735
91905.000			19.145			-2.735
92004.000			19.145			-2.735
92104.000			19.144			-2.735
92204.000			19.144			-2.735
92304.000			19.144			-2.735
92404.000			19.142			-2.735
92505.000			19.143			-2.735
92604.000			19.143			-2.735
92704.000			19.143			-2.735
92805.000			19.141			-2.734
92903.000			19.140			-2.734
93004.000			19.140			-2.734
93105.000			19.140			-2.734
93204.000			19.138			-2.734
93305.000			19.138			-2.734
93404.000			19.137			-2.734
93504.000			19.137			-2.734
93604.000			19.137			-2.734
93704.000			19.136			-2.734
93804.000			19.136			-2.734
93905.000			19.135			-2.734
94004.000			19.134			-2.733
94104.000			19.133			-2.733
94205.000			19.132			-2.733
94303.000			19.131			-2.733
94404.000			19.131			-2.733
94505.000			19.131			-2.733
94604.000			19.130			-2.733
94704.000			19.130			-2.733
94805.000			19.131			-2.733
94904.000			19.130			-2.733
95003.000			19.129			-2.733
95105.000			19.129			-2.733
95204.000			19.128			-2.733
95304.000			19.127			-2.732
95405.000			19.127			-2.732
95504.000			19.126			-2.732
95604.000			19.125			-2.732
95704.000			19.125			-2.732
95804.000			19.125			-2.732
95904.000			19.125			-2.732
96005.000			19.124			-2.732
96104.000			19.123			-2.732
96204.000			19.123			-2.732
96305.000			19.122			-2.732
96403.000			19.121			-2.732
96505.000			19.121			-2.732
96604.000			19.120			-2.731
96704.000			19.120			-2.731
96805.000			19.119			-2.731
96904.000			19.119			-2.731
97004.000			19.118			-2.731
97104.000			19.118			-2.731
97204.000			19.118			-2.731
97304.000			19.117			-2.731
97405.000			19.117			-2.731
97504.000			19.117			-2.731
97604.000			19.117			-2.731
97705.000			19.116			-2.731
97803.000			19.115			-2.731
97904.000			19.114			-2.731
98005.000			19.114			-2.731
98104.000			19.114			-2.731
98204.000			19.112			-2.730
98305.000			19.113			-2.730
98404.000			19.112			-2.730
98503.000			19.112			-2.730
98605.000			19.112			-2.730
98704.000			19.112			-2.730
98804.000			19.111			-2.730
98905.000			19.110			-2.730
99004.000			19.109			-2.730
99104.000			19.109			-2.730
99204.000			19.109			-2.730
99304.000			19.108			-2.730
99404.000			19.108			-2.730
99505.000			19.107			-2.730
99604.000			19.107			-2.730
99705.000			19.106			-2.729
99804.000			19.105			-2.729
99903.000			19.104			-2.729
100005.000			19.105			-2.729
100104.000			19.103			-2.729
100204.000			19.102			-2.729
100305.000			19.103			-2.729
100404.000			19.103			-2.729
100504.000			19.101			-2.729
100604.000			19.101			-2.729
100704.000			19.100			-2.729
100804.000			19.100			-2.729
100905.000			19.100			-2.729
101004.000			19.100			-2.729
101104.000			19.100			-2.729
101205.000			19.099			-2.728
101303.000			19.098			-2.728
101404.000			19.098			-2.728
101505.000			19.097			-2.728
101604.000			19.097			-2.728
101704.000			19.097			-2.728
101805.000			19.097			-2.728
101904.000			19.096			-2.728
102003.000			19.095			-2.728
102105.000			19.095			-2.728
102204.000			19.093			-2.728
102304.000			19.093			-2.728
102405.000			19.093			-2.728
102504.000			19.092			-2.727
102604.000			19.092			-2.727
102704.000			19.091			-2.727
102804.000			19.091			-2.727
102903.000			19.090			-2.727
103004.000			19.090			-2.727
103104.000			19.090			-2.727
103205.000			19.089			-2.727
103304.000			19.089			-2.727
103404.000			19.088			-2.727
103505.000			19.088			-2.727
103603.000			19.087			-2.727
103704.000			19.087			-2.727
103805.000			19.086			-2.727
103904.000			19.086			-2.727
104004.000			19.086			-2.727
104105.000			19.084			-2.726
104204.000			19.084			-2.726
104303.000			19.085			-2.726
104405.000			19.085			-2.726
104504.000			19.083			-2.726
104604.000			19.082			-2.726
104705.000			19.082			-2.726
104804.000			19.082			-2.726
104904.000			19.082			-2.726
105004.000			19.080			-2.726
105104.000			19.079			-2.726
105204.000			19.079			-2.726
105305.000			19.080			-2.726
105404.000			19.080			-2.726
105504.000			19.079			-2.726
105605.000			19.079			-2.726
105704.000			19.078			-2.725
105804.000			19.078			-2.725
105904.000			19.078			-2.725
106004.000			19.077			-2.725
106105.000			19.076			-2.725
106204.000			19.075			-2.725
106304.000			19.074			-2.725
106405.000			19.074			-2.725
106504.000			19.073			-2.725
106603.000			19.072			-2.725
106705.000			19.072			-2.725
106804.000			19.072			-2.725
106904.000			19.072			-2.725
107005.000			19.073			-2.725
107104.000			19.070			-2.724
107204.000			19.070			-2.724
107304.000			19.070			-2.724
107404.000			19.069			-2.724
107504.000			19.069			-2.724
107605.000			19.069			-2.724
107704.000			19.068			-2.724
107804.000			19.067			-2.724
107905.000			19.067			-2.724
108004.000			19.067			-2.724
108104.000			19.066			-2.724
108204.000			19.065			-2.724
108304.000			19.065			-2.724
108404.000			19.065			-2.724
108505.000			19.063			-2.723
108604.000			19.064			-2.723
108704.000			19.064			-2.723
108805.000			19.062			-2.723
108903.000			19.062			-2.723
109004.000			19.061			-2.723
109105.000			19.062			-2.723
109204.000			19.061			-2.723
109305.000			19.061			-2.723
109404.000			19.062			-2.723
109504.000			19.060			-2.723
109604.000			19.059			-2.723
109704.000			19.059			-2.723
109804.000			19.059			-2.723
109905.000			19.059			-2.723
110004.000			19.058			-2.723
110104.000			19.057			-2.722
110205.000			19.056			-2.722
110303.000			19.056			-2.722
110404.000			19.057			-2.722
110505.000			19.056			-2.722
110604.000			19.055			-2.722
110704.000			19.054			-2.722
110805.000			19.053			-2.722
110904.000			19.053			-2.722
111003.000			19.052			-2.722
111105.000			19.052			-2.722
111204.000			19.053			-2.722
111304.000			19.052			-2.722
111405.000			19.050			-2.721
111504.000			19.051			-2.722
111604.000			19.051			-2.722
111704.000			19.050			-2.721
111804.000			19.050			-2.721
111903.000			19.049			-2.721
112005.000			19.049			-2.721
112104.000			19.048			-2.721
112204.000			19.047			-2.721
112305.000			19.048			-2.721
112404.000			19.047			-2.721
112505.000			19.046			-2.721
112603.000			19.046			-2.721
112704.000			19.046			-2.721
112805.000			19.047			-2.721
112904.000			19.045			-2.721
113004.000			19.044			-2.721
113105.000			19.044			-2.721
113204.000			19.044			-2.721
113303.000			19.044			-2.721
113405.000			19.043			-2.720
113504.000			19.042			-2.720
113604.000			19.042			-2.720
113705.000			19.042			-2.720
113804.000			19.042			-2.720
113904.000			19.041			-2.720
114004.000			19.041			-2.720
114104.000			19.041			-2.720
114204.000			19.040			-2.720
114305.000			19.039			-2.720
114404.000			19.039			-2.720
114504.000			19.039			-2.720
114605.000			19.038			-2.720
114703.000			19.038			-2.720
114804.000			19.037			-2.720
114905.000			19.036			-2.719
115004.000			19.035			-2.719
115104.000			19.035			-2.719
115205.000			19.036			-2.719
115304.000			19.035			-2.719
115403.000			19.035			-2.719
115505.000			19.034			-2.719
115604.000			19.033			-2.719
115705.000			19.033			-2.719
115804.000			19.032			-2.719
115904.000			19.031			-2.719
116005.000			19.031			-2.719
116103.000			19.031			-2.719
116204.000			19.031			-2.719
116305.000			19.031			-2.719
116404.000			19.030			-2.719
116504.000			19.030			-2.719
116605.000			19.030			-2.719
116704.000			19.028			-2.718
116803.000			19.028			-2.718
116905.000			19.028			-2.718
117004.000			19.028			-2.718
117104.000			19.027			-2.718
117205.000			19.027			-2.718
117304.000			19.027			-2.718
117404.000			19.027			-2.718
117504.000			19.026			-2.718
117604.000			19.026			-2.718
117703.000			19.026			-2.718
117805.000			19.025			-2.718
117904.000			19.024			-2.718
118004.000			19.025			-2.718
118105.000			19.024			-2.718
118204.000			19.023			-2.718
118304.000			19.021			-2.717
118404.000			19.021			-2.717
118504.000			19.021			-2.717
118604.000			19.021			-2.717
118705.000			19.021			-2.717
118804.000			19.020			-2.717
118905.000			19.020			-2.717
119004.000			19.019			-2.717
119103.000			19.019			-2.717
119205.000			19.019			-2.717
119304.000			19.019			-2.717
119404.000			19.019			-2.717
119505.000			19.016			-2.717
119604.000			19.016			-2.717
119704.000			19.016			-2.717
119804.000			19.016			-2.717
119904.000			19.015			-2.716
120004.000			19.015			-2.716
120105.000			19.015			-2.716
120204.000			19.013			-2.716
120304.000			19.013			-2.716
120405.000			19.014			-2.716
120503.000			19.014			-2.716
120604.000			19.013			-2.716
120705.000			19.012			-2.716
120804.000			19.011			-2.716
120904.000			19.011			-2.716
121005.000			19.012			-2.716
121104.000			19.011			-2.716
121203.000			19.011			-2.716
121305.000			19.010			-2.716
121404.000			19.009			-2.716
121504.000			19.008			-2.715
121605.000			19.009			-2.716
121704.000			19.008			-2.715
121804.000			19.007			-2.715
121904.000			19.007			-2.715
122004.000			19.007			-2.715
122105.000			19.007			-2.715
122204.000			19.006			-2.715
122304.000			19.006			-2.715
122405.000			19.007			-2.715
122504.000			19.006			-2.715
122603.000			19.005			-2.715
122705.000			19.003			-2.715
122804.000			19.003			-2.715
122904.000			19.003			-2.715
123005.000			19.003			-2.715
123104.000			19.001			-2.714
123204.000			19.001			-2.714
123304.000			19.001			-2.714
123404.000			19.002			-2.715
123504.000			19.001			-2.714
123605.000			19.000			-2.714
123704.000			19.001			-2.714
123804.000			19.001			-2.714
123905.000			19.000			-2.714
124004.000			19.000			-2.714
124104.000			18.999			-2.714
124204.000			18.998			-2.714
124304.000			18.998			-2.714
124404.000			18.998			-2.714
124505.000			18.997			-2.714
124604.000			18.996			-2.714
124704.000			18.996			-2.714
124805.000			18.996			-2.714
124903.000			18.996			-2.714
125004.000			18.995			-2.714
125104.000			18.994			-2.713
125204.000			18.994			-2.713
125305.000			18.994			-2.713
125404.000			18.994			-2.713
125504.000			18.993			-2.713
125605.000			18.992			-2.713
125704.000			18.993			-2.713
125803.000			18.993			-2.713
125905.000			18.992			-2.713
126004.000			18.992			-2.713
126104.000			18.991			-2.713
126205.000			18.990			-2.713
126304.000			18.990			-2.713
126404.000			18.990			-2.713
126504.000			18.990			-2.713
126604.000			18.990			-2.713
126703.000			18.990			-2.713
126805.000			18.989			-2.713
126904.000			18.988			-2.713
127004.000			18.988			-2.713
127105.000			18.988			-2.713
127204.000			18.987			-2.712
127304.000			18.987			-2.712
127404.000			18.987			-2.712
127504.000			18.987			-2.712
127603.000			18.986			-2.712
127705.000			18.986			-2.712
127804.000			18.985			-2.712
127904.000			18.984			-2.712
128005.000			18.985			-2.712
128104.000			18.985			-2.712
128204.000			18.983			-2.712
128304.000			18.983			-2.712
128404.000			18.983			-2.712
128505.000			18.983			-2.712
128604.000			18.982			-2.712
128704.000			18.981			-2.712
128805.000			18.982			-2.712
128904.000			18.981			-2.712
129004.000			18.981			-2.712
129105.000			18.980			-2.711
129203.000			18.980			-2.711
129304.000			18.979			-2.711
129405.000			18.979			-2.711
129504.000			18.979			-2.711
129604.000			18.978			-2.711
129705.000			18.977			-2.711
129804.000			18.978			-2.711
129903.000			18.978			-2.711
130005.000			18.977			-2.711
130103.000			18.977			-2.711
130204.000			18.977			-2.711
130305.000			18.976			-2.711
130404.000			18.976			-2.711
130504.000			18.975			-2.711
130605.000			18.975			-2.711
130704.000			18.975			-2.711
130803.000			18.974			-2.711
130905.000			18.974			-2.711
131004.000			18.973			-2.710
131104.000			18.973			-2.710
131205.000			18.973			-2.710
131304.000			18.972			-2.710
131404.000			18.972			-2.710
131505.000			18.972			-2.710
131604.000			18.972			-2.710
131703.000			18.971			-2.710
131804.000			18.971			-2.710
131904.000			18.971			-2.710
132005.000			18.969			-2.710
132104.000			18.970			-2.710
132204.000			18.969			-2.710
132305.000			18.968			-2.710
132404.000			18.968			-2.710
132504.000			18.969			-2.710
132604.000			18.967			-2.710
132704.000			18.968			-2.710
132803.000			18.967			-2.710
132905.000			18.967			-2.710
133004.000			18.967			-2.710
133104.000			18.966			-2.709
133205.000			18.966			-2.709
133304.000			18.965			-2.709
133404.000			18.965			-2.709
133504.000			18.965			-2.709
133604.000			18.964			-2.709
133703.000			18.964			-2.709
133805.000			18.963			-2.709
133904.000			18.963			-2.709
134004.000			18.962			-2.709
134105.000			18.961			-2.709
134204.000			18.962			-2.709
134304.000			18.962			-2.709
134405.000			18.962			-2.709
134504.000			18.961			-2.709
134603.000			18.960			-2.709
134705.000			18.960			-2.709
134803.000			18.959			-2.708
134905.000			18.959			-2.708
135004.000			18.958			-2.708
135104.000			18.959			-2.708
135205.000			18.959			-2.708
135304.000			18.959			-2.708
135404.000			18.958			-2.708
135505.000			18.956			-2.708
135604.000			18.957			-2.708
135703.000			18.956			-2.708
135805.000			18.956			-2.708
135904.000			18.956			-2.708
136004.000			18.956			-2.708
136105.000			18.956			-2.708
136204.000			18.955			-2.708
136304.000			18.955			-2.708
136405.000			18.954			-2.708
136504.000			18.953			-2.708
136603.000			18.953			-2.708
136705.000			18.952			-2.707
136803.000			18.952			-2.707
136904.000			18.951			-2.707
137005.000			18.951			-2.707
137104.000			18.950			-2.707
137204.000			18.950			-2.707
137305.000			18.950			-2.707
137404.000			18.950			-2.707
137503.000			18.949			-2.707
137605.000			18.949			-2.707
137703.000			18.949			-2.707
137804.000			18.949			-2.707
137905.000			18.949			-2.707
138004.000			18.949			-2.707
138105.000			18.948			-2.707
138204.000			18.948			-2.707
138304.000			18.948			-2.707
138405.000			18.948			-2.707
138504.000			18.949			-2.707
138603.000			18.947			-2.707
138705.000			18.947			-2.707
138803.000			18.947			-2.707
138904.000			18.947			-2.707
139005.000			18.947			-2.707
139104.000			18.946			-2.707
139204.000			18.946			-2.707
139305.000			18.946			-2.707
139404.000			18.945			-2.706
139504.000			18.945			-2.706
139605.000			18.944			-2.706
139703.000			18.943			-2.706
139804.000			18.943			-2.706
139905.000			18.943			-2.706
140004.000			18.943			-2.706
140104.000			18.943			-2.706
140205.000			18.942			-2.706
140304.000			18.942			-2.706
140404.000			18.942			-2.706
140505.000			18.940			-2.706
140603.000			18.941			-2.706
140704.000			18.941			-2.706
140805.000			18.939			-2.706
140904.000			18.939			-2.706
141004.000			18.939			-2.706
141105.000			18.939			-2.706
141204.000			18.939			-2.706
141305.000			18.938			-2.705
141404.000			18.937			-2.705
141503.000			18.937			-2.705
141605.000			18.936			-2.705
141704.000			18.936			-2.705
141804.000			18.936			-2.705
141905.000			18.937			-2.705
142004.000			18.936			-2.705
142104.000			18.935			-2.705
142205.000			18.935			-2.705
142304.000			18.935			-2.705
142403.000			18.934			-2.705
142505.000			18.933			-2.705
142604.000			18.933			-2.705
142704.000			18.933			-2.705
142805.000			18.932			-2.705
142904.000			18.932			-2.705
143004.000			18.932			-2.705
143105.000			18.930			-2.704
143204.000			18.930			-2.704
143303.000			18.930			-2.704
143405.000			18.929			-2.704
143504.000			18.930			-2.704
143604.000			18.929			-2.704
143705.000			18.929			-2.704
143804.000			18.928			-2.704
143904.000			18.928			-2.704
144005.000			18.927			-2.704
144104.000			18.927			-2.704
144203.000			18.927			-2.704
144305.000			18.926			-2.704
144403.000			18.925			-2.704
144505.000			18.924			-2.703
144604.000			18.925			-2.704
144704.000			18.925			-2.704
144805.000			18.924			-2.703
144904.000			18.924			-2.703
145004.000			18.923			-2.703
145104.000			18.924			-2.703
145204.000			18.924			-2.703
145303.000			18.923			-2.703
145405.000			18.923			-2.703
145504.000			18.922			-2.703
145604.000			18.922			-2.703
145705.000			18.922			-2.703
145804.000			18.921			-2.703
145904.000			18.920			-2.703
146004.000			18.920			-2.703
146104.000			18.921			-2.703
146203.000			18.921			-2.703
146305.000			18.920			-2.703
146404.000			18.920			-2.703
146504.000			18.920			-2.703
146605.000			18.921			-2.703
146704.000			18.919			-2.703
146804.000			18.918			-2.703
146905.000			18.919			-2.703
147004.000			18.918			-2.703
147103.000			18.918			-2.703
147205.000			18.917			-2.702
147304.000			18.918			-2.703
147404.000			18.918			-2.703
147505.000			18.917			-2.702
147604.000			18.917			-2.702
147705.000			18.917			-2.702
147804.000			18.916			-2.702
147904.000			18.917			-2.702
148004.000			18.916			-2.702
148104.000			18.915			-2.702
148203.000			18.915			-2.702
148305.000			18.915			-2.702
148404.000			18.915			-2.702
148504.000			18.915			-2.702
148605.000			18.914			-2.702
148704.000			18.914			-2.702
148804.000			18.914			-2.702
148904.000			18.913			-2.702
149004.000			18.913			-2.702
149103.000			18.914			-2.702
149205.000			18.913			-2.702
149304.000			18.911			-2.702
149404.000			18.912			-2.702
149505.000			18.912			-2.702
149604.000			18.911			-2.702
149704.000			18.911			-2.702
149805.000			18.911			-2.702
149904.000			18.910			-2.701
150003.000			18.910			-2.701
150105.000			18.910			-2.701
150204.000			18.909			-2.701
150304.000			18.909			-2.701
150405.000			18.910			-2.701
150504.000			18.910			-2.701
150604.000			18.910			-2.701
150705.000			18.909			-2.701
150804.000			18.909			-2.701
150903.000			18.908			-2.701
151004.000			18.908			-2.701
151104.000			18.908			-2.701
151205.000			18.907			-2.701
151304.000			18.906			-2.701
151404.000			18.906			-2.701
151505.000			18.907			-2.701
151604.000			18.908			-2.701
151704.000			18.906			-2.701
151804.000			18.905			-2.701
151904.000			18.906			-2.701
152004.000			18.907			-2.701
152105.000			18.907			-2.701
152204.000			18.905			-2.701
152304.000			18.903			-2.700
152405.000			18.903			-2.700
152504.000			18.904			-2.701
152604.000			18.904			-2.701
152704.000			18.904			-2.701
152804.000			18.902			-2.700
152904.000			18.902			-2.700
153005.000			18.901			-2.700
153104.000			18.900			-2.700
153204.000			18.900			-2.700
153305.000			18.900			-2.700
153404.000			18.900			-2.700
153504.000			18.900			-2.700
153604.000			18.899			-2.700
153704.000			18.898			-2.700
153803.000			18.898			-2.700
153905.000			18.897			-2.700
154004.000			18.898			-2.700
154105.000			18.898			-2.700
154204.000			18.897			-2.700
154304.000			18.897			-2.700
154405.000			18.897			-2.700
154504.000			18.896			-2.699
154604.000			18.896			-2.699
154704.000			18.896			-2.699
154804.000			18.894			-2.699
154904.000			18.894			-2.699
155005.000			18.894			-2.699
155104.000			18.893			-2.699
155204.000			18.893			-2.699
155305.000			18.892			-2.699
155404.000			18.891			-2.699
155504.000			18.891			-2.699
155604.000			18.892			-2.699
155704.000			18.891			-2.699
155803.000			18.891			-2.699
155905.000			18.891			-2.699
156004.000			18.890			-2.699
156104.000			18.890			-2.699
156205.000			18.889			-2.698
156304.000			18.889			-2.698
156404.000			18.888			-2.698
156505.000			18.887			-2.698
156604.000			18.887			-2.698
156703.000			18.887			-2.698
156805.000			18.887			-2.698
156904.000			18.886			-2.698
157004.000			18.886			-2.698
157105.000			18.886			-2.698
157204.000			18.885			-2.698
157305.000			18.886			-2.698
157404.000			18.884			-2.698
157504.000			18.885			-2.698
157604.000			18.885			-2.698
157704.000			18.884			-2.698
157803.000			18.883			-2.698
157905.000			18.883			-2.698
158004.000			18.883			-2.698
158104.000			18.882			-2.697
158205.000			18.882			-2.697
158304.000			18.881			-2.697
158404.000			18.881			-2.697
158505.000			18.881			-2.697
158604.000			18.881			-2.697
158703.000			18.880			-2.697
158805.000			18.879			-2.697
158904.000			18.880			-2.697
159004.000			18.879			-2.697
159105.000			18.878			-2.697
159204.000			18.879			-2.697
159304.000			18.879			-2.697
159405.000			18.878			-2.697
159504.000			18.876			-2.697
159604.000			18.878			-2.697
159705.000			18.877			-2.697
159803.000			18.876			-2.697
159904.000			18.876			-2.697
160005.000			18.877			-2.697
160104.000			18.877			-2.697
160204.000			18.877			-2.697
160305.000			18.874			-2.696
160404.000			18.874			-2.696
160505.000			18.874			-2.696
160604.000			18.873			-2.696
160703.000			18.872			-2.696
160805.000			18.873			-2.696
160903.000			18.873			-2.696
161004.000			18.872			-2.696
161105.000			18.872			-2.696
161204.000			18.872			-2.696
161304.000			18.872			-2.696
161405.000			18.871			-2.696
161504.000			18.871			-2.696
161603.000			18.871			-2.696
161705.000			18.871			-2.696
161803.000			18.870			-2.696
161904.000			18.871			-2.696
162005.000			18.870			-2.696
162104.000			18.870			-2.696
162204.000			18.870			-2.696
162305.000			18.869			-2.696
162404.000			18.868			-2.695
162504.000			18.869			-2.696
162605.000			18.869			-2.696
162703.000			18.868			-2.695
162804.000			18.866			-2.695
162904.000			18.867			-2.695
163004.000			18.865			-2.695
163104.000			18.866			-2.695
163205.000			18.866			-2.695
163304.000			18.865			-2.695
163404.000			18.864			-2.695
163505.000			18.864			-2.695
163603.000			18.865			-2.695
163705.000			18.865			-2.695
163803.000			18.865			-2.695
163904.000			18.864			-2.695
164005.000			18.863			-2.695
164104.000			18.863			-2.695
164204.000			18.863			-2.695
164305.000			18.863			-2.695
164404.000			18.863			-2.695
164504.000			18.862			-2.695
164605.000			18.862			-2.695
164703.000			18.861			-2.694
164804.000			18.861			-2.694
164905.000			18.860			-2.694
165004.000			18.861			-2.694
165104.000			18.861			-2.694
165205.000			18.861			-2.694
165304.000			18.860			-2.694
165404.000			18.860			-2.694
165505.000			18.859			-2.694
165603.000			18.859			-2.694
165704.000			18.859			-2.694
165804.000			18.859			-2.694
165904.000			18.860			-2.694
166004.000			18.859			-2.694
166105.000			18.858			-2.694
166204.000			18.857			-2.694
166304.000			18.857			-2.694
166405.000			18.857			-2.694
166504.000			18.857			-2.694
166604.000			18.856			-2.694
166704.000			18.856			-2.694
166804.000			18.856			-2.694
166905.000			18.855			-2.694
167004.000			18.856			-2.694
167104.000			18.855			-2.694
167205.000			18.855			-2.694
167304.000			18.855			-2.694
167404.000			18.855			-2.694
167505.000			18.854			-2.693
167603.000			18.853			-2.693
167704.000			18.853			-2.693
167804.000			18.854			-2.693
167904.000			18.852			-2.693
168004.000			18.851			-2.693
168105.000			18.851			-2.693
168204.000			18.851			-2.693
168304.000			18.851			-2.693
168405.000			18.850			-2.693
168504.000			18.850			-2.693
168604.000			18.850			-2.693
168704.000			18.851			-2.693
168804.000			18.851			-2.693
168904.000			18.849			-2.693
169005.000			18.850			-2.693
169104.000			18.848			-2.693
169204.000			18.848			-2.693
169305.000			18.848			-2.693
169404.000			18.848			-2.693
169504.000			18.848			-2.693
169604.000			18.848			-2.693
169704.000			18.847			-2.692
169803.000			18.847			-2.692
169905.000			18.846			-2.692
170004.000			18.846			-2.692
170105.000			18.847			-2.692
170204.000			18.846			-2.692
170304.000			18.845			-2.692
170405.000			18.845			-2.692
170504.000			18.844			-2.692
170604.000			18.844			-2.692
170704.000			18.845			-2.692
170804.000			18.845			-2.692
170903.000			18.844			-2.692
171005.000			18.843			-2.692
171104.000			18.844			-2.692
171204.000			18.845			-2.692
171305.000			18.843			-2.692
171404.000			18.843			-2.692
171504.000			18.844			-2.692
171604.000			18.843			-2.692
171704.000			18.842			-2.692
171803.000			18.842			-2.692
171905.000			18.842			-2.692
172004.000			18.842			-2.692
172104.000			18.841			-2.692
172205.000			18.841			-2.692
172304.000			18.841			-2.692
172404.000			18.841			-2.692
172504.000			18.841			-2.692
172604.000			18.840			-2.691
172703.000			18.839			-2.691
172805.000			18.839			-2.691
172904.000			18.838			-2.691
173004.000			18.839			-2.691
173105.000			18.838			-2.691
173204.000			18.838			-2.691
173305.000			18.837			-2.691
173404.000			18.837			-2.691
173504.000			18.836			-2.691
173604.000			18.837			-2.691
173704.000			18.837			-2.691
173804.000			18.836			-2.691
173905.000			18.836			-2.691
174004.000			18.836			-2.691
174104.000			18.835			-2.691
174205.000			18.835			-2.691
174304.000			18.835			-2.691
174404.000			18.834			-2.691
174504.000			18.834			-2.691
174604.000			18.835			-2.691
174703.000			18.834			-2.691
174805.000			18.833			-2.690
174904.000			18.832			-2.690
175004.000			18.833			-2.690
175105.000			18.833			-2.690
175204.000			18.833			-2.690
175304.000			18.832			-2.690
175404.000			18.832			-2.690
175504.000			18.832			-2.690
175603.000			18.831			-2.690
175705.000			18.831			-2.690
175804.000			18.831			-2.690
175904.000			18.831			-2.690
176005.000			18.832			-2.690
176104.000			18.831			-2.690
176204.000			18.829			-2.690
176304.000			18.828			-2.690
176404.000			18.829			-2.690
176503.000			18.830			-2.690
176604.000			18.829			-2.690
176704.000			18.828			-2.690
176805.000			18.828			-2.690
176904.000			18.827			-2.690
177004.000			18.827			-2.690
177105.000			18.827			-2.690
177204.000			18.828			-2.690
177304.000			18.827			-2.690
177404.000			18.826			-2.689
177504.000			18.824			-2.689
177603.000			18.825			-2.689
177705.000			18.825			-2.689
177804.000			18.824			-2.689
177904.000			18.824			-2.689
178005.000			18.823			-2.689
178104.000			18.823			-2.689
178204.000			18.823			-2.689
178304.000			18.823			-2.689
178404.000			18.823			-2.689
178503.000			18.823			-2.689
178605.000			18.822			-2.689
178704.000			18.822			-2.689
178804.000			18.821			-2.689
178905.000			18.821			-2.689
179004.000			18.822			-2.689
179104.000			18.822			-2.689
179205.000			18.822			-2.689
179304.000			18.820			-2.689
179403.000			18.820			-2.689
179505.000			18.820			-2.689
179604.000			18.820			-2.689
179705.000			18.819			-2.688
179804.000			18.820			-2.689
179904.000			18.820			-2.689
180005.000			18.819			-2.688
180104.000			18.818			-2.688
180204.000			18.818			-2.688
180304.000			18.818			-2.688
180404.000			18.819			-2.688
180503.000			18.818			-2.688
180605.000			18.817			-2.688
180704.000			18.817			-2.688
180804.000			18.817			-2.688
180905.000			18.816			-2.688
181004.000			18.815			-2.688
181104.000			18.816			-2.688
181205.000			18.816			-2.688
181304.000			18.815			-2.688
181403.000			18.815			-2.688
181505.000			18.815			-2.688
181604.000			18.814			-2.688
181704.000			18.814			-2.688
181805.000			18.813			-2.688
181904.000			18.813			-2.688
182004.000			18.814			-2.688
182105.000			18.814			-2.688
182204.000			18.813			-2.688
182303.000			18.813			-2.688
182405.000			18.812			-2.687
182504.000			18.812			-2.687
182604.000			18.812			-2.687
182705.000			18.811			-2.687
182804.000			18.811			-2.687
182905.000			18.811			-2.687
183004.000			18.810			-2.687
183104.000			18.809			-2.687
183204.000			18.810			-2.687
183304.000			18.810			-2.687
183404.000			18.809			-2.687
183505.000			18.810			-2.687
183604.000			18.809			-2.687
183704.000			18.808			-2.687
183805.000			18.808			-2.687
183904.000			18.808			-2.687
184004.000			18.808			-2.687
184104.000			18.808			-2.687
184204.000			18.808			-2.687
184303.000			18.808			-2.687
184405.000			18.807			-2.687
184504.000			18.807			-2.687
184604.000			18.806			-2.687
184705.000			18.807			-2.687
184804.000			18.807			-2.687
184904.000			18.806			-2.687
185005.000			18.806			-2.687
185104.000			18.806			-2.687
185203.000			18.806			-2.687
185305.000			18.806			-2.687
185404.000			18.805			-2.686
185504.000			18.804			-2.686
185605.000			18.804			-2.686
185704.000			18.803			-2.686
185804.000			18.804			-2.686
185905.000			18.803			-2.686
186004.000			18.803			-2.686
186103.000			18.803			-2.686
186204.000			18.803			-2.686
186303.000			18.802			-2.686
186405.000			18.802			-2.686
186504.000			18.802			-2.686
186604.000			18.801			-2.686
186705.000			18.801			-2.686
186804.000			18.800			-2.686
186904.000			18.800			-2.686
187005.000			18.800			-2.686
187104.000			18.800			-2.686
187203.000			18.799			-2.686
187305.000			18.800			-2.686
187404.000			18.800			-2.686
187504.000			18.799			-2.686
187605.000			18.798			-2.685
187704.000			18.798			-2.685
187804.000			18.797			-2.685
187905.000			18.798			-2.685
188004.000			18.798			-2.685
188103.000			18.797			-2.685
188205.000			18.797			-2.685
188303.000			18.796			-2.685
188404.000			18.796			-2.685
188505.000			18.796			-2.685
188604.000			18.797			-2.685
188704.000			18.796			-2.685
188805.000			18.795			-2.685
188904.000			18.795			-2.685
189004.000			18.795			-2.685
189105.000			18.795			-2.685
189204.000			18.795			-2.685
189305.000			18.794			-2.685
189403.000			18.794			-2.685
189504.000			18.793			-2.685
189605.000			18.793			-2.685
189704.000			18.793			-2.685
189804.000			18.793			-2.685
189905.000			18.792			-2.685
190004.000			18.792			-2.685
190104.000			18.792			-2.685
190205.000			18.792			-2.685
190304.000			18.792			-2.685
190404.000			18.791			-2.684
190504.000			18.791			-2.684
190604.000			18.791			-2.684
190704.000			18.791			-2.684
190805.000			18.791			-2.684
190904.000			18.789			-2.684
191004.000			18.789			-2.684
191105.000			18.789			-2.684
191204.000			18.789			-2.684
191304.000			18.789			-2.684
191404.000			18.789			-2.684
191504.000			18.788			-2.684
191603.000			18.788			-2.684
191705.000			18.787			-2.684
191804.000			18.786			-2.684
191904.000			18.788			-2.684
192005.000			18.788			-2.684
192104.000			18.788			-2.684
192204.000			18.788			-2.684
192304.000			18.787			-2.684
192404.000			18.786			-2.684
192503.000			18.786			-2.684
192604.000			18.786			-2.684
192704.000			18.786			-2.684
192805.000			18.785			-2.684
192904.000			18.785			-2.684
193004.000			18.785			-2.684
193105.000			18.785			-2.684
193204.000			18.784			-2.683
193304.000			18.783			-2.683
193404.000			18.783			-2.683
193504.000			18.783			-2.683
193604.000			18.783			-2.683
193705.000			18.784			-2.683
193804.000			18.783			-2.683
193904.000			18.782			-2.683
194005.000			18.781			-2.683
194104.000			18.782			-2.683
194204.000			18.782			-2.683
194304.000			18.782			-2.683
194404.000			18.782			-2.683
194503.000			18.782			-2.683
194605.000			18.781			-2.683
194704.000			18.781			-2.683
194804.000			18.780			-2.683
194905.000			18.781			-2.683
195004.000			18.779			-2.683
195104.000			18.779			-2.683
195205.000			18.780			-2.683
195304.000			18.780			-2.683
195403.000			18.780			-2.683
195505.000			18.779			-2.683
195603.000			18.780			-2.683
195705.000			18.779			-2.683
195804.000			18.777			-2.683
195904.000			18.777			-2.682
196005.000			18.778			-2.683
196104.000			18.777			-2.682
196204.000			18.776			-2.682
196305.000			18.776			-2.682
196404.000			18.777			-2.682
196503.000			18.777			-2.682
196605.000			18.776			-2.682
196704.000			18.776			-2.682
196804.000			18.776			-2.682
196905.000			18.775			-2.682
197004.000			18.775			-2.682
197104.000			18.774			-2.682
197205.000			18.774			-2.682
197304.000			18.773			-2.682
197404.000			18.773			-2.682
197505.000			18.774			-2.682
197603.000			18.773			-2.682
197704.000			18.772			-2.682
197805.000			18.771			-2.682
197904.000			18.772			-2.682
198004.000			18.774			-2.682
198105.000			18.773			-2.682
198204.000			18.771			-2.682
198304.000			18.771			-2.682
198405.000			18.772			-2.682
198503.000			18.772			-2.682
198604.000			18.771			-2.682
198704.000			18.771			-2.682
198804.000			18.769			-2.681
198905.000			18.770			-2.681
199004.000			18.770			-2.681
199104.000			18.770			-2.681
199205.000			18.770			-2.681
199304.000			18.768			-2.681
199404.000			18.769			-2.681
199505.000			18.769			-2.681
199603.000			18.770			-2.681
199704.000			18.768			-2.681
199804.000			18.768			-2.681
199904.000			18.768			-2.681
200004.000			18.768			-2.681
200105.000			18.768			-2.681
200204.000			18.767			-2.681
200304.000			18.767			-2.681
200405.000			18.767			-2.681
200504.000			18.766			-2.681
200604.000			18.767			-2.681
200704.000			18.766			-2.681
200804.000			18.765			-2.681
200904.000			18.766			-2.681
201005.000			18.765			-2.681
201104.000			18.764			-2.681
201204.000			18.764			-2.681
201305.000			18.764			-2.681
201404.000			18.765			-2.681
201504.000			18.763			-2.680
201604.000			18.763			-2.680
201704.000			18.763			-2.680
201804.000			18.762			-2.680
201905.000			18.763			-2.680
202004.000			18.761			-2.680
202105.000			18.761			-2.680
202204.000			18.761			-2.680
202304.000			18.761			-2.680
202405.000			18.761			-2.680
202503.000			18.761			-2.680
202604.000			18.761			-2.680
202705.000			18.761			-2.680
202804.000			18.760			-2.680
202904.000			18.760			-2.680
203005.000			18.760			-2.680
203104.000			18.760			-2.680
203204.000			18.761			-2.680
203305.000			18.760			-2.680
203403.000			18.760			-2.680
203504.000			18.758			-2.680
203605.000			18.758			-2.680
203704.000			18.758			-2.680
203804.000			18.758			-2.680
203905.000			18.759			-2.680
204004.000			18.758			-2.680
204104.000			18.758			-2.680
204205.000			18.757			-2.680
204303.000			18.756			-2.679
204404.000			18.756			-2.679
204505.000			18.756			-2.679
204604.000			18.756			-2.679
204704.000			18.755			-2.679
204805.000			18.755			-2.679
204904.000			18.754			-2.679
205004.000			18.755			-2.679
205105.000			18.755			-2.679
205203.000			18.755			-2.679
205305.000			18.754			-2.679
205403.000			18.754			-2.679
205504.000			18.754			-2.679
205605.000			18.754			-2.679
205704.000			18.755			-2.679
205804.000			18.754			-2.679
205905.000			18.753			-2.679
206004.000			18.753			-2.679
206103.000			18.754			-2.679
206205.000			18.753			-2.679
206303.000			18.752			-2.679
206404.000			18.752			-2.679
206505.000			18.751			-2.679
206604.000			18.751			-2.679
206704.000			18.751			-2.679
206805.000			18.751			-2.679
206904.000			18.750			-2.679
207003.000			18.750			-2.679
207105.000			18.750			-2.679
207203.000			18.750			-2.679
207304.000			18.751			-2.679
207405.000			18.750			-2.679
207504.000			18.751			-2.679
207604.000			18.752			-2.679
207705.000			18.751			-2.679
207804.000			18.751			-2.679
207903.000			18.751			-2.679
208005.000			18.749			-2.678
208103.000			18.750			-2.679
208204.000			18.751			-2.679
208305.000			18.749			-2.678
208404.000			18.750			-2.679
208505.000			18.751			-2.679
208604.000			18.750			-2.679
208704.000			18.750			-2.679
208804.000			18.750			-2.679
208904.000			18.750			-2.679
209003.000			18.750			-2.679
209105.000			18.750			-2.679
209204.000			18.749			-2.678
209304.000			18.749			-2.678
209405.000			18.749			-2.678
209504.000			18.749			-2.678
209604.000			18.748			-2.678
209705.000			18.749			-2.678
209804.000			18.749			-2.678
209903.000			18.750			-2.679
210005.000			18.749			-2.678
210104.000			18.748			-2.678
210204.000			18.748			-2.678
210305.000			18.748			-2.678
210404.000			18.748			-2.678
210504.000			18.747			-2.678
210605.000			18.747			-2.678
210704.000			18.747			-2.678
210803.000			18.747			-2.678
210905.000			18.746			-2.678
211004.000			18.745			-2.678
211104.000			18.746			-2.678
211205.000			18.745			-2.678
211304.000			18.745			-2.678
211404.000			18.744			-2.678
211505.000			18.745			-2.678
211604.000			18.745			-2.678
211703.000			18.744			-2.678
211804.000			18.744			-2.678
211904.000			18.743			-2.678
212005.000			18.743			-2.678
212104.000			18.744			-2.678
212204.000			18.743			-2.678
212305.000			18.741			-2.677
212404.000			18.741			-2.677
212504.000			18.740			-2.677
212604.000			18.739			-2.677
212704.000			18.740			-2.677
212804.000			18.740			-2.677
212905.000			18.739			-2.677
213004.000			18.739			-2.677
213104.000			18.739			-2.677
213205.000			18.739			-2.677
213304.000			18.739			-2.677
213404.000			18.739			-2.677
213504.000			18.737			-2.677
213604.000			18.736			-2.677
213704.000			18.736			-2.677
213805.000			18.738			-2.677
213904.000			18.736			-2.677
214004.000			18.736			-2.677
214105.000			18.737			-2.677
214204.000			18.736			-2.677
214304.000			18.735			-2.676
214404.000			18.735			-2.676
214504.000			18.735			-2.676
214604.000			18.734			-2.676
214705.000			18.735			-2.676
214804.000			18.735			-2.676
214905.000			18.734			-2.676
215004.000			18.733			-2.676
215104.000			18.733			-2.676
215205.000			18.733			-2.676
215303.000			18.733			-2.676
215404.000			18.732			-2.676
215505.000			18.732			-2.676
215604.000			18.732			-2.676
215704.000			18.732			-2.676
215805.000			18.732			-2.676
215904.000			18.733			-2.676
216004.000			18.732			-2.676
216105.000			18.730			-2.676
216203.000			18.730			-2.676
216304.000			18.730			-2.676
216405.000			18.730			-2.676
216504.000			18.730			-2.676
216604.000			18.729			-2.676
216705.000			18.728			-2.675
216804.000			18.728			-2.675
216904.000			18.728			-2.675
217005.000			18.728			-2.675
217103.000			18.729			-2.676
217204.000			18.728			-2.675
217305.000			18.727			-2.675
217404.000			18.727			-2.675
217504.000			18.728			-2.675
217605.000			18.727			-2.675
217704.000			18.726			-2.675
217804.000			18.727			-2.675
217905.000			18.727			-2.675
218003.000			18.727			-2.675
218105.000			18.726			-2.675
218204.000			18.727			-2.675
218304.000			18.726			-2.675
218405.000			18.725			-2.675
218504.000			18.726			-2.675
218604.000			18.726			-2.675
218705.000			18.725			-2.675
218804.000			18.724			-2.675
218903.000			18.724			-2.675
219005.000			18.725			-2.675
219103.000			18.724			-2.675
219204.000			18.723			-2.675
219305.000			18.724			-2.675
219404.000			18.723			-2.675
219504.000			18.722			-2.675
219605.000			18.722			-2.675
219704.000			18.722			-2.675
219803.000			18.723			-2.675
219905.000			18.723			-2.675
220003.000			18.721			-2.674
220104.000			18.721			-2.674
220205.000			18.721			-2.674
220304.000			18.721			-2.674
220404.000			18.720			-2.674
220505.000			18.721			-2.674
220604.000			18.721			-2.674
220703.000			18.720			-2.674
220805.000			18.719			-2.674
220904.000			18.720			-2.674
221004.000			18.718			-2.674
221105.000			18.719			-2.674
221204.000			18.720			-2.674
221305.000			18.718			-2.674
221404.000			18.718			-2.674
221504.000			18.718			-2.674
221604.000			18.718			-2.674
221704.000			18.717			-2.674
221804.000			18.716			-2.674
221905.000			18.717			-2.674
222004.000			18.718			-2.674
222104.000			18.717			-2.674
222205.000			18.717			-2.674
222304.000			18.716			-2.674
222404.000			18.715			-2.674
222504.000			18.715			-2.674
222604.000			18.716			-2.674
222704.000			18.717			-2.674
222805.000			18.716			-2.674
222904.000			18.716			-2.674
223004.000			18.714			-2.673
223105.000			18.715			-2.674
223204.000			18.714			-2.673
223304.000			18.713			-2.673
223404.000			18.714			-2.673
223504.000			18.714			-2.673
223604.000			18.713			-2.673
223705.000			18.712			-2.673
223804.000			18.712			-2.673
223904.000			18.712			-2.673
224005.000			18.713			-2.673
224104.000			18.713			-2.673
224204.000			18.711			-2.673
224304.000			18.711			-2.673
224404.000			18.711			-2.673
224505.000			18.711			-2.673
224604.000			18.710			-2.673
224704.000			18.710			-2.673
224805.000			18.711			-2.673
224904.000			18.711			-2.673
225004.000			18.711			-2.673
225105.000			18.711			-2.673
225203.000			18.711			-2.673
225304.000			18.710			-2.673
225405.000			18.709			-2.673
225504.000			18.709			-2.673
225604.000			18.709			-2.673
225705.000			18.710			-2.673
225804.000			18.710			-2.673
225904.000			18.709			-2.673
226005.000			18.708			-2.673
226103.000			18.707			-2.672
226204.000			18.707			-2.672
226305.000			18.708			-2.673
226404.000			18.707			-2.672
226504.000			18.708			-2.673
226605.000			18.707			-2.672
226704.000			18.707			-2.672
226804.000			18.707			-2.672
226905.000			18.706			-2.672
227003.000			18.706			-2.672
227104.000			18.706			-2.672
227205.000			18.706			-2.672
227304.000			18.706			-2.672
227404.000			18.706			-2.672
227505.000			18.706			-2.672
227604.000			18.705			-2.672
227705.000			18.705			-2.672
227804.000			18.705			-2.672
227903.000			18.704			-2.672
228005.000			18.704			-2.672
228104.000			18.704			-2.672
228204.000			18.704			-2.672
228305.000			18.703			-2.672
228404.000			18.702			-2.672
228504.000			18.702			-2.672
228605.000			18.703			-2.672
228704.000			18.703			-2.672
228803.000			18.701			-2.672
228905.000			18.702			-2.672
229004.000			18.703			-2.672
229104.000			18.702			-2.672
229205.000			18.701			-2.672
229304.000			18.701			-2.672
229404.000			18.700			-2.671
229505.000			18.702			-2.672
229604.000			18.702			-2.672
229703.000			18.701			-2.672
229805.000			18.699			-2.671
229903.000			18.699			-2.671
230004.000			18.699			-2.671
230105.000			18.701			-2.672
230204.000			18.700			-2.671
230304.000			18.700			-2.671
230405.000			18.699			-2.671
230504.000			18.698			-2.671
230603.000			18.698			-2.671
230705.000			18.698			-2.671
230803.000			18.697			-2.671
230905.000			18.697			-2.671
231004.000			18.697			-2.671
231104.000			18.697			-2.671
231205.000			18.698			-2.671
231304.000			18.697			-2.671
231404.000			18.696			-2.671
231504.000			18.697			-2.671
231604.000			18.697			-2.671
231703.000			18.695			-2.671
231805.000			18.696			-2.671
231904.000			18.696			-2.671
232004.000			18.696			-2.671
232105.000			18.695			-2.671
232204.000			18.695			-2.671
232304.000			18.695			-2.671
232405.000			18.694			-2.671
232504.000			18.695			-2.671
232603.000			18.695			-2.671
232705.000			18.694			-2.671
232804.000			18.694			-2.671
232904.000			18.694			-2.671
233005.000			18.694			-2.671
233104.000			18.693			-2.670
233204.000			18.693			-2.670
233305.000			18.693			-2.670
233404.000			18.693			-2.670
233503.000			18.693			-2.670
233605.000			18.692			-2.670
233704.000			18.691			-2.670
233804.000			18.693			-2.670
233905.000			18.693			-2.670
234004.000			18.693			-2.670
234105.000			18.691			-2.670
234204.000			18.691			-2.670
234304.000			18.691			-2.670
234404.000			18.691			-2.670
234504.000			18.690			-2.670
234604.000			18.690			-2.670
234705.000			18.690			-2.670
234804.000			18.690			-2.670
234904.000			18.688			-2.670
235005.000			18.688			-2.670
235104.000			18.690			-2.670
235204.000			18.690			-2.670
235304.000			18.689			-2.670
235404.000			18.688			-2.670
235503.000			18.688			-2.670
235605.000			18.687			-2.670
235704.000			18.687			-2.670
235804.000			18.688			-2.670
235905.000			18.688			-2.670
236004.000			18.687			-2.670
236104.000			18.687			-2.670
236205.000			18.687			-2.670
236304.000			18.686			-2.669
236403.000			18.686			-2.669
236505.000			18.686			-2.669
236604.000			18.685			-2.669
236704.000			18.686			-2.669
236805.000			18.687			-2.670
236904.000			18.686			-2.669
237004.000			18.685			-2.669
237105.000			18.685			-2.669
237204.000			18.684			-2.669
237303.000			18.684			-2.669
237404.000			18.685			-2.669
237503.000			18.685			-2.669
237605.000			18.685			-2.669
237704.000			18.685			-2.669
237804.000			18.683			-2.669
237905.000			18.683			-2.669
238004.000			18.682			-2.669
238104.000			18.682			-2.669
238205.000			18.683			-2.669
238304.000			18.682			-2.669
238403.000			18.682			-2.669
238505.000			18.681			-2.669
238604.000			18.681			-2.669
238704.000			18.682			-2.669
238805.000			18.682			-2.669
238904.000			18.681			-2.669
239004.000			18.679			-2.668
239105.000			18.680			-2.669
239204.000			18.680			-2.669
239303.000			18.679			-2.668
239405.000			18.680			-2.669
239503.000			18.681			-2.669
239604.000			18.681			-2.669
239705.000			18.679			-2.668
239804.000			18.680			-2.669
239904.000			18.679			-2.668
240005.000			18.678			-2.668
240104.000			18.678			-2.668
240204.000			18.679			-2.668
240305.000			18.679			-2.668
240403.000			18.680			-2.669
240505.000			18.678			-2.668
240604.000			18.678			-2.668
240704.000			18.678			-2.668
240805.000			18.678			-2.668
240904.000			18.678			-2.668
241004.000			18.678			-2.668
241105.000			18.677			-2.668
241204.000			18.676			-2.668
241303.000			18.676			-2.668
241405.000			18.676			-2.668
241504.000			18.676			-2.668
241604.000			18.676			-2.668
241705.000			18.676			-2.668
241804.000			18.676			-2.668
241904.000			18.676			-2.668
242005.000			18.675			-2.668
242104.000			18.675			-2.668
242203.000			18.675			-2.668
242305.000			18.675			-2.668
242403.000			18.675			-2.668
242504.000			18.675			-2.668
242605.000			18.674			-2.668
242704.000			18.674			-2.668
242804.000			18.673			-2.668
242905.000			18.672			-2.667
243004.000			18.673			-2.668
243103.000			18.673			-2.668
243205.000			18.673			-2.668
243303.000			18.671			-2.667
243404.000			18.671			-2.667
243505.000			18.670			-2.667
243604.000			18.671			-2.667
243705.000			18.671			-2.667
243804.000			18.672			-2.667
243904.000			18.672			-2.667
244004.000			18.671			-2.667
244104.000			18.670			-2.667
244203.000			18.670			-2.667
244305.000			18.670			-2.667
244404.000			18.670			-2.667
244504.000			18.669			-2.667
244605.000			18.669			-2.667
244704.000			18.670			-2.667
244804.000			18.669			-2.667
244905.000			18.668			-2.667
245004.000			18.668			-2.667
245103.000			18.668			-2.667
245205.000			18.669			-2.667
245304.000			18.669			-2.667
245404.000			18.669			-2.667
245505.000			18.668			-2.667
245604.000			18.667			-2.667
245704.000			18.667			-2.667
245805.000			18.667			-2.667
245904.000			18.668			-2.667
246003.000			18.668			-2.667
246105.000			18.667			-2.667
246203.000			18.667			-2.667
246304.000			18.668			-2.667
246405.000			18.667			-2.667
246504.000			18.666			-2.667
246604.000			18.666			-2.667
246705.000			18.666			-2.667
246804.000			18.666			-2.667
246905.000			18.666			-2.667
247004.000			18.665			-2.666
247103.000			18.665			-2.666
247205.000			18.664			-2.666
247304.000			18.664			-2.666
247404.000			18.664			-2.666
247505.000			18.663			-2.666
247604.000			18.663			-2.666
247704.000			18.664			-2.666
247805.000			18.664			-2.666
247904.000			18.663			-2.666
248003.000			18.664			-2.666
248105.000			18.664			-2.666
248203.000			18.663			-2.666
248304.000			18.663			-2.666
248405.000			18.663			-2.666
248504.000			18.662			-2.666
248604.000			18.662			-2.666
248705.000			18.662			-2.666
248804.000			18.662			-2.666
248903.000			18.662			-2.666
249005.000			18.662			-2.666
249103.000			18.661			-2.666
249204.000			18.660			-2.666
249305.000			18.660			-2.666
249404.000			18.660			-2.666
249504.000			18.659			-2.666
249605.000			18.659			-2.666
249704.000			18.660			-2.666
249804.000			18.661			-2.666
249905.000			18.660			-2.666
250003.000			18.659			-2.666
250105.000			18.659			-2.666
250204.000			18.660			-2.666
250304.000			18.659			-2.666
250405.000			18.659			-2.666
250504.000			18.659			-2.666
250604.000			18.659			-2.666
250705.000			18.658			-2.665
250804.000			18.658			-2.665
250903.000			18.658			-2.665
251005.000			18.657			-2.665
251103.000			18.655			-2.665
251204.000			18.657			-2.665
251305.000			18.657			-2.665
251404.000			18.656			-2.665
251504.000			18.656			-2.665
251605.000			18.657			-2.665
251704.000			18.656			-2.665
251803.000			18.656			-2.665
251905.000			18.657			-2.665
252003.000			18.656			-2.665
252104.000			18.657			-2.665
252205.000			18.656			-2.665
252304.000			18.656			-2.665
252404.000			18.656			-2.665
252505.000			18.655			-2.665
252604.000			18.655			-2.665
252704.000			18.655			-2.665
252805.000			18.655			-2.665
252903.000			18.654			-2.665
253004.000			18.653			-2.665
253105.000			18.654			-2.665
253204.000			18.654			-2.665
253305.000			18.654			-2.665
253404.000			18.653			-2.665
253504.000			18.653			-2.665
253605.000			18.653			-2.665
253704.000			18.652			-2.665
253803.000			18.654			-2.665
253905.000			18.652			-2.665
254004.000			18.651			-2.664
254104.000			18.652			-2.665
254205.000			18.653			-2.665
254304.000			18.652			-2.665
254404.000			18.652			-2.665
254505.000			18.652			-2.665
254604.000			18.651			-2.664
254703.000			18.651			-2.664
254805.000			18.651			-2.664
254904.000			18.650			-2.664
255004.000			18.651			-2.664
255105.000			18.650			-2.664
255204.000			18.650			-2.664
255304.000			18.649			-2.664
255405.000			18.649			-2.664
255504.000			18.650			-2.664
255603.000			18.650			-2.664
255705.000			18.649			-2.664
255803.000			18.649			-2.664
255904.000			18.648			-2.664
256005.000			18.647			-2.664
256104.000			18.648			-2.664
256204.000			18.648			-2.664
256305.000			18.648			-2.664
256404.000			18.647			-2.664
256505.000			18.648			-2.664
256604.000			18.647			-2.664
256703.000			18.647			-2.664
256805.000			18.646			-2.664
256904.000			18.647			-2.664
257004.000			18.646			-2.664
257105.000			18.646			-2.664
257204.000			18.646			-2.664
257304.000			18.646			-2.664
257405.000			18.645			-2.664
257504.000			18.646			-2.664
257603.000			18.646			-2.664
257705.000			18.645			-2.664
257803.000			18.645			-2.664
257904.000			18.644			-2.663
258005.000			18.644			-2.663
258104.000			18.645			-2.664
258204.000			18.644			-2.663
258305.000			18.644			-2.663
258404.000			18.643			-2.663
258503.000			18.644			-2.663
258605.000			18.643			-2.663
258703.000			18.643			-2.663
258804.000			18.643			-2.663
258905.000			18.643			-2.663
259004.000			18.643			-2.663
259104.000			18.643			-2.663
259205.000			18.644			-2.663
259304.000			18.643			-2.663
259404.000			18.641			-2.663
259505.000			18.641			-2.663
259603.000			18.641			-2.663
259705.000			18.641			-2.663
259804.000			18.640			-2.663
259904.000			18.642			-2.663
260005.000			18.642			-2.663
260104.000			18.641			-2.663
260204.000			18.641			-2.663
260305.000			18.641			-2.663
260404.000			18.640			-2.663
260503.000			18.640			-2.663
260605.000			18.640			-2.663
260704.000			18.640			-2.663
260804.000			18.639			-2.663
260905.000			18.640			-2.663
261004.000			18.639			-2.663
261104.000			18.638			-2.663
261205.000			18.637			-2.662
261304.000			18.638			-2.663
261403.000			18.639			-2.663
261505.000			18.639			-2.663
261604.000			18.637			-2.662
261704.000			18.637			-2.662
261805.000			18.638			-2.663
261904.000			18.637			-2.662
262004.000			18.637			-2.662
262105.000			18.638			-2.663
262204.000			18.638			-2.663
262303.000			18.636			-2.662
262405.000			18.637			-2.662
262503.000			18.637			-2.662
262604.000			18.637			-2.662
262705.000			18.636			-2.662
262804.000			18.636			-2.662
262905.000			18.635			-2.662
263004.000			18.634			-2.662
263104.000			18.634			-2.662
263204.000			18.635			-2.662
263304.000			18.635			-2.662
263403.000			18.634			-2.662
263505.000			18.634			-2.662
263604.000			18.634			-2.662
263704.000			18.635			-2.662
263805.000			18.633			-2.662
263904.000			18.634			-2.662
264004.000			18.633			-2.662
264104.000			18.633			-2.662
264204.000			18.633			-2.662
264303.000			18.633			-2.662
264405.000			18.633			-2.662
264504.000			18.632			-2.662
264604.000			18.631			-2.662
264705.000			18.632			-2.662
264804.000			18.632			-2.662
264904.000			18.632			-2.662
265004.000			18.631			-2.662
265104.000			18.631			-2.662
265203.000			18.631			-2.662
265305.000			18.631			-2.662
265404.000			18.630			-2.661
265504.000			18.631			-2.662
265605.000			18.630			-2.661
265704.000			18.630			-2.661
265804.000			18.630			-2.661
265904.000			18.630			-2.661
266004.000			18.630			-2.661
266103.000			18.629			-2.661
266204.000			18.629			-2.661
266304.000			18.629			-2.661
266405.000			18.630			-2.661
266504.000			18.630			-2.661
266604.000			18.632			-2.662
266705.000			18.629			-2.661
266804.000			18.630			-2.661
266904.000			18.631			-2.662
267004.000			18.629			-2.661
267104.000			18.630			-2.661
267204.000			18.630			-2.661
267305.000			18.631			-2.662
267404.000			18.632			-2.662
267504.000			18.632			-2.662
267605.000			18.631			-2.662
267704.000			18.631			-2.662
267804.000			18.631			-2.662
267904.000			18.630			-2.661
268004.000			18.630			-2.661
268104.000			18.630			-2.661
268205.000			18.631			-2.662
268304.000			18.631			-2.662
268404.000			18.631			-2.662
268505.000			18.632			-2.662
268604.000			18.631			-2.662
268704.000			18.631			-2.662
268804.000			18.631			-2.662
268904.000			18.630			-2.661
269003.000			18.631			-2.662
269105.000			18.631			-2.662
269204.000			18.629			-2.661
269305.000			18.630			-2.661
269404.000			18.630			-2.661
269504.000			18.630			-2.661
269605.000			18.629			-2.661
269704.000			18.628			-2.661
269804.000			18.630			-2.661
269904.000			18.629			-2.661
270004.000			18.627			-2.661
270104.000			18.628			-2.661
270205.000			18.628			-2.661
270304.000			18.627			-2.661
270404.000			18.628			-2.661
270505.000			18.627			-2.661
270604.000			18.627			-2.661
270704.000			18.627			-2.661
270804.000			18.627			-2.661
270904.000			18.627			-2.661
271004.000			18.625			-2.661
271105.000			18.625			-2.661
271204.000			18.625			-2.661
271304.000			18.624			-2.661
271405.000			18.624			-2.661
271504.000			18.625			-2.661
271604.000			18.624			-2.661
271704.000			18.624			-2.661
271804.000			18.624			-2.661
271904.000			18.623			-2.660
272005.000			18.622			-2.660
272104.000			18.622			-2.660
272204.000			18.622			-2.660
272305.000			18.621			-2.660
272404.000			18.621			-2.660
272505.000			18.620			-2.660
272603.000			18.620			-2.660
272704.000			18.620			-2.660
272805.000			18.620			-2.660
272904.000			18.619			-2.660
273004.000			18.619			-2.660
273105.000			18.619			-2.660
273204.000			18.619			-2.660
273304.000			18.618			-2.660
273405.000			18.618			-2.660
273503.000			18.618			-2.660
273604.000			18.618			-2.660
273705.000			18.617			-2.660
273804.000			18.618			-2.660
273904.000			18.617			-2.660
274005.000			18.616			-2.659
274104.000			18.615			-2.659
274204.000			18.616			-2.659
274305.000			18.616			-2.659
274403.000			18.616			-2.659
274504.000			18.616			-2.659
274605.000			18.614			-2.659
274704.000			18.614			-2.659
274804.000			18.614			-2.659
274905.000			18.614			-2.659
275004.000			18.615			-2.659
275104.000			18.614			-2.659
275205.000			18.613			-2.659
275303.000			18.614			-2.659
275404.000			18.614			-2.659
275505.000			18.614			-2.659
275604.000			18.615			-2.659
275705.000			18.615			-2.659
275804.000			18.614			-2.659
275904.000			18.613			-2.659
276005.000			18.613			-2.659
276104.000			18.612			-2.659
276203.000			18.612			-2.659
276305.000			18.612			-2.659
276404.000			18.612			-2.659
276504.000			18.612			-2.659
276605.000			18.612			-2.659
276704.000			18.613			-2.659
276804.000			18.612			-2.659
276905.000			18.612			-2.659
277004.000			18.612			-2.659
277103.000			18.611			-2.659
277205.000			18.611			-2.659
277304.000			18.612			-2.659
277404.000			18.612			-2.659
277505.000			18.612			-2.659
277604.000			18.611			-2.659
277704.000			18.611			-2.659
277805.000			18.610			-2.659
277904.000			18.610			-2.659
278003.000			18.609			-2.658
278105.000			18.609			-2.658
278203.000			18.609			-2.658
278304.000			18.609			-2.658
278405.000			18.608			-2.658
278504.000			18.608			-2.658
278604.000			18.607			-2.658
278705.000			18.607			-2.658
278804.000			18.608			-2.658
278905.000			18.606			-2.658
279004.000			18.606			-2.658
279103.000			18.607			-2.658
279205.000			18.606			-2.658
279304.000			18.606			-2.658
279404.000			18.605			-2.658
279505.000			18.606			-2.658
279604.000			18.606			-2.658
279704.000			18.605			-2.658
279805.000			18.605			-2.658
279904.000			18.606			-2.658
280003.000			18.605			-2.658
280105.000			18.604			-2.658
280203.000			18.604			-2.658
280304.000			18.603			-2.658
280405.000			18.603			-2.658
280504.000			18.603			-2.658
280604.000			18.603			-2.658
280705.000			18.603			-2.658
280804.000			18.603			-2.658
280903.000			18.602			-2.657
281005.000			18.601			-2.657
281104.000			18.601			-2.657
281204.000			18.601			-2.657
281305.000			18.603			-2.658
281404.000			18.602			-2.657
281504.000			18.601			-2.657
281605.000			18.601			-2.657
281704.000			18.600			-2.657
281803.000			18.602			-2.657
281905.000			18.602			-2.657
282004.000			18.601			-2.657
282105.000			18.601			-2.657
282204.000			18.600			-2.657
282304.000			18.601			-2.657
282405.000			18.600			-2.657
282504.000			18.599			-2.657
282604.000			18.600			-2.657
282704.000			18.599			-2.657
282804.000			18.598			-2.657
282903.000			18.598			-2.657
283005.000			18.599			-2.657
283104.000			18.599			-2.657
283204.000			18.599			-2.657
283305.000			18.599			-2.657
283404.000			18.599			-2.657
283504.000			18.598			-2.657
283605.000			18.598			-2.657
283704.000			18.598			-2.657
283803.000			18.597			-2.657
283905.000			18.598			-2.657
284004.000			18.597			-2.657
284104.000			18.596			-2.657
284205.000			18.597			-2.657
284304.000			18.597			-2.657
284404.000			18.597			-2.657
284505.000			18.596			-2.657
284604.000			18.595			-2.656
284703.000			18.595			-2.656
284805.000			18.595			-2.656
284903.000			18.596			-2.657
285004.000			18.596			-2.657
285105.000			18.595			-2.656
285204.000			18.595			-2.656
285305.000			18.595			-2.656
285404.000			18.595			-2.656
285504.000			18.594			-2.656
285605.000			18.595			-2.656
285704.000			18.595			-2.656
285803.000			18.594			-2.656
285905.000			18.593			-2.656
286004.000			18.593			-2.656
286104.000			18.593			-2.656
286205.000			18.593			-2.656
286304.000			18.594			-2.656
286404.000			18.592			-2.656
286505.000			18.594			-2.656
286604.000			18.594			-2.656
286703.000			18.593			-2.656
286805.000			18.591			-2.656
286903.000			18.592			-2.656
287004.000			18.591			-2.656
287105.000			18.592			-2.656
287204.000			18.592			-2.656
287304.000			18.592			-2.656
287405.000			18.592			-2.656
287504.000			18.591			-2.656
287604.000			18.591			-2.656
287705.000			18.590			-2.656
287803.000			18.591			-2.656
287904.000			18.591			-2.656
288005.000			18.590			-2.656
288104.000			18.590			-2.656
288204.000			18.591			-2.656
288305.000			18.590			-2.656
288404.000			18.590			-2.656
288505.000			18.588			-2.655
288604.000			18.589			-2.656
288703.000			18.589			-2.656
288805.000			18.588			-2.655
288903.000			18.588			-2.655
289004.000			18.588			-2.655
289105.000			18.589			-2.656
289204.000			18.589			-2.656
289304.000			18.588			-2.655
289405.000			18.588			-2.655
289504.000			18.587			-2.655
289604.000			18.587			-2.655
289705.000			18.588			-2.655
289803.000			18.587			-2.655
289904.000			18.587			-2.655
290004.000			18.587			-2.655
290104.000			18.587			-2.655
290204.000			18.587			-2.655
290305.000			18.588			-2.655
290404.000			18.587			-2.655
290504.000			18.586			-2.655
290605.000			18.585			-2.655
290704.000			18.586			-2.655
290804.000			18.586			-2.655
290904.000			18.586			-2.655
291004.000			18.585			-2.655
291103.000			18.584			-2.655
291205.000			18.585			-2.655
291304.000			18.586			-2.655
291404.000			18.585			-2.655
291505.000			18.584			-2.655
291604.000			18.585			-2.655
291705.000			18.585			-2.655
291804.000			18.584			-2.655
291904.000			18.584			-2.655
292004.000			18.584			-2.655
292104.000			18.584			-2.655
292204.000			18.584			-2.655
292305.000			18.583			-2.655
292404.000			18.582			-2.655
292504.000			18.583			-2.655
292605.000			18.583			-2.655
292704.000			18.582			-2.655
292804.000			18.582			-2.655
292904.000			18.582			-2.655
293004.000			18.582			-2.655
293104.000			18.581			-2.654
293205.000			18.583			-2.655
293304.000			18.582			-2.655
293404.000			18.581			-2.654
293505.000			18.581			-2.654
293604.000			18.581			-2.654
293704.000			18.580			-2.654
293804.000			18.579			-2.654
293904.000			18.580			-2.654
294003.000			18.580			-2.654
294105.000			18.580			-2.654
294204.000			18.580			-2.654
294304.000			18.579			-2.654
294405.000			18.579			-2.654
294504.000			18.579			-2.654
294604.000			18.580			-2.654
294704.000			18.581			-2.654
294804.000			18.580			-2.654
294903.000			18.579			-2.654
295004.000			18.579			-2.654
295104.000			18.577			-2.654
295205.000			18.578			-2.654
295304.000			18.578			-2.654
295404.000			18.578			-2.654
295505.000			18.578			-2.654
295604.000			18.578			-2.654
295704.000			18.577			-2.654
295804.000			18.578			-2.654
295904.000			18.577			-2.654
296003.000			18.576			-2.654
296105.000			18.577			-2.654
296204.000			18.576			-2.654
296304.000			18.575			-2.654
296405.000			18.576			-2.654
296504.000			18.575			-2.654
296604.000			18.576			-2.654
296705.000			18.576			-2.654
296804.000			18.576			-2.654
296903.000			18.576			-2.654
297005.000			18.576			-2.654
297104.000			18.575			-2.654
297204.000			18.574			-2.653
297305.000			18.574			-2.653
297404.000			18.574			-2.653
297504.000			18.574			-2.653
297605.000			18.574			-2.653
297704.000			18.574			-2.653
297803.000			18.574			-2.653
297905.000			18.574			-2.653
298003.000			18.572			-2.653
298105.000			18.572			-2.653
298204.000			18.572			-2.653
298304.000			18.573			-2.653
298405.000			18.572			-2.653
298504.000			18.573			-2.653
298604.000			18.573			-2.653
298705.000			18.572			-2.653
298804.000			18.573			-2.653
298903.000			18.572			-2.653
299005.000			18.571			-2.653
299104.000			18.571			-2.653
299204.000			18.571			-2.653
299305.000			18.572			-2.653
299404.000			18.572			-2.653
299504.000			18.571			-2.653
299605.000			18.570			-2.653
299704.000			18.570			-2.653
299804.000			18.571			-2.653
299905.000			18.571			-2.653
