# Acquired on 08/01/2024 14:11:09 
# SPIDER: Creep_4mm_07714532B-1
# CREEP MEASUREMENT

# time [ms]		force [N]		stiffness [N/mm]
0.000			-13.015			-3.254
100.000			-14.104			-3.526
200.000			-14.522			-3.631
301.000			-14.532			-3.633
401.000			-14.463			-3.616
500.000			-14.410			-3.603
601.000			-14.334			-3.583
700.000			-14.303			-3.576
800.000			-14.276			-3.569
901.000			-14.252			-3.563
1000.000			-14.230			-3.558
1101.000			-14.210			-3.552
1202.000			-14.191			-3.548
1300.000			-14.157			-3.539
1400.000			-14.143			-3.536
1501.000			-14.129			-3.532
1600.000			-14.116			-3.529
1700.000			-14.103			-3.526
1802.000			-14.092			-3.523
1901.000			-14.081			-3.520
2000.000			-14.060			-3.515
2101.000			-14.050			-3.512
2200.000			-14.040			-3.510
2300.000			-14.031			-3.508
2401.000			-14.021			-3.505
2500.000			-14.013			-3.503
2601.000			-14.006			-3.501
2702.000			-13.999			-3.500
2800.000			-13.985			-3.496
2900.000			-13.978			-3.495
3001.000			-13.970			-3.493
3100.000			-13.964			-3.491
3200.000			-13.958			-3.489
3300.000			-13.951			-3.488
3401.000			-13.945			-3.486
3502.000			-13.933			-3.483
3600.000			-13.927			-3.482
3700.000			-13.922			-3.480
3801.000			-13.916			-3.479
3900.000			-13.911			-3.478
4000.000			-13.907			-3.477
4102.000			-13.902			-3.475
4201.000			-13.893			-3.473
4300.000			-13.888			-3.472
4401.000			-13.883			-3.471
4500.000			-13.879			-3.470
4600.000			-13.875			-3.469
4701.000			-13.870			-3.468
4800.000			-13.866			-3.467
4901.000			-13.858			-3.464
5002.000			-13.854			-3.463
5100.000			-13.850			-3.463
5200.000			-13.847			-3.462
5301.000			-13.843			-3.461
5400.000			-13.838			-3.460
5500.000			-13.835			-3.459
5601.000			-13.832			-3.458
5701.000			-13.825			-3.456
5801.000			-13.821			-3.455
5901.000			-13.817			-3.454
6000.000			-13.814			-3.453
6100.000			-13.811			-3.453
6201.000			-13.809			-3.452
6300.000			-13.805			-3.451
6400.000			-13.799			-3.450
6502.000			-13.795			-3.449
6601.000			-13.792			-3.448
6701.000			-13.790			-3.448
6800.000			-13.787			-3.447
6900.000			-13.785			-3.446
7001.000			-13.783			-3.446
7100.000			-13.775			-3.444
7200.000			-13.773			-3.443
7302.000			-13.771			-3.443
7401.000			-13.768			-3.442
7500.000			-13.765			-3.441
7601.000			-13.762			-3.440
7700.000			-13.759			-3.440
7800.000			-13.757			-3.439
7901.000			-13.752			-3.438
8001.000			-13.750			-3.437
8101.000			-13.746			-3.437
8201.000			-13.744			-3.436
8300.000			-13.743			-3.436
8400.000			-13.741			-3.435
8501.000			-13.738			-3.435
8600.000			-13.735			-3.434
8700.000			-13.732			-3.433
8802.000			-13.729			-3.432
8901.000			-13.728			-3.432
9000.000			-13.726			-3.431
9101.000			-13.724			-3.431
9200.000			-13.721			-3.430
9300.000			-13.717			-3.429
9401.000			-13.714			-3.429
9500.000			-13.713			-3.428
9602.000			-13.712			-3.428
9701.000			-13.709			-3.427
9800.000			-13.706			-3.426
9901.000			-13.704			-3.426
10000.000			-13.700			-3.425
10100.000			-13.699			-3.425
10201.000			-13.697			-3.424
10300.000			-13.694			-3.424
10401.000			-13.694			-3.423
10502.000			-13.691			-3.423
10600.000			-13.689			-3.422
10700.000			-13.688			-3.422
10801.000			-13.685			-3.421
10900.000			-13.683			-3.421
11000.000			-13.681			-3.420
11101.000			-13.679			-3.420
11201.000			-13.677			-3.419
11301.000			-13.675			-3.419
11401.000			-13.675			-3.419
11500.000			-13.670			-3.417
11600.000			-13.669			-3.417
11701.000			-13.667			-3.417
11800.000			-13.665			-3.416
11900.000			-13.664			-3.416
12002.000			-13.663			-3.416
12101.000			-13.661			-3.415
12200.000			-13.658			-3.415
12301.000			-13.654			-3.414
12400.000			-13.654			-3.413
12500.000			-13.654			-3.413
12601.000			-13.652			-3.413
12700.000			-13.650			-3.413
12802.000			-13.648			-3.412
12901.000			-13.645			-3.411
13000.000			-13.643			-3.411
13101.000			-13.642			-3.410
13200.000			-13.641			-3.410
13300.000			-13.641			-3.410
13401.000			-13.639			-3.410
13501.000			-13.637			-3.409
13601.000			-13.636			-3.409
13702.000			-13.632			-3.408
13800.000			-13.630			-3.408
13900.000			-13.629			-3.407
14001.000			-13.629			-3.407
14100.000			-13.627			-3.407
14200.000			-13.626			-3.407
14302.000			-13.625			-3.406
14401.000			-13.622			-3.405
14501.000			-13.620			-3.405
14601.000			-13.619			-3.405
14700.000			-13.618			-3.404
14800.000			-13.617			-3.404
14901.000			-13.616			-3.404
15000.000			-13.614			-3.404
15100.000			-13.611			-3.403
15202.000			-13.611			-3.403
15301.000			-13.610			-3.402
15400.000			-13.608			-3.402
15501.000			-13.606			-3.402
15600.000			-13.606			-3.402
15700.000			-13.604			-3.401
15801.000			-13.601			-3.400
15901.000			-13.600			-3.400
16002.000			-13.600			-3.400
16101.000			-13.599			-3.400
16200.000			-13.596			-3.399
16301.000			-13.596			-3.399
16400.000			-13.594			-3.399
16500.000			-13.593			-3.398
16601.000			-13.591			-3.398
16700.000			-13.590			-3.398
16801.000			-13.588			-3.397
16902.000			-13.587			-3.397
17000.000			-13.587			-3.397
17100.000			-13.585			-3.396
17201.000			-13.584			-3.396
17300.000			-13.582			-3.396
17400.000			-13.581			-3.395
17501.000			-13.580			-3.395
17601.000			-13.579			-3.395
17701.000			-13.579			-3.395
17801.000			-13.577			-3.394
17900.000			-13.576			-3.394
18000.000			-13.574			-3.394
18101.000			-13.572			-3.393
18200.000			-13.571			-3.393
18300.000			-13.571			-3.393
18402.000			-13.570			-3.392
18501.000			-13.568			-3.392
18600.000			-13.568			-3.392
18701.000			-13.565			-3.391
18800.000			-13.564			-3.391
18900.000			-13.564			-3.391
19001.000			-13.562			-3.391
19100.000			-13.561			-3.390
19202.000			-13.561			-3.390
19301.000			-13.560			-3.390
19400.000			-13.558			-3.390
19501.000			-13.557			-3.389
19600.000			-13.555			-3.389
19700.000			-13.554			-3.389
19801.000			-13.554			-3.389
19900.000			-13.553			-3.388
20001.000			-13.552			-3.388
20102.000			-13.551			-3.388
20200.000			-13.548			-3.387
20300.000			-13.548			-3.387
20401.000			-13.547			-3.387
20500.000			-13.546			-3.386
20600.000			-13.545			-3.386
20701.000			-13.546			-3.386
20801.000			-13.544			-3.386
20901.000			-13.542			-3.386
21001.000			-13.541			-3.385
21100.000			-13.540			-3.385
21200.000			-13.540			-3.385
21301.000			-13.539			-3.385
21400.000			-13.537			-3.384
21500.000			-13.538			-3.384
21602.000			-13.536			-3.384
21701.000			-13.533			-3.383
21800.000			-13.533			-3.383
21901.000			-13.532			-3.383
22000.000			-13.532			-3.383
22100.000			-13.532			-3.383
22201.000			-13.530			-3.383
22300.000			-13.529			-3.382
22402.000			-13.527			-3.382
22501.000			-13.527			-3.382
22600.000			-13.526			-3.382
22701.000			-13.524			-3.381
22800.000			-13.523			-3.381
22900.000			-13.523			-3.381
23001.000			-13.523			-3.381
23101.000			-13.520			-3.380
23201.000			-13.520			-3.380
23301.000			-13.519			-3.380
23400.000			-13.517			-3.379
23500.000			-13.516			-3.379
23601.000			-13.516			-3.379
23700.000			-13.516			-3.379
23800.000			-13.513			-3.378
23902.000			-13.512			-3.378
24001.000			-13.512			-3.378
24100.000			-13.511			-3.378
24201.000			-13.510			-3.378
24300.000			-13.510			-3.377
24400.000			-13.509			-3.377
24501.000			-13.509			-3.377
24600.000			-13.508			-3.377
24701.000			-13.506			-3.376
24802.000			-13.505			-3.376
24900.000			-13.504			-3.376
25000.000			-13.503			-3.376
25101.000			-13.502			-3.376
25200.000			-13.502			-3.375
25300.000			-13.501			-3.375
25401.000			-13.500			-3.375
25501.000			-13.499			-3.375
25602.000			-13.499			-3.375
25700.000			-13.497			-3.374
25800.000			-13.496			-3.374
25901.000			-13.497			-3.374
26000.000			-13.496			-3.374
26100.000			-13.495			-3.374
26201.000			-13.494			-3.374
26301.000			-13.494			-3.374
26401.000			-13.492			-3.373
26501.000			-13.491			-3.373
26600.000			-13.491			-3.373
26700.000			-13.490			-3.373
26801.000			-13.488			-3.372
26900.000			-13.487			-3.372
27000.000			-13.488			-3.372
27102.000			-13.487			-3.372
27201.000			-13.486			-3.372
27300.000			-13.485			-3.371
27401.000			-13.484			-3.371
27500.000			-13.483			-3.371
27600.000			-13.482			-3.371
27701.000			-13.482			-3.370
27800.000			-13.481			-3.370
27901.000			-13.481			-3.370
28002.000			-13.480			-3.370
28100.000			-13.479			-3.370
28200.000			-13.478			-3.369
28301.000			-13.477			-3.369
28400.000			-13.477			-3.369
28500.000			-13.477			-3.369
28601.000			-13.475			-3.369
28701.000			-13.475			-3.369
28802.000			-13.473			-3.368
28901.000			-13.473			-3.368
29000.000			-13.472			-3.368
29101.000			-13.471			-3.368
29200.000			-13.470			-3.368
29300.000			-13.471			-3.368
29401.000			-13.468			-3.367
29500.000			-13.468			-3.367
29601.000			-13.468			-3.367
29702.000			-13.466			-3.367
29800.000			-13.466			-3.366
29900.000			-13.466			-3.367
30001.000			-13.465			-3.366
30100.000			-13.463			-3.366
30200.000			-13.462			-3.366
30301.000			-13.462			-3.366
30401.000			-13.462			-3.366
30501.000			-13.461			-3.365
30601.000			-13.460			-3.365
30700.000			-13.460			-3.365
30800.000			-13.460			-3.365
30901.000			-13.459			-3.365
31000.000			-13.458			-3.365
31100.000			-13.458			-3.364
31202.000			-13.457			-3.364
31301.000			-13.456			-3.364
31400.000			-13.455			-3.364
31501.000			-13.454			-3.364
31600.000			-13.454			-3.364
31700.000			-13.454			-3.364
31801.000			-13.451			-3.363
31901.000			-13.452			-3.363
32002.000			-13.451			-3.363
32101.000			-13.452			-3.363
32200.000			-13.451			-3.363
32301.000			-13.450			-3.362
32400.000			-13.449			-3.362
32500.000			-13.449			-3.362
32601.000			-13.447			-3.362
32701.000			-13.446			-3.362
32801.000			-13.445			-3.361
32901.000			-13.444			-3.361
33000.000			-13.445			-3.361
33100.000			-13.445			-3.361
33201.000			-13.444			-3.361
33300.000			-13.443			-3.361
33400.000			-13.443			-3.361
33502.000			-13.443			-3.361
33601.000			-13.441			-3.360
33700.000			-13.441			-3.360
33801.000			-13.440			-3.360
33900.000			-13.440			-3.360
34000.000			-13.439			-3.360
34101.000			-13.437			-3.359
34200.000			-13.437			-3.359
34301.000			-13.437			-3.359
34402.000			-13.436			-3.359
34500.000			-13.436			-3.359
34600.000			-13.435			-3.359
34701.000			-13.435			-3.359
34800.000			-13.433			-3.358
34900.000			-13.432			-3.358
35001.000			-13.433			-3.358
35101.000			-13.432			-3.358
35202.000			-13.432			-3.358
35300.000			-13.431			-3.358
35400.000			-13.430			-3.357
35501.000			-13.430			-3.357
35600.000			-13.429			-3.357
35700.000			-13.428			-3.357
35801.000			-13.428			-3.357
35901.000			-13.427			-3.357
36001.000			-13.426			-3.357
36101.000			-13.426			-3.356
36200.000			-13.425			-3.356
36300.000			-13.424			-3.356
36401.000			-13.424			-3.356
36500.000			-13.423			-3.356
36600.000			-13.423			-3.356
36702.000			-13.423			-3.356
36801.000			-13.422			-3.355
36900.000			-13.421			-3.355
37001.000			-13.420			-3.355
37100.000			-13.420			-3.355
37200.000			-13.420			-3.355
37301.000			-13.419			-3.355
37401.000			-13.419			-3.355
37501.000			-13.418			-3.355
37601.000			-13.418			-3.354
37700.000			-13.417			-3.354
37800.000			-13.416			-3.354
37901.000			-13.416			-3.354
38000.000			-13.415			-3.354
38100.000			-13.414			-3.354
38202.000			-13.414			-3.354
38301.000			-13.413			-3.353
38402.000			-13.413			-3.353
38500.000			-13.412			-3.353
38600.000			-13.412			-3.353
38701.000			-13.412			-3.353
38800.000			-13.411			-3.353
38900.000			-13.410			-3.353
39002.000			-13.409			-3.352
39101.000			-13.408			-3.352
39200.000			-13.408			-3.352
39301.000			-13.408			-3.352
39400.000			-13.408			-3.352
39500.000			-13.407			-3.352
39601.000			-13.406			-3.351
39700.000			-13.406			-3.351
39801.000			-13.404			-3.351
39902.000			-13.404			-3.351
40000.000			-13.405			-3.351
40100.000			-13.405			-3.351
40201.000			-13.404			-3.351
40300.000			-13.403			-3.351
40400.000			-13.402			-3.351
40501.000			-13.401			-3.350
40601.000			-13.400			-3.350
40701.000			-13.400			-3.350
40801.000			-13.400			-3.350
40900.000			-13.399			-3.350
41000.000			-13.398			-3.350
41101.000			-13.398			-3.350
41200.000			-13.398			-3.349
41300.000			-13.396			-3.349
41402.000			-13.397			-3.349
41501.000			-13.397			-3.349
41600.000			-13.396			-3.349
41700.000			-13.396			-3.349
41800.000			-13.395			-3.349
41901.000			-13.394			-3.348
42000.000			-13.394			-3.348
42100.000			-13.394			-3.348
42202.000			-13.392			-3.348
42301.000			-13.392			-3.348
42400.000			-13.393			-3.348
42501.000			-13.391			-3.348
42600.000			-13.390			-3.348
42700.000			-13.390			-3.347
42801.000			-13.390			-3.348
42900.000			-13.391			-3.348
43001.000			-13.389			-3.347
43102.000			-13.389			-3.347
43200.000			-13.389			-3.347
43300.000			-13.388			-3.347
43401.000			-13.388			-3.347
43500.000			-13.386			-3.347
43600.000			-13.385			-3.346
43701.000			-13.384			-3.346
43801.000			-13.385			-3.346
43901.000			-13.384			-3.346
44001.000			-13.384			-3.346
44100.000			-13.385			-3.346
44200.000			-13.383			-3.346
44301.000			-13.383			-3.346
44400.000			-13.383			-3.346
44500.000			-13.381			-3.345
44602.000			-13.381			-3.345
44701.000			-13.381			-3.345
44800.000			-13.380			-3.345
44900.000			-13.379			-3.345
45000.000			-13.379			-3.345
45101.000			-13.379			-3.345
45200.000			-13.378			-3.344
45300.000			-13.378			-3.345
45402.000			-13.378			-3.345
45501.000			-13.377			-3.344
45600.000			-13.376			-3.344
45701.000			-13.376			-3.344
45800.000			-13.376			-3.344
45900.000			-13.376			-3.344
46001.000			-13.375			-3.344
46100.000			-13.375			-3.344
46201.000			-13.374			-3.343
46302.000			-13.374			-3.343
46400.000			-13.373			-3.343
46500.000			-13.372			-3.343
46601.000			-13.372			-3.343
46700.000			-13.372			-3.343
46800.000			-13.371			-3.343
46901.000			-13.371			-3.343
47001.000			-13.371			-3.343
47101.000			-13.369			-3.342
47201.000			-13.369			-3.342
47300.000			-13.369			-3.342
47400.000			-13.368			-3.342
47501.000			-13.367			-3.342
47600.000			-13.366			-3.342
47700.000			-13.366			-3.341
47802.000			-13.367			-3.342
47901.000			-13.366			-3.342
48000.000			-13.367			-3.342
48100.000			-13.365			-3.341
48200.000			-13.364			-3.341
48301.000			-13.365			-3.341
48400.000			-13.364			-3.341
48500.000			-13.364			-3.341
48602.000			-13.362			-3.341
48701.000			-13.363			-3.341
48801.000			-13.362			-3.341
48901.000			-13.361			-3.340
49000.000			-13.361			-3.340
49100.000			-13.361			-3.340
49201.000			-13.360			-3.340
49300.000			-13.359			-3.340
49400.000			-13.360			-3.340
49502.000			-13.360			-3.340
49601.000			-13.360			-3.340
49700.000			-13.358			-3.339
49801.000			-13.358			-3.340
49900.000			-13.358			-3.339
50000.000			-13.357			-3.339
50101.000			-13.356			-3.339
50200.000			-13.356			-3.339
50301.000			-13.356			-3.339
50402.000			-13.355			-3.339
50500.000			-13.355			-3.339
50600.000			-13.354			-3.339
50701.000			-13.353			-3.338
50800.000			-13.352			-3.338
50900.000			-13.352			-3.338
51001.000			-13.352			-3.338
51101.000			-13.352			-3.338
51202.000			-13.352			-3.338
51300.000			-13.352			-3.338
51400.000			-13.351			-3.338
51501.000			-13.349			-3.337
51600.000			-13.349			-3.337
51700.000			-13.350			-3.337
51802.000			-13.349			-3.337
51901.000			-13.349			-3.337
52001.000			-13.348			-3.337
52101.000			-13.347			-3.337
52200.000			-13.347			-3.337
52300.000			-13.348			-3.337
52401.000			-13.346			-3.337
52500.000			-13.346			-3.336
52600.000			-13.346			-3.336
52702.000			-13.345			-3.336
52801.000			-13.344			-3.336
52900.000			-13.344			-3.336
53001.000			-13.344			-3.336
53100.000			-13.343			-3.336
53200.000			-13.343			-3.336
53301.000			-13.344			-3.336
53401.000			-13.342			-3.336
53501.000			-13.343			-3.336
53601.000			-13.341			-3.335
53700.000			-13.342			-3.335
53800.000			-13.341			-3.335
53901.000			-13.340			-3.335
54000.000			-13.340			-3.335
54100.000			-13.340			-3.335
54202.000			-13.339			-3.335
54301.000			-13.338			-3.335
54400.000			-13.338			-3.334
54500.000			-13.338			-3.334
54600.000			-13.338			-3.334
54701.000			-13.338			-3.335
54800.000			-13.337			-3.334
54900.000			-13.336			-3.334
55002.000			-13.337			-3.334
55101.000			-13.335			-3.334
55200.000			-13.335			-3.334
55301.000			-13.336			-3.334
55400.000			-13.335			-3.334
55500.000			-13.334			-3.333
55601.000			-13.334			-3.333
55700.000			-13.334			-3.333
55801.000			-13.334			-3.334
55902.000			-13.334			-3.333
56000.000			-13.332			-3.333
56100.000			-13.332			-3.333
56201.000			-13.332			-3.333
56300.000			-13.331			-3.333
56400.000			-13.331			-3.333
56501.000			-13.332			-3.333
56601.000			-13.331			-3.333
56701.000			-13.330			-3.332
56801.000			-13.330			-3.332
56900.000			-13.329			-3.332
57000.000			-13.329			-3.332
57101.000			-13.329			-3.332
57200.000			-13.329			-3.332
57300.000			-13.328			-3.332
57402.000			-13.327			-3.332
57501.000			-13.326			-3.332
57600.000			-13.326			-3.332
57700.000			-13.325			-3.331
57800.000			-13.325			-3.331
57901.000			-13.324			-3.331
58000.000			-13.326			-3.331
58100.000			-13.325			-3.331
58202.000			-13.325			-3.331
58301.000			-13.324			-3.331
58400.000			-13.323			-3.331
58501.000			-13.324			-3.331
58600.000			-13.323			-3.331
58700.000			-13.323			-3.331
58801.000			-13.323			-3.331
58900.000			-13.323			-3.331
59001.000			-13.322			-3.330
59102.000			-13.322			-3.330
59200.000			-13.321			-3.330
59300.000			-13.321			-3.330
59401.000			-13.319			-3.330
59500.000			-13.320			-3.330
59600.000			-13.320			-3.330
59701.000			-13.319			-3.330
59801.000			-13.319			-3.330
59901.000			-13.318			-3.329
60002.000			-13.319			-3.330
60100.000			-13.318			-3.329
60200.000			-13.316			-3.329
60301.000			-13.317			-3.329
60400.000			-13.316			-3.329
60500.000			-13.316			-3.329
60602.000			-13.316			-3.329
60701.000			-13.315			-3.329
60800.000			-13.315			-3.329
60900.000			-13.315			-3.329
61000.000			-13.314			-3.328
61101.000			-13.313			-3.328
61200.000			-13.313			-3.328
61300.000			-13.313			-3.328
61402.000			-13.313			-3.328
61501.000			-13.314			-3.328
61600.000			-13.312			-3.328
61701.000			-13.311			-3.328
61800.000			-13.310			-3.328
61900.000			-13.311			-3.328
62001.000			-13.311			-3.328
62100.000			-13.311			-3.328
62201.000			-13.311			-3.328
62302.000			-13.310			-3.327
62400.000			-13.311			-3.328
62500.000			-13.309			-3.327
62601.000			-13.309			-3.327
62700.000			-13.308			-3.327
62800.000			-13.308			-3.327
62901.000			-13.309			-3.327
63001.000			-13.308			-3.327
63101.000			-13.306			-3.327
63201.000			-13.307			-3.327
63300.000			-13.307			-3.327
63400.000			-13.306			-3.327
63501.000			-13.306			-3.326
63600.000			-13.306			-3.326
63700.000			-13.306			-3.326
63802.000			-13.305			-3.326
63901.000			-13.304			-3.326
64000.000			-13.304			-3.326
64100.000			-13.304			-3.326
64200.000			-13.303			-3.326
64301.000			-13.302			-3.326
64400.000			-13.303			-3.326
64500.000			-13.302			-3.325
64602.000			-13.301			-3.325
64701.000			-13.301			-3.325
64800.000			-13.301			-3.325
64901.000			-13.300			-3.325
65000.000			-13.299			-3.325
65100.000			-13.299			-3.325
65201.000			-13.300			-3.325
65301.000			-13.299			-3.325
65401.000			-13.300			-3.325
65501.000			-13.300			-3.325
65600.000			-13.299			-3.325
65700.000			-13.298			-3.325
65801.000			-13.298			-3.324
65900.000			-13.298			-3.324
66000.000			-13.298			-3.324
66101.000			-13.297			-3.324
66201.000			-13.297			-3.324
66301.000			-13.296			-3.324
66401.000			-13.295			-3.324
66500.000			-13.295			-3.324
66600.000			-13.295			-3.324
66701.000			-13.295			-3.324
66800.000			-13.295			-3.324
66900.000			-13.295			-3.324
67002.000			-13.294			-3.323
67101.000			-13.294			-3.324
67200.000			-13.295			-3.324
67300.000			-13.293			-3.323
67400.000			-13.293			-3.323
67501.000			-13.293			-3.323
67600.000			-13.292			-3.323
67700.000			-13.292			-3.323
67802.000			-13.291			-3.323
67901.000			-13.292			-3.323
68001.000			-13.291			-3.323
68101.000			-13.291			-3.323
68200.000			-13.290			-3.323
68300.000			-13.290			-3.323
68401.000			-13.290			-3.323
68500.000			-13.290			-3.323
68600.000			-13.290			-3.322
68702.000			-13.289			-3.322
68801.000			-13.288			-3.322
68900.000			-13.288			-3.322
69001.000			-13.287			-3.322
69100.000			-13.287			-3.322
69200.000			-13.287			-3.322
69301.000			-13.286			-3.322
69400.000			-13.287			-3.322
69501.000			-13.287			-3.322
69602.000			-13.286			-3.321
69700.000			-13.286			-3.322
69800.000			-13.286			-3.321
69901.000			-13.284			-3.321
70000.000			-13.284			-3.321
70100.000			-13.285			-3.321
70201.000			-13.285			-3.321
70301.000			-13.285			-3.321
70402.000			-13.284			-3.321
70501.000			-13.284			-3.321
70600.000			-13.284			-3.321
70701.000			-13.283			-3.321
70800.000			-13.284			-3.321
70900.000			-13.282			-3.321
71001.000			-13.282			-3.320
71100.000			-13.282			-3.321
71201.000			-13.281			-3.320
71302.000			-13.280			-3.320
71400.000			-13.280			-3.320
71500.000			-13.280			-3.320
71601.000			-13.280			-3.320
71700.000			-13.279			-3.320
71800.000			-13.280			-3.320
71901.000			-13.281			-3.320
72001.000			-13.279			-3.320
72101.000			-13.279			-3.320
72201.000			-13.279			-3.320
72300.000			-13.279			-3.320
72400.000			-13.277			-3.319
72501.000			-13.277			-3.319
72600.000			-13.277			-3.319
72700.000			-13.277			-3.319
72802.000			-13.277			-3.319
72901.000			-13.277			-3.319
73000.000			-13.277			-3.319
73101.000			-13.276			-3.319
73200.000			-13.276			-3.319
73300.000			-13.275			-3.319
73401.000			-13.274			-3.318
73500.000			-13.273			-3.318
73602.000			-13.274			-3.318
73701.000			-13.274			-3.319
73800.000			-13.274			-3.318
73901.000			-13.275			-3.319
74000.000			-13.273			-3.318
74100.000			-13.273			-3.318
74201.000			-13.273			-3.318
74300.000			-13.273			-3.318
74401.000			-13.272			-3.318
74502.000			-13.271			-3.318
74600.000			-13.270			-3.318
74700.000			-13.271			-3.318
74801.000			-13.270			-3.318
74900.000			-13.270			-3.318
75000.000			-13.270			-3.318
75101.000			-13.270			-3.318
75201.000			-13.270			-3.317
75301.000			-13.269			-3.317
75401.000			-13.267			-3.317
75500.000			-13.267			-3.317
75600.000			-13.268			-3.317
75701.000			-13.269			-3.317
75800.000			-13.269			-3.317
75900.000			-13.269			-3.317
76002.000			-13.268			-3.317
76101.000			-13.267			-3.317
76200.000			-13.267			-3.317
76301.000			-13.267			-3.317
76400.000			-13.266			-3.316
76500.000			-13.266			-3.316
76601.000			-13.266			-3.317
76700.000			-13.266			-3.317
76800.000			-13.265			-3.316
76902.000			-13.265			-3.316
77001.000			-13.265			-3.316
77101.000			-13.263			-3.316
77200.000			-13.263			-3.316
77300.000			-13.264			-3.316
77401.000			-13.264			-3.316
77500.000			-13.264			-3.316
77600.000			-13.263			-3.316
77702.000			-13.263			-3.316
77801.000			-13.263			-3.316
77900.000			-13.262			-3.315
78001.000			-13.262			-3.315
78100.000			-13.262			-3.316
78200.000			-13.262			-3.315
78301.000			-13.261			-3.315
78400.000			-13.259			-3.315
78501.000			-13.260			-3.315
78602.000			-13.261			-3.315
78700.000			-13.260			-3.315
78800.000			-13.260			-3.315
78901.000			-13.260			-3.315
79000.000			-13.260			-3.315
79100.000			-13.259			-3.315
79201.000			-13.258			-3.315
79300.000			-13.258			-3.315
79401.000			-13.258			-3.315
79502.000			-13.257			-3.314
79600.000			-13.257			-3.314
79700.000			-13.257			-3.314
79801.000			-13.258			-3.315
79900.000			-13.258			-3.314
80000.000			-13.256			-3.314
80100.000			-13.256			-3.314
80201.000			-13.255			-3.314
80302.000			-13.255			-3.314
80400.000			-13.256			-3.314
80500.000			-13.255			-3.314
80601.000			-13.254			-3.314
80700.000			-13.255			-3.314
80800.000			-13.255			-3.314
80901.000			-13.254			-3.313
81001.000			-13.254			-3.313
81101.000			-13.254			-3.313
81201.000			-13.253			-3.313
81300.000			-13.252			-3.313
81400.000			-13.251			-3.313
81501.000			-13.251			-3.313
81600.000			-13.251			-3.313
81700.000			-13.252			-3.313
81802.000			-13.252			-3.313
81901.000			-13.251			-3.313
82000.000			-13.251			-3.313
82101.000			-13.251			-3.313
82200.000			-13.251			-3.313
82300.000			-13.251			-3.313
82401.000			-13.251			-3.313
82500.000			-13.250			-3.313
82601.000			-13.249			-3.312
82702.000			-13.249			-3.312
82800.000			-13.249			-3.312
82900.000			-13.249			-3.312
83001.000			-13.248			-3.312
83100.000			-13.248			-3.312
83200.000			-13.249			-3.312
83300.000			-13.248			-3.312
83401.000			-13.247			-3.312
83502.000			-13.246			-3.312
83601.000			-13.246			-3.312
83700.000			-13.247			-3.312
83801.000			-13.247			-3.312
83900.000			-13.246			-3.312
84000.000			-13.246			-3.311
84101.000			-13.245			-3.311
84200.000			-13.245			-3.311
84301.000			-13.244			-3.311
84402.000			-13.244			-3.311
84500.000			-13.245			-3.311
84600.000			-13.245			-3.311
84701.000			-13.245			-3.311
84800.000			-13.244			-3.311
84900.000			-13.244			-3.311
85001.000			-13.243			-3.311
85101.000			-13.243			-3.311
85201.000			-13.244			-3.311
85301.000			-13.243			-3.311
85400.000			-13.242			-3.310
85500.000			-13.242			-3.311
85601.000			-13.242			-3.310
85700.000			-13.242			-3.310
85800.000			-13.241			-3.310
85902.000			-13.241			-3.310
86001.000			-13.241			-3.310
86100.000			-13.240			-3.310
86201.000			-13.240			-3.310
86300.000			-13.240			-3.310
86400.000			-13.241			-3.310
86500.000			-13.239			-3.310
86600.000			-13.239			-3.310
86702.000			-13.239			-3.310
86801.000			-13.238			-3.310
86900.000			-13.238			-3.309
87001.000			-13.237			-3.309
87100.000			-13.238			-3.309
87200.000			-13.238			-3.310
87301.000			-13.238			-3.310
87400.000			-13.238			-3.310
87501.000			-13.237			-3.309
87602.000			-13.237			-3.309
87700.000			-13.237			-3.309
87800.000			-13.237			-3.309
87901.000			-13.236			-3.309
88000.000			-13.236			-3.309
88100.000			-13.235			-3.309
88201.000			-13.235			-3.309
88301.000			-13.235			-3.309
88401.000			-13.234			-3.308
88502.000			-13.235			-3.309
88600.000			-13.235			-3.309
88700.000			-13.234			-3.309
88801.000			-13.234			-3.309
88900.000			-13.234			-3.308
89000.000			-13.233			-3.308
89101.000			-13.233			-3.308
89201.000			-13.233			-3.308
89301.000			-13.233			-3.308
89401.000			-13.233			-3.308
89500.000			-13.232			-3.308
89600.000			-13.231			-3.308
89700.000			-13.232			-3.308
89800.000			-13.230			-3.308
89901.000			-13.230			-3.308
90001.000			-13.230			-3.308
90101.000			-13.231			-3.308
90201.000			-13.232			-3.308
90300.000			-13.232			-3.308
90400.000			-13.231			-3.308
90501.000			-13.231			-3.308
90600.000			-13.230			-3.308
90700.000			-13.231			-3.308
90802.000			-13.230			-3.307
90901.000			-13.229			-3.307
91000.000			-13.229			-3.307
91101.000			-13.229			-3.307
91200.000			-13.229			-3.307
91300.000			-13.228			-3.307
91401.000			-13.228			-3.307
91500.000			-13.228			-3.307
91601.000			-13.228			-3.307
91702.000			-13.227			-3.307
91800.000			-13.226			-3.306
91900.000			-13.226			-3.307
92001.000			-13.227			-3.307
92100.000			-13.227			-3.307
92200.000			-13.226			-3.307
92301.000			-13.226			-3.306
92401.000			-13.225			-3.306
92501.000			-13.224			-3.306
92601.000			-13.224			-3.306
92700.000			-13.224			-3.306
92800.000			-13.224			-3.306
92900.000			-13.224			-3.306
93000.000			-13.224			-3.306
93101.000			-13.225			-3.306
93201.000			-13.224			-3.306
93301.000			-13.223			-3.306
93401.000			-13.223			-3.306
93500.000			-13.223			-3.306
93600.000			-13.223			-3.306
93701.000			-13.222			-3.305
93800.000			-13.222			-3.305
93900.000			-13.223			-3.306
94002.000			-13.222			-3.306
94101.000			-13.222			-3.305
94200.000			-13.221			-3.305
94301.000			-13.221			-3.305
94400.000			-13.221			-3.305
94500.000			-13.221			-3.305
94601.000			-13.220			-3.305
94700.000			-13.221			-3.305
94801.000			-13.220			-3.305
94902.000			-13.219			-3.305
95000.000			-13.218			-3.305
95100.000			-13.220			-3.305
95201.000			-13.219			-3.305
95300.000			-13.218			-3.304
95400.000			-13.218			-3.304
95501.000			-13.218			-3.305
95601.000			-13.219			-3.305
95701.000			-13.217			-3.304
95801.000			-13.218			-3.304
95900.000			-13.218			-3.304
96000.000			-13.217			-3.304
96100.000			-13.218			-3.304
96200.000			-13.217			-3.304
96301.000			-13.216			-3.304
96401.000			-13.217			-3.304
96501.000			-13.216			-3.304
96601.000			-13.216			-3.304
96700.000			-13.216			-3.304
96800.000			-13.215			-3.304
96901.000			-13.215			-3.304
97000.000			-13.215			-3.304
97100.000			-13.215			-3.304
97201.000			-13.215			-3.304
97301.000			-13.213			-3.303
97401.000			-13.213			-3.303
97501.000			-13.214			-3.303
97600.000			-13.214			-3.303
97700.000			-13.213			-3.303
97801.000			-13.213			-3.303
97900.000			-13.212			-3.303
98000.000			-13.213			-3.303
98102.000			-13.212			-3.303
98201.000			-13.212			-3.303
98300.000			-13.211			-3.303
98401.000			-13.212			-3.303
98500.000			-13.211			-3.303
98600.000			-13.211			-3.303
98701.000			-13.210			-3.303
98800.000			-13.211			-3.303
98901.000			-13.211			-3.303
99002.000			-13.210			-3.302
99100.000			-13.210			-3.303
99200.000			-13.211			-3.303
99300.000			-13.210			-3.302
99400.000			-13.210			-3.302
99501.000			-13.209			-3.302
99600.000			-13.209			-3.302
99701.000			-13.208			-3.302
99802.000			-13.208			-3.302
99900.000			-13.208			-3.302
100000.000			-13.208			-3.302
100101.000			-13.207			-3.302
100200.000			-13.207			-3.302
100300.000			-13.206			-3.301
100401.000			-13.206			-3.302
100501.000			-13.207			-3.302
100601.000			-13.206			-3.301
100701.000			-13.206			-3.301
100800.000			-13.206			-3.302
100900.000			-13.206			-3.301
101001.000			-13.206			-3.301
101100.000			-13.206			-3.301
101200.000			-13.205			-3.301
101302.000			-13.205			-3.301
101401.000			-13.204			-3.301
101500.000			-13.204			-3.301
101601.000			-13.205			-3.301
101700.000			-13.203			-3.301
101800.000			-13.204			-3.301
101901.000			-13.204			-3.301
102000.000			-13.204			-3.301
102101.000			-13.203			-3.301
102202.000			-13.203			-3.301
102300.000			-13.203			-3.301
102400.000			-13.203			-3.301
102500.000			-13.203			-3.301
102600.000			-13.201			-3.300
102701.000			-13.202			-3.300
102800.000			-13.202			-3.301
102901.000			-13.202			-3.300
103002.000			-13.201			-3.300
103100.000			-13.201			-3.300
103200.000			-13.200			-3.300
103301.000			-13.200			-3.300
103400.000			-13.201			-3.300
103500.000			-13.201			-3.300
103601.000			-13.200			-3.300
103701.000			-13.200			-3.300
103801.000			-13.199			-3.300
103902.000			-13.199			-3.300
104000.000			-13.199			-3.300
104100.000			-13.200			-3.300
104201.000			-13.200			-3.300
104300.000			-13.198			-3.300
104400.000			-13.198			-3.300
104501.000			-13.199			-3.300
104601.000			-13.199			-3.300
104701.000			-13.197			-3.299
104801.000			-13.197			-3.299
104900.000			-13.198			-3.300
105000.000			-13.199			-3.300
105101.000			-13.199			-3.300
105200.000			-13.197			-3.299
105300.000			-13.197			-3.299
105402.000			-13.197			-3.299
105501.000			-13.197			-3.299
105602.000			-13.197			-3.299
105700.000			-13.196			-3.299
105800.000			-13.195			-3.299
105901.000			-13.196			-3.299
106000.000			-13.195			-3.299
106100.000			-13.196			-3.299
106201.000			-13.196			-3.299
106301.000			-13.196			-3.299
106401.000			-13.195			-3.299
106501.000			-13.195			-3.299
106600.000			-13.194			-3.298
106700.000			-13.194			-3.298
106801.000			-13.194			-3.298
106900.000			-13.194			-3.298
107000.000			-13.194			-3.298
107101.000			-13.194			-3.299
107201.000			-13.193			-3.298
107301.000			-13.193			-3.298
107401.000			-13.193			-3.298
107500.000			-13.192			-3.298
107600.000			-13.192			-3.298
107701.000			-13.192			-3.298
107800.000			-13.192			-3.298
107900.000			-13.190			-3.298
108002.000			-13.191			-3.298
108101.000			-13.192			-3.298
108200.000			-13.191			-3.298
108301.000			-13.190			-3.298
108400.000			-13.190			-3.297
108500.000			-13.190			-3.298
108601.000			-13.190			-3.298
108700.000			-13.191			-3.298
108802.000			-13.190			-3.298
108901.000			-13.189			-3.297
109001.000			-13.189			-3.297
109101.000			-13.189			-3.297
109200.000			-13.190			-3.297
109300.000			-13.189			-3.297
109401.000			-13.188			-3.297
109500.000			-13.187			-3.297
109600.000			-13.187			-3.297
109702.000			-13.188			-3.297
109801.000			-13.187			-3.297
109901.000			-13.187			-3.297
110001.000			-13.187			-3.297
110100.000			-13.187			-3.297
110200.000			-13.188			-3.297
110301.000			-13.188			-3.297
110400.000			-13.186			-3.296
110500.000			-13.186			-3.297
110602.000			-13.186			-3.297
110701.000			-13.187			-3.297
110800.000			-13.186			-3.297
110901.000			-13.185			-3.296
111000.000			-13.185			-3.296
111100.000			-13.186			-3.296
111201.000			-13.185			-3.296
111300.000			-13.185			-3.296
111401.000			-13.184			-3.296
111502.000			-13.184			-3.296
111600.000			-13.184			-3.296
111700.000			-13.184			-3.296
111801.000			-13.183			-3.296
111900.000			-13.183			-3.296
112000.000			-13.183			-3.296
112100.000			-13.182			-3.296
112201.000			-13.183			-3.296
112302.000			-13.184			-3.296
112400.000			-13.184			-3.296
112500.000			-13.183			-3.296
112601.000			-13.183			-3.296
112700.000			-13.183			-3.296
112800.000			-13.182			-3.296
112901.000			-13.182			-3.296
113000.000			-13.182			-3.295
113101.000			-13.181			-3.295
113202.000			-13.180			-3.295
113300.000			-13.181			-3.295
113400.000			-13.181			-3.295
113501.000			-13.181			-3.295
113600.000			-13.181			-3.295
113700.000			-13.181			-3.295
113801.000			-13.180			-3.295
113901.000			-13.181			-3.295
114001.000			-13.180			-3.295
114101.000			-13.179			-3.295
114200.000			-13.179			-3.295
114300.000			-13.179			-3.295
114401.000			-13.179			-3.295
114500.000			-13.178			-3.295
114600.000			-13.179			-3.295
114701.000			-13.180			-3.295
114801.000			-13.179			-3.295
114901.000			-13.179			-3.295
115001.000			-13.179			-3.295
115100.000			-13.178			-3.295
115200.000			-13.178			-3.294
115300.000			-13.177			-3.294
115400.000			-13.176			-3.294
115501.000			-13.177			-3.294
115601.000			-13.178			-3.294
115701.000			-13.177			-3.294
115801.000			-13.177			-3.294
115900.000			-13.177			-3.294
116000.000			-13.175			-3.294
116101.000			-13.174			-3.294
116200.000			-13.176			-3.294
116300.000			-13.176			-3.294
116401.000			-13.176			-3.294
116501.000			-13.175			-3.294
116601.000			-13.176			-3.294
116701.000			-13.176			-3.294
116800.000			-13.176			-3.294
116900.000			-13.175			-3.294
117001.000			-13.175			-3.294
117100.000			-13.175			-3.294
117200.000			-13.175			-3.294
117302.000			-13.175			-3.294
117401.000			-13.174			-3.293
117501.000			-13.173			-3.293
117601.000			-13.172			-3.293
117700.000			-13.172			-3.293
117800.000			-13.172			-3.293
117901.000			-13.173			-3.293
118000.000			-13.173			-3.293
118100.000			-13.172			-3.293
118202.000			-13.171			-3.293
118301.000			-13.171			-3.293
118400.000			-13.172			-3.293
118500.000			-13.171			-3.293
118600.000			-13.172			-3.293
118701.000			-13.171			-3.293
118800.000			-13.171			-3.293
118900.000			-13.171			-3.293
119002.000			-13.171			-3.293
119101.000			-13.170			-3.293
119200.000			-13.170			-3.292
119301.000			-13.169			-3.292
119400.000			-13.169			-3.292
119500.000			-13.170			-3.292
119601.000			-13.170			-3.293
119700.000			-13.170			-3.292
119800.000			-13.169			-3.292
119902.000			-13.167			-3.292
120001.000			-13.168			-3.292
120100.000			-13.169			-3.292
120201.000			-13.168			-3.292
120300.000			-13.168			-3.292
120400.000			-13.168			-3.292
120501.000			-13.169			-3.292
120600.000			-13.168			-3.292
120701.000			-13.167			-3.292
120802.000			-13.166			-3.292
120900.000			-13.166			-3.292
121000.000			-13.168			-3.292
121101.000			-13.168			-3.292
121200.000			-13.168			-3.292
121300.000			-13.167			-3.292
121401.000			-13.166			-3.291
121501.000			-13.167			-3.292
121602.000			-13.167			-3.292
121701.000			-13.165			-3.291
121800.000			-13.165			-3.291
121901.000			-13.165			-3.291
122000.000			-13.164			-3.291
122100.000			-13.164			-3.291
122201.000			-13.164			-3.291
122300.000			-13.164			-3.291
122401.000			-13.164			-3.291
122502.000			-13.164			-3.291
122600.000			-13.163			-3.291
122700.000			-13.164			-3.291
122801.000			-13.164			-3.291
122900.000			-13.163			-3.291
123000.000			-13.163			-3.291
123101.000			-13.163			-3.291
123201.000			-13.163			-3.291
123301.000			-13.162			-3.291
123401.000			-13.162			-3.290
123500.000			-13.162			-3.290
123600.000			-13.162			-3.290
123701.000			-13.162			-3.290
123800.000			-13.161			-3.290
123900.000			-13.162			-3.290
124002.000			-13.161			-3.290
124101.000			-13.161			-3.290
124200.000			-13.161			-3.290
124301.000			-13.160			-3.290
124400.000			-13.160			-3.290
124500.000			-13.159			-3.290
124601.000			-13.159			-3.290
124700.000			-13.160			-3.290
124800.000			-13.161			-3.290
124902.000			-13.159			-3.290
125001.000			-13.158			-3.290
125101.000			-13.159			-3.290
125200.000			-13.160			-3.290
125300.000			-13.160			-3.290
125401.000			-13.158			-3.290
125500.000			-13.159			-3.290
125600.000			-13.158			-3.290
125702.000			-13.157			-3.289
125801.000			-13.158			-3.290
125900.000			-13.158			-3.290
126001.000			-13.157			-3.289
126100.000			-13.157			-3.289
126200.000			-13.158			-3.289
126301.000			-13.158			-3.290
126400.000			-13.157			-3.289
126500.000			-13.156			-3.289
126602.000			-13.156			-3.289
126701.000			-13.156			-3.289
126800.000			-13.156			-3.289
126901.000			-13.156			-3.289
127000.000			-13.156			-3.289
127100.000			-13.156			-3.289
127201.000			-13.157			-3.289
127300.000			-13.156			-3.289
127401.000			-13.156			-3.289
127502.000			-13.156			-3.289
127600.000			-13.155			-3.289
127700.000			-13.154			-3.289
127801.000			-13.154			-3.289
127900.000			-13.155			-3.289
128000.000			-13.155			-3.289
128100.000			-13.154			-3.289
128200.000			-13.153			-3.288
128302.000			-13.154			-3.289
128401.000			-13.154			-3.288
128500.000			-13.153			-3.288
128601.000			-13.153			-3.288
128700.000			-13.153			-3.288
128800.000			-13.152			-3.288
128901.000			-13.152			-3.288
129000.000			-13.153			-3.288
129101.000			-13.153			-3.288
129202.000			-13.152			-3.288
129300.000			-13.152			-3.288
129400.000			-13.153			-3.288
129501.000			-13.152			-3.288
129600.000			-13.152			-3.288
129700.000			-13.151			-3.288
129801.000			-13.150			-3.288
129900.000			-13.151			-3.288
130001.000			-13.151			-3.288
130102.000			-13.151			-3.288
130200.000			-13.150			-3.288
130300.000			-13.151			-3.288
130401.000			-13.151			-3.288
130500.000			-13.150			-3.288
130600.000			-13.149			-3.287
130701.000			-13.150			-3.288
130801.000			-13.149			-3.287
130901.000			-13.149			-3.287
131001.000			-13.150			-3.287
131100.000			-13.150			-3.288
131200.000			-13.150			-3.288
131300.000			-13.149			-3.287
131400.000			-13.148			-3.287
131501.000			-13.148			-3.287
131601.000			-13.148			-3.287
131701.000			-13.148			-3.287
131802.000			-13.148			-3.287
131900.000			-13.148			-3.287
132000.000			-13.148			-3.287
132101.000			-13.147			-3.287
132200.000			-13.147			-3.287
132300.000			-13.148			-3.287
132401.000			-13.148			-3.287
132500.000			-13.147			-3.287
132601.000			-13.147			-3.287
132702.000			-13.147			-3.287
132800.000			-13.147			-3.287
132900.000			-13.146			-3.287
133001.000			-13.147			-3.287
133100.000			-13.146			-3.287
133200.000			-13.146			-3.286
133301.000			-13.146			-3.286
133400.000			-13.146			-3.286
133501.000			-13.146			-3.286
133602.000			-13.145			-3.286
133700.000			-13.145			-3.286
133800.000			-13.144			-3.286
133901.000			-13.144			-3.286
134000.000			-13.144			-3.286
134100.000			-13.145			-3.286
134201.000			-13.145			-3.286
134300.000			-13.145			-3.286
134402.000			-13.143			-3.286
134501.000			-13.143			-3.286
134600.000			-13.143			-3.286
134701.000			-13.143			-3.286
134800.000			-13.142			-3.286
134900.000			-13.142			-3.285
135001.000			-13.143			-3.286
135100.000			-13.143			-3.286
135200.000			-13.143			-3.286
135302.000			-13.143			-3.286
135401.000			-13.143			-3.286
135500.000			-13.142			-3.285
135601.000			-13.141			-3.285
135700.000			-13.141			-3.285
135800.000			-13.141			-3.285
135901.000			-13.141			-3.285
136000.000			-13.141			-3.285
136100.000			-13.141			-3.285
136202.000			-13.141			-3.285
136301.000			-13.141			-3.285
136401.000			-13.141			-3.285
136501.000			-13.140			-3.285
136600.000			-13.140			-3.285
136700.000			-13.139			-3.285
136801.000			-13.140			-3.285
136900.000			-13.140			-3.285
137000.000			-13.140			-3.285
137101.000			-13.140			-3.285
137201.000			-13.140			-3.285
137301.000			-13.140			-3.285
137401.000			-13.139			-3.285
137500.000			-13.139			-3.285
137600.000			-13.139			-3.285
137700.000			-13.138			-3.285
137800.000			-13.138			-3.284
137901.000			-13.138			-3.284
138000.000			-13.138			-3.285
138101.000			-13.138			-3.284
138202.000			-13.137			-3.284
138301.000			-13.137			-3.284
138400.000			-13.137			-3.284
138501.000			-13.137			-3.284
138600.000			-13.137			-3.284
138700.000			-13.137			-3.284
138801.000			-13.136			-3.284
138900.000			-13.136			-3.284
139000.000			-13.135			-3.284
139102.000			-13.136			-3.284
139201.000			-13.136			-3.284
139300.000			-13.134			-3.284
139401.000			-13.136			-3.284
139500.000			-13.135			-3.284
139600.000			-13.135			-3.284
139701.000			-13.135			-3.284
139800.000			-13.135			-3.284
139900.000			-13.134			-3.284
140002.000			-13.135			-3.284
140101.000			-13.135			-3.284
140200.000			-13.135			-3.284
140301.000			-13.135			-3.284
140400.000			-13.135			-3.284
140500.000			-13.133			-3.283
140601.000			-13.134			-3.283
140700.000			-13.134			-3.283
140800.000			-13.133			-3.283
140902.000			-13.133			-3.283
141001.000			-13.133			-3.283
141101.000			-13.133			-3.283
141200.000			-13.132			-3.283
141300.000			-13.131			-3.283
141401.000			-13.132			-3.283
141500.000			-13.133			-3.283
141600.000			-13.133			-3.283
141702.000			-13.132			-3.283
141801.000			-13.132			-3.283
141901.000			-13.133			-3.283
142001.000			-13.132			-3.283
142100.000			-13.131			-3.283
142200.000			-13.131			-3.283
142301.000			-13.131			-3.283
142400.000			-13.131			-3.283
142500.000			-13.129			-3.282
142602.000			-13.130			-3.283
142701.000			-13.131			-3.283
142801.000			-13.130			-3.283
142901.000			-13.129			-3.282
143000.000			-13.130			-3.282
143100.000			-13.129			-3.282
143201.000			-13.129			-3.282
143300.000			-13.129			-3.282
143400.000			-13.129			-3.282
143502.000			-13.130			-3.282
143601.000			-13.129			-3.282
143701.000			-13.129			-3.282
143801.000			-13.129			-3.282
143900.000			-13.129			-3.282
144000.000			-13.129			-3.282
144100.000			-13.127			-3.282
144200.000			-13.127			-3.282
144301.000			-13.129			-3.282
144401.000			-13.129			-3.282
144501.000			-13.128			-3.282
144602.000			-13.128			-3.282
144700.000			-13.127			-3.282
144800.000			-13.127			-3.282
144901.000			-13.127			-3.282
145000.000			-13.127			-3.282
145100.000			-13.127			-3.282
145201.000			-13.126			-3.281
145300.000			-13.126			-3.281
145401.000			-13.127			-3.282
145502.000			-13.127			-3.282
145600.000			-13.125			-3.281
145700.000			-13.126			-3.282
145801.000			-13.127			-3.282
145900.000			-13.125			-3.281
146000.000			-13.125			-3.281
146101.000			-13.125			-3.281
146200.000			-13.125			-3.281
146301.000			-13.124			-3.281
146402.000			-13.125			-3.281
146501.000			-13.125			-3.281
146600.000			-13.125			-3.281
146701.000			-13.124			-3.281
146800.000			-13.124			-3.281
146900.000			-13.123			-3.281
147001.000			-13.124			-3.281
147100.000			-13.124			-3.281
147202.000			-13.124			-3.281
147301.000			-13.123			-3.281
147401.000			-13.123			-3.281
147501.000			-13.123			-3.281
147600.000			-13.123			-3.281
147700.000			-13.123			-3.281
147801.000			-13.122			-3.281
147900.000			-13.122			-3.280
148000.000			-13.122			-3.280
148102.000			-13.122			-3.281
148201.000			-13.122			-3.281
148301.000			-13.123			-3.281
148401.000			-13.122			-3.281
148500.000			-13.121			-3.280
148600.000			-13.121			-3.280
148701.000			-13.121			-3.280
148800.000			-13.121			-3.280
148900.000			-13.121			-3.280
149002.000			-13.122			-3.280
149101.000			-13.121			-3.280
149201.000			-13.120			-3.280
149301.000			-13.122			-3.280
149400.000			-13.121			-3.280
149500.000			-13.120			-3.280
149601.000			-13.121			-3.280
149700.000			-13.121			-3.280
149800.000			-13.121			-3.280
149901.000			-13.120			-3.280
150001.000			-13.119			-3.280
150101.000			-13.119			-3.280
150201.000			-13.119			-3.280
150300.000			-13.119			-3.280
150400.000			-13.119			-3.280
150500.000			-13.119			-3.280
150600.000			-13.118			-3.280
150701.000			-13.119			-3.280
150800.000			-13.119			-3.280
150901.000			-13.118			-3.279
151002.000			-13.118			-3.280
151100.000			-13.117			-3.279
151200.000			-13.118			-3.280
151301.000			-13.118			-3.279
151400.000			-13.118			-3.279
151500.000			-13.118			-3.279
151601.000			-13.118			-3.279
151700.000			-13.118			-3.279
151801.000			-13.117			-3.279
151902.000			-13.117			-3.279
152000.000			-13.117			-3.279
152100.000			-13.116			-3.279
152201.000			-13.115			-3.279
152300.000			-13.117			-3.279
152400.000			-13.117			-3.279
152501.000			-13.117			-3.279
152600.000			-13.115			-3.279
152701.000			-13.115			-3.279
152802.000			-13.115			-3.279
152900.000			-13.115			-3.279
153000.000			-13.114			-3.279
153101.000			-13.114			-3.279
153200.000			-13.115			-3.279
153300.000			-13.115			-3.279
153401.000			-13.115			-3.279
153500.000			-13.115			-3.279
153602.000			-13.115			-3.279
153701.000			-13.114			-3.278
153800.000			-13.113			-3.278
153901.000			-13.113			-3.278
154000.000			-13.113			-3.278
154100.000			-13.113			-3.278
154201.000			-13.113			-3.278
154300.000			-13.114			-3.279
154400.000			-13.114			-3.278
154502.000			-13.114			-3.278
154601.000			-13.112			-3.278
154700.000			-13.113			-3.278
154801.000			-13.112			-3.278
154900.000			-13.112			-3.278
155000.000			-13.113			-3.278
155101.000			-13.112			-3.278
155200.000			-13.112			-3.278
155301.000			-13.112			-3.278
155402.000			-13.113			-3.278
155501.000			-13.112			-3.278
155600.000			-13.111			-3.278
155701.000			-13.111			-3.278
155800.000			-13.111			-3.278
155900.000			-13.111			-3.278
156001.000			-13.111			-3.278
156100.000			-13.111			-3.278
156201.000			-13.109			-3.277
156302.000			-13.110			-3.278
156401.000			-13.110			-3.278
156500.000			-13.111			-3.278
156601.000			-13.110			-3.277
156700.000			-13.110			-3.277
156800.000			-13.110			-3.277
156900.000			-13.110			-3.277
157000.000			-13.110			-3.277
157102.000			-13.110			-3.277
157201.000			-13.110			-3.277
157301.000			-13.109			-3.277
157401.000			-13.108			-3.277
157500.000			-13.109			-3.277
157600.000			-13.108			-3.277
157701.000			-13.108			-3.277
157800.000			-13.109			-3.277
157900.000			-13.110			-3.277
158001.000			-13.109			-3.277
158101.000			-13.108			-3.277
158201.000			-13.108			-3.277
158301.000			-13.107			-3.277
158400.000			-13.108			-3.277
158500.000			-13.108			-3.277
158601.000			-13.107			-3.277
158700.000			-13.106			-3.277
158800.000			-13.107			-3.277
158901.000			-13.107			-3.277
159001.000			-13.107			-3.277
159101.000			-13.106			-3.277
159202.000			-13.106			-3.276
159300.000			-13.107			-3.277
159400.000			-13.107			-3.277
159501.000			-13.106			-3.277
159600.000			-13.105			-3.276
159700.000			-13.105			-3.276
159801.000			-13.106			-3.276
159900.000			-13.106			-3.276
160002.000			-13.106			-3.277
160101.000			-13.105			-3.276
160200.000			-13.105			-3.276
160301.000			-13.105			-3.276
160400.000			-13.105			-3.276
160500.000			-13.104			-3.276
160601.000			-13.104			-3.276
160700.000			-13.105			-3.276
160800.000			-13.104			-3.276
160902.000			-13.105			-3.276
161001.000			-13.104			-3.276
161100.000			-13.104			-3.276
161201.000			-13.104			-3.276
161300.000			-13.104			-3.276
161400.000			-13.103			-3.276
161501.000			-13.103			-3.276
161600.000			-13.104			-3.276
161700.000			-13.104			-3.276
161802.000			-13.103			-3.276
161901.000			-13.103			-3.276
162000.000			-13.102			-3.276
162101.000			-13.102			-3.276
162200.000			-13.102			-3.276
162300.000			-13.102			-3.276
162401.000			-13.102			-3.276
162500.000			-13.102			-3.276
162601.000			-13.101			-3.275
162702.000			-13.102			-3.276
162801.000			-13.102			-3.276
162900.000			-13.102			-3.275
163001.000			-13.101			-3.275
163100.000			-13.100			-3.275
163200.000			-13.100			-3.275
163300.000			-13.101			-3.275
163400.000			-13.102			-3.275
163502.000			-13.101			-3.275
163601.000			-13.100			-3.275
163701.000			-13.099			-3.275
163801.000			-13.100			-3.275
163900.000			-13.100			-3.275
164000.000			-13.100			-3.275
164101.000			-13.100			-3.275
164200.000			-13.099			-3.275
164300.000			-13.100			-3.275
164401.000			-13.099			-3.275
164501.000			-13.098			-3.275
164601.000			-13.098			-3.275
164701.000			-13.098			-3.275
164800.000			-13.099			-3.275
164900.000			-13.098			-3.275
165001.000			-13.099			-3.275
165100.000			-13.099			-3.275
165200.000			-13.098			-3.275
165301.000			-13.098			-3.275
165401.000			-13.098			-3.275
165501.000			-13.098			-3.275
165602.000			-13.098			-3.274
165700.000			-13.097			-3.274
165800.000			-13.097			-3.274
165901.000			-13.099			-3.275
166000.000			-13.098			-3.274
166100.000			-13.098			-3.274
166201.000			-13.097			-3.274
166300.000			-13.096			-3.274
166402.000			-13.097			-3.274
166501.000			-13.096			-3.274
166601.000			-13.096			-3.274
166701.000			-13.097			-3.274
166800.000			-13.097			-3.274
166900.000			-13.096			-3.274
167001.000			-13.097			-3.274
167100.000			-13.096			-3.274
167200.000			-13.096			-3.274
167301.000			-13.097			-3.274
167401.000			-13.096			-3.274
167501.000			-13.096			-3.274
167601.000			-13.096			-3.274
167700.000			-13.095			-3.274
167800.000			-13.096			-3.274
167901.000			-13.095			-3.274
168000.000			-13.095			-3.274
168100.000			-13.095			-3.274
168201.000			-13.094			-3.274
168301.000			-13.094			-3.274
168401.000			-13.094			-3.274
168501.000			-13.093			-3.273
168600.000			-13.093			-3.273
168700.000			-13.094			-3.273
168801.000			-13.095			-3.274
168900.000			-13.094			-3.273
169000.000			-13.094			-3.273
169101.000			-13.094			-3.273
169200.000			-13.094			-3.273
169301.000			-13.093			-3.273
169402.000			-13.092			-3.273
169500.000			-13.092			-3.273
169600.000			-13.092			-3.273
169700.000			-13.092			-3.273
169800.000			-13.091			-3.273
169901.000			-13.092			-3.273
170000.000			-13.091			-3.273
170100.000			-13.091			-3.273
170202.000			-13.091			-3.273
170301.000			-13.092			-3.273
170401.000			-13.090			-3.273
170501.000			-13.090			-3.273
170600.000			-13.092			-3.273
170700.000			-13.090			-3.273
170801.000			-13.091			-3.273
170900.000			-13.090			-3.273
171000.000			-13.091			-3.273
171102.000			-13.090			-3.273
171201.000			-13.089			-3.272
171301.000			-13.090			-3.272
171401.000			-13.090			-3.273
171500.000			-13.090			-3.272
171600.000			-13.088			-3.272
171701.000			-13.089			-3.272
171800.000			-13.089			-3.272
171900.000			-13.089			-3.272
172001.000			-13.089			-3.272
172101.000			-13.089			-3.272
172201.000			-13.088			-3.272
172301.000			-13.088			-3.272
172400.000			-13.087			-3.272
172500.000			-13.087			-3.272
172601.000			-13.088			-3.272
172700.000			-13.088			-3.272
172800.000			-13.088			-3.272
172900.000			-13.088			-3.272
173001.000			-13.088			-3.272
173102.000			-13.087			-3.272
173201.000			-13.087			-3.272
173300.000			-13.087			-3.272
173401.000			-13.088			-3.272
173500.000			-13.088			-3.272
173600.000			-13.087			-3.272
173701.000			-13.086			-3.272
173800.000			-13.085			-3.271
173900.000			-13.086			-3.272
174002.000			-13.086			-3.272
174101.000			-13.086			-3.271
174200.000			-13.086			-3.272
174301.000			-13.086			-3.271
174400.000			-13.085			-3.271
174500.000			-13.085			-3.271
174601.000			-13.085			-3.271
174700.000			-13.085			-3.271
174800.000			-13.085			-3.271
174902.000			-13.086			-3.271
175001.000			-13.085			-3.271
175100.000			-13.085			-3.271
175201.000			-13.084			-3.271
175300.000			-13.084			-3.271
175400.000			-13.084			-3.271
175501.000			-13.085			-3.271
175600.000			-13.084			-3.271
175700.000			-13.084			-3.271
175802.000			-13.085			-3.271
175901.000			-13.085			-3.271
176002.000			-13.084			-3.271
176100.000			-13.083			-3.271
176200.000			-13.083			-3.271
176301.000			-13.084			-3.271
176400.000			-13.084			-3.271
176500.000			-13.084			-3.271
176601.000			-13.083			-3.271
176700.000			-13.082			-3.270
176801.000			-13.082			-3.271
176902.000			-13.082			-3.271
177001.000			-13.082			-3.271
177100.000			-13.082			-3.270
177201.000			-13.082			-3.270
177300.000			-13.083			-3.271
177400.000			-13.082			-3.270
177501.000			-13.081			-3.270
177600.000			-13.081			-3.270
177701.000			-13.082			-3.270
177802.000			-13.082			-3.270
177901.000			-13.081			-3.270
178000.000			-13.082			-3.271
178101.000			-13.081			-3.270
178200.000			-13.080			-3.270
178300.000			-13.082			-3.270
178401.000			-13.081			-3.270
178500.000			-13.080			-3.270
178600.000			-13.080			-3.270
178702.000			-13.081			-3.270
178801.000			-13.081			-3.270
178900.000			-13.081			-3.270
179001.000			-13.082			-3.270
179100.000			-13.081			-3.270
179200.000			-13.081			-3.270
179300.000			-13.080			-3.270
179400.000			-13.079			-3.270
179501.000			-13.078			-3.270
179601.000			-13.078			-3.270
179701.000			-13.079			-3.270
179802.000			-13.080			-3.270
179900.000			-13.080			-3.270
180000.000			-13.079			-3.270
180101.000			-13.079			-3.270
180200.000			-13.079			-3.270
180300.000			-13.079			-3.270
180401.000			-13.080			-3.270
180500.000			-13.079			-3.270
180601.000			-13.078			-3.269
180702.000			-13.077			-3.269
180801.000			-13.078			-3.269
180900.000			-13.078			-3.270
181001.000			-13.078			-3.269
181100.000			-13.078			-3.270
181200.000			-13.078			-3.270
181301.000			-13.078			-3.269
181400.000			-13.078			-3.270
181501.000			-13.078			-3.269
181602.000			-13.078			-3.270
181701.000			-13.077			-3.269
181800.000			-13.077			-3.269
181901.000			-13.076			-3.269
182000.000			-13.077			-3.269
182100.000			-13.078			-3.269
182201.000			-13.077			-3.269
182300.000			-13.077			-3.269
182400.000			-13.076			-3.269
182502.000			-13.075			-3.269
182601.000			-13.077			-3.269
182701.000			-13.077			-3.269
182800.000			-13.076			-3.269
182900.000			-13.076			-3.269
183001.000			-13.076			-3.269
183100.000			-13.075			-3.269
183200.000			-13.075			-3.269
183301.000			-13.075			-3.269
183401.000			-13.076			-3.269
183501.000			-13.077			-3.269
183602.000			-13.076			-3.269
183700.000			-13.075			-3.269
183800.000			-13.075			-3.269
183901.000			-13.076			-3.269
184000.000			-13.075			-3.269
184100.000			-13.074			-3.269
184201.000			-13.075			-3.269
184300.000			-13.075			-3.269
184401.000			-13.074			-3.268
184502.000			-13.074			-3.269
184600.000			-13.074			-3.268
184700.000			-13.074			-3.269
184801.000			-13.074			-3.268
184900.000			-13.073			-3.268
185000.000			-13.073			-3.268
185101.000			-13.073			-3.268
185200.000			-13.073			-3.268
185301.000			-13.073			-3.268
185402.000			-13.072			-3.268
185500.000			-13.072			-3.268
185600.000			-13.073			-3.268
185700.000			-13.073			-3.268
185800.000			-13.073			-3.268
185901.000			-13.072			-3.268
186000.000			-13.073			-3.268
186100.000			-13.073			-3.268
186201.000			-13.073			-3.268
186301.000			-13.072			-3.268
186401.000			-13.071			-3.268
186501.000			-13.071			-3.268
186600.000			-13.071			-3.268
186700.000			-13.070			-3.268
186801.000			-13.071			-3.268
186900.000			-13.071			-3.268
187000.000			-13.071			-3.268
187101.000			-13.071			-3.268
187201.000			-13.071			-3.268
187301.000			-13.071			-3.268
187401.000			-13.070			-3.268
187500.000			-13.070			-3.267
187600.000			-13.070			-3.268
187701.000			-13.070			-3.267
187800.000			-13.069			-3.267
187900.000			-13.070			-3.267
188001.000			-13.069			-3.267
188101.000			-13.068			-3.267
188201.000			-13.068			-3.267
188302.000			-13.069			-3.267
188400.000			-13.069			-3.267
188500.000			-13.068			-3.267
188601.000			-13.068			-3.267
188700.000			-13.069			-3.267
188800.000			-13.069			-3.267
188900.000			-13.068			-3.267
189000.000			-13.068			-3.267
189102.000			-13.068			-3.267
189201.000			-13.067			-3.267
189301.000			-13.067			-3.267
189401.000			-13.067			-3.267
189500.000			-13.067			-3.267
189600.000			-13.067			-3.267
189701.000			-13.068			-3.267
189800.000			-13.067			-3.267
189900.000			-13.067			-3.267
190001.000			-13.067			-3.267
190101.000			-13.067			-3.267
190201.000			-13.067			-3.267
190301.000			-13.067			-3.267
190400.000			-13.066			-3.267
190500.000			-13.066			-3.267
190601.000			-13.066			-3.267
190700.000			-13.066			-3.267
190800.000			-13.066			-3.267
190901.000			-13.066			-3.267
191001.000			-13.066			-3.267
191101.000			-13.065			-3.266
191202.000			-13.065			-3.266
191300.000			-13.066			-3.266
191400.000			-13.066			-3.266
191501.000			-13.065			-3.266
191600.000			-13.065			-3.266
191700.000			-13.066			-3.266
191801.000			-13.064			-3.266
191901.000			-13.064			-3.266
192002.000			-13.064			-3.266
192101.000			-13.064			-3.266
192200.000			-13.065			-3.266
192301.000			-13.065			-3.266
192400.000			-13.064			-3.266
192500.000			-13.064			-3.266
192601.000			-13.063			-3.266
192700.000			-13.063			-3.266
192800.000			-13.063			-3.266
192902.000			-13.064			-3.266
193001.000			-13.064			-3.266
193100.000			-13.063			-3.266
193201.000			-13.062			-3.265
193300.000			-13.062			-3.266
193400.000			-13.063			-3.266
193501.000			-13.062			-3.265
193600.000			-13.062			-3.266
193700.000			-13.062			-3.266
193802.000			-13.062			-3.265
193901.000			-13.062			-3.265
194001.000			-13.062			-3.265
194101.000			-13.062			-3.266
194200.000			-13.061			-3.265
194300.000			-13.061			-3.265
194401.000			-13.062			-3.265
194500.000			-13.061			-3.265
194600.000			-13.061			-3.265
194702.000			-13.062			-3.265
194801.000			-13.060			-3.265
194901.000			-13.060			-3.265
195001.000			-13.061			-3.265
195100.000			-13.061			-3.265
195200.000			-13.061			-3.265
195300.000			-13.060			-3.265
195400.000			-13.060			-3.265
195501.000			-13.060			-3.265
195601.000			-13.060			-3.265
195701.000			-13.061			-3.265
195802.000			-13.061			-3.265
195900.000			-13.060			-3.265
196000.000			-13.059			-3.265
196101.000			-13.059			-3.265
196200.000			-13.060			-3.265
196300.000			-13.060			-3.265
196401.000			-13.060			-3.265
196500.000			-13.059			-3.265
196601.000			-13.058			-3.265
196702.000			-13.059			-3.265
196801.000			-13.059			-3.265
196900.000			-13.058			-3.265
197001.000			-13.059			-3.265
197100.000			-13.059			-3.265
197200.000			-13.058			-3.264
197301.000			-13.057			-3.264
197400.000			-13.057			-3.264
197500.000			-13.058			-3.265
197602.000			-13.058			-3.264
197701.000			-13.058			-3.265
197801.000			-13.058			-3.265
197901.000			-13.058			-3.265
198000.000			-13.058			-3.265
198100.000			-13.057			-3.264
198201.000			-13.056			-3.264
198300.000			-13.058			-3.264
198400.000			-13.057			-3.264
198500.000			-13.058			-3.264
198601.000			-13.057			-3.264
198702.000			-13.057			-3.264
198800.000			-13.057			-3.264
198900.000			-13.057			-3.264
199001.000			-13.056			-3.264
199100.000			-13.056			-3.264
199200.000			-13.055			-3.264
199301.000			-13.055			-3.264
199400.000			-13.056			-3.264
199500.000			-13.056			-3.264
199602.000			-13.055			-3.264
199701.000			-13.056			-3.264
199800.000			-13.056			-3.264
199901.000			-13.056			-3.264
200000.000			-13.056			-3.264
200100.000			-13.054			-3.264
200201.000			-13.054			-3.264
200300.000			-13.055			-3.264
200400.000			-13.055			-3.264
200502.000			-13.054			-3.263
200601.000			-13.054			-3.263
200700.000			-13.055			-3.264
200801.000			-13.055			-3.264
200900.000			-13.054			-3.263
201000.000			-13.053			-3.263
201101.000			-13.053			-3.263
201200.000			-13.053			-3.263
201300.000			-13.054			-3.263
201402.000			-13.054			-3.264
201501.000			-13.053			-3.263
201600.000			-13.053			-3.263
201700.000			-13.054			-3.263
201800.000			-13.053			-3.263
201901.000			-13.053			-3.263
202000.000			-13.053			-3.263
202100.000			-13.052			-3.263
202202.000			-13.052			-3.263
202301.000			-13.053			-3.263
202401.000			-13.053			-3.263
202501.000			-13.053			-3.263
202600.000			-13.053			-3.263
202700.000			-13.052			-3.263
202801.000			-13.052			-3.263
202900.000			-13.052			-3.263
203000.000			-13.053			-3.263
203102.000			-13.052			-3.263
203201.000			-13.052			-3.263
203300.000			-13.053			-3.263
203401.000			-13.052			-3.263
203500.000			-13.052			-3.263
203600.000			-13.051			-3.263
203701.000			-13.051			-3.263
203800.000			-13.051			-3.263
203900.000			-13.051			-3.263
204002.000			-13.051			-3.263
204101.000			-13.051			-3.263
204200.000			-13.051			-3.263
204301.000			-13.051			-3.263
204400.000			-13.051			-3.263
204500.000			-13.052			-3.263
204601.000			-13.052			-3.263
204700.000			-13.051			-3.263
204800.000			-13.050			-3.263
204902.000			-13.049			-3.262
205001.000			-13.050			-3.263
205102.000			-13.051			-3.263
205200.000			-13.050			-3.262
205300.000			-13.049			-3.262
205401.000			-13.049			-3.262
205500.000			-13.049			-3.262
205600.000			-13.048			-3.262
205701.000			-13.047			-3.262
205801.000			-13.048			-3.262
205901.000			-13.048			-3.262
206002.000			-13.048			-3.262
206100.000			-13.048			-3.262
206200.000			-13.048			-3.262
206301.000			-13.048			-3.262
206400.000			-13.047			-3.262
206500.000			-13.048			-3.262
206601.000			-13.048			-3.262
206701.000			-13.047			-3.262
206801.000			-13.048			-3.262
206902.000			-13.048			-3.262
207000.000			-13.047			-3.262
207100.000			-13.047			-3.262
207201.000			-13.048			-3.262
207300.000			-13.048			-3.262
207400.000			-13.048			-3.262
207501.000			-13.048			-3.262
207601.000			-13.046			-3.262
207701.000			-13.046			-3.262
207802.000			-13.048			-3.262
207900.000			-13.047			-3.262
208000.000			-13.047			-3.262
208100.000			-13.046			-3.262
208200.000			-13.046			-3.262
208301.000			-13.047			-3.262
208400.000			-13.046			-3.262
208500.000			-13.047			-3.262
208602.000			-13.046			-3.261
208701.000			-13.045			-3.261
208800.000			-13.045			-3.261
208901.000			-13.045			-3.261
209000.000			-13.045			-3.261
209100.000			-13.046			-3.261
209201.000			-13.045			-3.261
209300.000			-13.044			-3.261
209400.000			-13.044			-3.261
209502.000			-13.044			-3.261
209601.000			-13.045			-3.261
209700.000			-13.045			-3.261
209801.000			-13.044			-3.261
209900.000			-13.045			-3.261
210000.000			-13.044			-3.261
210101.000			-13.043			-3.261
210200.000			-13.044			-3.261
210300.000			-13.044			-3.261
210402.000			-13.043			-3.261
210501.000			-13.043			-3.261
210600.000			-13.043			-3.261
210701.000			-13.043			-3.261
210800.000			-13.042			-3.261
210900.000			-13.043			-3.261
211001.000			-13.043			-3.261
211100.000			-13.043			-3.261
211200.000			-13.043			-3.261
211302.000			-13.043			-3.261
211401.000			-13.042			-3.261
211501.000			-13.042			-3.261
211600.000			-13.043			-3.261
211700.000			-13.043			-3.261
211801.000			-13.042			-3.261
211900.000			-13.043			-3.261
212000.000			-13.043			-3.261
212102.000			-13.042			-3.260
212201.000			-13.043			-3.261
212301.000			-13.043			-3.261
212401.000			-13.043			-3.261
212500.000			-13.042			-3.260
212600.000			-13.041			-3.260
212701.000			-13.042			-3.260
212800.000			-13.041			-3.260
212900.000			-13.041			-3.260
213002.000			-13.041			-3.260
213101.000			-13.042			-3.260
213200.000			-13.042			-3.260
213301.000			-13.042			-3.260
213400.000			-13.041			-3.260
213500.000			-13.040			-3.260
213601.000			-13.041			-3.260
213700.000			-13.041			-3.260
213800.000			-13.040			-3.260
213902.000			-13.040			-3.260
214001.000			-13.040			-3.260
214100.000			-13.040			-3.260
214201.000			-13.041			-3.260
214300.000			-13.040			-3.260
214400.000			-13.040			-3.260
214500.000			-13.040			-3.260
214600.000			-13.039			-3.260
214701.000			-13.039			-3.260
214801.000			-13.040			-3.260
214901.000			-13.039			-3.260
215001.000			-13.039			-3.260
215100.000			-13.038			-3.260
215200.000			-13.039			-3.260
215301.000			-13.039			-3.260
215400.000			-13.039			-3.260
215500.000			-13.039			-3.260
215601.000			-13.039			-3.260
215701.000			-13.039			-3.260
215801.000			-13.038			-3.260
215901.000			-13.038			-3.259
216000.000			-13.038			-3.260
216100.000			-13.038			-3.259
216201.000			-13.037			-3.259
216300.000			-13.037			-3.259
216400.000			-13.039			-3.260
216501.000			-13.038			-3.259
216601.000			-13.038			-3.259
216701.000			-13.037			-3.259
216802.000			-13.037			-3.259
216900.000			-13.036			-3.259
217000.000			-13.036			-3.259
217101.000			-13.036			-3.259
217200.000			-13.037			-3.259
217300.000			-13.037			-3.259
217401.000			-13.037			-3.259
217501.000			-13.036			-3.259
217602.000			-13.035			-3.259
217701.000			-13.036			-3.259
217800.000			-13.037			-3.259
217901.000			-13.035			-3.259
218000.000			-13.035			-3.259
218100.000			-13.035			-3.259
218201.000			-13.036			-3.259
218300.000			-13.035			-3.259
218400.000			-13.035			-3.259
218502.000			-13.035			-3.259
218601.000			-13.035			-3.259
218700.000			-13.035			-3.259
218801.000			-13.036			-3.259
218900.000			-13.036			-3.259
219000.000			-13.035			-3.259
219101.000			-13.035			-3.259
219200.000			-13.034			-3.259
219300.000			-13.034			-3.259
219402.000			-13.034			-3.258
219501.000			-13.034			-3.258
219600.000			-13.033			-3.258
219701.000			-13.034			-3.258
219800.000			-13.033			-3.258
219900.000			-13.033			-3.258
220001.000			-13.033			-3.258
220100.000			-13.033			-3.258
220200.000			-13.033			-3.258
220302.000			-13.033			-3.258
220401.000			-13.034			-3.258
220500.000			-13.033			-3.258
220601.000			-13.033			-3.258
220700.000			-13.033			-3.258
220800.000			-13.032			-3.258
220900.000			-13.033			-3.258
221000.000			-13.033			-3.258
221101.000			-13.033			-3.258
221201.000			-13.032			-3.258
221301.000			-13.031			-3.258
221401.000			-13.032			-3.258
221500.000			-13.032			-3.258
221600.000			-13.031			-3.258
221701.000			-13.032			-3.258
221800.000			-13.031			-3.258
221900.000			-13.030			-3.258
222002.000			-13.031			-3.258
222101.000			-13.032			-3.258
222200.000			-13.032			-3.258
222301.000			-13.030			-3.258
222400.000			-13.031			-3.258
222500.000			-13.031			-3.258
222601.000			-13.032			-3.258
222700.000			-13.031			-3.258
222800.000			-13.030			-3.258
222902.000			-13.031			-3.258
223001.000			-13.030			-3.258
223100.000			-13.030			-3.257
223201.000			-13.029			-3.257
223300.000			-13.030			-3.257
223400.000			-13.031			-3.258
223501.000			-13.031			-3.258
223600.000			-13.029			-3.257
223700.000			-13.030			-3.257
223802.000			-13.030			-3.258
223901.000			-13.030			-3.257
224000.000			-13.030			-3.258
224100.000			-13.030			-3.258
224200.000			-13.030			-3.258
224301.000			-13.031			-3.258
224400.000			-13.029			-3.257
224500.000			-13.030			-3.258
224601.000			-13.028			-3.257
224701.000			-13.028			-3.257
224801.000			-13.028			-3.257
224901.000			-13.028			-3.257
225000.000			-13.028			-3.257
225100.000			-13.029			-3.257
225201.000			-13.029			-3.257
225300.000			-13.029			-3.257
225400.000			-13.030			-3.257
225501.000			-13.029			-3.257
225601.000			-13.029			-3.257
225701.000			-13.029			-3.257
225801.000			-13.028			-3.257
225900.000			-13.028			-3.257
226000.000			-13.027			-3.257
226101.000			-13.028			-3.257
226200.000			-13.028			-3.257
226300.000			-13.028			-3.257
226401.000			-13.028			-3.257
226501.000			-13.027			-3.257
226601.000			-13.027			-3.257
226701.000			-13.027			-3.257
226800.000			-13.027			-3.257
226900.000			-13.026			-3.257
227001.000			-13.026			-3.257
227100.000			-13.027			-3.257
227200.000			-13.028			-3.257
227300.000			-13.027			-3.257
227401.000			-13.025			-3.256
227502.000			-13.025			-3.256
227600.000			-13.026			-3.256
227700.000			-13.027			-3.257
227801.000			-13.027			-3.257
227900.000			-13.025			-3.256
228000.000			-13.025			-3.256
228101.000			-13.024			-3.256
228200.000			-13.025			-3.256
228301.000			-13.025			-3.256
228402.000			-13.025			-3.256
228500.000			-13.025			-3.256
228600.000			-13.025			-3.256
228701.000			-13.025			-3.256
228800.000			-13.025			-3.256
228900.000			-13.024			-3.256
229001.000			-13.024			-3.256
229100.000			-13.024			-3.256
229201.000			-13.025			-3.256
229302.000			-13.025			-3.256
229400.000			-13.024			-3.256
229500.000			-13.024			-3.256
229601.000			-13.024			-3.256
229700.000			-13.023			-3.256
229800.000			-13.023			-3.256
229901.000			-13.023			-3.256
230000.000			-13.023			-3.256
230101.000			-13.023			-3.256
230202.000			-13.023			-3.256
230301.000			-13.023			-3.256
230400.000			-13.023			-3.256
230500.000			-13.022			-3.256
230600.000			-13.023			-3.256
230701.000			-13.023			-3.256
230800.000			-13.022			-3.256
230900.000			-13.023			-3.256
231002.000			-13.022			-3.255
231101.000			-13.023			-3.256
231200.000			-13.023			-3.256
231301.000			-13.022			-3.256
231400.000			-13.021			-3.255
231500.000			-13.023			-3.256
231601.000			-13.022			-3.256
231700.000			-13.022			-3.256
231800.000			-13.021			-3.255
231902.000			-13.020			-3.255
232001.000			-13.022			-3.255
232100.000			-13.022			-3.255
232201.000			-13.021			-3.255
232300.000			-13.022			-3.256
232400.000			-13.021			-3.255
232501.000			-13.020			-3.255
232600.000			-13.020			-3.255
232700.000			-13.020			-3.255
232802.000			-13.020			-3.255
232901.000			-13.021			-3.255
233000.000			-13.019			-3.255
233101.000			-13.020			-3.255
233200.000			-13.021			-3.255
233300.000			-13.020			-3.255
233401.000			-13.020			-3.255
233500.000			-13.019			-3.255
233602.000			-13.019			-3.255
233701.000			-13.019			-3.255
233801.000			-13.020			-3.255
233901.000			-13.019			-3.255
234000.000			-13.019			-3.255
234100.000			-13.018			-3.255
234201.000			-13.019			-3.255
234300.000			-13.019			-3.255
234400.000			-13.020			-3.255
234501.000			-13.020			-3.255
234601.000			-13.020			-3.255
234701.000			-13.019			-3.255
234801.000			-13.019			-3.255
234900.000			-13.018			-3.255
235000.000			-13.018			-3.255
235101.000			-13.018			-3.254
235200.000			-13.018			-3.254
235300.000			-13.019			-3.255
235401.000			-13.018			-3.255
235501.000			-13.018			-3.254
235601.000			-13.018			-3.255
235701.000			-13.018			-3.254
235800.000			-13.019			-3.255
235900.000			-13.018			-3.255
236001.000			-13.018			-3.255
236100.000			-13.018			-3.254
236200.000			-13.018			-3.254
236301.000			-13.017			-3.254
236401.000			-13.017			-3.254
236501.000			-13.017			-3.254
236601.000			-13.017			-3.254
236700.000			-13.016			-3.254
236800.000			-13.018			-3.254
236900.000			-13.017			-3.254
237000.000			-13.016			-3.254
237101.000			-13.016			-3.254
237200.000			-13.017			-3.254
237301.000			-13.017			-3.254
237402.000			-13.016			-3.254
237500.000			-13.015			-3.254
237600.000			-13.015			-3.254
237701.000			-13.015			-3.254
237800.000			-13.016			-3.254
237900.000			-13.016			-3.254
238001.000			-13.017			-3.254
238100.000			-13.017			-3.254
238201.000			-13.016			-3.254
238302.000			-13.016			-3.254
238400.000			-13.016			-3.254
238500.000			-13.015			-3.254
238601.000			-13.014			-3.254
238700.000			-13.014			-3.254
238800.000			-13.015			-3.254
238901.000			-13.015			-3.254
239000.000			-13.015			-3.254
239101.000			-13.015			-3.254
239202.000			-13.015			-3.254
239300.000			-13.014			-3.254
239400.000			-13.014			-3.254
239501.000			-13.015			-3.254
239600.000			-13.015			-3.254
239700.000			-13.014			-3.253
239801.000			-13.014			-3.254
239900.000			-13.014			-3.254
240002.000			-13.014			-3.253
240101.000			-13.013			-3.253
240201.000			-13.014			-3.253
240301.000			-13.014			-3.253
240400.000			-13.013			-3.253
240500.000			-13.013			-3.253
240601.000			-13.013			-3.253
240700.000			-13.013			-3.253
240800.000			-13.013			-3.253
240902.000			-13.012			-3.253
241001.000			-13.012			-3.253
241100.000			-13.013			-3.253
241201.000			-13.013			-3.253
241300.000			-13.013			-3.253
241400.000			-13.012			-3.253
241501.000			-13.012			-3.253
241600.000			-13.012			-3.253
241700.000			-13.013			-3.253
241802.000			-13.012			-3.253
241901.000			-13.011			-3.253
242000.000			-13.011			-3.253
242101.000			-13.012			-3.253
242200.000			-13.012			-3.253
242300.000			-13.012			-3.253
242401.000			-13.011			-3.253
242500.000			-13.012			-3.253
242600.000			-13.012			-3.253
242702.000			-13.011			-3.253
242801.000			-13.012			-3.253
242900.000			-13.012			-3.253
243001.000			-13.011			-3.253
243100.000			-13.011			-3.253
243200.000			-13.011			-3.253
243300.000			-13.011			-3.253
243400.000			-13.011			-3.253
243501.000			-13.010			-3.253
243601.000			-13.010			-3.252
243701.000			-13.010			-3.253
243801.000			-13.010			-3.253
243900.000			-13.010			-3.252
244000.000			-13.009			-3.252
244101.000			-13.008			-3.252
244200.000			-13.009			-3.252
244300.000			-13.011			-3.253
244402.000			-13.010			-3.252
244501.000			-13.009			-3.252
244601.000			-13.010			-3.252
244701.000			-13.010			-3.252
244800.000			-13.009			-3.252
244900.000			-13.008			-3.252
245001.000			-13.008			-3.252
245100.000			-13.008			-3.252
245200.000			-13.008			-3.252
245301.000			-13.009			-3.252
245401.000			-13.009			-3.252
245501.000			-13.009			-3.252
245601.000			-13.009			-3.252
245700.000			-13.008			-3.252
245800.000			-13.008			-3.252
245901.000			-13.009			-3.252
246000.000			-13.009			-3.252
246100.000			-13.009			-3.252
246201.000			-13.008			-3.252
246301.000			-13.008			-3.252
246402.000			-13.008			-3.252
246500.000			-13.008			-3.252
246600.000			-13.008			-3.252
246701.000			-13.008			-3.252
246800.000			-13.008			-3.252
246900.000			-13.008			-3.252
247001.000			-13.008			-3.252
247100.000			-13.008			-3.252
247201.000			-13.007			-3.252
247302.000			-13.006			-3.252
247400.000			-13.006			-3.252
247500.000			-13.006			-3.252
247601.000			-13.007			-3.252
247700.000			-13.007			-3.252
247800.000			-13.007			-3.252
247901.000			-13.007			-3.252
248000.000			-13.008			-3.252
248101.000			-13.008			-3.252
248202.000			-13.008			-3.252
248301.000			-13.007			-3.252
248400.000			-13.007			-3.252
248501.000			-13.006			-3.251
248600.000			-13.006			-3.252
248700.000			-13.007			-3.252
248801.000			-13.007			-3.252
248900.000			-13.006			-3.252
249001.000			-13.005			-3.251
249102.000			-13.005			-3.251
249201.000			-13.004			-3.251
249300.000			-13.005			-3.251
249401.000			-13.005			-3.251
249500.000			-13.005			-3.251
249600.000			-13.005			-3.251
249700.000			-13.006			-3.252
249800.000			-13.005			-3.251
249901.000			-13.005			-3.251
250001.000			-13.005			-3.251
250101.000			-13.004			-3.251
250201.000			-13.004			-3.251
250300.000			-13.005			-3.251
250400.000			-13.005			-3.251
250501.000			-13.005			-3.251
250600.000			-13.005			-3.251
250700.000			-13.004			-3.251
250802.000			-13.003			-3.251
250901.000			-13.004			-3.251
251001.000			-13.004			-3.251
251101.000			-13.004			-3.251
251200.000			-13.004			-3.251
251300.000			-13.004			-3.251
251401.000			-13.004			-3.251
251500.000			-13.003			-3.251
251600.000			-13.003			-3.251
251702.000			-13.003			-3.251
251801.000			-13.002			-3.251
251900.000			-13.002			-3.251
252001.000			-13.003			-3.251
252100.000			-13.003			-3.251
252200.000			-13.002			-3.251
252301.000			-13.002			-3.251
252400.000			-13.003			-3.251
252500.000			-13.003			-3.251
252602.000			-13.002			-3.250
252701.000			-13.002			-3.250
252800.000			-13.003			-3.251
252900.000			-13.003			-3.251
253000.000			-13.002			-3.251
253101.000			-13.002			-3.251
253200.000			-13.003			-3.251
253300.000			-13.001			-3.250
253401.000			-13.001			-3.250
253501.000			-13.002			-3.250
253601.000			-13.002			-3.250
253701.000			-13.002			-3.250
253800.000			-13.002			-3.251
253900.000			-13.002			-3.250
254001.000			-13.002			-3.250
254100.000			-13.001			-3.250
254200.000			-13.001			-3.250
254301.000			-13.002			-3.250
254401.000			-13.002			-3.250
254501.000			-13.001			-3.250
254601.000			-13.001			-3.250
254700.000			-13.000			-3.250
254800.000			-13.001			-3.250
254901.000			-13.001			-3.250
255000.000			-13.002			-3.250
255100.000			-13.000			-3.250
255201.000			-13.000			-3.250
255301.000			-13.000			-3.250
255401.000			-13.000			-3.250
255501.000			-12.999			-3.250
255600.000			-12.998			-3.250
255700.000			-12.999			-3.250
255801.000			-13.000			-3.250
255900.000			-13.000			-3.250
256000.000			-13.000			-3.250
256100.000			-12.999			-3.250
256200.000			-13.000			-3.250
256302.000			-13.000			-3.250
256401.000			-12.999			-3.250
256500.000			-12.999			-3.250
256601.000			-12.999			-3.250
256700.000			-13.000			-3.250
256800.000			-13.001			-3.250
256901.000			-12.999			-3.250
257000.000			-12.999			-3.250
257100.000			-12.998			-3.249
257201.000			-12.999			-3.250
257301.000			-12.999			-3.250
257401.000			-12.998			-3.250
257501.000			-12.999			-3.250
257600.000			-12.998			-3.250
257700.000			-12.997			-3.249
257801.000			-12.998			-3.249
257900.000			-12.998			-3.250
258000.000			-12.998			-3.249
258101.000			-12.998			-3.249
258200.000			-12.998			-3.250
258301.000			-12.998			-3.249
258402.000			-12.998			-3.249
258501.000			-12.998			-3.249
258600.000			-12.998			-3.249
258701.000			-12.999			-3.250
258800.000			-12.998			-3.250
258900.000			-12.997			-3.249
259001.000			-12.997			-3.249
259100.000			-12.998			-3.250
259200.000			-12.998			-3.250
259302.000			-12.996			-3.249
259401.000			-12.996			-3.249
259502.000			-12.996			-3.249
259600.000			-12.996			-3.249
259700.000			-12.996			-3.249
259801.000			-12.996			-3.249
259900.000			-12.996			-3.249
260000.000			-12.996			-3.249
260101.000			-12.997			-3.249
260200.000			-12.997			-3.249
260301.000			-12.997			-3.249
260402.000			-12.996			-3.249
260501.000			-12.996			-3.249
260600.000			-12.996			-3.249
260701.000			-12.996			-3.249
260800.000			-12.995			-3.249
260900.000			-12.996			-3.249
261001.000			-12.995			-3.249
261100.000			-12.995			-3.249
261200.000			-12.995			-3.249
261302.000			-12.996			-3.249
261401.000			-12.996			-3.249
261501.000			-12.996			-3.249
261601.000			-12.995			-3.249
261700.000			-12.994			-3.248
261800.000			-12.994			-3.249
261901.000			-12.994			-3.249
262000.000			-12.994			-3.249
262100.000			-12.995			-3.249
262201.000			-12.995			-3.249
262301.000			-12.994			-3.248
262402.000			-12.995			-3.249
262500.000			-12.994			-3.249
262600.000			-12.994			-3.248
262701.000			-12.994			-3.249
262800.000			-12.994			-3.249
262900.000			-12.993			-3.248
263001.000			-12.994			-3.249
263100.000			-12.993			-3.248
263201.000			-12.993			-3.248
263302.000			-12.993			-3.248
263401.000			-12.993			-3.248
263500.000			-12.994			-3.248
263601.000			-12.994			-3.249
263700.000			-12.992			-3.248
263800.000			-12.992			-3.248
263901.000			-12.993			-3.248
264000.000			-12.993			-3.248
264100.000			-12.993			-3.248
264202.000			-12.992			-3.248
264301.000			-12.991			-3.248
264401.000			-12.992			-3.248
264501.000			-12.992			-3.248
264600.000			-12.992			-3.248
264700.000			-12.992			-3.248
264801.000			-12.992			-3.248
264900.000			-12.992			-3.248
265000.000			-12.992			-3.248
265101.000			-12.992			-3.248
265201.000			-12.992			-3.248
265301.000			-12.991			-3.248
265401.000			-12.991			-3.248
265500.000			-12.991			-3.248
265600.000			-12.992			-3.248
265700.000			-12.991			-3.248
265800.000			-12.991			-3.248
265901.000			-12.990			-3.248
266000.000			-12.991			-3.248
266100.000			-12.990			-3.248
266202.000			-12.990			-3.248
266301.000			-12.991			-3.248
266400.000			-12.991			-3.248
266501.000			-12.991			-3.248
266600.000			-12.990			-3.248
266700.000			-12.991			-3.248
266801.000			-12.990			-3.248
266900.000			-12.990			-3.248
267000.000			-12.990			-3.248
267102.000			-12.990			-3.248
267201.000			-12.991			-3.248
267301.000			-12.991			-3.248
267401.000			-12.990			-3.248
267500.000			-12.990			-3.247
267600.000			-12.990			-3.247
267701.000			-12.990			-3.248
267800.000			-12.990			-3.248
267900.000			-12.989			-3.247
268001.000			-12.989			-3.247
268101.000			-12.989			-3.247
268201.000			-12.988			-3.247
268302.000			-12.988			-3.247
268400.000			-12.989			-3.247
268500.000			-12.990			-3.247
268601.000			-12.989			-3.247
268700.000			-12.989			-3.247
268800.000			-12.989			-3.247
268900.000			-12.989			-3.247
269000.000			-12.988			-3.247
269102.000			-12.988			-3.247
269201.000			-12.988			-3.247
269301.000			-12.988			-3.247
269401.000			-12.988			-3.247
269500.000			-12.987			-3.247
269600.000			-12.988			-3.247
269701.000			-12.988			-3.247
269800.000			-12.987			-3.247
269900.000			-12.987			-3.247
270001.000			-12.988			-3.247
270101.000			-12.988			-3.247
270201.000			-12.988			-3.247
270302.000			-12.987			-3.247
270400.000			-12.987			-3.247
270500.000			-12.987			-3.247
270601.000			-12.986			-3.247
270700.000			-12.987			-3.247
270800.000			-12.987			-3.247
270901.000			-12.987			-3.247
271000.000			-12.986			-3.247
271101.000			-12.986			-3.247
271202.000			-12.987			-3.247
271301.000			-12.987			-3.247
271400.000			-12.986			-3.247
271501.000			-12.986			-3.247
271600.000			-12.987			-3.247
271700.000			-12.987			-3.247
271801.000			-12.987			-3.247
271900.000			-12.987			-3.247
272000.000			-12.987			-3.247
272102.000			-12.986			-3.247
272201.000			-12.986			-3.246
272302.000			-12.986			-3.246
272400.000			-12.986			-3.246
272500.000			-12.985			-3.246
272601.000			-12.985			-3.246
272700.000			-12.986			-3.246
272800.000			-12.986			-3.246
272901.000			-12.985			-3.246
273000.000			-12.985			-3.246
273101.000			-12.985			-3.246
273202.000			-12.984			-3.246
273300.000			-12.985			-3.246
273400.000			-12.986			-3.246
273501.000			-12.985			-3.246
273600.000			-12.984			-3.246
273700.000			-12.983			-3.246
273801.000			-12.984			-3.246
273900.000			-12.985			-3.246
274001.000			-12.984			-3.246
274102.000			-12.984			-3.246
274201.000			-12.984			-3.246
274300.000			-12.985			-3.246
274401.000			-12.984			-3.246
274500.000			-12.984			-3.246
274600.000			-12.984			-3.246
274701.000			-12.984			-3.246
274800.000			-12.984			-3.246
274900.000			-12.984			-3.246
275002.000			-12.983			-3.246
275101.000			-12.984			-3.246
275200.000			-12.984			-3.246
275300.000			-12.983			-3.246
275400.000			-12.983			-3.246
275501.000			-12.982			-3.246
275600.000			-12.983			-3.246
275700.000			-12.983			-3.246
275801.000			-12.982			-3.246
275901.000			-12.982			-3.246
276001.000			-12.981			-3.245
276102.000			-12.983			-3.246
276200.000			-12.983			-3.246
276300.000			-12.983			-3.246
276401.000			-12.983			-3.246
276500.000			-12.983			-3.246
276600.000			-12.982			-3.246
276701.000			-12.982			-3.245
276800.000			-12.982			-3.246
276901.000			-12.983			-3.246
277002.000			-12.982			-3.246
277101.000			-12.982			-3.246
277200.000			-12.981			-3.245
277301.000			-12.982			-3.245
277400.000			-12.982			-3.246
277500.000			-12.981			-3.245
277601.000			-12.982			-3.245
277700.000			-12.982			-3.245
277800.000			-12.981			-3.245
277902.000			-12.981			-3.245
278001.000			-12.982			-3.245
278101.000			-12.983			-3.246
278201.000			-12.982			-3.246
278300.000			-12.981			-3.245
278400.000			-12.981			-3.245
278500.000			-12.980			-3.245
278600.000			-12.979			-3.245
278701.000			-12.981			-3.245
278800.000			-12.981			-3.245
278901.000			-12.980			-3.245
279002.000			-12.979			-3.245
279101.000			-12.979			-3.245
279200.000			-12.980			-3.245
279301.000			-12.980			-3.245
279400.000			-12.981			-3.245
279500.000			-12.981			-3.245
279601.000			-12.980			-3.245
279700.000			-12.980			-3.245
279800.000			-12.980			-3.245
279902.000			-12.980			-3.245
280001.000			-12.980			-3.245
280101.000			-12.980			-3.245
280201.000			-12.980			-3.245
280300.000			-12.980			-3.245
280400.000			-12.979			-3.245
280501.000			-12.979			-3.245
280600.000			-12.979			-3.245
280700.000			-12.979			-3.245
280801.000			-12.979			-3.245
280901.000			-12.980			-3.245
281001.000			-12.979			-3.245
281101.000			-12.978			-3.245
281200.000			-12.978			-3.244
281300.000			-12.978			-3.245
281401.000			-12.979			-3.245
281500.000			-12.978			-3.244
281600.000			-12.977			-3.244
281700.000			-12.976			-3.244
281800.000			-12.977			-3.244
281902.000			-12.978			-3.245
282001.000			-12.978			-3.245
282100.000			-12.977			-3.244
282201.000			-12.978			-3.244
282300.000			-12.977			-3.244
282400.000			-12.976			-3.244
282501.000			-12.977			-3.244
282600.000			-12.977			-3.244
282700.000			-12.977			-3.244
282802.000			-12.977			-3.244
282901.000			-12.977			-3.244
283001.000			-12.977			-3.244
283101.000			-12.976			-3.244
283200.000			-12.976			-3.244
283300.000			-12.976			-3.244
283401.000			-12.977			-3.244
283500.000			-12.977			-3.244
283600.000			-12.975			-3.244
283701.000			-12.976			-3.244
283801.000			-12.976			-3.244
283901.000			-12.977			-3.244
284002.000			-12.976			-3.244
284100.000			-12.975			-3.244
284200.000			-12.975			-3.244
284301.000			-12.975			-3.244
284400.000			-12.975			-3.244
284500.000			-12.974			-3.243
284601.000			-12.975			-3.244
284700.000			-12.975			-3.244
284802.000			-12.974			-3.244
284901.000			-12.974			-3.244
285001.000			-12.975			-3.244
285101.000			-12.974			-3.244
285200.000			-12.975			-3.244
285300.000			-12.974			-3.244
285401.000			-12.975			-3.244
285500.000			-12.975			-3.244
285600.000			-12.975			-3.244
285701.000			-12.974			-3.244
285801.000			-12.973			-3.243
285901.000			-12.974			-3.243
286001.000			-12.975			-3.244
286100.000			-12.974			-3.243
286200.000			-12.973			-3.243
286301.000			-12.974			-3.243
286400.000			-12.973			-3.243
286500.000			-12.973			-3.243
286601.000			-12.974			-3.243
286700.000			-12.972			-3.243
286801.000			-12.972			-3.243
286902.000			-12.973			-3.243
287000.000			-12.972			-3.243
287100.000			-12.974			-3.243
287201.000			-12.973			-3.243
287300.000			-12.972			-3.243
287400.000			-12.973			-3.243
287501.000			-12.973			-3.243
287600.000			-12.972			-3.243
287701.000			-12.972			-3.243
287802.000			-12.973			-3.243
287901.000			-12.972			-3.243
288000.000			-12.972			-3.243
288100.000			-12.972			-3.243
288200.000			-12.972			-3.243
288301.000			-12.972			-3.243
288400.000			-12.973			-3.243
288500.000			-12.973			-3.243
288601.000			-12.973			-3.243
288701.000			-12.972			-3.243
288801.000			-12.972			-3.243
288902.000			-12.972			-3.243
289000.000			-12.971			-3.243
289100.000			-12.971			-3.243
289201.000			-12.973			-3.243
289300.000			-12.972			-3.243
289400.000			-12.971			-3.243
289501.000			-12.970			-3.243
289600.000			-12.971			-3.243
289701.000			-12.972			-3.243
289802.000			-12.971			-3.243
289901.000			-12.972			-3.243
290000.000			-12.971			-3.243
290101.000			-12.970			-3.243
290200.000			-12.970			-3.243
290300.000			-12.970			-3.243
290401.000			-12.970			-3.243
290500.000			-12.971			-3.243
290600.000			-12.971			-3.243
290702.000			-12.970			-3.243
290801.000			-12.970			-3.242
290900.000			-12.970			-3.242
291001.000			-12.970			-3.243
291100.000			-12.970			-3.242
291200.000			-12.970			-3.243
291300.000			-12.969			-3.242
291400.000			-12.970			-3.243
291501.000			-12.970			-3.243
291601.000			-12.969			-3.242
291701.000			-12.968			-3.242
291802.000			-12.970			-3.242
291900.000			-12.969			-3.242
292000.000			-12.969			-3.242
292101.000			-12.970			-3.243
292200.000			-12.970			-3.242
292300.000			-12.970			-3.242
292401.000			-12.969			-3.242
292500.000			-12.968			-3.242
292601.000			-12.969			-3.242
292702.000			-12.969			-3.242
292801.000			-12.968			-3.242
292900.000			-12.968			-3.242
293001.000			-12.969			-3.242
293100.000			-12.968			-3.242
293200.000			-12.967			-3.242
293301.000			-12.968			-3.242
293400.000			-12.968			-3.242
293500.000			-12.968			-3.242
293602.000			-12.969			-3.242
293701.000			-12.968			-3.242
293801.000			-12.968			-3.242
293901.000			-12.968			-3.242
294000.000			-12.968			-3.242
294100.000			-12.968			-3.242
294201.000			-12.967			-3.242
294300.000			-12.967			-3.242
294400.000			-12.967			-3.242
294500.000			-12.967			-3.242
294601.000			-12.967			-3.242
294702.000			-12.967			-3.242
294801.000			-12.967			-3.242
294900.000			-12.967			-3.242
295001.000			-12.968			-3.242
295100.000			-12.967			-3.242
295200.000			-12.967			-3.242
295301.000			-12.967			-3.242
295400.000			-12.966			-3.242
295500.000			-12.966			-3.241
295602.000			-12.966			-3.242
295701.000			-12.966			-3.241
295800.000			-12.965			-3.241
295901.000			-12.966			-3.242
296000.000			-12.967			-3.242
296100.000			-12.966			-3.241
296201.000			-12.966			-3.241
296300.000			-12.965			-3.241
296400.000			-12.965			-3.241
296501.000			-12.965			-3.241
296601.000			-12.964			-3.241
296701.000			-12.965			-3.241
296801.000			-12.966			-3.242
296900.000			-12.965			-3.241
297000.000			-12.965			-3.241
297101.000			-12.965			-3.241
297200.000			-12.964			-3.241
297300.000			-12.966			-3.241
297401.000			-12.966			-3.241
297501.000			-12.965			-3.241
297602.000			-12.964			-3.241
297701.000			-12.965			-3.241
297800.000			-12.964			-3.241
297901.000			-12.964			-3.241
298000.000			-12.964			-3.241
298100.000			-12.963			-3.241
298201.000			-12.963			-3.241
298300.000			-12.964			-3.241
298400.000			-12.964			-3.241
298502.000			-12.963			-3.241
298601.000			-12.964			-3.241
298701.000			-12.963			-3.241
298801.000			-12.963			-3.241
298900.000			-12.964			-3.241
299000.000			-12.964			-3.241
299101.000			-12.964			-3.241
299200.000			-12.964			-3.241
299300.000			-12.964			-3.241
299401.000			-12.962			-3.241
299501.000			-12.963			-3.241
299601.000			-12.964			-3.241
299702.000			-12.964			-3.241
299800.000			-12.964			-3.241
299900.000			-12.963			-3.241
