# Acquired on 25/01/2024 16:51:59 
# SPIDER: Creep_7mm_GRPCNT1454A-2
# CREEP MEASUREMENT

# time [ms]		force [N]		stiffness [N/mm]
0.000			-28.154			-4.022
104.000			-28.418			-4.060
205.000			-28.273			-4.039
304.000			-28.011			-4.002
404.000			-27.822			-3.975
505.000			-27.672			-3.953
604.000			-27.544			-3.935
704.000			-27.335			-3.905
805.000			-27.247			-3.892
904.000			-27.166			-3.881
1003.000			-27.093			-3.870
1105.000			-27.027			-3.861
1204.000			-26.963			-3.852
1305.000			-26.904			-3.843
1404.000			-26.799			-3.828
1504.000			-26.749			-3.821
1605.000			-26.704			-3.815
1704.000			-26.660			-3.809
1804.000			-26.618			-3.803
1905.000			-26.579			-3.797
2004.000			-26.542			-3.792
2104.000			-26.505			-3.786
2204.000			-26.438			-3.777
2304.000			-26.407			-3.772
2404.000			-26.375			-3.768
2505.000			-26.347			-3.764
2604.000			-26.319			-3.760
2704.000			-26.291			-3.756
2805.000			-26.263			-3.752
2903.000			-26.211			-3.744
3004.000			-26.188			-3.741
3105.000			-26.165			-3.738
3204.000			-26.142			-3.735
3304.000			-26.120			-3.731
3404.000			-26.099			-3.728
3504.000			-26.078			-3.725
3604.000			-26.037			-3.720
3705.000			-26.018			-3.717
3804.000			-25.999			-3.714
3904.000			-25.981			-3.712
4005.000			-25.962			-3.709
4103.000			-25.944			-3.706
4204.000			-25.926			-3.704
4305.000			-25.894			-3.699
4404.000			-25.877			-3.697
4505.000			-25.860			-3.694
4604.000			-25.845			-3.692
4704.000			-25.829			-3.690
4804.000			-25.814			-3.688
4904.000			-25.799			-3.686
5004.000			-25.785			-3.684
5105.000			-25.757			-3.680
5204.000			-25.742			-3.677
5303.000			-25.728			-3.675
5405.000			-25.716			-3.674
5504.000			-25.702			-3.672
5604.000			-25.689			-3.670
5705.000			-25.677			-3.668
5804.000			-25.650			-3.664
5904.000			-25.638			-3.663
6004.000			-25.627			-3.661
6104.000			-25.616			-3.659
6204.000			-25.604			-3.658
6305.000			-25.593			-3.656
6404.000			-25.581			-3.654
6504.000			-25.558			-3.651
6605.000			-25.547			-3.650
6703.000			-25.537			-3.648
6804.000			-25.527			-3.647
6905.000			-25.517			-3.645
7004.000			-25.507			-3.644
7104.000			-25.495			-3.642
7204.000			-25.476			-3.639
7304.000			-25.466			-3.638
7404.000			-25.457			-3.637
7504.000			-25.446			-3.635
7604.000			-25.437			-3.634
7705.000			-25.429			-3.633
7804.000			-25.419			-3.631
7903.000			-25.410			-3.630
8005.000			-25.393			-3.628
8104.000			-25.385			-3.626
8204.000			-25.376			-3.625
8305.000			-25.367			-3.624
8404.000			-25.360			-3.623
8504.000			-25.350			-3.621
8604.000			-25.342			-3.620
8704.000			-25.326			-3.618
8804.000			-25.318			-3.617
8905.000			-25.310			-3.616
9004.000			-25.301			-3.614
9103.000			-25.293			-3.613
9205.000			-25.286			-3.612
9304.000			-25.279			-3.611
9404.000			-25.264			-3.609
9505.000			-25.256			-3.608
9604.000			-25.248			-3.607
9704.000			-25.240			-3.606
9804.000			-25.233			-3.605
9904.000			-25.225			-3.604
10004.000			-25.219			-3.603
10105.000			-25.212			-3.602
10204.000			-25.198			-3.600
10303.000			-25.189			-3.598
10405.000			-25.183			-3.598
10504.000			-25.178			-3.597
10604.000			-25.170			-3.596
10705.000			-25.164			-3.595
10804.000			-25.157			-3.594
10905.000			-25.144			-3.592
11003.000			-25.138			-3.591
11104.000			-25.131			-3.590
11205.000			-25.126			-3.589
11304.000			-25.120			-3.589
11404.000			-25.113			-3.588
11505.000			-25.107			-3.587
11604.000			-25.096			-3.585
11703.000			-25.090			-3.584
11805.000			-25.083			-3.583
11904.000			-25.078			-3.583
12004.000			-25.073			-3.582
12105.000			-25.067			-3.581
12203.000			-25.060			-3.580
12304.000			-25.050			-3.579
12405.000			-25.046			-3.578
12504.000			-25.040			-3.577
12604.000			-25.034			-3.576
12705.000			-25.029			-3.576
12804.000			-25.024			-3.575
12903.000			-25.018			-3.574
13005.000			-25.012			-3.573
13104.000			-25.002			-3.572
13204.000			-24.997			-3.571
13305.000			-24.991			-3.570
13404.000			-24.986			-3.569
13504.000			-24.981			-3.569
13604.000			-24.976			-3.568
13704.000			-24.971			-3.567
13804.000			-24.963			-3.566
13904.000			-24.956			-3.565
14004.000			-24.952			-3.565
14105.000			-24.947			-3.564
14204.000			-24.943			-3.563
14303.000			-24.937			-3.562
14405.000			-24.933			-3.562
14504.000			-24.923			-3.560
14604.000			-24.918			-3.560
14705.000			-24.913			-3.559
14804.000			-24.909			-3.558
14904.000			-24.906			-3.558
15004.000			-24.901			-3.557
15104.000			-24.895			-3.556
15204.000			-24.887			-3.555
15305.000			-24.882			-3.555
15404.000			-24.877			-3.554
15504.000			-24.873			-3.553
15605.000			-24.868			-3.553
15703.000			-24.863			-3.552
15804.000			-24.859			-3.551
15905.000			-24.855			-3.551
16004.000			-24.847			-3.550
16104.000			-24.843			-3.549
16205.000			-24.838			-3.548
16304.000			-24.834			-3.548
16403.000			-24.829			-3.547
16505.000			-24.825			-3.546
16604.000			-24.822			-3.546
16704.000			-24.814			-3.545
16805.000			-24.809			-3.544
16904.000			-24.805			-3.544
17004.000			-24.801			-3.543
17103.000			-24.797			-3.542
17204.000			-24.793			-3.542
17305.000			-24.788			-3.541
17404.000			-24.780			-3.540
17504.000			-24.777			-3.540
17605.000			-24.773			-3.539
17704.000			-24.769			-3.538
17803.000			-24.764			-3.538
17905.000			-24.761			-3.537
18004.000			-24.758			-3.537
18104.000			-24.754			-3.536
18205.000			-24.747			-3.535
18304.000			-24.743			-3.535
18404.000			-24.739			-3.534
18504.000			-24.736			-3.534
18604.000			-24.732			-3.533
18704.000			-24.728			-3.533
18805.000			-24.724			-3.532
18904.000			-24.717			-3.531
19004.000			-24.714			-3.531
19105.000			-24.710			-3.530
19203.000			-24.706			-3.529
19304.000			-24.703			-3.529
19405.000			-24.699			-3.528
19504.000			-24.695			-3.528
19604.000			-24.688			-3.527
19705.000			-24.685			-3.526
19804.000			-24.681			-3.526
19903.000			-24.679			-3.526
20005.000			-24.675			-3.525
20104.000			-24.672			-3.525
20204.000			-24.668			-3.524
20305.000			-24.661			-3.523
20404.000			-24.658			-3.523
20505.000			-24.653			-3.522
20603.000			-24.650			-3.521
20704.000			-24.649			-3.521
20805.000			-24.645			-3.521
20904.000			-24.641			-3.520
21004.000			-24.638			-3.520
21104.000			-24.631			-3.519
21204.000			-24.627			-3.518
21304.000			-24.624			-3.518
21405.000			-24.622			-3.517
21504.000			-24.619			-3.517
21604.000			-24.617			-3.517
21705.000			-24.613			-3.516
21803.000			-24.604			-3.515
21904.000			-24.601			-3.514
22005.000			-24.598			-3.514
22104.000			-24.595			-3.514
22204.000			-24.592			-3.513
22305.000			-24.588			-3.513
22404.000			-24.585			-3.512
22503.000			-24.578			-3.511
22605.000			-24.576			-3.511
22704.000			-24.572			-3.510
22804.000			-24.570			-3.510
22905.000			-24.567			-3.510
23004.000			-24.563			-3.509
23104.000			-24.560			-3.509
23204.000			-24.557			-3.508
23304.000			-24.550			-3.507
23404.000			-24.548			-3.507
23504.000			-24.545			-3.506
23604.000			-24.542			-3.506
23705.000			-24.539			-3.506
23804.000			-24.536			-3.505
23903.000			-24.533			-3.505
24005.000			-24.527			-3.504
24104.000			-24.525			-3.504
24204.000			-24.523			-3.503
24305.000			-24.519			-3.503
24403.000			-24.516			-3.502
24504.000			-24.514			-3.502
24605.000			-24.511			-3.502
24704.000			-24.505			-3.501
24804.000			-24.503			-3.500
24905.000			-24.501			-3.500
25004.000			-24.498			-3.500
25103.000			-24.495			-3.499
25205.000			-24.492			-3.499
25304.000			-24.489			-3.498
25404.000			-24.483			-3.498
25505.000			-24.482			-3.497
25604.000			-24.479			-3.497
25704.000			-24.476			-3.497
25804.000			-24.474			-3.496
25904.000			-24.471			-3.496
26004.000			-24.469			-3.496
26105.000			-24.466			-3.495
26204.000			-24.461			-3.494
26304.000			-24.458			-3.494
26405.000			-24.455			-3.494
26503.000			-24.453			-3.493
26604.000			-24.450			-3.493
26705.000			-24.448			-3.493
26804.000			-24.446			-3.492
26905.000			-24.441			-3.492
27004.000			-24.439			-3.491
27104.000			-24.436			-3.491
27204.000			-24.433			-3.490
27304.000			-24.431			-3.490
27404.000			-24.429			-3.490
27505.000			-24.427			-3.490
27604.000			-24.422			-3.489
27703.000			-24.420			-3.489
27805.000			-24.417			-3.488
27904.000			-24.415			-3.488
28004.000			-24.413			-3.488
28105.000			-24.411			-3.487
28204.000			-24.408			-3.487
28304.000			-24.403			-3.486
28404.000			-24.401			-3.486
28504.000			-24.399			-3.486
28604.000			-24.395			-3.485
28705.000			-24.392			-3.485
28804.000			-24.390			-3.484
28904.000			-24.387			-3.484
29005.000			-24.385			-3.484
29103.000			-24.381			-3.483
29204.000			-24.379			-3.483
29305.000			-24.377			-3.482
29404.000			-24.374			-3.482
29504.000			-24.372			-3.482
29605.000			-24.370			-3.481
29704.000			-24.367			-3.481
29803.000			-24.362			-3.480
29905.000			-24.360			-3.480
30004.000			-24.358			-3.480
30105.000			-24.357			-3.480
30204.000			-24.354			-3.479
30304.000			-24.352			-3.479
30405.000			-24.348			-3.478
30503.000			-24.344			-3.478
30604.000			-24.342			-3.477
30705.000			-24.339			-3.477
30804.000			-24.337			-3.477
30904.000			-24.335			-3.476
31005.000			-24.333			-3.476
31104.000			-24.330			-3.476
31203.000			-24.328			-3.475
31305.000			-24.323			-3.475
31404.000			-24.321			-3.474
31504.000			-24.320			-3.474
31605.000			-24.319			-3.474
31703.000			-24.316			-3.474
31804.000			-24.313			-3.473
31905.000			-24.310			-3.473
32004.000			-24.307			-3.472
32104.000			-24.305			-3.472
32205.000			-24.304			-3.472
32304.000			-24.302			-3.472
32403.000			-24.299			-3.471
32505.000			-24.297			-3.471
32604.000			-24.296			-3.471
32704.000			-24.291			-3.470
32805.000			-24.290			-3.470
32904.000			-24.288			-3.470
33004.000			-24.286			-3.469
33103.000			-24.284			-3.469
33204.000			-24.282			-3.469
33305.000			-24.280			-3.469
33404.000			-24.275			-3.468
33504.000			-24.273			-3.468
33605.000			-24.272			-3.467
33704.000			-24.269			-3.467
33803.000			-24.266			-3.467
33905.000			-24.265			-3.466
34004.000			-24.264			-3.466
34104.000			-24.262			-3.466
34205.000			-24.258			-3.465
34303.000			-24.256			-3.465
34404.000			-24.254			-3.465
34505.000			-24.253			-3.465
34604.000			-24.250			-3.464
34704.000			-24.248			-3.464
34805.000			-24.246			-3.464
34904.000			-24.243			-3.463
35003.000			-24.241			-3.463
35105.000			-24.239			-3.463
35204.000			-24.238			-3.463
35304.000			-24.236			-3.462
35405.000			-24.233			-3.462
35504.000			-24.231			-3.462
35604.000			-24.229			-3.461
35704.000			-24.226			-3.461
35804.000			-24.224			-3.461
35904.000			-24.222			-3.460
36005.000			-24.220			-3.460
36104.000			-24.218			-3.460
36203.000			-24.216			-3.459
36305.000			-24.213			-3.459
36404.000			-24.210			-3.459
36505.000			-24.208			-3.458
36604.000			-24.207			-3.458
36704.000			-24.206			-3.458
36805.000			-24.203			-3.458
36903.000			-24.202			-3.457
37004.000			-24.200			-3.457
37105.000			-24.196			-3.457
37204.000			-24.194			-3.456
37304.000			-24.193			-3.456
37405.000			-24.192			-3.456
37504.000			-24.189			-3.456
37603.000			-24.186			-3.455
37705.000			-24.185			-3.455
37804.000			-24.180			-3.454
37904.000			-24.180			-3.454
38005.000			-24.178			-3.454
38104.000			-24.176			-3.454
38204.000			-24.174			-3.453
38304.000			-24.173			-3.453
38404.000			-24.171			-3.453
38504.000			-24.167			-3.452
38605.000			-24.164			-3.452
38704.000			-24.163			-3.452
38804.000			-24.161			-3.452
38905.000			-24.159			-3.451
39003.000			-24.157			-3.451
39104.000			-24.155			-3.451
39205.000			-24.151			-3.450
39304.000			-24.150			-3.450
39404.000			-24.149			-3.450
39504.000			-24.147			-3.450
39604.000			-24.143			-3.449
39703.000			-24.141			-3.449
39804.000			-24.140			-3.449
39904.000			-24.138			-3.448
40005.000			-24.135			-3.448
40104.000			-24.133			-3.448
40203.000			-24.131			-3.447
40305.000			-24.129			-3.447
40404.000			-24.128			-3.447
40504.000			-24.126			-3.447
40605.000			-24.123			-3.446
40704.000			-24.121			-3.446
40804.000			-24.120			-3.446
40904.000			-24.118			-3.445
41004.000			-24.115			-3.445
41104.000			-24.113			-3.445
41205.000			-24.112			-3.445
41304.000			-24.109			-3.444
41403.000			-24.107			-3.444
41505.000			-24.105			-3.444
41604.000			-24.103			-3.443
41704.000			-24.102			-3.443
41805.000			-24.101			-3.443
41904.000			-24.099			-3.443
42004.000			-24.098			-3.443
42104.000			-24.096			-3.442
42204.000			-24.091			-3.442
42304.000			-24.090			-3.441
42405.000			-24.089			-3.441
42504.000			-24.087			-3.441
42604.000			-24.086			-3.441
42705.000			-24.086			-3.441
42803.000			-24.083			-3.440
42905.000			-24.080			-3.440
43004.000			-24.080			-3.440
43104.000			-24.079			-3.440
43205.000			-24.076			-3.439
43304.000			-24.074			-3.439
43404.000			-24.073			-3.439
43504.000			-24.072			-3.439
43604.000			-24.069			-3.438
43704.000			-24.067			-3.438
43805.000			-24.065			-3.438
43904.000			-24.064			-3.438
44003.000			-24.062			-3.437
44105.000			-24.061			-3.437
44204.000			-24.060			-3.437
44304.000			-24.057			-3.437
44405.000			-24.056			-3.437
44504.000			-24.053			-3.436
44604.000			-24.052			-3.436
44704.000			-24.051			-3.436
44804.000			-24.049			-3.436
44904.000			-24.047			-3.435
45005.000			-24.046			-3.435
45104.000			-24.042			-3.435
45204.000			-24.041			-3.434
45305.000			-24.039			-3.434
45404.000			-24.038			-3.434
45504.000			-24.036			-3.434
45605.000			-24.034			-3.433
45704.000			-24.032			-3.433
45804.000			-24.030			-3.433
45903.000			-24.029			-3.433
46004.000			-24.026			-3.432
46105.000			-24.025			-3.432
46204.000			-24.023			-3.432
46304.000			-24.021			-3.432
46405.000			-24.020			-3.431
46504.000			-24.017			-3.431
46603.000			-24.016			-3.431
46705.000			-24.015			-3.431
46804.000			-24.014			-3.431
46904.000			-24.012			-3.430
47005.000			-24.010			-3.430
47104.000			-24.008			-3.430
47204.000			-24.005			-3.429
47304.000			-24.003			-3.429
47404.000			-24.002			-3.429
47504.000			-24.001			-3.429
47605.000			-24.001			-3.429
47704.000			-24.001			-3.429
47803.000			-23.998			-3.428
47905.000			-23.996			-3.428
48004.000			-23.994			-3.428
48104.000			-23.992			-3.427
48205.000			-23.991			-3.427
48304.000			-23.990			-3.427
48404.000			-23.989			-3.427
48504.000			-23.988			-3.427
48604.000			-23.986			-3.427
48703.000			-23.984			-3.426
48805.000			-23.983			-3.426
48904.000			-23.981			-3.426
49004.000			-23.979			-3.426
49105.000			-23.978			-3.425
49204.000			-23.978			-3.425
49305.000			-23.977			-3.425
49403.000			-23.973			-3.425
49504.000			-23.972			-3.425
49605.000			-23.971			-3.424
49704.000			-23.969			-3.424
49804.000			-23.968			-3.424
49905.000			-23.968			-3.424
50004.000			-23.967			-3.424
50103.000			-23.964			-3.423
50205.000			-23.961			-3.423
50304.000			-23.960			-3.423
50404.000			-23.959			-3.423
50505.000			-23.958			-3.423
50604.000			-23.956			-3.422
50704.000			-23.955			-3.422
50804.000			-23.953			-3.422
50904.000			-23.951			-3.422
51004.000			-23.949			-3.421
51105.000			-23.948			-3.421
51204.000			-23.947			-3.421
51304.000			-23.945			-3.421
51405.000			-23.944			-3.421
51503.000			-23.941			-3.420
51604.000			-23.939			-3.420
51705.000			-23.938			-3.420
51804.000			-23.937			-3.420
51904.000			-23.935			-3.419
52005.000			-23.931			-3.419
52104.000			-23.930			-3.419
52203.000			-23.930			-3.419
52305.000			-23.927			-3.418
52404.000			-23.926			-3.418
52505.000			-23.925			-3.418
52604.000			-23.924			-3.418
52703.000			-23.923			-3.418
52805.000			-23.922			-3.417
52904.000			-23.920			-3.417
53004.000			-23.919			-3.417
53105.000			-23.915			-3.416
53204.000			-23.914			-3.416
53304.000			-23.913			-3.416
53404.000			-23.911			-3.416
53504.000			-23.910			-3.416
53604.000			-23.909			-3.416
53705.000			-23.908			-3.415
53804.000			-23.905			-3.415
53904.000			-23.904			-3.415
54005.000			-23.903			-3.415
54103.000			-23.902			-3.415
54204.000			-23.901			-3.414
54305.000			-23.899			-3.414
54404.000			-23.898			-3.414
54504.000			-23.895			-3.414
54605.000			-23.894			-3.413
54704.000			-23.894			-3.413
54803.000			-23.892			-3.413
54905.000			-23.891			-3.413
55004.000			-23.889			-3.413
55104.000			-23.888			-3.413
55205.000			-23.886			-3.412
55304.000			-23.886			-3.412
55404.000			-23.885			-3.412
55503.000			-23.884			-3.412
55604.000			-23.881			-3.412
55705.000			-23.881			-3.412
55804.000			-23.880			-3.411
55904.000			-23.879			-3.411
56005.000			-23.877			-3.411
56104.000			-23.876			-3.411
56203.000			-23.874			-3.411
56305.000			-23.873			-3.410
56404.000			-23.872			-3.410
56504.000			-23.870			-3.410
56605.000			-23.869			-3.410
56704.000			-23.869			-3.410
56804.000			-23.867			-3.410
56904.000			-23.866			-3.409
57004.000			-23.865			-3.409
57104.000			-23.864			-3.409
57205.000			-23.863			-3.409
57304.000			-23.862			-3.409
57404.000			-23.859			-3.408
57505.000			-23.858			-3.408
57603.000			-23.856			-3.408
57704.000			-23.855			-3.408
57805.000			-23.855			-3.408
57904.000			-23.854			-3.408
58004.000			-23.852			-3.407
58105.000			-23.852			-3.407
58204.000			-23.847			-3.407
58303.000			-23.847			-3.407
58405.000			-23.847			-3.407
58504.000			-23.845			-3.406
58604.000			-23.843			-3.406
58705.000			-23.843			-3.406
58804.000			-23.842			-3.406
58905.000			-23.840			-3.406
59003.000			-23.839			-3.406
59104.000			-23.838			-3.405
59205.000			-23.836			-3.405
59304.000			-23.835			-3.405
59404.000			-23.835			-3.405
59504.000			-23.833			-3.405
59604.000			-23.831			-3.404
59703.000			-23.829			-3.404
59805.000			-23.828			-3.404
59904.000			-23.826			-3.404
60004.000			-23.826			-3.404
60105.000			-23.826			-3.404
60204.000			-23.823			-3.403
60304.000			-23.822			-3.403
60405.000			-23.820			-3.403
60504.000			-23.820			-3.403
60604.000			-23.819			-3.403
60705.000			-23.818			-3.403
60804.000			-23.818			-3.403
60903.000			-23.817			-3.402
61005.000			-23.815			-3.402
61104.000			-23.813			-3.402
61204.000			-23.812			-3.402
61305.000			-23.811			-3.402
61404.000			-23.810			-3.401
61504.000			-23.808			-3.401
61604.000			-23.807			-3.401
61704.000			-23.807			-3.401
61804.000			-23.804			-3.401
61904.000			-23.803			-3.400
62004.000			-23.802			-3.400
62105.000			-23.801			-3.400
62204.000			-23.801			-3.400
62303.000			-23.801			-3.400
62405.000			-23.799			-3.400
62504.000			-23.797			-3.400
62604.000			-23.796			-3.399
62705.000			-23.795			-3.399
62804.000			-23.795			-3.399
62904.000			-23.793			-3.399
63004.000			-23.791			-3.399
63104.000			-23.790			-3.399
63204.000			-23.789			-3.398
63305.000			-23.788			-3.398
63404.000			-23.786			-3.398
63504.000			-23.785			-3.398
63605.000			-23.784			-3.398
63703.000			-23.784			-3.398
63804.000			-23.783			-3.398
63905.000			-23.782			-3.397
64004.000			-23.779			-3.397
64104.000			-23.779			-3.397
64205.000			-23.777			-3.397
64304.000			-23.776			-3.397
64403.000			-23.775			-3.396
64505.000			-23.774			-3.396
64604.000			-23.773			-3.396
64704.000			-23.771			-3.396
64805.000			-23.769			-3.396
64904.000			-23.768			-3.395
65004.000			-23.769			-3.396
65103.000			-23.768			-3.395
65204.000			-23.768			-3.395
65305.000			-23.766			-3.395
65404.000			-23.763			-3.395
65504.000			-23.763			-3.395
65605.000			-23.760			-3.394
65704.000			-23.759			-3.394
65803.000			-23.759			-3.394
65905.000			-23.758			-3.394
66004.000			-23.757			-3.394
66104.000			-23.756			-3.394
66205.000			-23.753			-3.393
66304.000			-23.753			-3.393
66404.000			-23.751			-3.393
66504.000			-23.751			-3.393
66604.000			-23.751			-3.393
66704.000			-23.750			-3.393
66805.000			-23.747			-3.392
66904.000			-23.746			-3.392
67004.000			-23.745			-3.392
67105.000			-23.744			-3.392
67203.000			-23.744			-3.392
67304.000			-23.742			-3.392
67405.000			-23.740			-3.391
67504.000			-23.740			-3.391
67604.000			-23.738			-3.391
67705.000			-23.737			-3.391
67804.000			-23.736			-3.391
67903.000			-23.736			-3.391
68005.000			-23.734			-3.391
68104.000			-23.734			-3.391
68204.000			-23.733			-3.390
68305.000			-23.731			-3.390
68404.000			-23.730			-3.390
68505.000			-23.729			-3.390
68603.000			-23.727			-3.390
68704.000			-23.726			-3.389
68805.000			-23.725			-3.389
68904.000			-23.724			-3.389
69004.000			-23.723			-3.389
69105.000			-23.722			-3.389
69204.000			-23.722			-3.389
69303.000			-23.719			-3.388
69405.000			-23.719			-3.388
69504.000			-23.719			-3.388
69604.000			-23.717			-3.388
69705.000			-23.716			-3.388
69804.000			-23.714			-3.388
69904.000			-23.712			-3.387
70004.000			-23.711			-3.387
70104.000			-23.711			-3.387
70204.000			-23.711			-3.387
70305.000			-23.710			-3.387
70404.000			-23.707			-3.387
70504.000			-23.708			-3.387
70605.000			-23.706			-3.387
70703.000			-23.704			-3.386
70804.000			-23.704			-3.386
70905.000			-23.703			-3.386
71004.000			-23.702			-3.386
71104.000			-23.701			-3.386
71205.000			-23.699			-3.386
71304.000			-23.698			-3.385
71403.000			-23.697			-3.385
71505.000			-23.696			-3.385
71604.000			-23.696			-3.385
71705.000			-23.695			-3.385
71804.000			-23.693			-3.385
71904.000			-23.692			-3.385
72005.000			-23.690			-3.384
72103.000			-23.690			-3.384
72204.000			-23.688			-3.384
72305.000			-23.687			-3.384
72404.000			-23.687			-3.384
72504.000			-23.686			-3.384
72605.000			-23.685			-3.384
72704.000			-23.684			-3.383
72803.000			-23.683			-3.383
72905.000			-23.681			-3.383
73004.000			-23.680			-3.383
73104.000			-23.679			-3.383
73205.000			-23.678			-3.383
73304.000			-23.677			-3.382
73404.000			-23.676			-3.382
73504.000			-23.675			-3.382
73604.000			-23.674			-3.382
73704.000			-23.673			-3.382
73805.000			-23.673			-3.382
73904.000			-23.673			-3.382
74004.000			-23.671			-3.382
74105.000			-23.670			-3.381
74203.000			-23.668			-3.381
74304.000			-23.666			-3.381
74405.000			-23.665			-3.381
74504.000			-23.665			-3.381
74604.000			-23.665			-3.381
74704.000			-23.664			-3.381
74804.000			-23.662			-3.380
74903.000			-23.660			-3.380
75004.000			-23.660			-3.380
75104.000			-23.659			-3.380
75205.000			-23.658			-3.380
75304.000			-23.656			-3.379
75404.000			-23.655			-3.379
75505.000			-23.655			-3.379
75603.000			-23.654			-3.379
75704.000			-23.653			-3.379
75805.000			-23.651			-3.379
75904.000			-23.650			-3.379
76004.000			-23.650			-3.379
76105.000			-23.649			-3.378
76204.000			-23.647			-3.378
76303.000			-23.647			-3.378
76405.000			-23.646			-3.378
76504.000			-23.645			-3.378
76604.000			-23.644			-3.378
76705.000			-23.643			-3.378
76804.000			-23.642			-3.377
76904.000			-23.641			-3.377
77004.000			-23.640			-3.377
77104.000			-23.639			-3.377
77204.000			-23.638			-3.377
77305.000			-23.637			-3.377
77404.000			-23.635			-3.376
77504.000			-23.634			-3.376
77605.000			-23.635			-3.376
77703.000			-23.635			-3.376
77804.000			-23.632			-3.376
77905.000			-23.632			-3.376
78004.000			-23.631			-3.376
78105.000			-23.628			-3.375
78204.000			-23.628			-3.375
78304.000			-23.627			-3.375
78404.000			-23.626			-3.375
78504.000			-23.625			-3.375
78604.000			-23.624			-3.375
78705.000			-23.623			-3.375
78804.000			-23.622			-3.375
78904.000			-23.621			-3.374
79005.000			-23.620			-3.374
79103.000			-23.619			-3.374
79204.000			-23.617			-3.374
79305.000			-23.617			-3.374
79404.000			-23.616			-3.374
79504.000			-23.616			-3.374
79605.000			-23.614			-3.373
79704.000			-23.614			-3.373
79803.000			-23.613			-3.373
79905.000			-23.612			-3.373
80004.000			-23.610			-3.373
80104.000			-23.609			-3.373
80205.000			-23.609			-3.373
80304.000			-23.607			-3.372
80404.000			-23.607			-3.372
80504.000			-23.606			-3.372
80604.000			-23.606			-3.372
80704.000			-23.603			-3.372
80805.000			-23.602			-3.372
80904.000			-23.602			-3.372
81004.000			-23.602			-3.372
81105.000			-23.602			-3.372
81203.000			-23.601			-3.372
81305.000			-23.600			-3.371
81404.000			-23.598			-3.371
81504.000			-23.596			-3.371
81605.000			-23.595			-3.371
81704.000			-23.594			-3.371
81804.000			-23.593			-3.370
81904.000			-23.592			-3.370
82004.000			-23.593			-3.370
82104.000			-23.590			-3.370
82205.000			-23.590			-3.370
82304.000			-23.590			-3.370
82404.000			-23.589			-3.370
82505.000			-23.588			-3.370
82603.000			-23.586			-3.369
82704.000			-23.586			-3.369
82805.000			-23.585			-3.369
82904.000			-23.583			-3.369
83004.000			-23.583			-3.369
83105.000			-23.582			-3.369
83204.000			-23.581			-3.369
83303.000			-23.580			-3.369
83405.000			-23.580			-3.369
83504.000			-23.579			-3.368
83604.000			-23.576			-3.368
83705.000			-23.576			-3.368
83804.000			-23.575			-3.368
83904.000			-23.573			-3.368
84004.000			-23.572			-3.367
84104.000			-23.572			-3.367
84204.000			-23.573			-3.368
84304.000			-23.569			-3.367
84404.000			-23.569			-3.367
84505.000			-23.569			-3.367
84604.000			-23.568			-3.367
84703.000			-23.567			-3.367
84805.000			-23.567			-3.367
84904.000			-23.566			-3.367
85004.000			-23.565			-3.366
85105.000			-23.563			-3.366
85204.000			-23.562			-3.366
85304.000			-23.562			-3.366
85404.000			-23.562			-3.366
85504.000			-23.560			-3.366
85604.000			-23.559			-3.366
85705.000			-23.558			-3.365
85804.000			-23.557			-3.365
85904.000			-23.557			-3.365
86005.000			-23.557			-3.365
86103.000			-23.556			-3.365
86204.000			-23.555			-3.365
86305.000			-23.553			-3.365
86404.000			-23.553			-3.365
86504.000			-23.550			-3.364
86605.000			-23.550			-3.364
86704.000			-23.550			-3.364
86803.000			-23.549			-3.364
86905.000			-23.549			-3.364
87004.000			-23.548			-3.364
87104.000			-23.547			-3.364
87205.000			-23.545			-3.364
87304.000			-23.544			-3.363
87404.000			-23.544			-3.363
87504.000			-23.542			-3.363
87604.000			-23.542			-3.363
87703.000			-23.542			-3.363
87804.000			-23.540			-3.363
87904.000			-23.539			-3.363
88005.000			-23.538			-3.363
88104.000			-23.538			-3.363
88204.000			-23.537			-3.362
88305.000			-23.535			-3.362
88403.000			-23.535			-3.362
88504.000			-23.534			-3.362
88605.000			-23.533			-3.362
88704.000			-23.532			-3.362
88804.000			-23.530			-3.361
88905.000			-23.529			-3.361
89004.000			-23.528			-3.361
89103.000			-23.528			-3.361
89205.000			-23.528			-3.361
89304.000			-23.528			-3.361
89404.000			-23.527			-3.361
89505.000			-23.526			-3.361
89604.000			-23.524			-3.361
89704.000			-23.524			-3.361
89804.000			-23.523			-3.360
89904.000			-23.523			-3.360
90004.000			-23.522			-3.360
90105.000			-23.520			-3.360
90204.000			-23.520			-3.360
90304.000			-23.519			-3.360
90405.000			-23.518			-3.360
90503.000			-23.517			-3.360
90604.000			-23.516			-3.359
90705.000			-23.515			-3.359
90804.000			-23.515			-3.359
90905.000			-23.512			-3.359
91004.000			-23.512			-3.359
91104.000			-23.512			-3.359
91204.000			-23.512			-3.359
91304.000			-23.511			-3.359
91404.000			-23.510			-3.359
91505.000			-23.509			-3.358
91604.000			-23.508			-3.358
91703.000			-23.507			-3.358
91805.000			-23.506			-3.358
91904.000			-23.506			-3.358
92004.000			-23.505			-3.358
92105.000			-23.504			-3.358
92204.000			-23.503			-3.358
92304.000			-23.502			-3.357
92404.000			-23.501			-3.357
92504.000			-23.501			-3.357
92604.000			-23.500			-3.357
92705.000			-23.499			-3.357
92804.000			-23.497			-3.357
92904.000			-23.497			-3.357
93005.000			-23.497			-3.357
93103.000			-23.495			-3.356
93204.000			-23.495			-3.356
93305.000			-23.494			-3.356
93404.000			-23.493			-3.356
93504.000			-23.493			-3.356
93605.000			-23.492			-3.356
93704.000			-23.492			-3.356
93803.000			-23.490			-3.356
93905.000			-23.489			-3.356
94004.000			-23.488			-3.355
94105.000			-23.487			-3.355
94204.000			-23.488			-3.355
94304.000			-23.487			-3.355
94405.000			-23.486			-3.355
94504.000			-23.485			-3.355
94604.000			-23.484			-3.355
94704.000			-23.482			-3.355
94804.000			-23.482			-3.355
94904.000			-23.480			-3.354
95005.000			-23.480			-3.354
95104.000			-23.480			-3.354
95204.000			-23.479			-3.354
95305.000			-23.478			-3.354
95403.000			-23.477			-3.354
95504.000			-23.475			-3.354
95605.000			-23.475			-3.354
95704.000			-23.474			-3.353
95804.000			-23.474			-3.353
95905.000			-23.473			-3.353
96004.000			-23.472			-3.353
96103.000			-23.471			-3.353
96205.000			-23.470			-3.353
96304.000			-23.470			-3.353
96404.000			-23.470			-3.353
96505.000			-23.469			-3.353
96604.000			-23.468			-3.353
96704.000			-23.467			-3.352
96804.000			-23.467			-3.352
96904.000			-23.465			-3.352
97004.000			-23.464			-3.352
97104.000			-23.464			-3.352
97204.000			-23.463			-3.352
97305.000			-23.463			-3.352
97404.000			-23.461			-3.352
97503.000			-23.461			-3.352
97605.000			-23.461			-3.352
97704.000			-23.460			-3.351
97804.000			-23.459			-3.351
97905.000			-23.458			-3.351
98004.000			-23.457			-3.351
98104.000			-23.456			-3.351
98204.000			-23.455			-3.351
98304.000			-23.454			-3.351
98404.000			-23.453			-3.350
98505.000			-23.452			-3.350
98604.000			-23.452			-3.350
98704.000			-23.451			-3.350
98805.000			-23.451			-3.350
98903.000			-23.450			-3.350
99004.000			-23.450			-3.350
99105.000			-23.448			-3.350
99204.000			-23.447			-3.350
99304.000			-23.447			-3.350
99405.000			-23.447			-3.350
99504.000			-23.446			-3.349
99603.000			-23.443			-3.349
99705.000			-23.443			-3.349
99804.000			-23.442			-3.349
99904.000			-23.442			-3.349
100005.000			-23.441			-3.349
100104.000			-23.441			-3.349
100204.000			-23.441			-3.349
100304.000			-23.438			-3.348
100404.000			-23.437			-3.348
100503.000			-23.436			-3.348
100604.000			-23.436			-3.348
100704.000			-23.436			-3.348
100805.000			-23.435			-3.348
100904.000			-23.435			-3.348
101004.000			-23.434			-3.348
101105.000			-23.432			-3.347
101203.000			-23.433			-3.348
101304.000			-23.432			-3.347
101405.000			-23.430			-3.347
101504.000			-23.431			-3.347
101604.000			-23.430			-3.347
101704.000			-23.429			-3.347
101804.000			-23.428			-3.347
101903.000			-23.428			-3.347
102005.000			-23.427			-3.347
102104.000			-23.427			-3.347
102204.000			-23.426			-3.347
102305.000			-23.425			-3.346
102404.000			-23.424			-3.346
102504.000			-23.423			-3.346
102604.000			-23.422			-3.346
102704.000			-23.421			-3.346
102804.000			-23.420			-3.346
102905.000			-23.420			-3.346
103004.000			-23.420			-3.346
103104.000			-23.419			-3.346
103205.000			-23.418			-3.345
103303.000			-23.418			-3.345
103404.000			-23.416			-3.345
103505.000			-23.416			-3.345
103604.000			-23.415			-3.345
103705.000			-23.414			-3.345
103804.000			-23.414			-3.345
103904.000			-23.414			-3.345
104004.000			-23.413			-3.345
104104.000			-23.412			-3.345
104204.000			-23.411			-3.344
104305.000			-23.411			-3.344
104404.000			-23.410			-3.344
104503.000			-23.409			-3.344
104605.000			-23.409			-3.344
104704.000			-23.407			-3.344
104804.000			-23.406			-3.344
104905.000			-23.406			-3.344
105004.000			-23.406			-3.344
105104.000			-23.406			-3.344
105204.000			-23.406			-3.344
105304.000			-23.405			-3.344
105404.000			-23.403			-3.343
105505.000			-23.402			-3.343
105604.000			-23.401			-3.343
105704.000			-23.401			-3.343
105805.000			-23.400			-3.343
105903.000			-23.399			-3.343
106004.000			-23.400			-3.343
106105.000			-23.396			-3.342
106204.000			-23.396			-3.342
106304.000			-23.396			-3.342
106405.000			-23.395			-3.342
106504.000			-23.394			-3.342
106604.000			-23.394			-3.342
106705.000			-23.394			-3.342
106803.000			-23.393			-3.342
106905.000			-23.391			-3.342
107004.000			-23.391			-3.342
107104.000			-23.390			-3.341
107205.000			-23.389			-3.341
107304.000			-23.389			-3.341
107404.000			-23.389			-3.341
107504.000			-23.388			-3.341
107604.000			-23.387			-3.341
107704.000			-23.387			-3.341
107805.000			-23.386			-3.341
107904.000			-23.385			-3.341
108004.000			-23.384			-3.341
108105.000			-23.384			-3.341
108203.000			-23.384			-3.341
108304.000			-23.382			-3.340
108405.000			-23.382			-3.340
108504.000			-23.382			-3.340
108604.000			-23.380			-3.340
108705.000			-23.380			-3.340
108804.000			-23.379			-3.340
108903.000			-23.378			-3.340
109005.000			16.834			2.405
109181.000			-23.376			-3.339
109269.000			-23.375			-3.339
109356.000			-23.375			-3.339
109444.000			-23.372			-3.339
109532.000			-23.372			-3.339
109620.000			-23.373			-3.339
109708.000			-23.372			-3.339
109804.000			-23.370			-3.339
109904.000			-23.370			-3.339
110004.000			-23.371			-3.339
110105.000			-23.370			-3.339
110204.000			-23.368			-3.338
110303.000			-23.369			-3.338
110405.000			-23.368			-3.338
110504.000			-23.366			-3.338
110604.000			-23.367			-3.338
110705.000			-23.366			-3.338
110804.000			-23.365			-3.338
110904.000			-23.364			-3.338
111004.000			-23.364			-3.338
111104.000			-23.363			-3.338
111204.000			-23.362			-3.337
111305.000			-23.360			-3.337
111404.000			-23.359			-3.337
111504.000			-23.360			-3.337
111605.000			-23.360			-3.337
111703.000			-23.358			-3.337
111804.000			-23.357			-3.337
111905.000			-23.356			-3.337
112004.000			-23.355			-3.336
112104.000			-23.354			-3.336
112205.000			-23.353			-3.336
112304.000			-23.352			-3.336
112403.000			-23.351			-3.336
112505.000			-23.350			-3.336
112604.000			-23.349			-3.336
112704.000			-23.348			-3.335
112805.000			-23.347			-3.335
112904.000			-23.347			-3.335
113004.000			-23.346			-3.335
113103.000			-23.345			-3.335
113204.000			-23.343			-3.335
113305.000			-23.343			-3.335
113404.000			-23.342			-3.335
113504.000			-23.342			-3.335
113605.000			-23.341			-3.334
113704.000			-23.339			-3.334
113803.000			-23.339			-3.334
113905.000			-23.339			-3.334
114004.000			-23.338			-3.334
114104.000			-23.335			-3.334
114205.000			-23.335			-3.334
114304.000			-23.334			-3.333
114404.000			-23.333			-3.333
114504.000			-23.333			-3.333
114604.000			-23.332			-3.333
114703.000			-23.332			-3.333
114805.000			-23.332			-3.333
114904.000			-23.331			-3.333
115004.000			-23.330			-3.333
115105.000			-23.329			-3.333
115204.000			-23.328			-3.333
115304.000			-23.327			-3.332
115404.000			-23.327			-3.332
115504.000			-23.326			-3.332
115604.000			-23.327			-3.332
115705.000			-23.326			-3.332
115804.000			-23.326			-3.332
115904.000			-23.325			-3.332
116005.000			-23.325			-3.332
116103.000			-23.324			-3.332
116204.000			-23.323			-3.332
116305.000			-23.322			-3.332
116404.000			-23.323			-3.332
116505.000			-23.322			-3.332
116604.000			-23.322			-3.332
116704.000			-23.321			-3.332
116804.000			-23.321			-3.332
116904.000			-23.321			-3.332
117004.000			-23.320			-3.331
117105.000			-23.320			-3.331
117204.000			-23.320			-3.331
117304.000			-23.319			-3.331
117405.000			-23.319			-3.331
117503.000			-23.318			-3.331
117604.000			-23.317			-3.331
117705.000			-23.316			-3.331
117804.000			-23.316			-3.331
117904.000			-23.315			-3.331
118005.000			-23.315			-3.331
118104.000			-23.315			-3.331
118203.000			-23.314			-3.331
118305.000			-23.314			-3.331
118404.000			-23.313			-3.330
118504.000			-23.311			-3.330
118605.000			-23.311			-3.330
118704.000			-23.311			-3.330
118804.000			-23.311			-3.330
118904.000			-23.310			-3.330
119004.000			-23.310			-3.330
119104.000			-23.309			-3.330
119205.000			-23.307			-3.330
119304.000			-23.307			-3.330
119404.000			-23.307			-3.330
119505.000			-23.307			-3.330
119603.000			-23.306			-3.329
119705.000			-23.304			-3.329
119804.000			-23.304			-3.329
119904.000			-23.304			-3.329
120005.000			-23.303			-3.329
120104.000			-23.302			-3.329
120204.000			-23.302			-3.329
120304.000			-23.302			-3.329
120404.000			-23.301			-3.329
120504.000			-23.301			-3.329
120605.000			-23.300			-3.329
120704.000			-23.297			-3.328
120804.000			-23.298			-3.328
120905.000			-23.298			-3.328
121003.000			-23.297			-3.328
121104.000			-23.295			-3.328
121205.000			-23.296			-3.328
121304.000			-23.296			-3.328
121404.000			-23.295			-3.328
121505.000			-23.294			-3.328
121604.000			-23.293			-3.328
121703.000			-23.293			-3.328
121805.000			-23.292			-3.327
121904.000			-23.292			-3.327
122004.000			-23.291			-3.327
122105.000			-23.290			-3.327
122204.000			-23.289			-3.327
122304.000			-23.289			-3.327
122404.000			-23.289			-3.327
122504.000			-23.289			-3.327
122604.000			-23.288			-3.327
122704.000			-23.286			-3.327
122804.000			-23.286			-3.327
122905.000			-23.285			-3.326
123004.000			-23.284			-3.326
123103.000			-23.284			-3.326
123205.000			-23.284			-3.326
123304.000			-23.284			-3.326
123404.000			-23.282			-3.326
123505.000			-23.280			-3.326
123604.000			-23.280			-3.326
123704.000			-23.279			-3.326
123804.000			-23.279			-3.326
123904.000			-23.279			-3.326
124003.000			-23.280			-3.326
124105.000			-23.279			-3.326
124204.000			-23.277			-3.325
124304.000			-23.276			-3.325
124405.000			-23.276			-3.325
124504.000			-23.276			-3.325
124604.000			-23.275			-3.325
124704.000			-23.274			-3.325
124804.000			-23.274			-3.325
124904.000			-23.273			-3.325
125005.000			-23.272			-3.325
125104.000			-23.271			-3.324
125204.000			-23.271			-3.324
125305.000			-23.270			-3.324
125403.000			-23.270			-3.324
125504.000			-23.270			-3.324
125605.000			-23.270			-3.324
125704.000			-23.269			-3.324
125804.000			-23.268			-3.324
125904.000			-23.268			-3.324
126004.000			-23.267			-3.324
126103.000			-23.266			-3.324
126204.000			-23.265			-3.324
126304.000			-23.266			-3.324
126405.000			-23.264			-3.323
126504.000			-23.265			-3.324
126604.000			-23.264			-3.323
126705.000			-23.263			-3.323
126803.000			-23.263			-3.323
126904.000			-23.263			-3.323
127005.000			-23.263			-3.323
127104.000			-23.262			-3.323
127204.000			-23.261			-3.323
127305.000			-23.260			-3.323
127404.000			-23.259			-3.323
127503.000			-23.259			-3.323
127605.000			-23.258			-3.323
127704.000			-23.257			-3.322
127804.000			-23.256			-3.322
127905.000			-23.255			-3.322
128004.000			-23.254			-3.322
128104.000			-23.254			-3.322
128204.000			-23.253			-3.322
128304.000			-23.253			-3.322
128403.000			-23.254			-3.322
128505.000			-23.252			-3.322
128604.000			-23.251			-3.322
128704.000			-23.250			-3.321
128805.000			-23.250			-3.321
128904.000			-23.249			-3.321
129004.000			-23.250			-3.321
129103.000			-23.249			-3.321
129204.000			-23.248			-3.321
129305.000			-23.248			-3.321
129404.000			-23.246			-3.321
129504.000			-23.246			-3.321
129605.000			-23.245			-3.321
129704.000			-23.243			-3.320
129803.000			-23.245			-3.321
129905.000			-23.244			-3.321
130004.000			-23.243			-3.320
130104.000			-23.243			-3.320
130205.000			-23.243			-3.320
130304.000			-23.241			-3.320
130404.000			-23.241			-3.320
130504.000			-23.241			-3.320
130604.000			-23.240			-3.320
130704.000			-23.240			-3.320
130805.000			-23.238			-3.320
130904.000			-23.238			-3.320
131004.000			-23.239			-3.320
131105.000			-23.238			-3.320
131203.000			-23.236			-3.319
131304.000			-23.235			-3.319
131405.000			-23.236			-3.319
131504.000			-23.235			-3.319
131604.000			-23.235			-3.319
131705.000			-23.235			-3.319
131804.000			-23.234			-3.319
131903.000			-23.232			-3.319
132005.000			-23.233			-3.319
132104.000			-23.233			-3.319
132204.000			-23.231			-3.319
132305.000			-23.230			-3.319
132404.000			-23.229			-3.318
132505.000			-23.229			-3.318
132604.000			-23.229			-3.318
132704.000			-23.229			-3.318
132804.000			-23.228			-3.318
132904.000			-23.226			-3.318
133004.000			-23.225			-3.318
133105.000			-23.224			-3.318
133204.000			-23.224			-3.318
133304.000			-23.224			-3.318
133405.000			-23.223			-3.318
133503.000			-23.222			-3.317
133604.000			-23.222			-3.317
133705.000			-23.222			-3.317
133804.000			-23.220			-3.317
133904.000			-23.220			-3.317
134005.000			-23.220			-3.317
134104.000			-23.220			-3.317
134204.000			-23.219			-3.317
134305.000			-23.217			-3.317
134403.000			-23.218			-3.317
134504.000			-23.217			-3.317
134605.000			-23.216			-3.317
134704.000			-23.215			-3.316
134804.000			-23.214			-3.316
134905.000			-23.214			-3.316
135004.000			-23.214			-3.316
135103.000			-23.215			-3.316
135205.000			-23.213			-3.316
135304.000			-23.212			-3.316
135404.000			-23.211			-3.316
135505.000			-23.210			-3.316
135604.000			-23.210			-3.316
135705.000			-23.211			-3.316
135804.000			-23.210			-3.316
135904.000			-23.209			-3.316
136004.000			-23.207			-3.315
136104.000			-23.207			-3.315
136204.000			-23.208			-3.315
136305.000			-23.207			-3.315
136404.000			-23.206			-3.315
136504.000			-23.206			-3.315
136605.000			-23.205			-3.315
136703.000			-23.205			-3.315
136804.000			-23.206			-3.315
136905.000			-23.205			-3.315
137004.000			-23.205			-3.315
137104.000			-23.205			-3.315
137205.000			-23.203			-3.315
137304.000			-23.202			-3.315
137404.000			-23.202			-3.315
137505.000			-23.202			-3.315
137603.000			-23.201			-3.314
137704.000			-23.199			-3.314
137805.000			-23.199			-3.314
137904.000			-23.199			-3.314
138004.000			-23.199			-3.314
138105.000			-23.198			-3.314
138204.000			-23.197			-3.314
138304.000			-23.196			-3.314
138405.000			-23.196			-3.314
138503.000			-23.196			-3.314
138604.000			-23.195			-3.314
138705.000			-23.195			-3.314
138804.000			-23.193			-3.313
138905.000			-23.194			-3.313
139004.000			-23.193			-3.313
139104.000			-23.192			-3.313
139205.000			-23.192			-3.313
139304.000			-23.192			-3.313
139403.000			-23.191			-3.313
139505.000			-23.191			-3.313
139604.000			-23.190			-3.313
139704.000			-23.189			-3.313
139805.000			-23.189			-3.313
139904.000			-23.188			-3.313
140004.000			-23.187			-3.312
140104.000			-23.186			-3.312
140204.000			-23.185			-3.312
140303.000			-23.184			-3.312
140405.000			-23.184			-3.312
140504.000			-23.184			-3.312
140604.000			-23.183			-3.312
140705.000			-23.183			-3.312
140804.000			-23.182			-3.312
140904.000			-23.181			-3.312
141004.000			-23.180			-3.311
141104.000			-23.180			-3.311
141203.000			-23.179			-3.311
141305.000			-23.179			-3.311
141404.000			-23.179			-3.311
141504.000			-23.177			-3.311
141605.000			-23.177			-3.311
141704.000			-23.178			-3.311
141804.000			-23.176			-3.311
141903.000			-23.175			-3.311
142004.000			-23.176			-3.311
142105.000			-23.176			-3.311
142204.000			-23.176			-3.311
142304.000			-23.174			-3.311
142405.000			-23.173			-3.310
142504.000			-23.174			-3.311
142604.000			-23.173			-3.310
142705.000			-23.173			-3.310
142803.000			-23.173			-3.310
142904.000			-23.171			-3.310
143005.000			-23.171			-3.310
143104.000			-23.171			-3.310
143204.000			-23.170			-3.310
143305.000			-23.168			-3.310
143404.000			-23.168			-3.310
143504.000			-23.168			-3.310
143605.000			-23.168			-3.310
143703.000			-23.168			-3.310
143804.000			-23.168			-3.310
143905.000			-23.167			-3.310
144004.000			-23.166			-3.309
144104.000			-23.166			-3.309
144205.000			-23.165			-3.309
144304.000			-23.165			-3.309
144404.000			-23.165			-3.309
144505.000			-23.164			-3.309
144603.000			-23.163			-3.309
144704.000			-23.162			-3.309
144805.000			-23.162			-3.309
144904.000			-23.162			-3.309
145004.000			-23.161			-3.309
145104.000			-23.160			-3.309
145204.000			-23.160			-3.309
145303.000			-23.160			-3.309
145404.000			-23.159			-3.308
145503.000			-23.158			-3.308
145605.000			-23.157			-3.308
145704.000			-23.156			-3.308
145804.000			-23.155			-3.308
145905.000			-23.155			-3.308
146004.000			-23.155			-3.308
146104.000			-23.153			-3.308
146204.000			-23.152			-3.307
146304.000			-23.152			-3.307
146404.000			-23.151			-3.307
146505.000			-23.150			-3.307
146604.000			-23.150			-3.307
146704.000			-23.148			-3.307
146805.000			-23.147			-3.307
146904.000			-23.146			-3.307
147004.000			-23.145			-3.306
147104.000			-23.144			-3.306
147204.000			-23.146			-3.307
147304.000			-23.145			-3.306
147405.000			-23.144			-3.306
147504.000			-23.144			-3.306
147604.000			-23.143			-3.306
147705.000			-23.143			-3.306
147804.000			-23.143			-3.306
147904.000			-23.142			-3.306
148004.000			-23.142			-3.306
148104.000			-23.142			-3.306
148204.000			-23.141			-3.306
148304.000			-23.141			-3.306
148404.000			-23.141			-3.306
148505.000			-23.140			-3.306
148604.000			-23.140			-3.306
148703.000			-23.139			-3.306
148805.000			-23.140			-3.306
148903.000			-23.139			-3.306
149004.000			-23.138			-3.305
149105.000			-23.139			-3.306
149204.000			-23.138			-3.305
149304.000			-23.138			-3.305
149405.000			-23.137			-3.305
149504.000			-23.137			-3.305
149603.000			-23.137			-3.305
149705.000			-23.136			-3.305
149803.000			-23.136			-3.305
149904.000			-23.136			-3.305
150005.000			-23.134			-3.305
150104.000			-23.134			-3.305
150204.000			-23.133			-3.305
150305.000			-23.133			-3.305
150404.000			-23.133			-3.305
150503.000			-23.132			-3.305
150605.000			-23.132			-3.305
150704.000			-23.132			-3.305
150804.000			-23.130			-3.304
150905.000			-23.129			-3.304
151004.000			-23.130			-3.304
151104.000			-23.129			-3.304
151204.000			-23.129			-3.304
151304.000			-23.129			-3.304
151403.000			-23.129			-3.304
151505.000			-23.128			-3.304
151604.000			-23.128			-3.304
151705.000			-23.127			-3.304
151804.000			-23.126			-3.304
151904.000			-23.126			-3.304
152005.000			-23.126			-3.304
152103.000			-23.124			-3.303
152204.000			-23.124			-3.303
152305.000			-23.124			-3.303
152404.000			-23.124			-3.303
152504.000			-23.123			-3.303
152605.000			-23.122			-3.303
152704.000			-23.121			-3.303
152804.000			-23.122			-3.303
152905.000			-23.122			-3.303
153003.000			-23.120			-3.303
153104.000			-23.120			-3.303
153205.000			-23.120			-3.303
153304.000			-23.120			-3.303
153404.000			-23.119			-3.303
153505.000			-23.118			-3.303
153604.000			-23.118			-3.303
153704.000			-23.117			-3.302
153805.000			-23.117			-3.302
153903.000			-23.118			-3.303
154004.000			-23.117			-3.302
154105.000			-23.116			-3.302
154204.000			-23.115			-3.302
154304.000			-23.115			-3.302
154405.000			-23.114			-3.302
154504.000			-23.113			-3.302
154603.000			-23.112			-3.302
154705.000			-23.113			-3.302
154804.000			-23.113			-3.302
154905.000			-23.112			-3.302
155004.000			-23.111			-3.302
155104.000			-23.110			-3.301
155205.000			-23.111			-3.302
155304.000			-23.111			-3.302
155404.000			-23.111			-3.302
155504.000			-23.110			-3.301
155604.000			-23.109			-3.301
155704.000			-23.108			-3.301
155805.000			-23.108			-3.301
155904.000			-23.107			-3.301
156004.000			-23.107			-3.301
156105.000			-23.106			-3.301
156204.000			-23.106			-3.301
156304.000			-23.104			-3.301
156404.000			-23.104			-3.301
156504.000			-23.104			-3.301
156604.000			-23.104			-3.301
156705.000			-23.104			-3.301
156804.000			-23.103			-3.300
156904.000			-23.102			-3.300
157005.000			-23.101			-3.300
157103.000			-23.101			-3.300
157204.000			-23.101			-3.300
157305.000			-23.100			-3.300
157404.000			-23.099			-3.300
157504.000			-23.099			-3.300
157605.000			-23.099			-3.300
157704.000			-23.098			-3.300
157804.000			-23.098			-3.300
157905.000			-23.098			-3.300
158003.000			-23.098			-3.300
158105.000			-23.096			-3.299
158204.000			-23.096			-3.299
158304.000			-23.097			-3.300
158405.000			-23.096			-3.299
158504.000			-23.094			-3.299
158604.000			-23.093			-3.299
158705.000			-23.092			-3.299
158804.000			-23.092			-3.299
158903.000			-23.092			-3.299
159005.000			-23.091			-3.299
159103.000			-23.092			-3.299
159204.000			-23.090			-3.299
159305.000			-23.090			-3.299
159404.000			-23.090			-3.299
159504.000			-23.089			-3.298
159605.000			-23.088			-3.298
159704.000			-23.088			-3.298
159804.000			-23.087			-3.298
159905.000			-23.087			-3.298
160003.000			-23.087			-3.298
160104.000			-23.085			-3.298
160205.000			-23.085			-3.298
160304.000			-23.085			-3.298
160404.000			-23.084			-3.298
160505.000			-23.084			-3.298
160604.000			-23.084			-3.298
160703.000			-23.083			-3.298
160805.000			-23.082			-3.297
160903.000			-23.083			-3.298
161004.000			-23.083			-3.298
161105.000			-23.083			-3.298
161204.000			-23.082			-3.297
161305.000			-23.082			-3.297
161404.000			-23.081			-3.297
161504.000			-23.081			-3.297
161604.000			-23.080			-3.297
161704.000			-23.079			-3.297
161803.000			-23.079			-3.297
161905.000			-23.078			-3.297
162004.000			-23.078			-3.297
162104.000			-23.078			-3.297
162205.000			-23.077			-3.297
162304.000			-23.076			-3.297
162404.000			-23.076			-3.297
162504.000			-23.076			-3.297
162604.000			-23.076			-3.297
162704.000			-23.075			-3.296
162805.000			-23.075			-3.296
162904.000			-23.074			-3.296
163004.000			-23.074			-3.296
163105.000			-23.073			-3.296
163204.000			-23.073			-3.296
163304.000			-23.073			-3.296
163404.000			-23.072			-3.296
163504.000			-23.072			-3.296
163604.000			-23.070			-3.296
163705.000			-23.070			-3.296
163804.000			-23.070			-3.296
163904.000			-23.070			-3.296
164005.000			-23.069			-3.296
164103.000			-23.069			-3.296
164204.000			-23.068			-3.295
164303.000			-23.069			-3.296
164404.000			-23.068			-3.295
164505.000			-23.066			-3.295
164604.000			-23.065			-3.295
164704.000			-23.065			-3.295
164805.000			-23.066			-3.295
164904.000			-23.066			-3.295
165003.000			-23.065			-3.295
165105.000			-23.065			-3.295
165203.000			-23.064			-3.295
165304.000			-23.064			-3.295
165405.000			-23.064			-3.295
165504.000			-23.062			-3.295
165604.000			-23.062			-3.295
165705.000			-23.062			-3.295
165804.000			-23.060			-3.294
165903.000			-23.060			-3.294
166005.000			-23.059			-3.294
166104.000			-23.057			-3.294
166204.000			-23.057			-3.294
166305.000			-23.056			-3.294
166404.000			-23.055			-3.294
166504.000			-23.055			-3.294
166605.000			-23.054			-3.293
166704.000			-23.054			-3.293
166803.000			-23.053			-3.293
166905.000			-23.051			-3.293
167004.000			-23.051			-3.293
167104.000			-23.051			-3.293
167205.000			-23.050			-3.293
167304.000			-23.050			-3.293
167404.000			-23.050			-3.293
167504.000			-23.050			-3.293
167604.000			-23.050			-3.293
167703.000			-23.049			-3.293
167804.000			-23.048			-3.293
167904.000			-23.048			-3.293
168005.000			-23.047			-3.292
168104.000			-23.047			-3.292
168204.000			-23.046			-3.292
168305.000			-23.046			-3.292
168404.000			-23.045			-3.292
168504.000			-23.044			-3.292
168604.000			-23.044			-3.292
168704.000			-23.043			-3.292
168804.000			-23.043			-3.292
168905.000			-23.043			-3.292
169004.000			-23.043			-3.292
169104.000			-23.043			-3.292
169205.000			-23.042			-3.292
169304.000			-23.041			-3.292
169404.000			-23.039			-3.291
169504.000			-23.038			-3.291
169604.000			-23.038			-3.291
169704.000			-23.037			-3.291
169805.000			-23.037			-3.291
169904.000			-23.036			-3.291
170004.000			-23.036			-3.291
170105.000			-23.036			-3.291
170203.000			-23.036			-3.291
170304.000			-23.035			-3.291
170404.000			-23.034			-3.291
170504.000			-23.034			-3.291
170604.000			-23.033			-3.290
170704.000			-23.034			-3.291
170804.000			-23.033			-3.290
170905.000			-23.032			-3.290
171004.000			-23.032			-3.290
171103.000			-23.032			-3.290
171205.000			-23.031			-3.290
171304.000			-23.030			-3.290
171404.000			-23.030			-3.290
171505.000			-23.031			-3.290
171604.000			-23.031			-3.290
171704.000			-23.030			-3.290
171804.000			-23.029			-3.290
171904.000			-23.029			-3.290
172003.000			-23.029			-3.290
172105.000			-23.028			-3.290
172204.000			-23.027			-3.290
172304.000			-23.027			-3.290
172405.000			-23.026			-3.289
172504.000			-23.026			-3.289
172604.000			-23.026			-3.289
172704.000			-23.026			-3.289
172804.000			-23.026			-3.289
172904.000			-23.025			-3.289
173005.000			-23.023			-3.289
173104.000			-23.023			-3.289
173204.000			-23.022			-3.289
173305.000			-23.022			-3.289
173404.000			-23.020			-3.289
173504.000			-23.019			-3.288
173604.000			-23.019			-3.288
173704.000			-23.019			-3.288
173804.000			-23.018			-3.288
173904.000			-23.017			-3.288
174004.000			-23.017			-3.288
174105.000			-23.018			-3.288
174204.000			-23.017			-3.288
174303.000			-23.017			-3.288
174405.000			-23.016			-3.288
174503.000			-23.014			-3.288
174604.000			-23.014			-3.288
174705.000			-23.015			-3.288
174804.000			-23.013			-3.288
174904.000			-23.012			-3.287
175005.000			-23.012			-3.287
175104.000			-23.012			-3.287
175203.000			-23.010			-3.287
175305.000			-23.011			-3.287
175404.000			-23.012			-3.287
175504.000			-23.011			-3.287
175605.000			-23.010			-3.287
175704.000			-23.009			-3.287
175804.000			-23.009			-3.287
175905.000			-23.009			-3.287
176004.000			-23.009			-3.287
176103.000			-23.008			-3.287
176205.000			-23.007			-3.287
176304.000			-23.006			-3.287
176404.000			-23.006			-3.287
176505.000			-23.007			-3.287
176604.000			-23.006			-3.287
176704.000			-23.006			-3.287
176804.000			-23.006			-3.287
176904.000			-23.006			-3.287
177003.000			-23.005			-3.286
177105.000			-23.004			-3.286
177204.000			-23.005			-3.286
177305.000			-23.005			-3.286
177404.000			-23.003			-3.286
177504.000			-23.002			-3.286
177605.000			-23.003			-3.286
177703.000			-23.003			-3.286
177804.000			-23.002			-3.286
177905.000			-23.003			-3.286
178004.000			-23.002			-3.286
178104.000			-23.001			-3.286
178205.000			-23.000			-3.286
178304.000			-23.000			-3.286
178404.000			-23.000			-3.286
178505.000			-23.000			-3.286
178603.000			-23.000			-3.286
178704.000			-23.000			-3.286
178805.000			-22.998			-3.285
178904.000			-22.998			-3.285
179004.000			-22.999			-3.286
179105.000			-22.999			-3.286
179204.000			-22.998			-3.285
179304.000			-22.997			-3.285
179405.000			-22.998			-3.285
179504.000			-22.998			-3.285
179604.000			-22.998			-3.285
179704.000			-22.998			-3.285
179804.000			-22.996			-3.285
179903.000			-22.996			-3.285
180005.000			-22.997			-3.285
180104.000			-22.996			-3.285
180204.000			-22.996			-3.285
180305.000			-22.994			-3.285
180404.000			-22.994			-3.285
180505.000			-22.993			-3.285
180603.000			-22.993			-3.285
180704.000			-22.993			-3.285
180805.000			-22.994			-3.285
180904.000			-22.994			-3.285
181004.000			-22.992			-3.285
181105.000			-22.993			-3.285
181204.000			-22.992			-3.285
181304.000			-22.992			-3.285
181405.000			-22.992			-3.285
181503.000			-22.992			-3.285
181604.000			-22.991			-3.284
181704.000			-22.992			-3.285
181804.000			-22.992			-3.285
181904.000			-22.990			-3.284
182005.000			-22.990			-3.284
182104.000			-22.990			-3.284
182204.000			-22.989			-3.284
182305.000			-22.989			-3.284
182403.000			-22.989			-3.284
182504.000			-22.988			-3.284
182604.000			-22.988			-3.284
182704.000			-22.987			-3.284
182804.000			-22.987			-3.284
182905.000			-22.986			-3.284
183004.000			-22.985			-3.284
183104.000			-22.985			-3.284
183205.000			-22.985			-3.284
183304.000			-22.985			-3.284
183404.000			-22.985			-3.284
183503.000			-22.985			-3.284
183604.000			-22.985			-3.284
183705.000			-22.984			-3.283
183804.000			-22.984			-3.283
183904.000			-22.982			-3.283
184005.000			-22.982			-3.283
184104.000			-22.981			-3.283
184204.000			-22.980			-3.283
184305.000			-22.981			-3.283
184403.000			-22.981			-3.283
184504.000			-22.979			-3.283
184605.000			-22.979			-3.283
184704.000			-22.979			-3.283
184804.000			-22.979			-3.283
184905.000			-22.978			-3.283
185004.000			-22.977			-3.282
185104.000			-22.977			-3.282
185205.000			-22.978			-3.283
185303.000			-22.976			-3.282
185404.000			-22.975			-3.282
185504.000			-22.975			-3.282
185604.000			-22.975			-3.282
185704.000			-22.975			-3.282
185805.000			-22.973			-3.282
185904.000			-22.974			-3.282
186004.000			-22.973			-3.282
186105.000			-22.973			-3.282
186204.000			-22.972			-3.282
186304.000			-22.971			-3.282
186404.000			-22.971			-3.282
186504.000			-22.970			-3.281
186604.000			-22.970			-3.281
186704.000			-22.970			-3.281
186804.000			-22.969			-3.281
186905.000			-22.969			-3.281
187004.000			-22.969			-3.281
187104.000			-22.968			-3.281
187205.000			-22.969			-3.281
187303.000			-22.969			-3.281
187404.000			-22.968			-3.281
187504.000			-22.968			-3.281
187604.000			-22.968			-3.281
187704.000			-22.966			-3.281
187805.000			-22.967			-3.281
187904.000			-22.968			-3.281
188004.000			-22.967			-3.281
188105.000			-22.966			-3.281
188204.000			-22.966			-3.281
188304.000			-22.966			-3.281
188404.000			-22.965			-3.281
188504.000			-22.965			-3.281
188604.000			-22.964			-3.281
188705.000			-22.963			-3.280
188804.000			-22.963			-3.280
188904.000			-22.963			-3.280
189005.000			-22.963			-3.280
189104.000			-22.962			-3.280
189204.000			-22.962			-3.280
189304.000			-22.961			-3.280
189404.000			-22.961			-3.280
189503.000			-22.960			-3.280
189605.000			-22.960			-3.280
189704.000			-22.960			-3.280
189804.000			-22.961			-3.280
189905.000			-22.960			-3.280
190004.000			-22.959			-3.280
190105.000			-22.958			-3.280
190204.000			-22.958			-3.280
190304.000			-22.958			-3.280
190404.000			-22.959			-3.280
190504.000			-22.957			-3.280
190604.000			-22.955			-3.279
190705.000			-22.956			-3.279
190804.000			-22.955			-3.279
190904.000			-22.955			-3.279
191005.000			-22.955			-3.279
191104.000			-22.954			-3.279
191204.000			-22.954			-3.279
191304.000			-22.954			-3.279
191404.000			-22.954			-3.279
191504.000			-22.954			-3.279
191605.000			-22.954			-3.279
191704.000			-22.953			-3.279
191804.000			-22.952			-3.279
191905.000			-22.952			-3.279
192004.000			-22.952			-3.279
192104.000			-22.951			-3.279
192204.000			-22.951			-3.279
192304.000			-22.950			-3.279
192404.000			-22.950			-3.279
192505.000			-22.950			-3.279
192604.000			-22.949			-3.278
192704.000			-22.949			-3.278
192805.000			-22.949			-3.278
192904.000			-22.948			-3.278
193004.000			-22.948			-3.278
193103.000			-22.948			-3.278
193204.000			-22.948			-3.278
193305.000			-22.946			-3.278
193404.000			-22.946			-3.278
193504.000			-22.945			-3.278
193605.000			-22.945			-3.278
193704.000			-22.944			-3.278
193804.000			-22.945			-3.278
193905.000			-22.945			-3.278
194003.000			-22.944			-3.278
194104.000			-22.942			-3.277
194204.000			-22.942			-3.277
194304.000			-22.942			-3.277
194404.000			-22.942			-3.277
194505.000			-22.941			-3.277
194604.000			-22.941			-3.277
194704.000			-22.941			-3.277
194805.000			-22.941			-3.277
194903.000			-22.941			-3.277
195004.000			-22.941			-3.277
195104.000			-22.940			-3.277
195204.000			-22.938			-3.277
195304.000			-22.939			-3.277
195405.000			-22.938			-3.277
195504.000			-22.939			-3.277
195604.000			-22.938			-3.277
195705.000			-22.937			-3.277
195804.000			-22.937			-3.277
195904.000			-22.937			-3.277
196004.000			-22.936			-3.277
196104.000			-22.935			-3.276
196204.000			-22.935			-3.276
196304.000			-22.935			-3.276
196404.000			-22.934			-3.276
196505.000			-22.933			-3.276
196604.000			-22.932			-3.276
196704.000			-22.933			-3.276
196805.000			-22.933			-3.276
196903.000			-22.932			-3.276
197004.000			-22.931			-3.276
197105.000			-22.931			-3.276
197204.000			-22.931			-3.276
197304.000			-22.931			-3.276
197405.000			-22.930			-3.276
197504.000			-22.929			-3.276
197604.000			-22.928			-3.275
197705.000			-22.929			-3.276
197803.000			-22.929			-3.276
197904.000			-22.929			-3.276
198004.000			-22.927			-3.275
198104.000			-22.928			-3.275
198204.000			-22.927			-3.275
198305.000			-22.926			-3.275
198404.000			-22.926			-3.275
198504.000			-22.925			-3.275
198605.000			-22.924			-3.275
198704.000			-22.924			-3.275
198804.000			-22.924			-3.275
198904.000			-22.923			-3.275
199004.000			-22.923			-3.275
199104.000			-22.922			-3.275
199205.000			-22.920			-3.274
199304.000			-22.920			-3.274
199404.000			-22.920			-3.274
199505.000			-22.920			-3.274
199604.000			-22.920			-3.274
199705.000			-22.919			-3.274
199803.000			-22.919			-3.274
199904.000			-22.919			-3.274
200005.000			-22.918			-3.274
200104.000			-22.917			-3.274
200204.000			-22.917			-3.274
200305.000			-22.917			-3.274
200404.000			-22.916			-3.274
200504.000			-22.916			-3.274
200605.000			-22.915			-3.274
200703.000			-22.915			-3.274
200804.000			-22.914			-3.273
200905.000			-22.915			-3.274
201004.000			-22.914			-3.273
201104.000			-22.913			-3.273
201205.000			-22.913			-3.273
201304.000			-22.913			-3.273
201403.000			-22.911			-3.273
201505.000			-22.911			-3.273
201603.000			-22.910			-3.273
201704.000			-22.911			-3.273
201805.000			-22.911			-3.273
201904.000			-22.910			-3.273
202004.000			-22.911			-3.273
202105.000			-22.909			-3.273
202204.000			-22.908			-3.273
202303.000			-22.909			-3.273
202405.000			-22.909			-3.273
202504.000			-22.908			-3.273
202604.000			-22.908			-3.273
202705.000			-22.908			-3.273
202804.000			-22.907			-3.272
202905.000			-22.907			-3.272
203004.000			-22.907			-3.272
203104.000			-22.906			-3.272
203204.000			-22.905			-3.272
203304.000			-22.905			-3.272
203404.000			-22.905			-3.272
203505.000			-22.904			-3.272
203604.000			-22.906			-3.272
203704.000			-22.905			-3.272
203805.000			-22.905			-3.272
203903.000			-22.904			-3.272
204004.000			-22.904			-3.272
204104.000			-22.902			-3.272
204204.000			-22.902			-3.272
204304.000			-22.902			-3.272
204405.000			-22.902			-3.272
204504.000			-22.902			-3.272
204604.000			-22.902			-3.272
204705.000			-22.902			-3.272
204803.000			-22.901			-3.272
204904.000			-22.902			-3.272
205005.000			-22.901			-3.272
205104.000			-22.901			-3.272
205204.000			-22.901			-3.272
205305.000			-22.900			-3.271
205404.000			-22.900			-3.271
205503.000			-22.899			-3.271
205605.000			-22.899			-3.271
205703.000			-22.898			-3.271
205804.000			-22.898			-3.271
205905.000			-22.899			-3.271
206004.000			-22.898			-3.271
206105.000			-22.897			-3.271
206204.000			-22.897			-3.271
206304.000			-22.897			-3.271
206405.000			-22.896			-3.271
206504.000			-22.895			-3.271
206603.000			-22.895			-3.271
206705.000			-22.894			-3.271
206804.000			-22.894			-3.271
206904.000			-22.894			-3.271
207005.000			-22.893			-3.270
207104.000			-22.892			-3.270
207204.000			-22.891			-3.270
207305.000			-22.890			-3.270
207404.000			-22.890			-3.270
207503.000			-22.891			-3.270
207605.000			-22.891			-3.270
207704.000			-22.889			-3.270
207804.000			-22.889			-3.270
207905.000			-22.888			-3.270
208004.000			-22.890			-3.270
208104.000			-22.890			-3.270
208205.000			-22.887			-3.270
208304.000			-22.887			-3.270
208403.000			-22.887			-3.270
208505.000			-22.887			-3.270
208604.000			-22.886			-3.269
208704.000			-22.886			-3.269
208805.000			-22.885			-3.269
208904.000			-22.885			-3.269
209004.000			-22.885			-3.269
209104.000			-22.884			-3.269
209204.000			-22.883			-3.269
209303.000			-22.883			-3.269
209404.000			-22.882			-3.269
209504.000			-22.881			-3.269
209605.000			-22.881			-3.269
209704.000			-22.882			-3.269
209804.000			-22.881			-3.269
209905.000			-22.880			-3.269
210004.000			-22.880			-3.269
210104.000			-22.878			-3.268
210204.000			-22.879			-3.268
210304.000			-22.879			-3.268
210404.000			-22.878			-3.268
210505.000			-22.877			-3.268
210604.000			-22.877			-3.268
210704.000			-22.877			-3.268
210805.000			-22.875			-3.268
210904.000			-22.875			-3.268
211004.000			-22.876			-3.268
211104.000			-22.875			-3.268
211204.000			-22.875			-3.268
211304.000			-22.874			-3.268
211405.000			-22.873			-3.268
211504.000			-22.873			-3.268
211604.000			-22.873			-3.268
211705.000			-22.873			-3.268
211804.000			-22.873			-3.268
211904.000			-22.872			-3.267
212004.000			-22.873			-3.268
212104.000			-22.872			-3.267
212204.000			-22.872			-3.267
212304.000			-22.870			-3.267
212404.000			-22.870			-3.267
212505.000			-22.871			-3.267
212604.000			-22.870			-3.267
212703.000			-22.869			-3.267
212805.000			-22.869			-3.267
212903.000			-22.868			-3.267
213004.000			-22.869			-3.267
213105.000			-22.867			-3.267
213204.000			-22.866			-3.267
213304.000			-22.867			-3.267
213405.000			-22.867			-3.267
213504.000			-22.865			-3.266
213603.000			-22.864			-3.266
213705.000			-22.865			-3.266
213803.000			-22.864			-3.266
213904.000			-22.865			-3.266
214005.000			-22.865			-3.266
214104.000			-22.864			-3.266
214204.000			-22.863			-3.266
214305.000			-22.863			-3.266
214404.000			-22.863			-3.266
214503.000			-22.863			-3.266
214605.000			-22.862			-3.266
214703.000			-22.862			-3.266
214804.000			-22.862			-3.266
214905.000			-22.862			-3.266
215004.000			-22.862			-3.266
215104.000			-22.861			-3.266
215205.000			-22.861			-3.266
215304.000			-22.861			-3.266
215403.000			-22.860			-3.266
215505.000			-22.861			-3.266
215604.000			-22.860			-3.266
215705.000			-22.860			-3.266
215804.000			-22.859			-3.266
215904.000			-22.858			-3.265
216005.000			-22.858			-3.265
216104.000			-22.858			-3.265
216204.000			-22.857			-3.265
216304.000			-22.857			-3.265
216404.000			-22.858			-3.265
216503.000			-22.858			-3.265
216605.000			-22.857			-3.265
216704.000			-22.857			-3.265
216804.000			-22.856			-3.265
216905.000			-22.856			-3.265
217004.000			-22.856			-3.265
217104.000			-22.856			-3.265
217204.000			-22.856			-3.265
217304.000			-22.855			-3.265
217403.000			-22.855			-3.265
217505.000			-22.854			-3.265
217604.000			-22.855			-3.265
217704.000			-22.854			-3.265
217805.000			-22.854			-3.265
217904.000			-22.854			-3.265
218004.000			-22.854			-3.265
218104.000			-22.853			-3.265
218204.000			-22.853			-3.265
218303.000			-22.853			-3.265
218405.000			-22.854			-3.265
218504.000			-22.853			-3.265
218604.000			-22.853			-3.265
218705.000			-22.853			-3.265
218804.000			-22.853			-3.265
218905.000			-22.851			-3.264
219003.000			-22.850			-3.264
219104.000			-22.851			-3.264
219205.000			-22.852			-3.265
219304.000			-22.850			-3.264
219404.000			-22.850			-3.264
219505.000			-22.850			-3.264
219604.000			-22.849			-3.264
219704.000			-22.850			-3.264
219805.000			-22.849			-3.264
219903.000			-22.848			-3.264
220004.000			-22.848			-3.264
220104.000			-22.847			-3.264
220204.000			-22.848			-3.264
220304.000			-22.848			-3.264
220405.000			-22.847			-3.264
220504.000			-22.847			-3.264
220604.000			-22.847			-3.264
220705.000			-22.846			-3.264
220803.000			-22.846			-3.264
220904.000			-22.847			-3.264
221004.000			-22.846			-3.264
221104.000			-22.846			-3.264
221204.000			-22.845			-3.264
221305.000			-22.844			-3.263
221404.000			-22.844			-3.263
221504.000			-22.844			-3.263
221605.000			-22.844			-3.263
221703.000			-22.843			-3.263
221804.000			-22.843			-3.263
221905.000			-22.843			-3.263
222004.000			-22.843			-3.263
222105.000			-22.843			-3.263
222204.000			-22.843			-3.263
222304.000			-22.842			-3.263
222405.000			-22.842			-3.263
222504.000			-22.841			-3.263
222603.000			-22.840			-3.263
222705.000			-22.840			-3.263
222804.000			-22.840			-3.263
222904.000			-22.839			-3.263
223005.000			-22.839			-3.263
223104.000			-22.839			-3.263
223204.000			-22.839			-3.263
223305.000			-22.839			-3.263
223404.000			-22.837			-3.262
223503.000			-22.837			-3.262
223605.000			-22.838			-3.263
223704.000			-22.838			-3.263
223804.000			-22.836			-3.262
223905.000			-22.836			-3.262
224004.000			-22.835			-3.262
224104.000			-22.836			-3.262
224205.000			-22.836			-3.262
224304.000			-22.835			-3.262
224403.000			-22.834			-3.262
224505.000			-22.834			-3.262
224604.000			-22.833			-3.262
224704.000			-22.833			-3.262
224805.000			-22.832			-3.262
224904.000			-22.832			-3.262
225004.000			-22.831			-3.262
225103.000			-22.831			-3.262
225204.000			-22.830			-3.261
225303.000			-22.830			-3.261
225404.000			-22.829			-3.261
225504.000			-22.829			-3.261
225605.000			-22.828			-3.261
225704.000			-22.827			-3.261
225804.000			-22.827			-3.261
225905.000			-22.827			-3.261
226003.000			-22.826			-3.261
226104.000			-22.825			-3.261
226204.000			-22.823			-3.260
226304.000			-22.823			-3.260
226404.000			-22.824			-3.261
226505.000			-22.823			-3.260
226604.000			-22.823			-3.260
226704.000			-22.823			-3.260
226805.000			-22.823			-3.260
226903.000			-22.823			-3.260
227004.000			-22.823			-3.260
227105.000			-22.822			-3.260
227204.000			-22.821			-3.260
227304.000			-22.821			-3.260
227405.000			-22.822			-3.260
227504.000			-22.821			-3.260
227604.000			-22.820			-3.260
227705.000			-22.820			-3.260
227803.000			-22.820			-3.260
227904.000			-22.820			-3.260
228005.000			-22.820			-3.260
228104.000			-22.819			-3.260
228204.000			-22.819			-3.260
228304.000			-22.819			-3.260
228404.000			-22.818			-3.260
228505.000			-22.819			-3.260
228604.000			-22.819			-3.260
228703.000			-22.818			-3.260
228805.000			-22.818			-3.260
228904.000			-22.818			-3.260
229004.000			-22.817			-3.260
229105.000			-22.816			-3.259
229204.000			-22.817			-3.260
229304.000			-22.817			-3.260
229405.000			-22.816			-3.259
229504.000			-22.816			-3.259
229603.000			-22.817			-3.260
229705.000			-22.817			-3.260
229804.000			-22.816			-3.259
229904.000			-22.815			-3.259
230005.000			-22.815			-3.259
230104.000			-22.814			-3.259
230204.000			-22.814			-3.259
230305.000			-22.815			-3.259
230404.000			-22.814			-3.259
230503.000			-22.813			-3.259
230605.000			-22.813			-3.259
230704.000			-22.813			-3.259
230804.000			-22.813			-3.259
230905.000			-22.812			-3.259
231004.000			-22.812			-3.259
231104.000			-22.812			-3.259
231204.000			-22.811			-3.259
231304.000			-22.811			-3.259
231403.000			-22.810			-3.259
231505.000			-22.810			-3.259
231604.000			-22.810			-3.259
231705.000			-22.809			-3.258
231804.000			-22.808			-3.258
231904.000			-22.808			-3.258
232005.000			-22.809			-3.258
232103.000			-22.808			-3.258
232204.000			-22.807			-3.258
232305.000			-22.807			-3.258
232404.000			-22.807			-3.258
232504.000			-22.806			-3.258
232605.000			-22.805			-3.258
232704.000			-22.805			-3.258
232804.000			-22.804			-3.258
232905.000			-22.803			-3.258
233003.000			-22.802			-3.257
233104.000			-22.803			-3.258
233205.000			-22.802			-3.257
233304.000			-22.801			-3.257
233404.000			-22.800			-3.257
233505.000			-22.800			-3.257
233604.000			-22.800			-3.257
233703.000			-22.800			-3.257
233805.000			-22.799			-3.257
233904.000			-22.799			-3.257
234004.000			-22.799			-3.257
234105.000			-22.799			-3.257
234204.000			-22.798			-3.257
234304.000			-22.798			-3.257
234405.000			-22.798			-3.257
234504.000			-22.797			-3.257
234603.000			-22.797			-3.257
234705.000			-22.797			-3.257
234803.000			-22.798			-3.257
234905.000			-22.795			-3.256
235004.000			-22.795			-3.256
235104.000			-22.796			-3.257
235205.000			-22.796			-3.257
235304.000			-22.795			-3.256
235404.000			-22.795			-3.256
235505.000			-22.795			-3.256
235604.000			-22.796			-3.257
235703.000			-22.796			-3.257
235805.000			-22.795			-3.256
235904.000			-22.795			-3.256
236004.000			-22.795			-3.256
236105.000			-22.795			-3.256
236204.000			-22.795			-3.256
236304.000			-22.794			-3.256
236405.000			-22.794			-3.256
236504.000			-22.793			-3.256
236603.000			-22.792			-3.256
236705.000			-22.792			-3.256
236804.000			-22.792			-3.256
236904.000			-22.791			-3.256
237005.000			-22.792			-3.256
237104.000			-22.792			-3.256
237204.000			-22.791			-3.256
237305.000			-22.791			-3.256
237404.000			-22.792			-3.256
237503.000			-22.792			-3.256
237605.000			-22.792			-3.256
237704.000			-22.791			-3.256
237804.000			-22.790			-3.256
237905.000			-22.789			-3.256
238004.000			-22.789			-3.256
238105.000			-22.789			-3.256
238204.000			-22.788			-3.255
238304.000			-22.788			-3.255
238404.000			-22.789			-3.256
238504.000			-22.787			-3.255
238603.000			-22.788			-3.255
238705.000			-22.787			-3.255
238804.000			-22.787			-3.255
238904.000			-22.787			-3.255
239005.000			-22.786			-3.255
239104.000			-22.786			-3.255
239204.000			-22.786			-3.255
239305.000			-22.786			-3.255
239404.000			-22.785			-3.255
239503.000			-22.785			-3.255
239605.000			-22.784			-3.255
239704.000			-22.784			-3.255
239804.000			-22.782			-3.255
239905.000			-22.783			-3.255
240004.000			-22.783			-3.255
240104.000			-22.783			-3.255
240205.000			-22.782			-3.255
240304.000			-22.780			-3.254
240403.000			-22.780			-3.254
240505.000			-22.778			-3.254
240604.000			-22.778			-3.254
240704.000			-22.777			-3.254
240805.000			-22.777			-3.254
240904.000			-22.778			-3.254
241004.000			-22.776			-3.254
241104.000			-22.776			-3.254
241204.000			-22.776			-3.254
241303.000			-22.776			-3.254
241404.000			-22.776			-3.254
241504.000			-22.775			-3.254
241605.000			-22.774			-3.253
241704.000			-22.773			-3.253
241804.000			-22.773			-3.253
241905.000			-22.773			-3.253
242004.000			-22.773			-3.253
242104.000			-22.773			-3.253
242204.000			-22.773			-3.253
242304.000			-22.774			-3.253
242404.000			-22.773			-3.253
242505.000			-22.773			-3.253
242604.000			-22.773			-3.253
242704.000			-22.773			-3.253
242805.000			-22.773			-3.253
242903.000			-22.773			-3.253
243004.000			-22.772			-3.253
243104.000			-22.772			-3.253
243204.000			-22.772			-3.253
243304.000			-22.772			-3.253
243405.000			-22.772			-3.253
243504.000			-22.772			-3.253
243604.000			-22.770			-3.253
243705.000			-22.770			-3.253
243803.000			-22.770			-3.253
243904.000			-22.769			-3.253
244004.000			-22.769			-3.253
244104.000			-22.769			-3.253
244204.000			-22.769			-3.253
244304.000			-22.768			-3.253
244404.000			-22.768			-3.253
244505.000			-22.768			-3.253
244604.000			-22.768			-3.253
244704.000			-22.767			-3.252
244805.000			-22.767			-3.252
244903.000			-22.767			-3.252
245004.000			-22.765			-3.252
245105.000			-22.766			-3.252
245204.000			-22.766			-3.252
245304.000			-22.766			-3.252
245405.000			-22.764			-3.252
245504.000			-22.764			-3.252
245604.000			-22.764			-3.252
245705.000			-22.764			-3.252
245803.000			-22.763			-3.252
245904.000			-22.762			-3.252
246005.000			-22.762			-3.252
246104.000			-22.761			-3.252
246204.000			-22.762			-3.252
246305.000			-22.762			-3.252
246404.000			-22.762			-3.252
246504.000			-22.761			-3.252
246605.000			-22.761			-3.252
246703.000			-22.760			-3.251
246804.000			-22.761			-3.252
246905.000			-22.762			-3.252
247004.000			-22.760			-3.251
247104.000			-22.760			-3.251
247205.000			-22.760			-3.251
247304.000			-22.759			-3.251
247404.000			-22.759			-3.251
247505.000			-22.759			-3.251
247603.000			-22.759			-3.251
247705.000			-22.758			-3.251
247804.000			-22.758			-3.251
247904.000			-22.757			-3.251
248005.000			-22.757			-3.251
248104.000			-22.757			-3.251
248204.000			-22.758			-3.251
248305.000			-22.758			-3.251
248404.000			-22.757			-3.251
248503.000			-22.757			-3.251
248605.000			-22.757			-3.251
248703.000			-22.756			-3.251
248804.000			-22.756			-3.251
248905.000			-22.755			-3.251
249004.000			-22.754			-3.251
249104.000			-22.754			-3.251
249205.000			-22.755			-3.251
249304.000			-22.755			-3.251
249403.000			-22.754			-3.251
249505.000			-22.754			-3.251
249603.000			-22.753			-3.250
249704.000			-22.753			-3.250
249805.000			-22.753			-3.250
249904.000			-22.752			-3.250
250004.000			-22.753			-3.250
250105.000			-22.751			-3.250
250204.000			-22.751			-3.250
250303.000			-22.752			-3.250
250405.000			-22.752			-3.250
250503.000			-22.751			-3.250
250604.000			-22.750			-3.250
250705.000			-22.750			-3.250
250804.000			-22.750			-3.250
250905.000			-22.750			-3.250
251004.000			-22.749			-3.250
251104.000			-22.750			-3.250
251204.000			-22.749			-3.250
251304.000			-22.748			-3.250
251403.000			-22.748			-3.250
251505.000			-22.747			-3.250
251604.000			-22.746			-3.249
251704.000			-22.745			-3.249
251805.000			-22.746			-3.249
251904.000			-22.746			-3.249
252004.000			-22.745			-3.249
252104.000			-22.746			-3.249
252204.000			-22.746			-3.249
252303.000			-22.745			-3.249
252405.000			-22.745			-3.249
252504.000			-22.744			-3.249
252604.000			-22.745			-3.249
252705.000			-22.744			-3.249
252804.000			-22.744			-3.249
252904.000			-22.744			-3.249
253004.000			-22.743			-3.249
253104.000			-22.743			-3.249
253204.000			-22.743			-3.249
253305.000			-22.743			-3.249
253404.000			-22.742			-3.249
253504.000			-22.743			-3.249
253605.000			-22.743			-3.249
253704.000			-22.741			-3.249
253804.000			-22.741			-3.249
253903.000			-22.740			-3.249
254004.000			-22.741			-3.249
254105.000			-22.741			-3.249
254204.000			-22.740			-3.249
254304.000			-22.740			-3.249
254405.000			-22.739			-3.248
254504.000			-22.738			-3.248
254604.000			-22.738			-3.248
254705.000			-22.738			-3.248
254803.000			-22.737			-3.248
254904.000			-22.737			-3.248
255005.000			-22.736			-3.248
255104.000			-22.736			-3.248
255204.000			-22.736			-3.248
255305.000			-22.735			-3.248
255404.000			-22.734			-3.248
255504.000			-22.734			-3.248
255605.000			-22.735			-3.248
255703.000			-22.734			-3.248
255804.000			-22.734			-3.248
255905.000			-22.734			-3.248
256004.000			-22.733			-3.248
256104.000			-22.732			-3.247
256205.000			-22.730			-3.247
256304.000			-22.731			-3.247
256404.000			-22.730			-3.247
256505.000			-22.730			-3.247
256603.000			-22.730			-3.247
256704.000			-22.729			-3.247
256805.000			-22.729			-3.247
256904.000			-22.729			-3.247
257004.000			-22.729			-3.247
257104.000			-22.729			-3.247
257204.000			-22.729			-3.247
257305.000			-22.728			-3.247
257404.000			-22.728			-3.247
257503.000			-22.728			-3.247
257605.000			-22.728			-3.247
257704.000			-22.728			-3.247
257804.000			-22.727			-3.247
257905.000			-22.726			-3.247
258004.000			-22.727			-3.247
258104.000			-22.726			-3.247
258205.000			-22.727			-3.247
258304.000			-22.727			-3.247
258403.000			-22.726			-3.247
258505.000			-22.725			-3.246
258604.000			-22.725			-3.246
258704.000			-22.724			-3.246
258805.000			-22.724			-3.246
258904.000			-22.724			-3.246
259004.000			-22.724			-3.246
259105.000			-22.725			-3.246
259204.000			-22.725			-3.246
259303.000			-22.725			-3.246
259405.000			-22.724			-3.246
259503.000			-22.724			-3.246
259604.000			-22.723			-3.246
259705.000			-22.724			-3.246
259804.000			-22.723			-3.246
259904.000			-22.722			-3.246
260005.000			-22.722			-3.246
260104.000			-22.723			-3.246
260203.000			-22.723			-3.246
260305.000			-22.722			-3.246
260404.000			-22.721			-3.246
260505.000			-22.720			-3.246
260604.000			-22.720			-3.246
260704.000			-22.719			-3.246
260805.000			-22.719			-3.246
260904.000			-22.719			-3.246
261004.000			-22.719			-3.246
261104.000			-22.717			-3.245
261204.000			-22.716			-3.245
261304.000			-22.716			-3.245
261405.000			-22.716			-3.245
261504.000			-22.715			-3.245
261604.000			-22.715			-3.245
261705.000			-22.715			-3.245
261804.000			-22.715			-3.245
261904.000			-22.714			-3.245
262004.000			-22.714			-3.245
262104.000			-22.714			-3.245
262204.000			-22.714			-3.245
262305.000			-22.713			-3.245
262404.000			-22.712			-3.245
262504.000			-22.712			-3.245
262605.000			-22.712			-3.245
262704.000			-22.711			-3.244
262804.000			-22.711			-3.244
262904.000			-22.711			-3.244
263004.000			-22.711			-3.244
263104.000			-22.711			-3.244
263205.000			-22.709			-3.244
263304.000			-22.709			-3.244
263404.000			-22.709			-3.244
263505.000			-22.710			-3.244
263603.000			-22.709			-3.244
263705.000			-22.709			-3.244
263804.000			-22.710			-3.244
263904.000			-22.708			-3.244
264005.000			-22.710			-3.244
264104.000			-22.710			-3.244
264204.000			-22.708			-3.244
264305.000			-22.707			-3.244
264404.000			-22.707			-3.244
264503.000			-22.707			-3.244
264605.000			-22.707			-3.244
264704.000			-22.708			-3.244
264804.000			-22.708			-3.244
264905.000			-22.707			-3.244
265004.000			-22.706			-3.244
265104.000			-22.705			-3.244
265205.000			-22.706			-3.244
265304.000			-22.706			-3.244
265403.000			-22.706			-3.244
265505.000			-22.705			-3.244
265604.000			-22.704			-3.243
265704.000			-22.705			-3.244
265805.000			-22.705			-3.244
265904.000			-22.704			-3.243
266004.000			-22.704			-3.243
266105.000			-22.704			-3.243
266204.000			-22.704			-3.243
266303.000			-22.704			-3.243
266405.000			-22.703			-3.243
266504.000			-22.703			-3.243
266604.000			-22.703			-3.243
266705.000			-22.703			-3.243
266804.000			-22.703			-3.243
266905.000			-22.703			-3.243
267004.000			-22.702			-3.243
267104.000			-22.702			-3.243
267204.000			-22.702			-3.243
267304.000			-22.702			-3.243
267404.000			-22.702			-3.243
267505.000			-22.701			-3.243
267604.000			-22.701			-3.243
267704.000			-22.701			-3.243
267805.000			-22.701			-3.243
267903.000			-22.700			-3.243
268004.000			-22.701			-3.243
268104.000			-22.699			-3.243
268204.000			-22.699			-3.243
268304.000			-22.700			-3.243
268405.000			-22.700			-3.243
268504.000			-22.698			-3.243
268604.000			-22.699			-3.243
268705.000			-22.699			-3.243
268804.000			-22.699			-3.243
268904.000			-22.698			-3.243
269004.000			-22.698			-3.243
269104.000			-22.698			-3.243
269204.000			-22.697			-3.242
269305.000			-22.696			-3.242
269404.000			-22.696			-3.242
269504.000			-22.696			-3.242
269605.000			-22.697			-3.242
269704.000			-22.696			-3.242
269804.000			-22.696			-3.242
269903.000			-22.695			-3.242
270004.000			-22.695			-3.242
270103.000			-22.696			-3.242
270204.000			-22.695			-3.242
270304.000			-22.695			-3.242
270405.000			-22.694			-3.242
270504.000			-22.694			-3.242
270604.000			-22.694			-3.242
270705.000			-22.694			-3.242
270803.000			-22.694			-3.242
270904.000			-22.694			-3.242
271004.000			-22.693			-3.242
271104.000			-22.693			-3.242
271204.000			-22.693			-3.242
271305.000			-22.691			-3.242
271404.000			-22.691			-3.242
271504.000			-22.693			-3.242
271605.000			-22.692			-3.242
271703.000			-22.692			-3.242
271804.000			-22.692			-3.242
271904.000			-22.691			-3.242
272004.000			-22.691			-3.242
272104.000			-22.690			-3.241
272205.000			-22.690			-3.241
272304.000			-22.689			-3.241
272404.000			-22.688			-3.241
272505.000			-22.687			-3.241
272603.000			-22.687			-3.241
272704.000			-22.687			-3.241
272804.000			-22.687			-3.241
272904.000			-22.686			-3.241
273004.000			-22.686			-3.241
273104.000			-22.685			-3.241
273204.000			-22.685			-3.241
273305.000			-22.684			-3.241
273404.000			-22.684			-3.241
273504.000			-22.683			-3.240
273605.000			-22.682			-3.240
273703.000			-22.681			-3.240
273804.000			-22.681			-3.240
273905.000			-22.681			-3.240
274004.000			-22.681			-3.240
274104.000			-22.680			-3.240
274205.000			-22.680			-3.240
274304.000			-22.679			-3.240
274404.000			-22.679			-3.240
274505.000			-22.678			-3.240
274603.000			-22.678			-3.240
274704.000			-22.678			-3.240
274805.000			-22.678			-3.240
274904.000			-22.677			-3.240
275004.000			-22.677			-3.240
275105.000			-22.676			-3.239
275204.000			-22.675			-3.239
275304.000			-22.676			-3.239
275405.000			-22.677			-3.240
275503.000			-22.677			-3.240
275604.000			-22.675			-3.239
275704.000			-22.675			-3.239
275804.000			-22.675			-3.239
275904.000			-22.675			-3.239
276005.000			-22.675			-3.239
276104.000			-22.675			-3.239
276204.000			-22.674			-3.239
276305.000			-22.673			-3.239
276403.000			-22.673			-3.239
276505.000			-22.672			-3.239
276603.000			-22.672			-3.239
276704.000			-22.673			-3.239
276805.000			-22.673			-3.239
276904.000			-22.673			-3.239
277004.000			-22.672			-3.239
277105.000			-22.674			-3.239
277204.000			-22.673			-3.239
277303.000			-22.672			-3.239
277405.000			-22.671			-3.239
277503.000			-22.671			-3.239
277604.000			-22.671			-3.239
277705.000			-22.672			-3.239
277804.000			-22.671			-3.239
277904.000			-22.671			-3.239
278005.000			-22.671			-3.239
278104.000			-22.670			-3.239
278204.000			-22.670			-3.239
278305.000			-22.669			-3.238
278403.000			-22.669			-3.238
278504.000			-22.668			-3.238
278605.000			-22.667			-3.238
278704.000			-22.667			-3.238
278804.000			-22.668			-3.238
278905.000			-22.667			-3.238
279004.000			-22.667			-3.238
279104.000			-22.666			-3.238
279205.000			-22.666			-3.238
279303.000			-22.666			-3.238
279404.000			-22.666			-3.238
279505.000			-22.666			-3.238
279604.000			-22.665			-3.238
279705.000			-22.665			-3.238
279804.000			-22.665			-3.238
279904.000			-22.665			-3.238
280005.000			-22.665			-3.238
280104.000			-22.664			-3.238
280203.000			-22.664			-3.238
280305.000			-22.664			-3.238
280403.000			-22.664			-3.238
280504.000			-22.664			-3.238
280605.000			-22.663			-3.238
280704.000			-22.664			-3.238
280804.000			-22.663			-3.238
280905.000			-22.663			-3.238
281004.000			-22.663			-3.238
281103.000			-22.663			-3.238
281205.000			-22.662			-3.237
281304.000			-22.662			-3.237
281404.000			-22.662			-3.237
281505.000			-22.663			-3.238
281604.000			-22.662			-3.237
281704.000			-22.662			-3.237
281805.000			-22.662			-3.237
281904.000			-22.662			-3.237
282003.000			-22.661			-3.237
282105.000			-22.662			-3.237
282204.000			-22.661			-3.237
282304.000			-22.661			-3.237
282405.000			-22.660			-3.237
282504.000			-22.659			-3.237
282604.000			-22.659			-3.237
282704.000			-22.659			-3.237
282804.000			-22.660			-3.237
282903.000			-22.659			-3.237
283004.000			-22.659			-3.237
283103.000			-22.658			-3.237
283205.000			-22.658			-3.237
283304.000			-22.659			-3.237
283404.000			-22.659			-3.237
283505.000			-22.657			-3.237
283604.000			-22.657			-3.237
283704.000			-22.657			-3.237
283804.000			-22.657			-3.237
283904.000			-22.657			-3.237
284003.000			-22.657			-3.237
284105.000			-22.657			-3.237
284204.000			-22.656			-3.237
284304.000			-22.656			-3.237
284405.000			-22.656			-3.237
284504.000			-22.655			-3.236
284604.000			-22.655			-3.236
284704.000			-22.654			-3.236
284804.000			-22.655			-3.236
284903.000			-22.654			-3.236
285005.000			-22.654			-3.236
285104.000			-22.654			-3.236
285204.000			-22.653			-3.236
285305.000			-22.653			-3.236
285404.000			-22.653			-3.236
285504.000			-22.653			-3.236
285604.000			-22.652			-3.236
285704.000			-22.653			-3.236
285803.000			-22.652			-3.236
285905.000			-22.653			-3.236
286004.000			-22.653			-3.236
286105.000			-22.652			-3.236
286204.000			-22.651			-3.236
286304.000			-22.651			-3.236
286405.000			-22.651			-3.236
286503.000			-22.650			-3.236
286604.000			-22.650			-3.236
286704.000			-22.651			-3.236
286804.000			-22.651			-3.236
286904.000			-22.650			-3.236
287005.000			-22.649			-3.236
287104.000			-22.649			-3.236
287204.000			-22.649			-3.236
287305.000			-22.650			-3.236
287404.000			-22.649			-3.236
287504.000			-22.650			-3.236
287604.000			-22.648			-3.235
287704.000			-22.648			-3.235
287804.000			-22.649			-3.236
287905.000			-22.649			-3.236
288004.000			-22.647			-3.235
288104.000			-22.646			-3.235
288205.000			-22.646			-3.235
288304.000			-22.646			-3.235
288404.000			-22.645			-3.235
288504.000			-22.646			-3.235
288604.000			-22.646			-3.235
288703.000			-22.644			-3.235
288805.000			-22.645			-3.235
288904.000			-22.646			-3.235
289004.000			-22.645			-3.235
289105.000			-22.644			-3.235
289204.000			-22.644			-3.235
289305.000			-22.644			-3.235
289403.000			-22.645			-3.235
289504.000			-22.644			-3.235
289604.000			-22.643			-3.235
289704.000			-22.643			-3.235
289804.000			-22.643			-3.235
289905.000			-22.642			-3.235
290004.000			-22.641			-3.234
290104.000			-22.642			-3.235
290205.000			-22.643			-3.235
290304.000			-22.642			-3.235
290404.000			-22.641			-3.234
290504.000			-22.641			-3.234
290604.000			-22.641			-3.234
290704.000			-22.641			-3.234
290805.000			-22.640			-3.234
290904.000			-22.640			-3.234
291004.000			-22.640			-3.234
291105.000			-22.640			-3.234
291204.000			-22.639			-3.234
291304.000			-22.639			-3.234
291404.000			-22.639			-3.234
291504.000			-22.638			-3.234
291604.000			-22.638			-3.234
291705.000			-22.638			-3.234
291804.000			-22.637			-3.234
291904.000			-22.638			-3.234
292005.000			-22.638			-3.234
292104.000			-22.637			-3.234
292204.000			-22.637			-3.234
292303.000			-22.637			-3.234
292404.000			-22.636			-3.234
292505.000			-22.636			-3.234
292604.000			-22.637			-3.234
292704.000			-22.635			-3.234
292805.000			-22.635			-3.234
292904.000			-22.634			-3.233
293004.000			-22.635			-3.234
293105.000			-22.635			-3.234
293203.000			-22.634			-3.233
293304.000			-22.634			-3.233
293405.000			-22.634			-3.233
293504.000			-22.633			-3.233
293604.000			-22.633			-3.233
293705.000			-22.633			-3.233
293804.000			-22.632			-3.233
293903.000			-22.632			-3.233
294005.000			-22.632			-3.233
294103.000			-22.631			-3.233
294204.000			-22.631			-3.233
294305.000			-22.630			-3.233
294404.000			-22.630			-3.233
294504.000			-22.629			-3.233
294605.000			-22.629			-3.233
294704.000			-22.629			-3.233
294803.000			-22.629			-3.233
294905.000			-22.628			-3.233
295003.000			-22.629			-3.233
295104.000			-22.629			-3.233
295205.000			-22.627			-3.232
295304.000			-22.627			-3.232
295404.000			-22.625			-3.232
295504.000			-22.626			-3.232
295604.000			-22.627			-3.232
295703.000			-22.627			-3.232
295804.000			-22.627			-3.232
295903.000			-22.627			-3.232
296005.000			-22.627			-3.232
296104.000			-22.626			-3.232
296204.000			-22.625			-3.232
296305.000			-22.625			-3.232
296404.000			-22.625			-3.232
296504.000			-22.626			-3.232
296605.000			-22.625			-3.232
296704.000			-22.625			-3.232
296803.000			-22.625			-3.232
296905.000			-22.624			-3.232
297004.000			-22.624			-3.232
297104.000			-22.624			-3.232
297205.000			-22.624			-3.232
297304.000			-22.624			-3.232
297404.000			-22.623			-3.232
297505.000			-22.623			-3.232
297604.000			-22.622			-3.232
297703.000			-22.621			-3.232
297805.000			-22.621			-3.232
297904.000			-22.621			-3.232
298004.000			-22.620			-3.231
298105.000			-22.621			-3.232
298204.000			-22.621			-3.232
298304.000			-22.621			-3.232
298405.000			-22.621			-3.232
298504.000			-22.620			-3.231
298603.000			-22.620			-3.231
298705.000			-22.620			-3.231
298804.000			-22.620			-3.231
298905.000			-22.619			-3.231
299004.000			-22.618			-3.231
299104.000			-22.619			-3.231
299205.000			-22.620			-3.231
299304.000			-22.620			-3.231
299404.000			-22.618			-3.231
299504.000			-22.618			-3.231
299604.000			-22.617			-3.231
299703.000			-22.617			-3.231
299805.000			-22.617			-3.231
299904.000			-22.618			-3.231
