# Acquired on 25/01/2024 14:24:07 
# SPIDER: Creep_-5mm_GRPCNT1454A-1
# CREEP MEASUREMENT

# time [ms]		force [N]		stiffness [N/mm]
0.000			13.764			-2.753
104.000			14.197			-2.839
204.000			14.222			-2.844
304.000			14.085			-2.817
405.000			13.980			-2.796
504.000			13.839			-2.768
603.000			13.785			-2.757
705.000			13.738			-2.748
804.000			13.695			-2.739
904.000			13.657			-2.731
1005.000			13.622			-2.724
1103.000			13.590			-2.718
1205.000			13.533			-2.707
1304.000			13.508			-2.702
1404.000			13.484			-2.697
1505.000			13.461			-2.692
1604.000			13.440			-2.688
1704.000			13.421			-2.684
1804.000			13.403			-2.681
1904.000			13.385			-2.677
2004.000			13.352			-2.670
2105.000			13.336			-2.667
2204.000			13.322			-2.664
2303.000			13.308			-2.662
2405.000			13.293			-2.659
2504.000			13.280			-2.656
2604.000			13.268			-2.654
2705.000			13.242			-2.648
2804.000			13.232			-2.646
2904.000			13.221			-2.644
3005.000			13.211			-2.642
3104.000			13.200			-2.640
3204.000			13.190			-2.638
3305.000			13.181			-2.636
3404.000			13.162			-2.632
3503.000			13.153			-2.631
3605.000			13.145			-2.629
3704.000			13.136			-2.627
3804.000			13.127			-2.625
3905.000			13.119			-2.624
4004.000			13.112			-2.622
4104.000			13.097			-2.619
4205.000			13.088			-2.618
4304.000			13.081			-2.616
4405.000			13.074			-2.615
4504.000			13.068			-2.614
4604.000			13.061			-2.612
4704.000			13.054			-2.611
4804.000			13.048			-2.610
4904.000			13.035			-2.607
5005.000			13.030			-2.606
5104.000			13.024			-2.605
5203.000			13.018			-2.604
5305.000			13.011			-2.602
5404.000			13.005			-2.601
5504.000			13.001			-2.600
5605.000			12.990			-2.598
5704.000			12.984			-2.597
5804.000			12.979			-2.596
5904.000			12.974			-2.595
6004.000			12.969			-2.594
6104.000			12.964			-2.593
6205.000			12.959			-2.592
6304.000			12.949			-2.590
6404.000			12.944			-2.589
6505.000			12.940			-2.588
6603.000			12.936			-2.587
6704.000			12.931			-2.586
6805.000			12.926			-2.585
6904.000			12.922			-2.584
7004.000			12.918			-2.584
7104.000			12.909			-2.582
7204.000			12.905			-2.581
7304.000			12.901			-2.580
7404.000			12.898			-2.580
7504.000			12.893			-2.579
7605.000			12.890			-2.578
7704.000			12.886			-2.577
7803.000			12.879			-2.576
7905.000			12.874			-2.575
8004.000			12.871			-2.574
8104.000			12.866			-2.573
8205.000			12.864			-2.573
8304.000			12.860			-2.572
8404.000			12.856			-2.571
8504.000			12.848			-2.570
8604.000			12.845			-2.569
8704.000			12.841			-2.568
8805.000			12.839			-2.568
8904.000			12.836			-2.567
9004.000			12.833			-2.567
9105.000			12.830			-2.566
9203.000			12.826			-2.565
9304.000			12.820			-2.564
9405.000			12.817			-2.563
9504.000			12.814			-2.563
9604.000			12.811			-2.562
9704.000			12.807			-2.561
9804.000			12.805			-2.561
9904.000			12.802			-2.560
10005.000			12.796			-2.559
10104.000			12.793			-2.559
10204.000			12.791			-2.558
10305.000			12.788			-2.558
10403.000			12.785			-2.557
10504.000			12.782			-2.556
10605.000			12.779			-2.556
10704.000			12.775			-2.555
10805.000			12.771			-2.554
10904.000			12.769			-2.554
11004.000			12.766			-2.553
11104.000			12.763			-2.553
11204.000			12.760			-2.552
11304.000			12.758			-2.552
11405.000			12.754			-2.551
11504.000			12.751			-2.550
11603.000			12.749			-2.550
11705.000			12.746			-2.549
11804.000			12.744			-2.549
11904.000			12.742			-2.548
12005.000			12.740			-2.548
12104.000			12.738			-2.548
12204.000			12.732			-2.546
12304.000			12.730			-2.546
12404.000			12.727			-2.545
12504.000			12.725			-2.545
12605.000			12.723			-2.545
12704.000			12.720			-2.544
12804.000			12.718			-2.544
12905.000			12.714			-2.543
13003.000			12.712			-2.542
13104.000			12.711			-2.542
13205.000			12.709			-2.542
13304.000			12.706			-2.541
13404.000			12.704			-2.541
13505.000			12.703			-2.541
13604.000			12.697			-2.539
13703.000			12.695			-2.539
13805.000			12.693			-2.539
13904.000			12.690			-2.538
14005.000			12.689			-2.538
14104.000			12.687			-2.537
14204.000			12.686			-2.537
14305.000			12.681			-2.536
14403.000			12.679			-2.536
14504.000			12.678			-2.536
14605.000			12.676			-2.535
14704.000			12.674			-2.535
14804.000			12.672			-2.534
14905.000			12.671			-2.534
15004.000			12.669			-2.534
15103.000			12.664			-2.533
15205.000			12.662			-2.532
15304.000			12.660			-2.532
15404.000			12.659			-2.532
15505.000			12.657			-2.531
15603.000			12.656			-2.531
15704.000			12.653			-2.531
15805.000			12.650			-2.530
15904.000			12.649			-2.530
16004.000			12.647			-2.529
16105.000			12.645			-2.529
16204.000			12.643			-2.529
16303.000			12.641			-2.528
16405.000			12.639			-2.528
16504.000			12.638			-2.528
16604.000			12.636			-2.527
16705.000			12.633			-2.527
16804.000			12.631			-2.526
16904.000			12.629			-2.526
17003.000			12.627			-2.525
17104.000			12.626			-2.525
17205.000			12.624			-2.525
17304.000			12.622			-2.524
17404.000			12.620			-2.524
17505.000			12.618			-2.524
17604.000			12.617			-2.523
17703.000			12.616			-2.523
17805.000			12.614			-2.523
17904.000			12.612			-2.522
18004.000			12.609			-2.522
18105.000			12.608			-2.522
18204.000			12.606			-2.521
18304.000			12.605			-2.521
18404.000			12.603			-2.521
18504.000			12.601			-2.520
18604.000			12.600			-2.520
18705.000			12.597			-2.519
18804.000			12.596			-2.519
18903.000			12.595			-2.519
19005.000			12.593			-2.519
19104.000			12.591			-2.518
19204.000			12.590			-2.518
19305.000			12.588			-2.518
19404.000			12.585			-2.517
19504.000			12.583			-2.517
19604.000			12.582			-2.516
19704.000			12.582			-2.516
19804.000			12.581			-2.516
19905.000			12.579			-2.516
20004.000			12.577			-2.515
20104.000			12.576			-2.515
20205.000			12.573			-2.515
20303.000			12.571			-2.514
20405.000			12.569			-2.514
20504.000			12.569			-2.514
20604.000			12.568			-2.514
20705.000			12.566			-2.513
20804.000			12.565			-2.513
20904.000			12.562			-2.512
21004.000			12.560			-2.512
21104.000			12.559			-2.512
21204.000			12.558			-2.512
21305.000			12.556			-2.511
21404.000			12.555			-2.511
21504.000			12.553			-2.511
21605.000			12.552			-2.510
21703.000			12.551			-2.510
21804.000			12.549			-2.510
21905.000			12.547			-2.509
22004.000			12.546			-2.509
22104.000			12.545			-2.509
22204.000			12.545			-2.509
22304.000			12.543			-2.509
22404.000			12.541			-2.508
22505.000			12.539			-2.508
22604.000			12.538			-2.508
22704.000			12.537			-2.507
22805.000			12.536			-2.507
22903.000			12.535			-2.507
23004.000			12.534			-2.507
23105.000			12.531			-2.506
23204.000			12.529			-2.506
23304.000			12.529			-2.506
23404.000			12.528			-2.506
23504.000			12.527			-2.505
23603.000			12.525			-2.505
23704.000			12.524			-2.505
23804.000			12.522			-2.504
23905.000			12.521			-2.504
24004.000			12.520			-2.504
24104.000			12.519			-2.504
24205.000			12.517			-2.503
24303.000			12.516			-2.503
24404.000			12.516			-2.503
24505.000			12.512			-2.502
24604.000			12.513			-2.503
24704.000			12.512			-2.502
24804.000			12.510			-2.502
24904.000			12.509			-2.502
25003.000			12.508			-2.502
25105.000			12.506			-2.501
25204.000			12.504			-2.501
25304.000			12.503			-2.501
25405.000			12.502			-2.500
25503.000			12.500			-2.500
25604.000			12.500			-2.500
25705.000			12.500			-2.500
25804.000			12.499			-2.500
25904.000			12.497			-2.499
26005.000			12.496			-2.499
26104.000			12.494			-2.499
26203.000			12.493			-2.499
26305.000			12.491			-2.498
26404.000			12.490			-2.498
26504.000			12.490			-2.498
26605.000			12.488			-2.498
26704.000			12.486			-2.497
26805.000			12.486			-2.497
26903.000			12.485			-2.497
27004.000			12.484			-2.497
27105.000			12.483			-2.497
27204.000			12.482			-2.496
27304.000			12.481			-2.496
27405.000			12.480			-2.496
27504.000			12.479			-2.496
27603.000			12.477			-2.495
27705.000			12.477			-2.495
27804.000			12.476			-2.495
27904.000			12.475			-2.495
28005.000			12.474			-2.495
28104.000			12.472			-2.494
28204.000			12.470			-2.494
28304.000			12.470			-2.494
28404.000			12.469			-2.494
28504.000			12.468			-2.494
28605.000			12.467			-2.493
28704.000			12.466			-2.493
28804.000			12.464			-2.493
28905.000			12.462			-2.492
29003.000			12.461			-2.492
29104.000			12.461			-2.492
29205.000			12.460			-2.492
29304.000			12.458			-2.492
29404.000			12.458			-2.492
29504.000			12.458			-2.492
29604.000			12.455			-2.491
29703.000			12.455			-2.491
29805.000			12.454			-2.491
29904.000			12.453			-2.491
30005.000			12.452			-2.490
30104.000			12.452			-2.490
30203.000			12.450			-2.490
30305.000			12.449			-2.490
30404.000			12.447			-2.489
30504.000			12.447			-2.489
30605.000			12.446			-2.489
30704.000			12.445			-2.489
30804.000			12.445			-2.489
30904.000			12.444			-2.489
31004.000			12.442			-2.488
31104.000			12.442			-2.488
31205.000			12.439			-2.488
31304.000			12.439			-2.488
31404.000			12.439			-2.488
31505.000			12.438			-2.488
31603.000			12.437			-2.487
31704.000			12.436			-2.487
31805.000			12.434			-2.487
31904.000			12.433			-2.487
32004.000			12.432			-2.486
32104.000			12.431			-2.486
32204.000			12.430			-2.486
32304.000			12.429			-2.486
32405.000			12.429			-2.486
32504.000			12.427			-2.485
32604.000			12.427			-2.485
32705.000			12.426			-2.485
32803.000			12.424			-2.485
32904.000			12.424			-2.485
33005.000			12.423			-2.485
33104.000			12.422			-2.484
33205.000			12.420			-2.484
33304.000			12.419			-2.484
33404.000			12.419			-2.484
33504.000			12.419			-2.484
33604.000			12.418			-2.484
33704.000			12.417			-2.483
33805.000			12.416			-2.483
33904.000			12.415			-2.483
34003.000			12.414			-2.483
34105.000			12.413			-2.483
34204.000			12.412			-2.482
34304.000			12.412			-2.482
34405.000			12.411			-2.482
34504.000			12.410			-2.482
34604.000			12.409			-2.482
34704.000			12.408			-2.482
34804.000			12.406			-2.481
34904.000			12.405			-2.481
35005.000			12.405			-2.481
35104.000			12.405			-2.481
35204.000			12.403			-2.481
35305.000			12.403			-2.481
35403.000			12.401			-2.480
35504.000			12.400			-2.480
35605.000			12.400			-2.480
35704.000			12.400			-2.480
35804.000			12.399			-2.480
35904.000			12.398			-2.480
36004.000			12.396			-2.479
36103.000			12.395			-2.479
36205.000			12.395			-2.479
36304.000			12.394			-2.479
36405.000			12.393			-2.479
36504.000			12.392			-2.478
36603.000			12.392			-2.478
36705.000			12.391			-2.478
36804.000			12.390			-2.478
36904.000			12.387			-2.477
37005.000			12.387			-2.477
37104.000			12.387			-2.477
37204.000			12.386			-2.477
37304.000			12.385			-2.477
37404.000			12.384			-2.477
37504.000			12.384			-2.477
37605.000			12.383			-2.477
37704.000			12.382			-2.476
37804.000			12.381			-2.476
37905.000			12.380			-2.476
38003.000			12.380			-2.476
38104.000			12.379			-2.476
38205.000			12.378			-2.476
38304.000			12.377			-2.475
38404.000			12.376			-2.475
38505.000			12.375			-2.475
38604.000			12.374			-2.475
38703.000			12.373			-2.475
38805.000			12.372			-2.474
38904.000			12.372			-2.474
39004.000			12.371			-2.474
39105.000			12.370			-2.474
39204.000			12.370			-2.474
39304.000			12.369			-2.474
39403.000			12.368			-2.474
39504.000			12.369			-2.474
39605.000			12.368			-2.474
39704.000			12.367			-2.473
39804.000			12.364			-2.473
39905.000			12.364			-2.473
40004.000			12.363			-2.473
40103.000			12.362			-2.472
40205.000			12.362			-2.472
40304.000			12.361			-2.472
40404.000			12.360			-2.472
40505.000			12.359			-2.472
40603.000			12.359			-2.472
40704.000			12.358			-2.472
40805.000			12.357			-2.471
40904.000			12.357			-2.471
41004.000			12.356			-2.471
41105.000			12.355			-2.471
41204.000			12.354			-2.471
41303.000			12.353			-2.471
41405.000			12.353			-2.471
41504.000			12.352			-2.470
41604.000			12.352			-2.470
41705.000			12.351			-2.470
41804.000			12.351			-2.470
41904.000			12.350			-2.470
42004.000			12.348			-2.470
42104.000			12.347			-2.469
42204.000			12.347			-2.469
42305.000			12.347			-2.469
42404.000			12.346			-2.469
42503.000			12.346			-2.469
42605.000			12.345			-2.469
42704.000			12.344			-2.469
42805.000			12.342			-2.468
42904.000			12.342			-2.468
43004.000			12.343			-2.469
43105.000			12.342			-2.468
43203.000			12.340			-2.468
43304.000			12.339			-2.468
43405.000			12.339			-2.468
43504.000			12.338			-2.468
43604.000			12.338			-2.468
43705.000			12.337			-2.467
43804.000			12.336			-2.467
43903.000			12.335			-2.467
44005.000			12.335			-2.467
44104.000			12.335			-2.467
44204.000			12.334			-2.467
44305.000			12.332			-2.466
44404.000			12.331			-2.466
44504.000			12.331			-2.466
44604.000			12.330			-2.466
44704.000			12.329			-2.466
44804.000			12.330			-2.466
44905.000			12.329			-2.466
45004.000			12.329			-2.466
45103.000			12.328			-2.466
45205.000			12.326			-2.465
45304.000			12.326			-2.465
45404.000			12.326			-2.465
45505.000			12.325			-2.465
45604.000			12.324			-2.465
45704.000			12.322			-2.464
45803.000			12.322			-2.464
45904.000			12.321			-2.464
46005.000			12.320			-2.464
46104.000			12.320			-2.464
46204.000			12.320			-2.464
46305.000			12.319			-2.464
46404.000			12.318			-2.464
46503.000			12.318			-2.464
46605.000			12.317			-2.463
46704.000			12.316			-2.463
46804.000			12.316			-2.463
46905.000			12.316			-2.463
47004.000			12.317			-2.463
47104.000			12.316			-2.463
47204.000			12.315			-2.463
47304.000			12.314			-2.463
47404.000			12.313			-2.463
47505.000			12.313			-2.463
47604.000			12.312			-2.462
47703.000			12.311			-2.462
47805.000			12.310			-2.462
47904.000			12.309			-2.462
48004.000			12.308			-2.462
48105.000			12.308			-2.462
48204.000			12.308			-2.462
48304.000			12.306			-2.461
48404.000			12.306			-2.461
48504.000			12.307			-2.461
48604.000			12.305			-2.461
48705.000			12.305			-2.461
48804.000			12.305			-2.461
48904.000			12.304			-2.461
49005.000			12.303			-2.461
49103.000			12.302			-2.460
49205.000			12.301			-2.460
49304.000			12.301			-2.460
49404.000			12.300			-2.460
49505.000			12.300			-2.460
49604.000			12.299			-2.460
49704.000			12.299			-2.460
49804.000			12.299			-2.460
49904.000			12.298			-2.460
50004.000			12.296			-2.459
50105.000			12.296			-2.459
50204.000			12.295			-2.459
50304.000			12.295			-2.459
50405.000			12.295			-2.459
50503.000			12.294			-2.459
50604.000			12.293			-2.459
50705.000			12.292			-2.458
50804.000			12.291			-2.458
50904.000			12.291			-2.458
51004.000			12.292			-2.458
51104.000			12.292			-2.458
51204.000			12.290			-2.458
51305.000			12.290			-2.458
51404.000			12.288			-2.458
51504.000			12.289			-2.458
51605.000			12.288			-2.458
51703.000			12.288			-2.458
51804.000			12.287			-2.457
51905.000			12.286			-2.457
52004.000			12.286			-2.457
52104.000			12.284			-2.457
52204.000			12.284			-2.457
52304.000			12.283			-2.457
52403.000			12.283			-2.457
52504.000			12.282			-2.456
52604.000			12.282			-2.456
52705.000			12.282			-2.456
52804.000			12.281			-2.456
52904.000			12.281			-2.456
53005.000			12.279			-2.456
53103.000			12.278			-2.456
53204.000			12.279			-2.456
53305.000			12.278			-2.456
53404.000			12.278			-2.456
53504.000			12.278			-2.456
53605.000			12.276			-2.455
53704.000			12.276			-2.455
53803.000			12.276			-2.455
53905.000			12.275			-2.455
54004.000			12.275			-2.455
54104.000			12.273			-2.455
54205.000			12.273			-2.455
54303.000			12.272			-2.454
54404.000			12.271			-2.454
54505.000			12.272			-2.454
54604.000			12.272			-2.454
54704.000			12.271			-2.454
54805.000			12.270			-2.454
54904.000			12.269			-2.454
55003.000			12.269			-2.454
55105.000			12.267			-2.453
55204.000			12.268			-2.454
55304.000			12.268			-2.454
55405.000			12.267			-2.453
55504.000			12.266			-2.453
55605.000			12.266			-2.453
55703.000			12.265			-2.453
55804.000			12.264			-2.453
55905.000			12.263			-2.453
56004.000			12.263			-2.453
56104.000			12.262			-2.452
56205.000			12.262			-2.452
56304.000			12.262			-2.452
56403.000			12.262			-2.452
56505.000			12.259			-2.452
56604.000			12.259			-2.452
56704.000			12.259			-2.452
56805.000			12.259			-2.452
56904.000			12.259			-2.452
57004.000			12.258			-2.452
57104.000			12.257			-2.451
57204.000			12.256			-2.451
57304.000			12.255			-2.451
57405.000			12.254			-2.451
57504.000			12.255			-2.451
57603.000			12.255			-2.451
57705.000			12.254			-2.451
57804.000			12.253			-2.451
57904.000			12.253			-2.451
58005.000			12.251			-2.450
58104.000			12.251			-2.450
58204.000			12.252			-2.450
58304.000			12.251			-2.450
58404.000			12.250			-2.450
58504.000			12.250			-2.450
58604.000			12.249			-2.450
58704.000			12.249			-2.450
58805.000			12.249			-2.450
58904.000			12.247			-2.449
59003.000			12.247			-2.449
59105.000			12.246			-2.449
59204.000			12.245			-2.449
59304.000			12.245			-2.449
59405.000			12.244			-2.449
59504.000			12.244			-2.449
59604.000			12.243			-2.449
59704.000			12.243			-2.449
59804.000			12.242			-2.448
59904.000			12.242			-2.448
60005.000			12.241			-2.448
60104.000			12.241			-2.448
60204.000			12.240			-2.448
60305.000			12.240			-2.448
60403.000			12.241			-2.448
60504.000			12.241			-2.448
60605.000			12.241			-2.448
60704.000			12.239			-2.448
60804.000			12.238			-2.448
60905.000			12.239			-2.448
61004.000			12.240			-2.448
61103.000			12.239			-2.448
61205.000			12.238			-2.448
61304.000			12.238			-2.448
61404.000			12.239			-2.448
61505.000			12.239			-2.448
61603.000			12.238			-2.448
61704.000			12.237			-2.447
61805.000			12.236			-2.447
61904.000			12.236			-2.447
62005.000			12.236			-2.447
62104.000			12.235			-2.447
62204.000			12.235			-2.447
62304.000			12.234			-2.447
62404.000			12.234			-2.447
62504.000			12.234			-2.447
62605.000			12.233			-2.447
62704.000			12.232			-2.446
62804.000			12.232			-2.446
62905.000			12.231			-2.446
63003.000			12.232			-2.446
63104.000			12.230			-2.446
63205.000			12.229			-2.446
63304.000			12.230			-2.446
63404.000			12.230			-2.446
63504.000			12.229			-2.446
63604.000			12.229			-2.446
63704.000			12.228			-2.446
63805.000			12.228			-2.446
63904.000			12.227			-2.445
64004.000			12.226			-2.445
64105.000			12.226			-2.445
64203.000			12.226			-2.445
64304.000			12.226			-2.445
64405.000			12.225			-2.445
64504.000			12.223			-2.445
64604.000			12.223			-2.445
64705.000			12.223			-2.445
64804.000			12.223			-2.445
64903.000			12.223			-2.445
65005.000			12.222			-2.444
65104.000			12.222			-2.444
65205.000			12.220			-2.444
65304.000			12.220			-2.444
65404.000			12.221			-2.444
65505.000			12.221			-2.444
65603.000			12.220			-2.444
65704.000			12.219			-2.444
65805.000			12.219			-2.444
65904.000			12.219			-2.444
66004.000			12.218			-2.444
66104.000			12.216			-2.443
66204.000			12.217			-2.443
66303.000			12.217			-2.443
66405.000			12.217			-2.443
66504.000			12.216			-2.443
66604.000			12.214			-2.443
66705.000			12.214			-2.443
66804.000			12.214			-2.443
66904.000			12.214			-2.443
67004.000			12.214			-2.443
67104.000			12.214			-2.443
67204.000			12.213			-2.443
67305.000			12.213			-2.443
67404.000			12.210			-2.442
67503.000			12.210			-2.442
67605.000			12.210			-2.442
67704.000			12.209			-2.442
67804.000			12.208			-2.442
67905.000			12.208			-2.442
68004.000			12.207			-2.441
68104.000			12.207			-2.441
68203.000			12.207			-2.441
68304.000			12.207			-2.441
68405.000			12.206			-2.441
68504.000			12.204			-2.441
68604.000			12.204			-2.441
68705.000			12.204			-2.441
68804.000			12.203			-2.441
68903.000			12.203			-2.441
69005.000			12.202			-2.440
69104.000			12.201			-2.440
69204.000			12.200			-2.440
69305.000			12.200			-2.440
69404.000			12.200			-2.440
69504.000			12.200			-2.440
69604.000			12.199			-2.440
69704.000			12.198			-2.440
69804.000			12.198			-2.440
69905.000			12.199			-2.440
70004.000			12.198			-2.440
70104.000			12.197			-2.439
70205.000			12.197			-2.439
70303.000			12.196			-2.439
70404.000			12.196			-2.439
70505.000			12.195			-2.439
70604.000			12.195			-2.439
70704.000			12.195			-2.439
70805.000			12.194			-2.439
70904.000			12.193			-2.439
71003.000			12.192			-2.438
71105.000			12.192			-2.438
71204.000			12.191			-2.438
71304.000			12.192			-2.438
71405.000			12.192			-2.438
71503.000			12.191			-2.438
71605.000			12.191			-2.438
71703.000			12.191			-2.438
71804.000			12.189			-2.438
71905.000			12.190			-2.438
72004.000			12.189			-2.438
72104.000			12.189			-2.438
72204.000			12.188			-2.438
72304.000			12.188			-2.438
72404.000			12.189			-2.438
72505.000			12.187			-2.437
72604.000			12.186			-2.437
72704.000			12.186			-2.437
72805.000			12.185			-2.437
72903.000			12.184			-2.437
73004.000			12.185			-2.437
73105.000			12.184			-2.437
73204.000			12.183			-2.437
73304.000			12.183			-2.437
73405.000			12.183			-2.437
73504.000			12.182			-2.436
73603.000			12.182			-2.436
73705.000			12.182			-2.436
73804.000			12.181			-2.436
73904.000			12.181			-2.436
74005.000			12.180			-2.436
74104.000			12.178			-2.436
74204.000			12.178			-2.436
74304.000			12.178			-2.436
74404.000			12.178			-2.436
74504.000			12.177			-2.435
74604.000			12.178			-2.436
74704.000			12.176			-2.435
74805.000			12.175			-2.435
74904.000			12.176			-2.435
75003.000			12.175			-2.435
75105.000			12.175			-2.435
75204.000			12.175			-2.435
75304.000			12.175			-2.435
75405.000			12.174			-2.435
75504.000			12.173			-2.435
75604.000			12.172			-2.434
75704.000			12.172			-2.434
75804.000			12.173			-2.435
75904.000			12.173			-2.435
76005.000			12.172			-2.434
76104.000			12.171			-2.434
76204.000			12.169			-2.434
76305.000			12.168			-2.434
76403.000			12.168			-2.434
76504.000			12.169			-2.434
76605.000			12.169			-2.434
76704.000			12.170			-2.434
76804.000			12.170			-2.434
76905.000			12.168			-2.434
77004.000			12.168			-2.434
77103.000			12.167			-2.433
77205.000			12.166			-2.433
77304.000			12.166			-2.433
77404.000			12.166			-2.433
77505.000			12.165			-2.433
77604.000			12.164			-2.433
77704.000			12.165			-2.433
77804.000			12.164			-2.433
77904.000			12.164			-2.433
78003.000			12.164			-2.433
78104.000			12.162			-2.432
78204.000			12.162			-2.432
78305.000			12.162			-2.432
78404.000			12.163			-2.433
78504.000			12.161			-2.432
78605.000			12.161			-2.432
78703.000			12.161			-2.432
78804.000			12.162			-2.432
78905.000			12.161			-2.432
79004.000			12.160			-2.432
79104.000			12.160			-2.432
79205.000			12.159			-2.432
79304.000			12.159			-2.432
79403.000			12.159			-2.432
79505.000			12.157			-2.431
79604.000			12.157			-2.431
79704.000			12.157			-2.431
79805.000			12.157			-2.431
79904.000			12.157			-2.431
80004.000			12.157			-2.431
80104.000			12.156			-2.431
80204.000			12.155			-2.431
80304.000			12.155			-2.431
80405.000			12.154			-2.431
80504.000			12.154			-2.431
80603.000			12.155			-2.431
80705.000			12.154			-2.431
80804.000			12.153			-2.431
80904.000			12.152			-2.430
81005.000			12.152			-2.430
81104.000			12.152			-2.430
81205.000			12.152			-2.430
81303.000			12.151			-2.430
81404.000			12.151			-2.430
81505.000			12.151			-2.430
81604.000			12.151			-2.430
81704.000			12.150			-2.430
81805.000			12.149			-2.430
81904.000			12.149			-2.430
82003.000			12.150			-2.430
82105.000			12.150			-2.430
82204.000			12.149			-2.430
82304.000			12.149			-2.430
82405.000			12.148			-2.430
82504.000			12.148			-2.430
82604.000			12.146			-2.429
82704.000			12.146			-2.429
82804.000			12.146			-2.429
82904.000			12.145			-2.429
83005.000			12.145			-2.429
83104.000			12.145			-2.429
83204.000			12.145			-2.429
83305.000			12.144			-2.429
83403.000			12.143			-2.429
83504.000			12.144			-2.429
83605.000			12.144			-2.429
83704.000			12.143			-2.429
83804.000			12.143			-2.429
83905.000			12.142			-2.428
84004.000			12.142			-2.428
84103.000			12.142			-2.428
84205.000			12.140			-2.428
84304.000			12.141			-2.428
84405.000			12.141			-2.428
84504.000			12.141			-2.428
84603.000			12.140			-2.428
84705.000			12.140			-2.428
84804.000			12.139			-2.428
84904.000			12.138			-2.428
85005.000			12.138			-2.428
85104.000			12.138			-2.428
85204.000			12.137			-2.427
85304.000			12.137			-2.427
85404.000			12.137			-2.427
85504.000			12.136			-2.427
85605.000			12.136			-2.427
85704.000			12.135			-2.427
85804.000			12.135			-2.427
85905.000			12.136			-2.427
86003.000			12.135			-2.427
86104.000			12.134			-2.427
86205.000			12.134			-2.427
86304.000			12.133			-2.427
86404.000			12.133			-2.427
86505.000			12.133			-2.427
86604.000			12.134			-2.427
86703.000			12.134			-2.427
86805.000			12.132			-2.426
86904.000			12.131			-2.426
87004.000			12.132			-2.426
87105.000			12.130			-2.426
87204.000			12.131			-2.426
87304.000			12.131			-2.426
87403.000			12.130			-2.426
87504.000			12.130			-2.426
87605.000			12.129			-2.426
87704.000			12.128			-2.426
87804.000			12.128			-2.426
87904.000			12.129			-2.426
88004.000			12.129			-2.426
88103.000			12.128			-2.426
88205.000			12.127			-2.425
88304.000			12.127			-2.425
88404.000			12.127			-2.425
88505.000			12.127			-2.425
88604.000			12.127			-2.425
88704.000			12.127			-2.425
88804.000			12.125			-2.425
88904.000			12.125			-2.425
89004.000			12.124			-2.425
89105.000			12.124			-2.425
89204.000			12.124			-2.425
89303.000			12.123			-2.425
89405.000			12.123			-2.425
89504.000			12.123			-2.425
89604.000			12.122			-2.424
89705.000			12.122			-2.424
89804.000			12.122			-2.424
89904.000			12.121			-2.424
90004.000			12.121			-2.424
90104.000			12.121			-2.424
90203.000			12.120			-2.424
90305.000			12.121			-2.424
90404.000			12.120			-2.424
90504.000			12.119			-2.424
90605.000			12.119			-2.424
90703.000			12.119			-2.424
90805.000			12.118			-2.424
90904.000			12.119			-2.424
91004.000			12.119			-2.424
91105.000			12.118			-2.424
91204.000			12.117			-2.423
91304.000			12.117			-2.423
91404.000			12.116			-2.423
91504.000			12.117			-2.423
91604.000			12.116			-2.423
91705.000			12.116			-2.423
91804.000			12.115			-2.423
91904.000			12.115			-2.423
92005.000			12.114			-2.423
92103.000			12.115			-2.423
92204.000			12.114			-2.423
92305.000			12.113			-2.423
92404.000			12.113			-2.423
92504.000			12.112			-2.422
92605.000			12.112			-2.422
92704.000			12.113			-2.423
92803.000			12.113			-2.423
92905.000			12.113			-2.423
93004.000			12.112			-2.422
93104.000			12.111			-2.422
93205.000			12.111			-2.422
93303.000			12.112			-2.422
93404.000			12.111			-2.422
93505.000			12.110			-2.422
93604.000			12.109			-2.422
93704.000			12.108			-2.422
93804.000			12.108			-2.422
93904.000			12.109			-2.422
94003.000			12.108			-2.422
94104.000			12.109			-2.422
94204.000			12.109			-2.422
94305.000			12.107			-2.421
94404.000			12.107			-2.421
94504.000			12.106			-2.421
94605.000			12.106			-2.421
94703.000			12.106			-2.421
94804.000			12.106			-2.421
94905.000			12.106			-2.421
95004.000			12.106			-2.421
95104.000			12.104			-2.421
95205.000			12.105			-2.421
95304.000			12.105			-2.421
95403.000			12.104			-2.421
95505.000			12.104			-2.421
95604.000			12.105			-2.421
95704.000			12.105			-2.421
95805.000			12.104			-2.421
95904.000			12.104			-2.421
96004.000			12.104			-2.421
96104.000			12.104			-2.421
96204.000			12.103			-2.421
96304.000			12.104			-2.421
96405.000			12.104			-2.421
96504.000			12.101			-2.420
96603.000			12.101			-2.420
96705.000			12.101			-2.420
96804.000			12.102			-2.420
96904.000			12.100			-2.420
97005.000			12.101			-2.420
97104.000			12.101			-2.420
97205.000			12.100			-2.420
97303.000			12.100			-2.420
97404.000			12.099			-2.420
97505.000			12.099			-2.420
97604.000			12.099			-2.420
97704.000			12.098			-2.420
97805.000			12.098			-2.420
97904.000			12.098			-2.420
98004.000			12.097			-2.419
98105.000			12.096			-2.419
98203.000			12.096			-2.419
98304.000			12.096			-2.419
98405.000			12.096			-2.419
98504.000			12.096			-2.419
98604.000			12.096			-2.419
98705.000			12.094			-2.419
98804.000			12.094			-2.419
98903.000			12.093			-2.419
99005.000			12.093			-2.419
99104.000			12.093			-2.419
99204.000			12.092			-2.418
99305.000			12.092			-2.418
99404.000			12.092			-2.418
99504.000			12.092			-2.418
99604.000			12.092			-2.418
99704.000			12.091			-2.418
99804.000			12.091			-2.418
99905.000			12.090			-2.418
100004.000			12.090			-2.418
100104.000			12.090			-2.418
100205.000			12.090			-2.418
100303.000			12.089			-2.418
100405.000			12.088			-2.418
100504.000			12.087			-2.417
100604.000			12.087			-2.417
100705.000			12.088			-2.418
100804.000			12.087			-2.417
100904.000			12.087			-2.417
101004.000			12.087			-2.417
101104.000			12.087			-2.417
101204.000			12.087			-2.417
101305.000			12.087			-2.417
101404.000			12.088			-2.418
101504.000			12.086			-2.417
101605.000			12.085			-2.417
101703.000			12.085			-2.417
101804.000			12.084			-2.417
101905.000			12.084			-2.417
102004.000			12.084			-2.417
102104.000			12.084			-2.417
102205.000			12.084			-2.417
102304.000			12.083			-2.417
102403.000			12.083			-2.417
102505.000			12.082			-2.416
102604.000			12.082			-2.416
102704.000			12.083			-2.417
102805.000			12.082			-2.416
102904.000			12.081			-2.416
103004.000			12.082			-2.416
103104.000			12.080			-2.416
103204.000			12.079			-2.416
103304.000			12.079			-2.416
103404.000			12.081			-2.416
103504.000			12.080			-2.416
103605.000			12.079			-2.416
103704.000			12.079			-2.416
103803.000			12.078			-2.416
103905.000			12.078			-2.416
104004.000			12.078			-2.416
104104.000			12.078			-2.416
104205.000			12.078			-2.416
104304.000			12.077			-2.415
104404.000			12.077			-2.415
104504.000			12.076			-2.415
104604.000			12.077			-2.415
104704.000			12.076			-2.415
104805.000			12.077			-2.415
104904.000			12.076			-2.415
105004.000			12.075			-2.415
105105.000			12.074			-2.415
105203.000			12.075			-2.415
105304.000			12.075			-2.415
105405.000			12.074			-2.415
105504.000			12.074			-2.415
105604.000			12.074			-2.415
105705.000			12.074			-2.415
105804.000			12.073			-2.415
105903.000			12.072			-2.414
106005.000			12.073			-2.415
106104.000			12.073			-2.415
106204.000			12.073			-2.415
106305.000			12.072			-2.414
106404.000			12.071			-2.414
106504.000			12.072			-2.414
106603.000			12.073			-2.415
106704.000			12.071			-2.414
106805.000			12.070			-2.414
106904.000			12.070			-2.414
107004.000			12.070			-2.414
107105.000			12.070			-2.414
107204.000			12.070			-2.414
107303.000			12.070			-2.414
107405.000			12.069			-2.414
107504.000			12.068			-2.414
107604.000			12.068			-2.414
107705.000			12.068			-2.414
107804.000			12.067			-2.413
107904.000			12.068			-2.414
108005.000			12.067			-2.413
108104.000			12.067			-2.413
108203.000			12.066			-2.413
108305.000			12.066			-2.413
108404.000			12.066			-2.413
108504.000			12.065			-2.413
108605.000			12.066			-2.413
108704.000			12.066			-2.413
108804.000			12.065			-2.413
108904.000			12.065			-2.413
109004.000			12.065			-2.413
109104.000			12.064			-2.413
109205.000			12.064			-2.413
109304.000			12.064			-2.413
109404.000			12.064			-2.413
109505.000			12.064			-2.413
109603.000			12.063			-2.413
109704.000			12.062			-2.412
109805.000			12.063			-2.413
109904.000			12.062			-2.412
110005.000			12.062			-2.412
110104.000			12.061			-2.412
110204.000			12.062			-2.412
110304.000			12.062			-2.412
110404.000			12.060			-2.412
110504.000			12.060			-2.412
110605.000			12.060			-2.412
110704.000			12.060			-2.412
110804.000			12.060			-2.412
110905.000			12.059			-2.412
111003.000			12.058			-2.412
111104.000			12.058			-2.412
111205.000			12.058			-2.412
111304.000			12.058			-2.412
111404.000			12.057			-2.411
111505.000			12.056			-2.411
111604.000			12.057			-2.411
111703.000			12.058			-2.412
111805.000			12.058			-2.412
111904.000			12.057			-2.411
112004.000			12.056			-2.411
112105.000			12.055			-2.411
112204.000			12.055			-2.411
112304.000			12.056			-2.411
112404.000			12.055			-2.411
112504.000			12.055			-2.411
112604.000			12.055			-2.411
112705.000			12.055			-2.411
112804.000			12.055			-2.411
112904.000			12.054			-2.411
113005.000			12.053			-2.411
113103.000			12.054			-2.411
113205.000			12.054			-2.411
113304.000			12.052			-2.410
113404.000			12.052			-2.410
113505.000			12.053			-2.411
113604.000			12.053			-2.411
113704.000			12.053			-2.411
113804.000			12.053			-2.411
113904.000			12.053			-2.411
114004.000			12.050			-2.410
114105.000			12.050			-2.410
114204.000			12.050			-2.410
114303.000			12.050			-2.410
114405.000			12.051			-2.410
114504.000			12.050			-2.410
114604.000			12.049			-2.410
114705.000			12.049			-2.410
114804.000			12.049			-2.410
114904.000			12.049			-2.410
115004.000			12.049			-2.410
115104.000			12.049			-2.410
115204.000			12.048			-2.410
115305.000			12.048			-2.410
115404.000			12.048			-2.410
115504.000			12.047			-2.409
115605.000			12.047			-2.409
115703.000			12.046			-2.409
115804.000			12.047			-2.409
115905.000			12.047			-2.409
116004.000			12.046			-2.409
116104.000			12.045			-2.409
116204.000			12.045			-2.409
116304.000			12.044			-2.409
116403.000			12.045			-2.409
116504.000			12.045			-2.409
116604.000			12.044			-2.409
116705.000			12.043			-2.409
116804.000			12.043			-2.409
116904.000			12.043			-2.409
117005.000			12.044			-2.409
117103.000			12.044			-2.409
117204.000			12.042			-2.408
117305.000			12.042			-2.408
117404.000			12.042			-2.408
117504.000			12.042			-2.408
117605.000			12.042			-2.408
117704.000			12.041			-2.408
117803.000			12.041			-2.408
117905.000			12.040			-2.408
118003.000			12.040			-2.408
118104.000			12.041			-2.408
118205.000			12.041			-2.408
118304.000			12.040			-2.408
118404.000			12.040			-2.408
118504.000			12.039			-2.408
118604.000			12.039			-2.408
118703.000			12.040			-2.408
118805.000			12.040			-2.408
118904.000			12.040			-2.408
119004.000			12.039			-2.408
119105.000			12.037			-2.407
119204.000			12.038			-2.408
119304.000			12.038			-2.408
119403.000			12.037			-2.407
119504.000			12.036			-2.407
119605.000			12.037			-2.407
119704.000			12.038			-2.408
119804.000			12.037			-2.407
119905.000			12.037			-2.407
120004.000			12.035			-2.407
120103.000			12.035			-2.407
120205.000			12.036			-2.407
120304.000			12.035			-2.407
120404.000			12.033			-2.407
120505.000			12.035			-2.407
120604.000			12.034			-2.407
120704.000			12.033			-2.407
120804.000			12.034			-2.407
120904.000			12.033			-2.407
121004.000			12.033			-2.407
121105.000			12.033			-2.407
121204.000			12.033			-2.407
121304.000			12.032			-2.406
121405.000			12.031			-2.406
121503.000			12.032			-2.406
121604.000			12.032			-2.406
121705.000			12.031			-2.406
121804.000			12.031			-2.406
121904.000			12.032			-2.406
122005.000			12.031			-2.406
122104.000			12.031			-2.406
122203.000			12.031			-2.406
122305.000			12.030			-2.406
122404.000			12.029			-2.406
122504.000			12.029			-2.406
122605.000			12.029			-2.406
122704.000			12.029			-2.406
122805.000			12.030			-2.406
122903.000			12.030			-2.406
123004.000			12.029			-2.406
123105.000			12.028			-2.406
123204.000			12.028			-2.406
123304.000			12.028			-2.406
123405.000			12.027			-2.405
123504.000			12.028			-2.406
123603.000			12.027			-2.405
123705.000			12.027			-2.405
123804.000			12.026			-2.405
123904.000			12.026			-2.405
124005.000			12.026			-2.405
124104.000			12.026			-2.405
124204.000			12.025			-2.405
124304.000			12.025			-2.405
124404.000			12.024			-2.405
124504.000			12.025			-2.405
124605.000			12.025			-2.405
124704.000			12.025			-2.405
124804.000			12.025			-2.405
124905.000			12.024			-2.405
125003.000			12.023			-2.405
125104.000			12.023			-2.405
125205.000			12.023			-2.405
125304.000			12.022			-2.404
125404.000			12.022			-2.404
125504.000			12.022			-2.404
125604.000			12.024			-2.405
125703.000			12.023			-2.405
125805.000			12.022			-2.404
125904.000			12.022			-2.404
126005.000			12.021			-2.404
126104.000			12.021			-2.404
126203.000			12.021			-2.404
126305.000			12.021			-2.404
126404.000			12.021			-2.404
126504.000			12.021			-2.404
126605.000			12.020			-2.404
126704.000			12.019			-2.404
126804.000			12.019			-2.404
126904.000			12.019			-2.404
127004.000			12.019			-2.404
127103.000			12.019			-2.404
127205.000			12.019			-2.404
127304.000			12.019			-2.404
127404.000			12.018			-2.404
127505.000			12.018			-2.404
127604.000			12.018			-2.404
127704.000			12.017			-2.403
127804.000			12.017			-2.403
127904.000			12.017			-2.403
128004.000			12.016			-2.403
128105.000			12.016			-2.403
128204.000			12.016			-2.403
128304.000			12.017			-2.403
128405.000			12.017			-2.403
128503.000			4.719			-0.944
128679.000			12.015			-2.403
128767.000			12.015			-2.403
128855.000			12.015			-2.403
128943.000			12.014			-2.403
129030.000			12.015			-2.403
129118.000			12.014			-2.403
129207.000			12.015			-2.403
129304.000			12.015			-2.403
129404.000			12.013			-2.403
129504.000			12.013			-2.403
129604.000			12.012			-2.402
129704.000			12.012			-2.402
129805.000			12.012			-2.402
129904.000			12.013			-2.403
130004.000			12.013			-2.403
130105.000			12.012			-2.402
130203.000			12.013			-2.403
130304.000			12.012			-2.402
130405.000			12.011			-2.402
130504.000			12.011			-2.402
130604.000			12.012			-2.402
130704.000			12.011			-2.402
130804.000			12.011			-2.402
130904.000			12.010			-2.402
131005.000			12.009			-2.402
131104.000			12.009			-2.402
131204.000			12.009			-2.402
131305.000			12.009			-2.402
131404.000			12.010			-2.402
131504.000			12.009			-2.402
131604.000			12.008			-2.402
131704.000			12.008			-2.402
131804.000			12.009			-2.402
131905.000			12.008			-2.402
132004.000			12.008			-2.402
132104.000			12.008			-2.402
132205.000			12.008			-2.402
132303.000			12.006			-2.401
132405.000			12.007			-2.401
132504.000			12.007			-2.401
132604.000			12.007			-2.401
132705.000			12.007			-2.401
132804.000			12.007			-2.401
132904.000			12.006			-2.401
133004.000			12.007			-2.401
133104.000			12.005			-2.401
133203.000			12.004			-2.401
133305.000			12.005			-2.401
133404.000			12.005			-2.401
133504.000			12.004			-2.401
133605.000			12.004			-2.401
133704.000			12.004			-2.401
133804.000			12.005			-2.401
133904.000			12.005			-2.401
134004.000			12.004			-2.401
134104.000			12.004			-2.401
134205.000			12.003			-2.401
134304.000			12.002			-2.400
134404.000			12.003			-2.401
134505.000			12.003			-2.401
134603.000			12.003			-2.401
134704.000			12.002			-2.400
134805.000			12.002			-2.400
134904.000			12.002			-2.400
135004.000			12.001			-2.400
135105.000			12.001			-2.400
135204.000			12.001			-2.400
135304.000			12.000			-2.400
135405.000			11.999			-2.400
135503.000			12.000			-2.400
135605.000			12.001			-2.400
135704.000			12.001			-2.400
135804.000			12.000			-2.400
135905.000			11.999			-2.400
136004.000			11.998			-2.400
136104.000			11.998			-2.400
136205.000			11.998			-2.400
136304.000			11.999			-2.400
136403.000			11.999			-2.400
136505.000			11.998			-2.400
136604.000			11.998			-2.400
136704.000			11.997			-2.399
136805.000			11.997			-2.399
136904.000			11.996			-2.399
137004.000			11.996			-2.399
137105.000			11.996			-2.399
137204.000			11.996			-2.399
137303.000			11.996			-2.399
137405.000			11.996			-2.399
137504.000			11.995			-2.399
137604.000			11.995			-2.399
137705.000			11.996			-2.399
137804.000			11.996			-2.399
137904.000			11.995			-2.399
138005.000			11.995			-2.399
138104.000			11.995			-2.399
138203.000			11.995			-2.399
138305.000			11.994			-2.399
138403.000			11.993			-2.399
138504.000			11.993			-2.399
138605.000			11.993			-2.399
138704.000			11.993			-2.399
138805.000			11.992			-2.398
138904.000			11.992			-2.398
139004.000			11.992			-2.398
139105.000			11.993			-2.399
139204.000			11.993			-2.399
139303.000			11.991			-2.398
139405.000			11.992			-2.398
139504.000			11.991			-2.398
139604.000			11.991			-2.398
139705.000			11.990			-2.398
139804.000			11.990			-2.398
139904.000			11.991			-2.398
140005.000			11.990			-2.398
140104.000			11.989			-2.398
140203.000			11.990			-2.398
140305.000			11.989			-2.398
140404.000			11.989			-2.398
140504.000			11.990			-2.398
140605.000			11.989			-2.398
140704.000			11.988			-2.398
140804.000			11.987			-2.397
140905.000			11.987			-2.397
141004.000			11.988			-2.398
141103.000			11.988			-2.398
141205.000			11.987			-2.397
141303.000			11.986			-2.397
141404.000			11.986			-2.397
141505.000			11.986			-2.397
141604.000			11.987			-2.397
141704.000			11.987			-2.397
141804.000			11.986			-2.397
141904.000			11.985			-2.397
142005.000			11.986			-2.397
142104.000			11.987			-2.397
142203.000			11.986			-2.397
142305.000			11.985			-2.397
142404.000			11.985			-2.397
142504.000			11.985			-2.397
142605.000			11.985			-2.397
142704.000			11.985			-2.397
142804.000			11.985			-2.397
142905.000			11.984			-2.397
143004.000			11.984			-2.397
143103.000			11.983			-2.397
143205.000			11.983			-2.397
143304.000			11.983			-2.397
143404.000			11.983			-2.397
143505.000			11.982			-2.396
143604.000			11.982			-2.396
143704.000			11.982			-2.396
143805.000			11.982			-2.396
143904.000			11.982			-2.396
144003.000			11.982			-2.396
144105.000			11.981			-2.396
144204.000			11.981			-2.396
144304.000			11.981			-2.396
144405.000			11.981			-2.396
144504.000			11.981			-2.396
144604.000			11.981			-2.396
144705.000			11.981			-2.396
144804.000			11.980			-2.396
144903.000			11.980			-2.396
145005.000			11.980			-2.396
145104.000			11.980			-2.396
145205.000			11.980			-2.396
145304.000			11.978			-2.396
145404.000			11.978			-2.396
145505.000			11.979			-2.396
145604.000			11.979			-2.396
145704.000			11.979			-2.396
145804.000			11.979			-2.396
145904.000			11.978			-2.396
146003.000			11.977			-2.395
146105.000			11.978			-2.396
146204.000			11.978			-2.396
146304.000			11.978			-2.396
146405.000			11.978			-2.396
146504.000			11.978			-2.396
146604.000			11.977			-2.395
146704.000			11.977			-2.395
146804.000			11.976			-2.395
146903.000			11.977			-2.395
147005.000			11.977			-2.395
147104.000			11.976			-2.395
147204.000			11.976			-2.395
147305.000			11.976			-2.395
147404.000			11.976			-2.395
147504.000			11.974			-2.395
147605.000			11.975			-2.395
147704.000			11.975			-2.395
147803.000			11.976			-2.395
147905.000			11.975			-2.395
148004.000			11.974			-2.395
148104.000			11.974			-2.395
148205.000			11.975			-2.395
148304.000			11.975			-2.395
148405.000			11.975			-2.395
148504.000			11.975			-2.395
148604.000			11.975			-2.395
148704.000			11.975			-2.395
148804.000			11.973			-2.395
148903.000			11.973			-2.395
149005.000			11.973			-2.395
149104.000			11.973			-2.395
149204.000			11.972			-2.394
149305.000			11.973			-2.395
149404.000			11.973			-2.395
149504.000			11.972			-2.394
149604.000			11.971			-2.394
149704.000			11.972			-2.394
149803.000			11.971			-2.394
149905.000			11.971			-2.394
150004.000			11.970			-2.394
150104.000			11.970			-2.394
150205.000			11.970			-2.394
150304.000			11.971			-2.394
150404.000			11.970			-2.394
150504.000			11.970			-2.394
150604.000			11.970			-2.394
150703.000			11.970			-2.394
150805.000			11.970			-2.394
150904.000			11.970			-2.394
151004.000			11.969			-2.394
151105.000			11.969			-2.394
151204.000			11.969			-2.394
151304.000			11.968			-2.394
151403.000			11.968			-2.394
151504.000			11.968			-2.394
151603.000			11.968			-2.394
151704.000			11.968			-2.394
151804.000			11.967			-2.393
151905.000			11.966			-2.393
152004.000			11.966			-2.393
152104.000			11.966			-2.393
152205.000			11.967			-2.393
152304.000			11.966			-2.393
152404.000			11.965			-2.393
152504.000			11.965			-2.393
152604.000			11.966			-2.393
152704.000			11.965			-2.393
152805.000			11.965			-2.393
152904.000			11.965			-2.393
153004.000			11.965			-2.393
153105.000			11.965			-2.393
153204.000			11.965			-2.393
153304.000			11.963			-2.393
153404.000			11.963			-2.393
153504.000			11.964			-2.393
153604.000			11.964			-2.393
153705.000			11.963			-2.393
153804.000			11.963			-2.393
153904.000			11.964			-2.393
154005.000			11.962			-2.392
154104.000			11.962			-2.392
154204.000			11.962			-2.392
154304.000			11.962			-2.392
154404.000			11.962			-2.392
154504.000			11.962			-2.392
154604.000			11.962			-2.392
154704.000			11.962			-2.392
154805.000			11.960			-2.392
154904.000			11.961			-2.392
155004.000			11.961			-2.392
155105.000			11.960			-2.392
155203.000			11.959			-2.392
155304.000			11.959			-2.392
155405.000			11.960			-2.392
155504.000			11.960			-2.392
155604.000			11.959			-2.392
155705.000			11.959			-2.392
155804.000			11.959			-2.392
155904.000			11.958			-2.392
156005.000			11.959			-2.392
156103.000			11.959			-2.392
156204.000			11.957			-2.391
156305.000			11.957			-2.391
156404.000			11.957			-2.391
156504.000			11.957			-2.391
156605.000			11.957			-2.391
156704.000			11.957			-2.391
156804.000			11.957			-2.391
156905.000			11.956			-2.391
157003.000			11.956			-2.391
157104.000			11.956			-2.391
157205.000			11.957			-2.391
157304.000			11.956			-2.391
157404.000			11.955			-2.391
157505.000			11.955			-2.391
157604.000			11.956			-2.391
157704.000			11.955			-2.391
157805.000			11.956			-2.391
157903.000			11.956			-2.391
158005.000			11.955			-2.391
158104.000			11.954			-2.391
158204.000			11.954			-2.391
158305.000			11.954			-2.391
158404.000			11.954			-2.391
158504.000			11.953			-2.391
158605.000			11.953			-2.391
158704.000			11.953			-2.391
158803.000			11.952			-2.390
158905.000			11.954			-2.391
159003.000			11.953			-2.391
159104.000			11.952			-2.390
159205.000			11.952			-2.390
159304.000			11.952			-2.390
159404.000			11.952			-2.390
159505.000			11.952			-2.390
159604.000			11.951			-2.390
159703.000			11.951			-2.390
159805.000			11.951			-2.390
159903.000			11.950			-2.390
160004.000			11.949			-2.390
160105.000			11.950			-2.390
160204.000			11.950			-2.390
160304.000			11.950			-2.390
160405.000			11.950			-2.390
160504.000			11.949			-2.390
160603.000			11.950			-2.390
160705.000			11.950			-2.390
160804.000			11.949			-2.390
160904.000			11.949			-2.390
161005.000			11.949			-2.390
161104.000			11.949			-2.390
161205.000			11.948			-2.390
161304.000			11.947			-2.389
161404.000			11.948			-2.390
161504.000			11.947			-2.389
161604.000			11.947			-2.389
161703.000			11.947			-2.389
161805.000			11.947			-2.389
161904.000			11.948			-2.390
162004.000			11.946			-2.389
162105.000			11.945			-2.389
162204.000			11.946			-2.389
162304.000			11.946			-2.389
162404.000			11.945			-2.389
162504.000			11.945			-2.389
162603.000			11.946			-2.389
162705.000			11.946			-2.389
162804.000			11.945			-2.389
162904.000			11.945			-2.389
163005.000			11.945			-2.389
163104.000			11.945			-2.389
163204.000			11.945			-2.389
163304.000			11.945			-2.389
163404.000			11.945			-2.389
163503.000			11.944			-2.389
163605.000			11.943			-2.389
163704.000			11.944			-2.389
163804.000			11.944			-2.389
163905.000			11.943			-2.389
164004.000			11.943			-2.389
164104.000			11.943			-2.389
164204.000			11.943			-2.389
164304.000			11.942			-2.388
164403.000			11.942			-2.388
164504.000			11.943			-2.389
164604.000			11.942			-2.388
164705.000			11.942			-2.388
164804.000			11.942			-2.388
164904.000			11.941			-2.388
165005.000			11.940			-2.388
165104.000			11.941			-2.388
165204.000			11.941			-2.388
165304.000			11.941			-2.388
165404.000			11.940			-2.388
165504.000			11.940			-2.388
165605.000			11.940			-2.388
165704.000			11.941			-2.388
165804.000			11.940			-2.388
165905.000			11.940			-2.388
166004.000			11.939			-2.388
166104.000			11.939			-2.388
166204.000			11.940			-2.388
166304.000			11.939			-2.388
166404.000			11.939			-2.388
166505.000			11.939			-2.388
166604.000			11.938			-2.388
166704.000			11.938			-2.388
166805.000			11.938			-2.388
166904.000			11.938			-2.388
167004.000			11.938			-2.388
167104.000			11.937			-2.387
167204.000			11.937			-2.387
167304.000			11.937			-2.387
167404.000			11.936			-2.387
167504.000			11.937			-2.387
167605.000			11.937			-2.387
167704.000			11.937			-2.387
167804.000			11.936			-2.387
167905.000			11.936			-2.387
168003.000			11.936			-2.387
168104.000			11.935			-2.387
168204.000			11.935			-2.387
168304.000			11.935			-2.387
168404.000			11.935			-2.387
168505.000			11.936			-2.387
168604.000			11.935			-2.387
168704.000			11.935			-2.387
168805.000			11.934			-2.387
168903.000			11.934			-2.387
169004.000			11.933			-2.387
169104.000			11.933			-2.387
169204.000			11.933			-2.387
169304.000			11.934			-2.387
169405.000			11.933			-2.387
169504.000			11.932			-2.386
169604.000			11.933			-2.387
169705.000			11.933			-2.387
169803.000			11.932			-2.386
169904.000			11.932			-2.386
170004.000			11.932			-2.386
170104.000			11.932			-2.386
170204.000			11.932			-2.386
170305.000			11.932			-2.386
170404.000			11.932			-2.386
170504.000			11.932			-2.386
170605.000			11.932			-2.386
170703.000			11.931			-2.386
170805.000			11.930			-2.386
170904.000			11.930			-2.386
171004.000			11.931			-2.386
171105.000			11.930			-2.386
171204.000			11.931			-2.386
171304.000			11.929			-2.386
171405.000			11.927			-2.385
171504.000			11.930			-2.386
171603.000			11.930			-2.386
171705.000			11.929			-2.386
171804.000			11.929			-2.386
171904.000			11.928			-2.386
172005.000			11.929			-2.386
172104.000			11.929			-2.386
172204.000			11.929			-2.386
172305.000			11.928			-2.386
172404.000			11.927			-2.385
172503.000			11.928			-2.386
172605.000			11.928			-2.386
172704.000			11.927			-2.385
172804.000			11.927			-2.385
172905.000			11.927			-2.385
173004.000			11.928			-2.386
173104.000			11.928			-2.386
173205.000			11.927			-2.385
173304.000			11.927			-2.385
173403.000			11.926			-2.385
173505.000			11.925			-2.385
173604.000			11.926			-2.385
173704.000			11.926			-2.385
173805.000			11.925			-2.385
173904.000			11.925			-2.385
174005.000			11.925			-2.385
174104.000			11.924			-2.385
174204.000			11.924			-2.385
174304.000			11.924			-2.385
174404.000			11.924			-2.385
174503.000			11.924			-2.385
174605.000			11.925			-2.385
174704.000			11.924			-2.385
174804.000			11.923			-2.385
174905.000			11.923			-2.385
175004.000			11.924			-2.385
175104.000			11.923			-2.385
175204.000			11.923			-2.385
175304.000			11.923			-2.385
175403.000			11.922			-2.384
175505.000			11.921			-2.384
175604.000			11.922			-2.384
175704.000			11.922			-2.384
175805.000			11.922			-2.384
175904.000			11.921			-2.384
176004.000			11.922			-2.384
176104.000			11.922			-2.384
176204.000			11.922			-2.384
176304.000			11.922			-2.384
176405.000			11.921			-2.384
176504.000			11.920			-2.384
176604.000			11.920			-2.384
176705.000			11.920			-2.384
176804.000			11.922			-2.384
176904.000			11.921			-2.384
177003.000			11.920			-2.384
177104.000			11.920			-2.384
177205.000			11.919			-2.384
177304.000			11.919			-2.384
177404.000			11.919			-2.384
177505.000			11.918			-2.384
177604.000			11.919			-2.384
177704.000			11.920			-2.384
177805.000			11.919			-2.384
177903.000			11.919			-2.384
178004.000			11.919			-2.384
178104.000			11.917			-2.383
178204.000			11.918			-2.384
178304.000			11.918			-2.384
178405.000			11.917			-2.383
178504.000			11.917			-2.383
178604.000			11.916			-2.383
178705.000			11.917			-2.383
178803.000			11.917			-2.383
178904.000			11.917			-2.383
179004.000			11.918			-2.384
179104.000			11.918			-2.384
179204.000			11.917			-2.383
179305.000			11.917			-2.383
179404.000			11.917			-2.383
179504.000			11.916			-2.383
179605.000			11.915			-2.383
179704.000			11.915			-2.383
179804.000			11.914			-2.383
179904.000			11.914			-2.383
180004.000			11.914			-2.383
180104.000			11.914			-2.383
180204.000			11.913			-2.383
180304.000			11.915			-2.383
180405.000			11.916			-2.383
180504.000			11.915			-2.383
180604.000			11.914			-2.383
180705.000			11.914			-2.383
180803.000			11.914			-2.383
180904.000			11.914			-2.383
181005.000			11.913			-2.383
181104.000			11.913			-2.383
181204.000			11.913			-2.383
181305.000			11.913			-2.383
181404.000			11.913			-2.383
181503.000			11.912			-2.382
181605.000			11.912			-2.382
181703.000			11.912			-2.382
181804.000			11.911			-2.382
181905.000			11.912			-2.382
182004.000			11.912			-2.382
182104.000			11.912			-2.382
182205.000			11.912			-2.382
182304.000			11.912			-2.382
182403.000			11.912			-2.382
182505.000			11.910			-2.382
182604.000			11.911			-2.382
182704.000			11.911			-2.382
182805.000			11.910			-2.382
182904.000			11.910			-2.382
183004.000			11.910			-2.382
183105.000			11.911			-2.382
183204.000			11.909			-2.382
183303.000			11.910			-2.382
183405.000			11.910			-2.382
183504.000			11.910			-2.382
183605.000			11.910			-2.382
183704.000			11.910			-2.382
183804.000			11.910			-2.382
183905.000			11.908			-2.382
184004.000			11.908			-2.382
184104.000			11.907			-2.381
184204.000			11.908			-2.382
184304.000			11.908			-2.382
184404.000			11.909			-2.382
184505.000			11.908			-2.382
184604.000			11.907			-2.381
184704.000			11.907			-2.381
184805.000			11.907			-2.381
184904.000			11.907			-2.381
185004.000			11.907			-2.381
185104.000			11.907			-2.381
185204.000			11.907			-2.381
185303.000			11.906			-2.381
185405.000			11.908			-2.382
185504.000			11.907			-2.381
185604.000			11.906			-2.381
185705.000			11.905			-2.381
185804.000			11.906			-2.381
185904.000			11.906			-2.381
186004.000			11.905			-2.381
186104.000			11.905			-2.381
186203.000			11.905			-2.381
186305.000			11.905			-2.381
186404.000			11.905			-2.381
186504.000			11.905			-2.381
186605.000			11.905			-2.381
186704.000			11.905			-2.381
186805.000			11.904			-2.381
186904.000			11.904			-2.381
187004.000			11.905			-2.381
187104.000			11.904			-2.381
187204.000			11.903			-2.381
187304.000			11.904			-2.381
187405.000			11.903			-2.381
187504.000			11.902			-2.380
187604.000			11.903			-2.381
187705.000			11.903			-2.381
187804.000			11.904			-2.381
187904.000			11.904			-2.381
188004.000			11.903			-2.381
188104.000			11.903			-2.381
188204.000			11.902			-2.380
188305.000			11.902			-2.380
188404.000			11.902			-2.380
188504.000			11.901			-2.380
188605.000			11.902			-2.380
188704.000			11.901			-2.380
188804.000			11.901			-2.380
188904.000			11.901			-2.380
189004.000			11.900			-2.380
189104.000			11.901			-2.380
189205.000			11.900			-2.380
189304.000			11.900			-2.380
189404.000			11.899			-2.380
189505.000			11.900			-2.380
189604.000			11.900			-2.380
189704.000			11.900			-2.380
189803.000			11.900			-2.380
189904.000			11.899			-2.380
190003.000			11.899			-2.380
190104.000			11.899			-2.380
190204.000			11.899			-2.380
190305.000			11.898			-2.380
190404.000			11.898			-2.380
190504.000			11.898			-2.380
190605.000			11.898			-2.380
190704.000			11.898			-2.380
190804.000			11.898			-2.380
190904.000			11.898			-2.380
191004.000			11.898			-2.380
191104.000			11.898			-2.380
191205.000			11.897			-2.379
191304.000			11.897			-2.379
191404.000			11.897			-2.379
191505.000			11.897			-2.379
191604.000			11.897			-2.379
191704.000			11.896			-2.379
191804.000			11.895			-2.379
191904.000			11.896			-2.379
192004.000			11.896			-2.379
192105.000			11.895			-2.379
192204.000			11.895			-2.379
192304.000			11.895			-2.379
192405.000			11.895			-2.379
192504.000			11.895			-2.379
192604.000			11.895			-2.379
192704.000			11.894			-2.379
192804.000			11.893			-2.379
192903.000			11.894			-2.379
193005.000			11.894			-2.379
193104.000			11.894			-2.379
193205.000			11.895			-2.379
193304.000			11.895			-2.379
193404.000			11.894			-2.379
193505.000			11.894			-2.379
193603.000			11.892			-2.378
193704.000			11.893			-2.379
193804.000			11.892			-2.378
193904.000			11.892			-2.378
194004.000			11.892			-2.378
194105.000			11.893			-2.379
194204.000			11.893			-2.379
194304.000			11.893			-2.379
194405.000			11.894			-2.379
194504.000			11.893			-2.379
194604.000			11.892			-2.378
194704.000			11.892			-2.378
194804.000			11.891			-2.378
194904.000			11.892			-2.378
195005.000			11.892			-2.378
195104.000			11.892			-2.378
195204.000			11.891			-2.378
195305.000			11.890			-2.378
195404.000			11.890			-2.378
195504.000			11.891			-2.378
195604.000			11.891			-2.378
195704.000			11.891			-2.378
195804.000			11.890			-2.378
195905.000			11.889			-2.378
196004.000			11.889			-2.378
196104.000			11.890			-2.378
196205.000			11.890			-2.378
196304.000			11.890			-2.378
196405.000			11.889			-2.378
196504.000			11.888			-2.378
196604.000			11.888			-2.378
196704.000			11.889			-2.378
196804.000			11.887			-2.377
196904.000			11.887			-2.377
197005.000			11.889			-2.378
197104.000			11.888			-2.378
197204.000			11.888			-2.378
197305.000			11.887			-2.377
197404.000			11.888			-2.378
197504.000			11.887			-2.377
197604.000			11.888			-2.378
197704.000			11.887			-2.377
197803.000			11.886			-2.377
197905.000			11.886			-2.377
198004.000			11.888			-2.378
198104.000			11.888			-2.378
198205.000			11.887			-2.377
198304.000			11.886			-2.377
198404.000			11.885			-2.377
198505.000			11.886			-2.377
198604.000			11.885			-2.377
198703.000			11.885			-2.377
198805.000			11.885			-2.377
198904.000			11.885			-2.377
199004.000			11.885			-2.377
199105.000			11.885			-2.377
199204.000			11.885			-2.377
199304.000			11.885			-2.377
199404.000			11.884			-2.377
199504.000			11.884			-2.377
199603.000			11.884			-2.377
199704.000			11.883			-2.377
199803.000			11.884			-2.377
199905.000			11.884			-2.377
200004.000			11.883			-2.377
200104.000			11.882			-2.376
200205.000			11.883			-2.377
200304.000			11.882			-2.376
200404.000			11.883			-2.377
200504.000			11.883			-2.377
200604.000			11.883			-2.377
200703.000			11.882			-2.376
200805.000			11.882			-2.376
200904.000			11.882			-2.376
201004.000			11.883			-2.377
201105.000			11.883			-2.377
201204.000			11.883			-2.377
201304.000			11.882			-2.376
201404.000			11.881			-2.376
201504.000			11.882			-2.376
201603.000			11.881			-2.376
201705.000			11.881			-2.376
201804.000			11.882			-2.376
201904.000			11.882			-2.376
202005.000			11.880			-2.376
202104.000			11.880			-2.376
202204.000			11.880			-2.376
202304.000			11.880			-2.376
202404.000			11.880			-2.376
202504.000			11.879			-2.376
202604.000			11.879			-2.376
202704.000			11.879			-2.376
202805.000			11.879			-2.376
202904.000			11.880			-2.376
203004.000			11.880			-2.376
203105.000			11.879			-2.376
203203.000			11.879			-2.376
203304.000			11.879			-2.376
203404.000			11.879			-2.376
203504.000			11.877			-2.375
203604.000			11.878			-2.376
203705.000			11.878			-2.376
203804.000			11.878			-2.376
203904.000			11.878			-2.376
204005.000			11.877			-2.375
204103.000			11.877			-2.375
204204.000			11.878			-2.376
204304.000			11.876			-2.375
204404.000			11.876			-2.375
204504.000			11.875			-2.375
204605.000			11.876			-2.375
204704.000			11.877			-2.375
204804.000			11.877			-2.375
204905.000			11.877			-2.375
205004.000			11.877			-2.375
205104.000			11.877			-2.375
205204.000			11.876			-2.375
205304.000			11.876			-2.375
205404.000			11.875			-2.375
205505.000			11.875			-2.375
205604.000			11.875			-2.375
205704.000			11.875			-2.375
205805.000			11.876			-2.375
205904.000			11.876			-2.375
206005.000			11.875			-2.375
206103.000			11.874			-2.375
206204.000			11.875			-2.375
206305.000			11.875			-2.375
206404.000			11.875			-2.375
206504.000			11.873			-2.375
206605.000			11.874			-2.375
206704.000			11.873			-2.375
206803.000			11.873			-2.375
206905.000			11.874			-2.375
207003.000			11.874			-2.375
207104.000			11.873			-2.375
207205.000			11.872			-2.374
207304.000			11.872			-2.374
207404.000			11.873			-2.375
207505.000			11.872			-2.374
207604.000			11.872			-2.374
207703.000			11.872			-2.374
207805.000			11.872			-2.374
207903.000			11.872			-2.374
208004.000			11.872			-2.374
208105.000			11.872			-2.374
208204.000			11.872			-2.374
208304.000			11.871			-2.374
208405.000			11.871			-2.374
208504.000			11.871			-2.374
208603.000			11.871			-2.374
208705.000			11.871			-2.374
208804.000			11.871			-2.374
208904.000			11.871			-2.374
209005.000			11.870			-2.374
209104.000			11.870			-2.374
209205.000			11.869			-2.374
209304.000			11.869			-2.374
209404.000			11.869			-2.374
209504.000			11.870			-2.374
209604.000			11.870			-2.374
209703.000			11.870			-2.374
209805.000			11.869			-2.374
209904.000			11.869			-2.374
210004.000			11.868			-2.374
210105.000			11.869			-2.374
210204.000			11.869			-2.374
210304.000			11.869			-2.374
210404.000			11.869			-2.374
210504.000			11.868			-2.374
210603.000			11.868			-2.374
210705.000			11.868			-2.374
210804.000			11.867			-2.373
210904.000			11.866			-2.373
211005.000			11.867			-2.373
211104.000			11.868			-2.374
211204.000			11.868			-2.374
211304.000			11.868			-2.374
211404.000			11.867			-2.373
211503.000			11.866			-2.373
211605.000			11.866			-2.373
211704.000			11.867			-2.373
211804.000			11.866			-2.373
211905.000			11.866			-2.373
212004.000			11.865			-2.373
212104.000			11.866			-2.373
212203.000			11.866			-2.373
212304.000			11.865			-2.373
212405.000			11.864			-2.373
212504.000			11.864			-2.373
212604.000			11.865			-2.373
212705.000			11.865			-2.373
212804.000			11.865			-2.373
212904.000			11.866			-2.373
213005.000			11.866			-2.373
213103.000			11.865			-2.373
213204.000			11.865			-2.373
213305.000			11.865			-2.373
213404.000			11.864			-2.373
213504.000			11.864			-2.373
213605.000			11.864			-2.373
213704.000			11.865			-2.373
213804.000			11.864			-2.373
213905.000			11.864			-2.373
214003.000			11.864			-2.373
214104.000			11.865			-2.373
214205.000			11.864			-2.373
214304.000			11.864			-2.373
214404.000			11.864			-2.373
214505.000			11.863			-2.373
214604.000			11.862			-2.372
214704.000			11.863			-2.373
214805.000			11.862			-2.372
214903.000			11.862			-2.372
215004.000			11.862			-2.372
215105.000			11.863			-2.373
215204.000			11.863			-2.373
215304.000			11.863			-2.373
215404.000			11.862			-2.372
215504.000			11.863			-2.373
215603.000			11.862			-2.372
215704.000			11.862			-2.372
215803.000			11.862			-2.372
215905.000			11.862			-2.372
216004.000			11.861			-2.372
216104.000			11.862			-2.372
216205.000			11.862			-2.372
216304.000			11.864			-2.373
216404.000			11.865			-2.373
216504.000			11.865			-2.373
216604.000			11.865			-2.373
216703.000			11.865			-2.373
216805.000			11.864			-2.373
216904.000			11.864			-2.373
217004.000			11.865			-2.373
217105.000			11.866			-2.373
217204.000			11.866			-2.373
217304.000			11.864			-2.373
217404.000			11.864			-2.373
217504.000			11.865			-2.373
217603.000			11.865			-2.373
217705.000			11.864			-2.373
217804.000			11.862			-2.372
217904.000			11.862			-2.372
218005.000			11.861			-2.372
218104.000			11.861			-2.372
218204.000			11.860			-2.372
218304.000			11.861			-2.372
218404.000			11.862			-2.372
218503.000			11.861			-2.372
218605.000			11.860			-2.372
218704.000			11.859			-2.372
218805.000			11.859			-2.372
218904.000			11.859			-2.372
219004.000			11.858			-2.372
219105.000			11.858			-2.372
219204.000			11.859			-2.372
219304.000			11.859			-2.372
219404.000			11.859			-2.372
219504.000			11.857			-2.371
219604.000			11.857			-2.371
219705.000			11.856			-2.371
219804.000			11.856			-2.371
219904.000			11.856			-2.371
220005.000			11.855			-2.371
220104.000			11.854			-2.371
220204.000			11.855			-2.371
220304.000			11.855			-2.371
220404.000			11.855			-2.371
220504.000			11.854			-2.371
220605.000			11.854			-2.371
220704.000			11.854			-2.371
220804.000			11.854			-2.371
220905.000			11.854			-2.371
221003.000			11.855			-2.371
221104.000			11.855			-2.371
221204.000			11.853			-2.371
221304.000			11.854			-2.371
221404.000			11.854			-2.371
221505.000			11.853			-2.371
221604.000			11.853			-2.371
221704.000			11.853			-2.371
221805.000			11.853			-2.371
221903.000			11.853			-2.371
222005.000			11.854			-2.371
222104.000			11.853			-2.371
222204.000			11.852			-2.370
222305.000			11.853			-2.371
222404.000			11.852			-2.370
222504.000			11.852			-2.370
222605.000			11.852			-2.370
222704.000			11.852			-2.370
222803.000			11.853			-2.371
222905.000			11.853			-2.371
223004.000			11.852			-2.370
223104.000			11.853			-2.371
223205.000			11.853			-2.371
223304.000			11.854			-2.371
223404.000			11.853			-2.371
223504.000			11.852			-2.370
223604.000			11.853			-2.371
223703.000			11.854			-2.371
223805.000			11.854			-2.371
223904.000			11.854			-2.371
224004.000			11.853			-2.371
224105.000			11.853			-2.371
224204.000			11.854			-2.371
224304.000			11.853			-2.371
224404.000			11.853			-2.371
224504.000			11.854			-2.371
224603.000			11.853			-2.371
224705.000			11.853			-2.371
224804.000			11.854			-2.371
224904.000			11.854			-2.371
225005.000			11.854			-2.371
225104.000			11.853			-2.371
225205.000			11.854			-2.371
225303.000			11.853			-2.371
225404.000			11.852			-2.370
225504.000			11.852			-2.370
225604.000			11.853			-2.371
225704.000			11.853			-2.371
225805.000			11.853			-2.371
225904.000			11.852			-2.370
226004.000			11.853			-2.371
226105.000			11.853			-2.371
226203.000			11.853			-2.371
226304.000			11.851			-2.370
226405.000			11.852			-2.370
226504.000			11.853			-2.371
226604.000			11.853			-2.371
226705.000			11.853			-2.371
226804.000			11.851			-2.370
226904.000			11.851			-2.370
227005.000			11.851			-2.370
227103.000			11.850			-2.370
227204.000			11.849			-2.370
227305.000			11.849			-2.370
227404.000			11.849			-2.370
227504.000			11.849			-2.370
227605.000			11.849			-2.370
227704.000			11.848			-2.370
227804.000			11.847			-2.369
227905.000			11.847			-2.369
228003.000			11.847			-2.369
228104.000			11.847			-2.369
228203.000			11.847			-2.369
228304.000			11.847			-2.369
228405.000			11.847			-2.369
228504.000			11.847			-2.369
228604.000			11.847			-2.369
228705.000			11.848			-2.370
228804.000			11.847			-2.369
228903.000			11.846			-2.369
229005.000			11.846			-2.369
229103.000			11.847			-2.369
229204.000			11.846			-2.369
229305.000			11.846			-2.369
229404.000			11.846			-2.369
229504.000			11.847			-2.369
229605.000			11.846			-2.369
229704.000			11.846			-2.369
229804.000			11.846			-2.369
229905.000			11.845			-2.369
230003.000			11.846			-2.369
230104.000			11.846			-2.369
230205.000			11.845			-2.369
230304.000			11.845			-2.369
230404.000			11.845			-2.369
230505.000			11.845			-2.369
230604.000			11.845			-2.369
230703.000			11.845			-2.369
230805.000			11.844			-2.369
230903.000			11.844			-2.369
231004.000			11.845			-2.369
231105.000			11.845			-2.369
231204.000			11.844			-2.369
231304.000			11.844			-2.369
231404.000			11.844			-2.369
231504.000			11.843			-2.369
231603.000			11.843			-2.369
231704.000			11.843			-2.369
231803.000			11.844			-2.369
231905.000			11.843			-2.369
232004.000			11.842			-2.368
232104.000			11.841			-2.368
232205.000			11.841			-2.368
232304.000			11.841			-2.368
232404.000			11.841			-2.368
232504.000			11.840			-2.368
232604.000			11.840			-2.368
232704.000			11.839			-2.368
232805.000			11.840			-2.368
232904.000			11.840			-2.368
233004.000			11.841			-2.368
233105.000			11.841			-2.368
233204.000			11.840			-2.368
233304.000			11.839			-2.368
233404.000			11.838			-2.368
233504.000			11.838			-2.368
233604.000			11.839			-2.368
233705.000			11.839			-2.368
233804.000			11.838			-2.368
233904.000			11.837			-2.367
234005.000			11.838			-2.368
234104.000			11.839			-2.368
234204.000			11.839			-2.368
234304.000			11.838			-2.368
234404.000			11.837			-2.367
234504.000			11.838			-2.368
234604.000			11.838			-2.368
234704.000			11.839			-2.368
234805.000			11.838			-2.368
234904.000			11.838			-2.368
235004.000			11.837			-2.367
235105.000			11.836			-2.367
235203.000			11.837			-2.367
235304.000			11.837			-2.367
235405.000			11.836			-2.367
235504.000			11.835			-2.367
235604.000			11.837			-2.367
235705.000			11.836			-2.367
235804.000			11.836			-2.367
235904.000			11.835			-2.367
236005.000			11.835			-2.367
236103.000			11.836			-2.367
236204.000			11.835			-2.367
236305.000			11.834			-2.367
236404.000			11.835			-2.367
236504.000			11.835			-2.367
236605.000			11.833			-2.367
236704.000			11.833			-2.367
236804.000			11.833			-2.367
236905.000			11.834			-2.367
237003.000			11.834			-2.367
237104.000			11.833			-2.367
237205.000			11.834			-2.367
237304.000			11.834			-2.367
237404.000			11.834			-2.367
237505.000			11.833			-2.367
237604.000			11.833			-2.367
237703.000			11.832			-2.366
237805.000			11.832			-2.366
237903.000			11.833			-2.367
238005.000			11.832			-2.366
238104.000			11.831			-2.366
238204.000			11.831			-2.366
238305.000			11.833			-2.367
238404.000			11.832			-2.366
238504.000			11.831			-2.366
238604.000			11.832			-2.366
238704.000			11.831			-2.366
238803.000			11.832			-2.366
238905.000			11.831			-2.366
239004.000			11.831			-2.366
239104.000			11.832			-2.366
239205.000			11.832			-2.366
239304.000			11.831			-2.366
239404.000			11.831			-2.366
239504.000			11.831			-2.366
239604.000			11.830			-2.366
239703.000			11.830			-2.366
239805.000			11.831			-2.366
239904.000			11.831			-2.366
240004.000			11.830			-2.366
240105.000			11.830			-2.366
240204.000			11.830			-2.366
240304.000			11.830			-2.366
240404.000			11.829			-2.366
240504.000			11.829			-2.366
240603.000			11.830			-2.366
240705.000			11.829			-2.366
240804.000			11.829			-2.366
240904.000			11.829			-2.366
241005.000			11.830			-2.366
241104.000			11.829			-2.366
241205.000			11.828			-2.366
241303.000			11.828			-2.366
241404.000			11.828			-2.366
241504.000			11.828			-2.366
241604.000			11.827			-2.365
241704.000			11.827			-2.365
241805.000			11.827			-2.365
241904.000			11.828			-2.366
242004.000			11.827			-2.365
242105.000			11.826			-2.365
242203.000			11.827			-2.365
242304.000			11.827			-2.365
242404.000			11.827			-2.365
242504.000			11.826			-2.365
242604.000			11.826			-2.365
242705.000			11.826			-2.365
242804.000			11.826			-2.365
242904.000			11.826			-2.365
243005.000			11.826			-2.365
243103.000			11.827			-2.365
243204.000			11.826			-2.365
243305.000			11.825			-2.365
243404.000			11.826			-2.365
243504.000			11.826			-2.365
243605.000			11.825			-2.365
243704.000			11.825			-2.365
243804.000			11.825			-2.365
243905.000			11.824			-2.365
244003.000			11.823			-2.365
244104.000			11.823			-2.365
244205.000			11.825			-2.365
244304.000			11.825			-2.365
244405.000			11.824			-2.365
244504.000			11.825			-2.365
244604.000			11.825			-2.365
244705.000			11.825			-2.365
244804.000			11.825			-2.365
244903.000			11.824			-2.365
245005.000			11.824			-2.365
245104.000			11.824			-2.365
245204.000			11.824			-2.365
245305.000			11.823			-2.365
245404.000			11.824			-2.365
245504.000			11.823			-2.365
245605.000			11.824			-2.365
245704.000			11.824			-2.365
245803.000			11.823			-2.365
245905.000			11.823			-2.365
246004.000			11.821			-2.364
246104.000			11.822			-2.364
246205.000			11.822			-2.364
246304.000			11.822			-2.364
246404.000			11.823			-2.365
246505.000			11.822			-2.364
246604.000			11.822			-2.364
246703.000			11.821			-2.364
246805.000			11.821			-2.364
246904.000			11.822			-2.364
247004.000			11.821			-2.364
247105.000			11.821			-2.364
247204.000			11.821			-2.364
247304.000			11.821			-2.364
247404.000			11.821			-2.364
247504.000			11.819			-2.364
247603.000			11.820			-2.364
247704.000			11.819			-2.364
247804.000			11.820			-2.364
247905.000			11.821			-2.364
248004.000			11.821			-2.364
248104.000			11.820			-2.364
248205.000			11.820			-2.364
248304.000			11.821			-2.364
248404.000			11.819			-2.364
248504.000			11.819			-2.364
248604.000			11.818			-2.364
248704.000			11.818			-2.364
248805.000			11.818			-2.364
248904.000			11.819			-2.364
249004.000			11.820			-2.364
249105.000			11.819			-2.364
249204.000			11.819			-2.364
249304.000			11.819			-2.364
249404.000			11.818			-2.364
249504.000			11.817			-2.363
249603.000			11.818			-2.364
249705.000			11.818			-2.364
249804.000			11.818			-2.364
249904.000			11.818			-2.364
250005.000			11.817			-2.363
250104.000			11.817			-2.363
250204.000			11.817			-2.363
250304.000			11.817			-2.363
250404.000			11.817			-2.363
250503.000			11.816			-2.363
250605.000			11.816			-2.363
250704.000			11.816			-2.363
250805.000			11.816			-2.363
250904.000			11.816			-2.363
251004.000			11.816			-2.363
251105.000			11.815			-2.363
251203.000			11.815			-2.363
251304.000			11.816			-2.363
251405.000			11.816			-2.363
251504.000			11.815			-2.363
251604.000			11.815			-2.363
251705.000			11.815			-2.363
251804.000			11.815			-2.363
251904.000			11.815			-2.363
252005.000			11.814			-2.363
252103.000			11.815			-2.363
252204.000			11.815			-2.363
252305.000			11.815			-2.363
252404.000			11.815			-2.363
252504.000			11.814			-2.363
252605.000			11.814			-2.363
252704.000			11.813			-2.363
252804.000			11.814			-2.363
252905.000			11.814			-2.363
253003.000			11.813			-2.363
253104.000			11.813			-2.363
253205.000			11.813			-2.363
253304.000			11.814			-2.363
253404.000			11.813			-2.363
253505.000			11.812			-2.362
253604.000			11.812			-2.362
253703.000			11.813			-2.363
253805.000			11.813			-2.363
253903.000			11.813			-2.363
254005.000			11.812			-2.362
254104.000			11.812			-2.362
254204.000			11.812			-2.362
254305.000			11.812			-2.362
254404.000			11.812			-2.362
254504.000			11.812			-2.362
254604.000			11.812			-2.362
254704.000			11.812			-2.362
254804.000			11.811			-2.362
254905.000			11.811			-2.362
255004.000			11.811			-2.362
255104.000			11.811			-2.362
255205.000			11.811			-2.362
255304.000			11.811			-2.362
255404.000			11.810			-2.362
255504.000			11.810			-2.362
255604.000			11.810			-2.362
255704.000			11.811			-2.362
255805.000			11.810			-2.362
255904.000			11.810			-2.362
256004.000			11.811			-2.362
256105.000			11.810			-2.362
256204.000			11.810			-2.362
256304.000			11.810			-2.362
256404.000			11.810			-2.362
256504.000			11.810			-2.362
256604.000			11.810			-2.362
256705.000			11.810			-2.362
256804.000			11.809			-2.362
256904.000			11.809			-2.362
257005.000			11.809			-2.362
257104.000			11.809			-2.362
257205.000			11.810			-2.362
257303.000			11.810			-2.362
257404.000			11.810			-2.362
257505.000			11.810			-2.362
257604.000			11.810			-2.362
257704.000			11.809			-2.362
257805.000			11.809			-2.362
257904.000			11.809			-2.362
258004.000			11.808			-2.362
258105.000			11.807			-2.361
258203.000			11.807			-2.361
258304.000			11.808			-2.362
258405.000			11.807			-2.361
258504.000			11.806			-2.361
258604.000			11.807			-2.361
258705.000			11.808			-2.362
258804.000			11.807			-2.361
258904.000			11.807			-2.361
259005.000			11.807			-2.361
259103.000			11.807			-2.361
259204.000			11.807			-2.361
259305.000			11.807			-2.361
259404.000			11.808			-2.362
259504.000			11.807			-2.361
259605.000			11.806			-2.361
259704.000			11.807			-2.361
259804.000			11.805			-2.361
259905.000			11.807			-2.361
260003.000			11.806			-2.361
260104.000			11.806			-2.361
260205.000			11.806			-2.361
260304.000			11.806			-2.361
260405.000			11.805			-2.361
260504.000			11.805			-2.361
260604.000			11.805			-2.361
260705.000			11.805			-2.361
260804.000			11.805			-2.361
260903.000			11.806			-2.361
261005.000			11.805			-2.361
261104.000			11.804			-2.361
261204.000			11.804			-2.361
261305.000			11.805			-2.361
261404.000			11.805			-2.361
261504.000			11.805			-2.361
261604.000			11.804			-2.361
261704.000			11.804			-2.361
261803.000			11.803			-2.361
261905.000			11.804			-2.361
262004.000			11.804			-2.361
262104.000			11.804			-2.361
262205.000			11.803			-2.361
262304.000			11.803			-2.361
262404.000			11.804			-2.361
262504.000			11.803			-2.361
262604.000			11.803			-2.361
262704.000			11.803			-2.361
262805.000			11.803			-2.361
262904.000			11.803			-2.361
263004.000			11.802			-2.360
263105.000			11.802			-2.360
263204.000			11.803			-2.361
263304.000			11.803			-2.361
263403.000			11.802			-2.360
263504.000			11.802			-2.360
263605.000			11.802			-2.360
263704.000			11.802			-2.360
263804.000			11.801			-2.360
263905.000			11.801			-2.360
264004.000			11.801			-2.360
264104.000			11.801			-2.360
264205.000			11.802			-2.360
264303.000			11.802			-2.360
264404.000			11.802			-2.360
264505.000			11.803			-2.361
264604.000			11.802			-2.360
264704.000			11.801			-2.360
264805.000			11.802			-2.360
264904.000			11.802			-2.360
265003.000			11.802			-2.360
265105.000			11.802			-2.360
265204.000			11.804			-2.361
265304.000			11.803			-2.361
265405.000			11.803			-2.361
265504.000			11.803			-2.361
265604.000			11.802			-2.360
265705.000			11.803			-2.361
265804.000			11.804			-2.361
265903.000			11.804			-2.361
266005.000			11.803			-2.361
266104.000			11.802			-2.360
266204.000			11.802			-2.360
266305.000			11.802			-2.360
266404.000			11.802			-2.360
266504.000			11.802			-2.360
266604.000			11.803			-2.361
266704.000			11.803			-2.361
266803.000			11.802			-2.360
266904.000			11.802			-2.360
267003.000			11.802			-2.360
267105.000			11.802			-2.360
267204.000			11.802			-2.360
267304.000			11.802			-2.360
267405.000			11.802			-2.360
267504.000			11.801			-2.360
267604.000			11.802			-2.360
267704.000			11.802			-2.360
267804.000			11.803			-2.361
267903.000			11.802			-2.360
268005.000			11.802			-2.360
268104.000			11.801			-2.360
268204.000			11.801			-2.360
268305.000			11.801			-2.360
268404.000			11.800			-2.360
268504.000			11.801			-2.360
268604.000			11.802			-2.360
268704.000			11.801			-2.360
268804.000			11.800			-2.360
268905.000			11.800			-2.360
269004.000			11.801			-2.360
269104.000			11.801			-2.360
269205.000			11.800			-2.360
269304.000			11.801			-2.360
269404.000			11.800			-2.360
269504.000			11.802			-2.360
269604.000			11.801			-2.360
269704.000			11.800			-2.360
269804.000			11.800			-2.360
269904.000			11.801			-2.360
270005.000			11.800			-2.360
270104.000			11.801			-2.360
270204.000			11.800			-2.360
270305.000			11.799			-2.360
270403.000			11.798			-2.360
270504.000			11.798			-2.360
270605.000			11.800			-2.360
270704.000			11.799			-2.360
270804.000			11.798			-2.360
270905.000			11.798			-2.360
271004.000			11.798			-2.360
271104.000			11.797			-2.359
271205.000			11.797			-2.359
271303.000			11.796			-2.359
271404.000			11.796			-2.359
271505.000			11.797			-2.359
271604.000			11.795			-2.359
271704.000			11.796			-2.359
271805.000			11.796			-2.359
271904.000			11.794			-2.359
272004.000			11.794			-2.359
272105.000			11.794			-2.359
272203.000			11.794			-2.359
272304.000			11.795			-2.359
272405.000			11.795			-2.359
272504.000			11.794			-2.359
272604.000			11.794			-2.359
272705.000			11.795			-2.359
272804.000			11.795			-2.359
272904.000			11.793			-2.359
273005.000			11.793			-2.359
273103.000			11.793			-2.359
273205.000			11.794			-2.359
273303.000			11.794			-2.359
273404.000			11.793			-2.359
273505.000			11.792			-2.358
273604.000			11.791			-2.358
273704.000			11.792			-2.358
273805.000			11.792			-2.358
273904.000			11.792			-2.358
274003.000			11.792			-2.358
274105.000			11.792			-2.358
274203.000			11.791			-2.358
274304.000			11.791			-2.358
274405.000			11.792			-2.358
274504.000			11.792			-2.358
274604.000			11.791			-2.358
274705.000			11.791			-2.358
274804.000			11.790			-2.358
274903.000			11.790			-2.358
275005.000			11.790			-2.358
275103.000			11.790			-2.358
275204.000			11.790			-2.358
275305.000			11.790			-2.358
275404.000			11.790			-2.358
275504.000			11.790			-2.358
275605.000			11.790			-2.358
275704.000			11.790			-2.358
275803.000			11.790			-2.358
275905.000			11.790			-2.358
276003.000			11.789			-2.358
276104.000			11.788			-2.358
276205.000			11.788			-2.358
276304.000			11.788			-2.358
276405.000			11.789			-2.358
276504.000			11.790			-2.358
276604.000			11.790			-2.358
276705.000			11.789			-2.358
276804.000			11.789			-2.358
276903.000			11.790			-2.358
277005.000			11.789			-2.358
277104.000			11.788			-2.358
277204.000			11.788			-2.358
277305.000			11.788			-2.358
277404.000			11.787			-2.357
277504.000			11.788			-2.358
277605.000			11.789			-2.358
277704.000			11.788			-2.358
277803.000			11.788			-2.358
277905.000			11.787			-2.357
278003.000			11.787			-2.357
278104.000			11.787			-2.357
278205.000			11.787			-2.357
278304.000			11.787			-2.357
278404.000			11.787			-2.357
278505.000			11.788			-2.358
278604.000			11.787			-2.357
278704.000			11.787			-2.357
278805.000			11.786			-2.357
278903.000			11.786			-2.357
279004.000			11.786			-2.357
279105.000			11.786			-2.357
279204.000			11.785			-2.357
279304.000			11.785			-2.357
279404.000			11.784			-2.357
279504.000			11.784			-2.357
279605.000			11.786			-2.357
279704.000			11.786			-2.357
279803.000			11.786			-2.357
279905.000			11.785			-2.357
280003.000			11.785			-2.357
280104.000			11.786			-2.357
280205.000			11.785			-2.357
280304.000			11.785			-2.357
280404.000			11.784			-2.357
280505.000			11.783			-2.357
280604.000			11.783			-2.357
280703.000			11.783			-2.357
280805.000			11.784			-2.357
280903.000			11.784			-2.357
281004.000			11.784			-2.357
281105.000			11.783			-2.357
281204.000			11.783			-2.357
281304.000			11.782			-2.356
281405.000			11.782			-2.356
281504.000			11.782			-2.356
281603.000			11.782			-2.356
281705.000			11.781			-2.356
281803.000			11.782			-2.356
281904.000			11.782			-2.356
282005.000			11.782			-2.356
282104.000			11.782			-2.356
282204.000			11.781			-2.356
282305.000			11.782			-2.356
282404.000			11.781			-2.356
282503.000			11.781			-2.356
282605.000			11.780			-2.356
282704.000			11.780			-2.356
282805.000			11.780			-2.356
282904.000			11.780			-2.356
283004.000			11.780			-2.356
283105.000			11.780			-2.356
283204.000			11.780			-2.356
283304.000			11.780			-2.356
283404.000			11.780			-2.356
283504.000			11.780			-2.356
283603.000			11.780			-2.356
283705.000			11.780			-2.356
283804.000			11.780			-2.356
283904.000			11.781			-2.356
284005.000			11.781			-2.356
284104.000			11.781			-2.356
284204.000			11.780			-2.356
284305.000			11.779			-2.356
284404.000			11.779			-2.356
284503.000			11.780			-2.356
284605.000			11.780			-2.356
284704.000			11.780			-2.356
284804.000			11.779			-2.356
284905.000			11.779			-2.356
285004.000			11.779			-2.356
285104.000			11.779			-2.356
285205.000			11.779			-2.356
285304.000			11.779			-2.356
285403.000			11.780			-2.356
285505.000			11.779			-2.356
285603.000			11.779			-2.356
285704.000			11.779			-2.356
285805.000			11.779			-2.356
285904.000			11.779			-2.356
286005.000			11.778			-2.356
286104.000			11.778			-2.356
286204.000			11.779			-2.356
286305.000			11.777			-2.355
286404.000			11.778			-2.356
286503.000			11.778			-2.356
286605.000			11.779			-2.356
286704.000			11.778			-2.356
286804.000			11.778			-2.356
286905.000			11.778			-2.356
287004.000			11.777			-2.355
287104.000			11.777			-2.355
287205.000			11.778			-2.356
287304.000			11.778			-2.356
287403.000			11.777			-2.355
287505.000			11.776			-2.355
287603.000			11.776			-2.355
287704.000			11.777			-2.355
287805.000			11.776			-2.355
287904.000			11.775			-2.355
288004.000			11.776			-2.355
288105.000			11.777			-2.355
288204.000			11.776			-2.355
288304.000			11.776			-2.355
288405.000			11.775			-2.355
288503.000			11.776			-2.355
288604.000			11.775			-2.355
288705.000			11.774			-2.355
288804.000			11.775			-2.355
288904.000			11.775			-2.355
289004.000			11.775			-2.355
289104.000			11.775			-2.355
289205.000			11.774			-2.355
289304.000			11.773			-2.355
289403.000			11.774			-2.355
289505.000			11.774			-2.355
289603.000			11.775			-2.355
289704.000			11.774			-2.355
289805.000			11.773			-2.355
289904.000			11.773			-2.355
290004.000			11.773			-2.355
290105.000			11.773			-2.355
290204.000			11.774			-2.355
290304.000			11.774			-2.355
290405.000			11.773			-2.355
290503.000			11.772			-2.354
290604.000			11.773			-2.355
290705.000			11.773			-2.355
290804.000			11.773			-2.355
290904.000			11.773			-2.355
291005.000			11.773			-2.355
291104.000			11.772			-2.354
291204.000			11.772			-2.354
291305.000			11.772			-2.354
291403.000			11.771			-2.354
291504.000			11.770			-2.354
291605.000			11.771			-2.354
291704.000			11.771			-2.354
291804.000			11.772			-2.354
291905.000			11.771			-2.354
292004.000			11.771			-2.354
292104.000			11.771			-2.354
292205.000			11.771			-2.354
292303.000			11.771			-2.354
292405.000			11.771			-2.354
292504.000			11.770			-2.354
292604.000			11.770			-2.354
292705.000			11.770			-2.354
292804.000			11.770			-2.354
292904.000			11.769			-2.354
293005.000			11.769			-2.354
293104.000			11.769			-2.354
293203.000			11.769			-2.354
293305.000			11.769			-2.354
293403.000			11.770			-2.354
293504.000			11.768			-2.354
293605.000			11.768			-2.354
293704.000			11.768			-2.354
293804.000			11.769			-2.354
293905.000			11.769			-2.354
294004.000			11.769			-2.354
294104.000			11.769			-2.354
294205.000			11.767			-2.353
294303.000			11.768			-2.354
294404.000			11.768			-2.354
294505.000			11.768			-2.354
294604.000			11.768			-2.354
294704.000			11.768			-2.354
294805.000			11.768			-2.354
294904.000			11.768			-2.354
295004.000			11.767			-2.353
295105.000			11.767			-2.353
295203.000			11.768			-2.354
295304.000			11.768			-2.354
295405.000			11.768			-2.354
295504.000			11.767			-2.353
295605.000			11.767			-2.353
295704.000			11.767			-2.353
295804.000			11.767			-2.353
295905.000			11.768			-2.354
296004.000			11.768			-2.354
296103.000			11.768			-2.354
296205.000			11.767			-2.353
296303.000			11.766			-2.353
296404.000			11.765			-2.353
296505.000			11.766			-2.353
296604.000			11.766			-2.353
296704.000			11.766			-2.353
296805.000			11.766			-2.353
296904.000			11.766			-2.353
297004.000			11.766			-2.353
297105.000			11.766			-2.353
297203.000			11.766			-2.353
297304.000			11.766			-2.353
297405.000			11.766			-2.353
297504.000			11.766			-2.353
297604.000			11.766			-2.353
297705.000			11.766			-2.353
297804.000			11.765			-2.353
297904.000			11.766			-2.353
298005.000			11.765			-2.353
298103.000			11.765			-2.353
298204.000			11.764			-2.353
298305.000			11.764			-2.353
298404.000			11.764			-2.353
298504.000			11.765			-2.353
298604.000			11.765			-2.353
298704.000			11.764			-2.353
298805.000			11.764			-2.353
298904.000			11.765			-2.353
299004.000			11.765			-2.353
299105.000			11.764			-2.353
299203.000			11.763			-2.353
299304.000			11.764			-2.353
299405.000			11.764			-2.353
299504.000			11.763			-2.353
299604.000			11.763			-2.353
299705.000			11.763			-2.353
299804.000			11.763			-2.353
299904.000			11.763			-2.353
