# Acquired on 10/01/2024 14:26:37 
# SPIDER: Creep_-5mm_07714532B-1
# CREEP MEASUREMENT

# time [ms]		force [N]		stiffness [N/mm]
1.000			13.826			-2.765
100.000			14.889			-2.978
200.000			15.346			-3.069
301.000			15.348			-3.070
400.000			15.292			-3.058
500.000			15.248			-3.050
602.000			15.210			-3.042
701.000			15.178			-3.036
800.000			15.150			-3.030
901.000			15.124			-3.025
1000.000			15.100			-3.020
1100.000			15.058			-3.012
1201.000			15.040			-3.008
1301.000			15.023			-3.005
1401.000			15.006			-3.001
1501.000			14.992			-2.998
1600.000			14.978			-2.996
1700.000			14.965			-2.993
1800.000			14.941			-2.988
1900.000			14.929			-2.986
2001.000			14.917			-2.983
2101.000			14.907			-2.981
2201.000			14.898			-2.980
2301.000			14.888			-2.978
2400.000			14.878			-2.976
2500.000			14.860			-2.972
2601.000			14.851			-2.970
2700.000			14.843			-2.969
2800.000			14.836			-2.967
2902.000			14.828			-2.966
3001.000			14.820			-2.964
3100.000			14.813			-2.963
3201.000			14.807			-2.961
3300.000			14.793			-2.959
3400.000			14.785			-2.957
3501.000			14.780			-2.956
3600.000			14.774			-2.955
3701.000			14.769			-2.954
3802.000			14.763			-2.953
3900.000			14.757			-2.951
4000.000			14.746			-2.949
4101.000			14.741			-2.948
4200.000			14.735			-2.947
4300.000			14.730			-2.946
4402.000			14.726			-2.945
4501.000			14.721			-2.944
4600.000			14.716			-2.943
4701.000			14.707			-2.941
4800.000			14.702			-2.940
4900.000			14.698			-2.940
5000.000			14.694			-2.939
5100.000			14.690			-2.938
5202.000			14.686			-2.937
5301.000			14.683			-2.937
5400.000			14.678			-2.936
5501.000			14.669			-2.934
5600.000			14.666			-2.933
5700.000			14.663			-2.933
5801.000			14.659			-2.932
5900.000			14.655			-2.931
6001.000			14.652			-2.930
6102.000			14.648			-2.930
6200.000			14.641			-2.928
6300.000			14.637			-2.927
6401.000			14.635			-2.927
6500.000			14.632			-2.926
6600.000			14.628			-2.926
6701.000			14.625			-2.925
6801.000			14.622			-2.924
6901.000			14.616			-2.923
7001.000			14.613			-2.923
7100.000			14.610			-2.922
7200.000			14.607			-2.921
7301.000			14.603			-2.921
7400.000			14.600			-2.920
7501.000			14.598			-2.920
7602.000			14.595			-2.919
7700.000			14.589			-2.918
7800.000			14.586			-2.917
7901.000			14.584			-2.917
8000.000			14.582			-2.916
8100.000			14.579			-2.916
8200.000			14.577			-2.915
8301.000			14.574			-2.915
8402.000			14.569			-2.914
8500.000			14.567			-2.913
8600.000			14.564			-2.913
8701.000			14.563			-2.913
8800.000			14.560			-2.912
8900.000			14.557			-2.911
9001.000			14.555			-2.911
9101.000			14.549			-2.910
9201.000			14.547			-2.909
9301.000			14.545			-2.909
9400.000			14.544			-2.909
9500.000			14.542			-2.908
9601.000			14.540			-2.908
9700.000			14.537			-2.907
9800.000			14.534			-2.907
9902.000			14.531			-2.906
10000.000			14.528			-2.906
10100.000			14.525			-2.905
10201.000			14.524			-2.905
10300.000			14.524			-2.905
10400.000			14.520			-2.904
10501.000			14.519			-2.904
10601.000			14.515			-2.903
10701.000			14.513			-2.903
10801.000			14.510			-2.902
10900.000			14.508			-2.902
11000.000			14.507			-2.901
11101.000			14.506			-2.901
11200.000			14.503			-2.901
11300.000			14.499			-2.900
11402.000			14.497			-2.899
11501.000			14.495			-2.899
11601.000			14.494			-2.899
11700.000			14.492			-2.898
11800.000			14.491			-2.898
11901.000			14.489			-2.898
12000.000			14.487			-2.897
12100.000			14.484			-2.897
12202.000			14.483			-2.897
12301.000			14.481			-2.896
12400.000			14.479			-2.896
12501.000			14.477			-2.895
12600.000			14.475			-2.895
12700.000			14.474			-2.895
12801.000			14.470			-2.894
12900.000			14.469			-2.894
13001.000			14.467			-2.893
13102.000			14.466			-2.893
13200.000			14.465			-2.893
13300.000			14.463			-2.893
13401.000			14.462			-2.892
13500.000			14.459			-2.892
13600.000			14.457			-2.891
13701.000			14.455			-2.891
13801.000			14.453			-2.891
13901.000			14.453			-2.891
14001.000			14.452			-2.890
14100.000			14.449			-2.890
14200.000			14.447			-2.889
14301.000			14.446			-2.889
14400.000			14.445			-2.889
14500.000			14.443			-2.889
14602.000			14.441			-2.888
14701.000			14.440			-2.888
14801.000			14.438			-2.888
14900.000			14.437			-2.887
15000.000			14.434			-2.887
15101.000			14.432			-2.886
15200.000			14.430			-2.886
15300.000			14.430			-2.886
15402.000			14.429			-2.886
15501.000			14.427			-2.885
15600.000			14.425			-2.885
15701.000			14.425			-2.885
15800.000			14.424			-2.885
15900.000			14.422			-2.884
16001.000			14.421			-2.884
16101.000			14.419			-2.884
16201.000			14.417			-2.883
16302.000			14.416			-2.883
16400.000			14.414			-2.883
16500.000			14.412			-2.882
16601.000			14.412			-2.882
16700.000			14.410			-2.882
16800.000			14.407			-2.881
16901.000			14.406			-2.881
17001.000			14.405			-2.881
17100.000			14.405			-2.881
17201.000			14.402			-2.880
17300.000			14.400			-2.880
17400.000			14.399			-2.880
17501.000			14.398			-2.880
17600.000			14.397			-2.879
17702.000			14.397			-2.879
17801.000			14.394			-2.879
17901.000			14.392			-2.878
18001.000			14.391			-2.878
18100.000			14.391			-2.878
18200.000			14.390			-2.878
18301.000			14.389			-2.878
18400.000			14.386			-2.877
18500.000			14.385			-2.877
18602.000			14.383			-2.877
18701.000			14.382			-2.876
18800.000			14.381			-2.876
18901.000			14.379			-2.876
19000.000			14.380			-2.876
19100.000			14.378			-2.876
19201.000			14.376			-2.875
19300.000			14.375			-2.875
19401.000			14.375			-2.875
19502.000			14.374			-2.875
19600.000			14.372			-2.874
19700.000			14.370			-2.874
19801.000			14.369			-2.874
19900.000			14.369			-2.874
20000.000			14.368			-2.874
20101.000			14.367			-2.873
20201.000			14.365			-2.873
20301.000			14.364			-2.873
20401.000			14.363			-2.873
20500.000			14.362			-2.872
20600.000			14.361			-2.872
20701.000			14.359			-2.872
20800.000			14.358			-2.872
20900.000			14.357			-2.871
21002.000			14.356			-2.871
21101.000			14.355			-2.871
21201.000			14.354			-2.871
21300.000			14.354			-2.871
21400.000			14.352			-2.870
21501.000			14.350			-2.870
21600.000			14.350			-2.870
21701.000			14.348			-2.870
21802.000			14.347			-2.869
21901.000			14.346			-2.869
22000.000			14.345			-2.869
22101.000			14.345			-2.869
22200.000			14.344			-2.869
22300.000			14.343			-2.869
22401.000			14.342			-2.868
22501.000			14.339			-2.868
22601.000			14.339			-2.868
22701.000			14.339			-2.868
22800.000			14.337			-2.867
22900.000			14.336			-2.867
23001.000			14.335			-2.867
23100.000			14.334			-2.867
23200.000			14.333			-2.867
23302.000			14.332			-2.866
23401.000			14.331			-2.866
23500.000			14.330			-2.866
23601.000			14.330			-2.866
23700.000			14.328			-2.866
23800.000			14.327			-2.865
23901.000			14.325			-2.865
24000.000			14.326			-2.865
24102.000			14.325			-2.865
24201.000			14.324			-2.865
24300.000			14.322			-2.864
24401.000			14.321			-2.864
24500.000			14.320			-2.864
24600.000			14.319			-2.864
24701.000			14.319			-2.864
24800.000			14.318			-2.864
24901.000			14.316			-2.863
25002.000			14.316			-2.863
25100.000			14.315			-2.863
25200.000			14.314			-2.863
25301.000			14.312			-2.862
25400.000			14.311			-2.862
25500.000			14.312			-2.862
25601.000			14.311			-2.862
25701.000			14.310			-2.862
25801.000			14.309			-2.862
25901.000			14.308			-2.862
26000.000			14.307			-2.861
26100.000			14.307			-2.861
26201.000			14.307			-2.861
26300.000			14.305			-2.861
26400.000			14.304			-2.861
26502.000			14.303			-2.861
26601.000			14.302			-2.860
26700.000			14.301			-2.860
26801.000			14.300			-2.860
26900.000			14.301			-2.860
27000.000			14.300			-2.860
27101.000			14.299			-2.860
27201.000			14.298			-2.860
27302.000			14.297			-2.859
27401.000			14.296			-2.859
27500.000			14.295			-2.859
27601.000			14.294			-2.859
27700.000			14.293			-2.859
27800.000			14.293			-2.859
27901.000			14.292			-2.858
28001.000			14.292			-2.858
28101.000			14.290			-2.858
28201.000			14.289			-2.858
28300.000			14.288			-2.858
28400.000			14.288			-2.858
28501.000			14.287			-2.857
28600.000			14.286			-2.857
28700.000			14.286			-2.857
28801.000			14.285			-2.857
28901.000			14.284			-2.857
29001.000			14.283			-2.857
29101.000			14.281			-2.856
29200.000			14.281			-2.856
29300.000			14.281			-2.856
29401.000			14.281			-2.856
29500.000			14.280			-2.856
29600.000			14.279			-2.856
29702.000			14.278			-2.856
29801.000			14.278			-2.856
29900.000			14.277			-2.855
30001.000			14.277			-2.855
30100.000			14.276			-2.855
30200.000			14.275			-2.855
30301.000			14.274			-2.855
30400.000			14.274			-2.855
30502.000			14.271			-2.854
30601.000			14.271			-2.854
30700.000			14.271			-2.854
30801.000			14.270			-2.854
30900.000			14.270			-2.854
31000.000			14.269			-2.854
31101.000			14.268			-2.854
31200.000			14.267			-2.853
31301.000			14.267			-2.853
31402.000			14.265			-2.853
31500.000			14.265			-2.853
31600.000			14.264			-2.853
31701.000			14.263			-2.853
31800.000			14.262			-2.852
31900.000			14.262			-2.852
32001.000			14.261			-2.852
32101.000			14.260			-2.852
32201.000			14.260			-2.852
32301.000			14.259			-2.852
32400.000			14.259			-2.852
32500.000			14.257			-2.851
32601.000			14.256			-2.851
32700.000			14.254			-2.851
32800.000			14.254			-2.851
32902.000			14.253			-2.851
33001.000			14.253			-2.851
33100.000			14.253			-2.851
33201.000			14.250			-2.850
33300.000			14.250			-2.850
33400.000			14.250			-2.850
33501.000			14.248			-2.850
33601.000			14.247			-2.849
33702.000			14.247			-2.849
33800.000			14.247			-2.849
33900.000			14.245			-2.849
34001.000			14.245			-2.849
34100.000			14.244			-2.849
34200.000			14.245			-2.849
34301.000			14.244			-2.849
34401.000			14.243			-2.849
34501.000			14.243			-2.849
34601.000			14.242			-2.848
34700.000			14.241			-2.848
34800.000			14.241			-2.848
34901.000			14.241			-2.848
35000.000			14.240			-2.848
35100.000			14.238			-2.848
35202.000			14.238			-2.848
35301.000			14.238			-2.848
35400.000			14.236			-2.847
35501.000			14.236			-2.847
35600.000			14.235			-2.847
35700.000			14.234			-2.847
35801.000			14.234			-2.847
35900.000			14.234			-2.847
36001.000			14.233			-2.847
36102.000			14.230			-2.846
36200.000			14.230			-2.846
36300.000			14.230			-2.846
36401.000			14.230			-2.846
36500.000			14.230			-2.846
36600.000			14.229			-2.846
36702.000			14.227			-2.845
36801.000			14.227			-2.845
36902.000			14.226			-2.845
37000.000			14.225			-2.845
37100.000			14.225			-2.845
37201.000			14.226			-2.845
37300.000			14.225			-2.845
37400.000			14.224			-2.845
37502.000			14.224			-2.845
37601.000			14.223			-2.845
37700.000			14.222			-2.844
37801.000			14.221			-2.844
37900.000			14.221			-2.844
38000.000			14.221			-2.844
38101.000			14.220			-2.844
38200.000			14.219			-2.844
38301.000			14.219			-2.844
38402.000			14.219			-2.844
38500.000			14.217			-2.843
38600.000			14.216			-2.843
38701.000			14.216			-2.843
38800.000			14.215			-2.843
38900.000			14.216			-2.843
39001.000			14.215			-2.843
39101.000			14.213			-2.843
39201.000			14.212			-2.842
39301.000			14.212			-2.842
39400.000			14.212			-2.842
39500.000			14.212			-2.842
39601.000			14.211			-2.842
39700.000			14.211			-2.842
39800.000			14.210			-2.842
39902.000			14.209			-2.842
40001.000			14.209			-2.842
40100.000			14.209			-2.842
40200.000			14.209			-2.842
40300.000			14.208			-2.842
40401.000			14.207			-2.841
40500.000			14.207			-2.841
40600.000			14.205			-2.841
40702.000			14.205			-2.841
40801.000			14.204			-2.841
40900.000			14.203			-2.841
41001.000			14.203			-2.841
41100.000			14.203			-2.841
41200.000			14.201			-2.840
41301.000			14.201			-2.840
41401.000			14.201			-2.840
41501.000			14.201			-2.840
41601.000			14.201			-2.840
41700.000			14.201			-2.840
41800.000			14.200			-2.840
41901.000			14.198			-2.840
42000.000			14.197			-2.839
42100.000			14.197			-2.839
42202.000			14.197			-2.839
42301.000			14.197			-2.839
42400.000			14.197			-2.839
42501.000			14.196			-2.839
42600.000			14.194			-2.839
42700.000			14.193			-2.839
42801.000			14.193			-2.839
42901.000			14.193			-2.839
43001.000			14.193			-2.839
43102.000			14.192			-2.838
43200.000			14.192			-2.838
43300.000			14.193			-2.839
43400.000			14.191			-2.838
43500.000			14.190			-2.838
43601.000			14.189			-2.838
43700.000			14.189			-2.838
43801.000			14.189			-2.838
43902.000			14.189			-2.838
44000.000			14.188			-2.838
44100.000			14.187			-2.837
44201.000			14.186			-2.837
44300.000			14.186			-2.837
44400.000			14.186			-2.837
44501.000			14.185			-2.837
44601.000			14.185			-2.837
44701.000			14.184			-2.837
44801.000			14.185			-2.837
44900.000			14.183			-2.837
45000.000			14.182			-2.836
45101.000			14.181			-2.836
45200.000			14.181			-2.836
45300.000			14.180			-2.836
45402.000			14.181			-2.836
45501.000			14.181			-2.836
45600.000			14.180			-2.836
45701.000			14.179			-2.836
45800.000			14.179			-2.836
45900.000			14.178			-2.836
46001.000			14.178			-2.836
46100.000			14.177			-2.835
46201.000			14.176			-2.835
46302.000			14.175			-2.835
46400.000			14.175			-2.835
46500.000			14.175			-2.835
46600.000			14.175			-2.835
46700.000			14.175			-2.835
46801.000			14.174			-2.835
46900.000			14.173			-2.835
47001.000			14.174			-2.835
47102.000			14.173			-2.835
47200.000			14.172			-2.834
47300.000			14.170			-2.834
47401.000			14.170			-2.834
47500.000			14.170			-2.834
47600.000			14.170			-2.834
47701.000			14.170			-2.834
47801.000			14.168			-2.834
47901.000			14.168			-2.834
48001.000			14.167			-2.833
48100.000			14.167			-2.833
48200.000			14.167			-2.833
48301.000			14.167			-2.833
48400.000			14.166			-2.833
48500.000			14.165			-2.833
48602.000			14.164			-2.833
48701.000			14.164			-2.833
48800.000			14.163			-2.833
48901.000			14.164			-2.833
49000.000			14.163			-2.833
49100.000			14.162			-2.832
49201.000			14.162			-2.832
49300.000			14.161			-2.832
49401.000			14.161			-2.832
49502.000			14.160			-2.832
49600.000			14.161			-2.832
49700.000			14.160			-2.832
49800.000			14.159			-2.832
49900.000			14.160			-2.832
50001.000			14.159			-2.832
50100.000			14.160			-2.832
50201.000			14.158			-2.832
50302.000			14.157			-2.831
50400.000			14.157			-2.831
50500.000			14.157			-2.831
50601.000			14.157			-2.831
50700.000			14.156			-2.831
50800.000			14.155			-2.831
50902.000			14.155			-2.831
51001.000			14.154			-2.831
51100.000			14.153			-2.831
51201.000			14.154			-2.831
51300.000			14.153			-2.831
51400.000			14.153			-2.831
51501.000			14.151			-2.830
51600.000			14.151			-2.830
51701.000			14.151			-2.830
51802.000			14.150			-2.830
51900.000			14.150			-2.830
52000.000			14.150			-2.830
52101.000			14.148			-2.830
52200.000			14.149			-2.830
52300.000			14.148			-2.830
52401.000			14.146			-2.829
52501.000			14.145			-2.829
52601.000			14.146			-2.829
52701.000			14.146			-2.829
52800.000			14.145			-2.829
52900.000			14.144			-2.829
53000.000			14.144			-2.829
53100.000			14.143			-2.829
53201.000			14.143			-2.829
53301.000			14.144			-2.829
53401.000			14.142			-2.828
53501.000			14.141			-2.828
53600.000			14.141			-2.828
53700.000			14.141			-2.828
53801.000			14.140			-2.828
53900.000			14.139			-2.828
54001.000			14.139			-2.828
54102.000			14.139			-2.828
54201.000			14.139			-2.828
54300.000			14.138			-2.828
54401.000			14.138			-2.828
54500.000			14.137			-2.827
54600.000			14.137			-2.827
54701.000			14.136			-2.827
54801.000			14.135			-2.827
54901.000			14.135			-2.827
55001.000			14.134			-2.827
55100.000			14.134			-2.827
55200.000			14.134			-2.827
55301.000			14.134			-2.827
55400.000			14.133			-2.827
55500.000			14.132			-2.826
55602.000			14.131			-2.826
55701.000			14.131			-2.826
55800.000			14.131			-2.826
55901.000			14.130			-2.826
56000.000			14.130			-2.826
56100.000			14.130			-2.826
56200.000			14.130			-2.826
56300.000			14.129			-2.826
56402.000			14.129			-2.826
56501.000			14.129			-2.826
56600.000			14.128			-2.826
56701.000			14.128			-2.826
56800.000			14.128			-2.826
56900.000			14.128			-2.826
57001.000			14.127			-2.825
57100.000			14.126			-2.825
57201.000			14.126			-2.825
57302.000			14.125			-2.825
57400.000			14.125			-2.825
57500.000			14.125			-2.825
57601.000			14.124			-2.825
57700.000			14.124			-2.825
57800.000			14.123			-2.825
57901.000			14.124			-2.825
58001.000			14.123			-2.825
58101.000			14.123			-2.825
58201.000			14.122			-2.824
58300.000			14.121			-2.824
58400.000			14.121			-2.824
58501.000			14.122			-2.824
58600.000			14.121			-2.824
58700.000			14.120			-2.824
58802.000			14.121			-2.824
58901.000			14.119			-2.824
59000.000			14.120			-2.824
59101.000			14.120			-2.824
59200.000			14.118			-2.824
59300.000			14.117			-2.823
59400.000			14.117			-2.823
59500.000			14.118			-2.824
59602.000			14.117			-2.823
59701.000			14.116			-2.823
59800.000			14.116			-2.823
59901.000			14.115			-2.823
60000.000			14.114			-2.823
60100.000			14.114			-2.823
60201.000			14.115			-2.823
60301.000			14.115			-2.823
60401.000			14.114			-2.823
60501.000			14.115			-2.823
60600.000			14.114			-2.823
60700.000			14.113			-2.823
60801.000			14.112			-2.822
60900.000			14.112			-2.822
61000.000			14.112			-2.822
61102.000			14.112			-2.822
61201.000			14.111			-2.822
61300.000			14.112			-2.822
61401.000			14.112			-2.822
61500.000			14.111			-2.822
61600.000			14.111			-2.822
61701.000			14.110			-2.822
61801.000			14.109			-2.822
61901.000			14.109			-2.822
62001.000			14.109			-2.822
62100.000			14.109			-2.822
62200.000			14.108			-2.822
62301.000			14.107			-2.821
62400.000			14.108			-2.822
62500.000			14.107			-2.821
62602.000			14.107			-2.821
62701.000			14.106			-2.821
62801.000			14.106			-2.821
62900.000			14.106			-2.821
63000.000			14.105			-2.821
63101.000			14.105			-2.821
63200.000			14.104			-2.821
63300.000			14.103			-2.821
63402.000			14.104			-2.821
63501.000			14.105			-2.821
63600.000			14.104			-2.821
63701.000			14.102			-2.820
63800.000			14.102			-2.820
63900.000			14.102			-2.820
64001.000			14.101			-2.820
64100.000			14.101			-2.820
64201.000			14.101			-2.820
64302.000			14.100			-2.820
64400.000			14.100			-2.820
64500.000			14.099			-2.820
64601.000			14.099			-2.820
64700.000			14.097			-2.819
64800.000			14.097			-2.819
64901.000			14.097			-2.819
65001.000			14.096			-2.819
65101.000			14.096			-2.819
65201.000			14.096			-2.819
65300.000			14.095			-2.819
65400.000			14.094			-2.819
65501.000			14.094			-2.819
65600.000			14.095			-2.819
65700.000			14.094			-2.819
65802.000			14.093			-2.819
65901.000			14.093			-2.819
66001.000			14.093			-2.819
66100.000			14.093			-2.819
66200.000			14.092			-2.818
66301.000			14.092			-2.818
66400.000			14.092			-2.818
66500.000			14.092			-2.818
66602.000			14.090			-2.818
66701.000			14.090			-2.818
66800.000			14.091			-2.818
66901.000			14.090			-2.818
67000.000			14.090			-2.818
67100.000			14.089			-2.818
67201.000			14.090			-2.818
67300.000			14.090			-2.818
67401.000			14.089			-2.818
67502.000			14.086			-2.817
67600.000			14.087			-2.817
67700.000			14.087			-2.817
67801.000			14.087			-2.817
67900.000			14.087			-2.817
68000.000			14.087			-2.817
68101.000			14.086			-2.817
68200.000			14.086			-2.817
68301.000			14.085			-2.817
68402.000			14.085			-2.817
68500.000			14.084			-2.817
68600.000			14.084			-2.817
68701.000			14.084			-2.817
68800.000			14.084			-2.817
68900.000			14.085			-2.817
69000.000			14.084			-2.817
69101.000			14.083			-2.817
69202.000			14.083			-2.817
69300.000			14.082			-2.816
69400.000			14.082			-2.816
69501.000			14.081			-2.816
69600.000			14.081			-2.816
69700.000			14.081			-2.816
69801.000			14.082			-2.816
69901.000			14.082			-2.816
70001.000			14.080			-2.816
70101.000			14.080			-2.816
70200.000			14.079			-2.816
70300.000			14.079			-2.816
70401.000			14.079			-2.816
70500.000			14.078			-2.816
70600.000			14.079			-2.816
70702.000			14.079			-2.816
70801.000			14.078			-2.816
70900.000			14.078			-2.816
71001.000			14.078			-2.816
71100.000			14.077			-2.815
71200.000			14.077			-2.815
71301.000			14.076			-2.815
71400.000			14.076			-2.815
71501.000			14.075			-2.815
71602.000			14.075			-2.815
71700.000			14.075			-2.815
71800.000			14.075			-2.815
71901.000			14.076			-2.815
72000.000			14.075			-2.815
72100.000			14.075			-2.815
72200.000			14.074			-2.815
72301.000			14.073			-2.815
72402.000			14.073			-2.815
72500.000			14.072			-2.814
72600.000			14.072			-2.814
72701.000			14.072			-2.814
72800.000			14.073			-2.815
72900.000			14.073			-2.815
73001.000			14.072			-2.814
73101.000			14.071			-2.814
73201.000			14.071			-2.814
73301.000			14.069			-2.814
73400.000			14.069			-2.814
73500.000			14.069			-2.814
73601.000			14.070			-2.814
73700.000			14.069			-2.814
73800.000			14.068			-2.814
73902.000			14.068			-2.814
74001.000			14.068			-2.814
74101.000			14.068			-2.814
74201.000			14.067			-2.813
74300.000			14.066			-2.813
74400.000			14.066			-2.813
74501.000			14.066			-2.813
74600.000			14.066			-2.813
74700.000			14.066			-2.813
74802.000			14.064			-2.813
74901.000			14.064			-2.813
75000.000			14.064			-2.813
75101.000			14.064			-2.813
75200.000			14.064			-2.813
75300.000			14.064			-2.813
75400.000			14.063			-2.813
75500.000			14.063			-2.813
75602.000			14.062			-2.812
75701.000			14.062			-2.812
75800.000			14.062			-2.812
75901.000			14.061			-2.812
76000.000			14.062			-2.812
76100.000			14.061			-2.812
76201.000			14.061			-2.812
76300.000			14.060			-2.812
76401.000			14.059			-2.812
76502.000			14.059			-2.812
76600.000			14.059			-2.812
76700.000			14.059			-2.812
76801.000			14.058			-2.812
76900.000			14.058			-2.812
77000.000			14.057			-2.811
77101.000			14.057			-2.811
77201.000			14.057			-2.811
77301.000			14.057			-2.811
77401.000			14.057			-2.811
77500.000			14.056			-2.811
77600.000			14.056			-2.811
77701.000			14.056			-2.811
77800.000			14.056			-2.811
77900.000			14.056			-2.811
78002.000			14.056			-2.811
78101.000			14.056			-2.811
78200.000			14.056			-2.811
78301.000			14.053			-2.811
78400.000			14.052			-2.810
78500.000			14.053			-2.811
78600.000			14.052			-2.810
78700.000			14.052			-2.810
78802.000			14.052			-2.810
78901.000			14.051			-2.810
79000.000			14.051			-2.810
79101.000			14.051			-2.810
79200.000			14.051			-2.810
79300.000			14.052			-2.810
79401.000			14.050			-2.810
79500.000			14.050			-2.810
79600.000			14.050			-2.810
79702.000			14.050			-2.810
79801.000			14.050			-2.810
79900.000			14.049			-2.810
80001.000			14.049			-2.810
80100.000			14.049			-2.810
80200.000			14.049			-2.810
80301.000			14.048			-2.810
80400.000			14.047			-2.809
80501.000			14.048			-2.810
80602.000			14.047			-2.809
80700.000			14.046			-2.809
80800.000			14.047			-2.809
80901.000			14.046			-2.809
81000.000			14.045			-2.809
81100.000			14.046			-2.809
81201.000			14.046			-2.809
81301.000			14.045			-2.809
81401.000			14.044			-2.809
81501.000			14.045			-2.809
81600.000			14.045			-2.809
81700.000			14.045			-2.809
81800.000			14.045			-2.809
81900.000			14.044			-2.809
82001.000			14.044			-2.809
82101.000			14.043			-2.809
82201.000			14.043			-2.809
82301.000			14.043			-2.809
82400.000			14.042			-2.808
82500.000			14.042			-2.808
82601.000			14.041			-2.808
82700.000			14.041			-2.808
82800.000			14.041			-2.808
82902.000			14.041			-2.808
83001.000			14.040			-2.808
83100.000			14.040			-2.808
83201.000			14.040			-2.808
83300.000			14.039			-2.808
83400.000			14.038			-2.808
83501.000			14.039			-2.808
83600.000			14.038			-2.808
83701.000			14.038			-2.808
83802.000			14.038			-2.808
83900.000			14.039			-2.808
84000.000			14.039			-2.808
84101.000			14.037			-2.807
84200.000			14.037			-2.807
84300.000			14.037			-2.807
84401.000			14.037			-2.807
84501.000			14.037			-2.807
84601.000			14.037			-2.807
84701.000			14.036			-2.807
84800.000			14.036			-2.807
84900.000			14.036			-2.807
85000.000			14.035			-2.807
85100.000			14.035			-2.807
85201.000			14.035			-2.807
85301.000			14.034			-2.807
85401.000			14.034			-2.807
85501.000			14.034			-2.807
85600.000			14.033			-2.807
85700.000			14.033			-2.807
85801.000			14.031			-2.806
85900.000			14.031			-2.806
86000.000			14.031			-2.806
86102.000			14.031			-2.806
86201.000			14.032			-2.806
86300.000			14.032			-2.806
86401.000			14.032			-2.806
86500.000			14.031			-2.806
86600.000			14.030			-2.806
86701.000			14.030			-2.806
86800.000			14.030			-2.806
86901.000			14.029			-2.806
87002.000			14.029			-2.806
87100.000			14.029			-2.806
87200.000			14.029			-2.806
87301.000			14.029			-2.806
87400.000			14.029			-2.806
87500.000			14.029			-2.806
87601.000			14.028			-2.806
87701.000			14.027			-2.805
87801.000			14.028			-2.806
87901.000			14.027			-2.805
88000.000			14.027			-2.805
88100.000			14.028			-2.806
88200.000			14.028			-2.806
88300.000			14.028			-2.806
88401.000			14.027			-2.805
88501.000			14.027			-2.805
88601.000			14.026			-2.805
88701.000			14.025			-2.805
88800.000			14.025			-2.805
88900.000			14.025			-2.805
89001.000			14.024			-2.805
89100.000			14.024			-2.805
89200.000			14.025			-2.805
89301.000			14.025			-2.805
89401.000			14.025			-2.805
89501.000			14.023			-2.805
89601.000			14.023			-2.805
89700.000			14.024			-2.805
89800.000			14.025			-2.805
89901.000			14.024			-2.805
90000.000			14.023			-2.805
90100.000			14.023			-2.805
90202.000			14.023			-2.805
90301.000			14.023			-2.805
90400.000			14.022			-2.804
90501.000			14.021			-2.804
90600.000			14.022			-2.804
90700.000			14.022			-2.804
90801.000			14.021			-2.804
90901.000			14.020			-2.804
91001.000			14.021			-2.804
91101.000			14.021			-2.804
91200.000			14.020			-2.804
91300.000			14.019			-2.804
91400.000			14.019			-2.804
91500.000			14.018			-2.804
91601.000			14.019			-2.804
91701.000			14.018			-2.804
91801.000			14.019			-2.804
91901.000			14.018			-2.804
92000.000			14.017			-2.803
92100.000			14.018			-2.804
92201.000			14.017			-2.803
92300.000			14.016			-2.803
92400.000			14.017			-2.803
92502.000			14.017			-2.803
92601.000			14.016			-2.803
92700.000			14.016			-2.803
92801.000			14.016			-2.803
92900.000			14.015			-2.803
93000.000			14.015			-2.803
93101.000			14.016			-2.803
93200.000			14.015			-2.803
93301.000			14.014			-2.803
93402.000			14.014			-2.803
93501.000			14.013			-2.803
93600.000			14.014			-2.803
93701.000			14.015			-2.803
93800.000			14.014			-2.803
93900.000			14.013			-2.803
94001.000			14.012			-2.802
94101.000			14.013			-2.803
94201.000			14.013			-2.803
94301.000			14.013			-2.803
94400.000			14.013			-2.803
94500.000			14.012			-2.802
94600.000			14.013			-2.803
94700.000			14.013			-2.803
94801.000			14.012			-2.802
94901.000			14.010			-2.802
95001.000			14.010			-2.802
95101.000			14.010			-2.802
95200.000			14.011			-2.802
95300.000			14.010			-2.802
95401.000			14.010			-2.802
95500.000			14.010			-2.802
95600.000			14.011			-2.802
95702.000			14.009			-2.802
95801.000			14.009			-2.802
95900.000			14.010			-2.802
96001.000			14.009			-2.802
96100.000			14.008			-2.802
96200.000			14.008			-2.802
96301.000			14.008			-2.802
96400.000			14.008			-2.802
96501.000			14.008			-2.802
96602.000			14.007			-2.801
96700.000			14.008			-2.802
96800.000			14.008			-2.802
96901.000			14.007			-2.801
97000.000			14.007			-2.801
97100.000			14.007			-2.801
97201.000			14.006			-2.801
97301.000			14.006			-2.801
97401.000			14.006			-2.801
97501.000			14.006			-2.801
97600.000			14.006			-2.801
97700.000			14.006			-2.801
97800.000			14.007			-2.801
97900.000			14.006			-2.801
98001.000			14.005			-2.801
98100.000			14.006			-2.801
98201.000			14.005			-2.801
98302.000			14.004			-2.801
98400.000			14.004			-2.801
98500.000			14.005			-2.801
98601.000			14.004			-2.801
98700.000			14.004			-2.801
98800.000			14.004			-2.801
98901.000			14.003			-2.801
99001.000			14.002			-2.800
99101.000			14.001			-2.800
99201.000			14.002			-2.800
99300.000			14.003			-2.801
99400.000			14.002			-2.800
99501.000			14.002			-2.800
99600.000			14.002			-2.800
99700.000			14.001			-2.800
99802.000			14.001			-2.800
99901.000			14.002			-2.800
100000.000			14.002			-2.800
100101.000			14.002			-2.800
100200.000			14.001			-2.800
100300.000			14.001			-2.800
100401.000			13.999			-2.800
100500.000			14.000			-2.800
100601.000			13.999			-2.800
100702.000			13.999			-2.800
100800.000			13.999			-2.800
100900.000			14.000			-2.800
101000.000			13.999			-2.800
101100.000			13.999			-2.800
101201.000			13.999			-2.800
101300.000			13.999			-2.800
101400.000			13.999			-2.800
101502.000			13.998			-2.800
101601.000			13.998			-2.800
101700.000			13.998			-2.800
101801.000			13.997			-2.799
101900.000			13.996			-2.799
102000.000			13.997			-2.799
102101.000			13.997			-2.799
102200.000			13.997			-2.799
102301.000			13.996			-2.799
102402.000			13.998			-2.800
102501.000			13.997			-2.799
102600.000			13.997			-2.799
102701.000			13.996			-2.799
102800.000			13.995			-2.799
102900.000			13.995			-2.799
103001.000			13.995			-2.799
103100.000			13.995			-2.799
103201.000			13.994			-2.799
103302.000			13.995			-2.799
103400.000			13.995			-2.799
103500.000			13.994			-2.799
103601.000			13.994			-2.799
103700.000			13.994			-2.799
103800.000			13.993			-2.799
103901.000			13.993			-2.799
104000.000			13.993			-2.799
104102.000			13.992			-2.798
104201.000			13.992			-2.798
104300.000			13.991			-2.798
104401.000			13.991			-2.798
104500.000			13.991			-2.798
104600.000			13.991			-2.798
104701.000			13.992			-2.798
104800.000			13.991			-2.798
104901.000			13.991			-2.798
105002.000			13.991			-2.798
105101.000			13.990			-2.798
105200.000			13.990			-2.798
105301.000			13.990			-2.798
105400.000			13.989			-2.798
105500.000			13.989			-2.798
105601.000			13.988			-2.798
105700.000			13.988			-2.798
105801.000			13.988			-2.798
105902.000			13.987			-2.797
106001.000			13.987			-2.797
106100.000			13.987			-2.797
106201.000			13.987			-2.797
106300.000			13.987			-2.797
106400.000			13.987			-2.797
106501.000			13.986			-2.797
106600.000			13.987			-2.797
106701.000			13.988			-2.798
106802.000			13.987			-2.797
106900.000			13.987			-2.797
107000.000			13.986			-2.797
107101.000			13.986			-2.797
107200.000			13.986			-2.797
107300.000			13.986			-2.797
107400.000			13.986			-2.797
107500.000			13.986			-2.797
107602.000			13.985			-2.797
107701.000			13.984			-2.797
107800.000			13.984			-2.797
107901.000			13.984			-2.797
108000.000			13.983			-2.797
108100.000			13.983			-2.797
108201.000			13.984			-2.797
108300.000			13.984			-2.797
108401.000			13.984			-2.797
108502.000			13.983			-2.797
108601.000			13.983			-2.797
108700.000			13.983			-2.797
108801.000			13.982			-2.796
108900.000			13.982			-2.796
109000.000			13.982			-2.796
109101.000			13.982			-2.796
109200.000			13.983			-2.797
109301.000			13.982			-2.796
109402.000			13.980			-2.796
109501.000			13.980			-2.796
109600.000			13.980			-2.796
109701.000			13.979			-2.796
109800.000			13.980			-2.796
109900.000			13.980			-2.796
110001.000			13.979			-2.796
110100.000			13.979			-2.796
110201.000			13.979			-2.796
110302.000			13.978			-2.796
110400.000			13.978			-2.796
110500.000			13.978			-2.796
110600.000			13.979			-2.796
110700.000			13.978			-2.796
110801.000			13.978			-2.796
110900.000			13.977			-2.795
111000.000			13.977			-2.795
111102.000			13.977			-2.795
111201.000			13.977			-2.795
111300.000			13.977			-2.795
111401.000			13.977			-2.795
111500.000			13.976			-2.795
111600.000			13.976			-2.795
111701.000			13.975			-2.795
111800.000			13.975			-2.795
111901.000			13.975			-2.795
112002.000			13.974			-2.795
112101.000			13.974			-2.795
112200.000			13.974			-2.795
112301.000			13.973			-2.795
112400.000			13.973			-2.795
112500.000			13.974			-2.795
112601.000			13.974			-2.795
112700.000			13.973			-2.795
112801.000			13.973			-2.795
112902.000			13.971			-2.794
113000.000			13.971			-2.794
113100.000			13.971			-2.794
113201.000			13.971			-2.794
113300.000			13.971			-2.794
113400.000			13.971			-2.794
113501.000			13.970			-2.794
113600.000			13.970			-2.794
113702.000			13.969			-2.794
113801.000			13.970			-2.794
113900.000			13.969			-2.794
114001.000			13.968			-2.794
114100.000			13.968			-2.794
114200.000			13.968			-2.794
114301.000			13.968			-2.794
114400.000			13.968			-2.794
114500.000			13.968			-2.794
114602.000			13.967			-2.793
114701.000			13.967			-2.793
114800.000			13.968			-2.794
114901.000			13.967			-2.793
115000.000			13.967			-2.793
115100.000			13.966			-2.793
115201.000			13.965			-2.793
115300.000			13.965			-2.793
115401.000			13.965			-2.793
115502.000			13.964			-2.793
115601.000			13.964			-2.793
115700.000			13.964			-2.793
115801.000			13.963			-2.793
115900.000			13.963			-2.793
116000.000			13.963			-2.793
116101.000			13.964			-2.793
116200.000			13.964			-2.793
116301.000			13.964			-2.793
116402.000			13.963			-2.793
116500.000			13.963			-2.793
116600.000			13.962			-2.792
116701.000			13.961			-2.792
116800.000			13.961			-2.792
116900.000			13.961			-2.792
117000.000			13.962			-2.792
117100.000			13.961			-2.792
117202.000			13.961			-2.792
117301.000			13.960			-2.792
117400.000			13.960			-2.792
117501.000			13.960			-2.792
117600.000			13.960			-2.792
117700.000			13.961			-2.792
117801.000			13.961			-2.792
117900.000			13.960			-2.792
118001.000			13.959			-2.792
118102.000			13.958			-2.792
118201.000			13.958			-2.792
118300.000			13.959			-2.792
118401.000			13.959			-2.792
118500.000			13.958			-2.792
118600.000			13.959			-2.792
118701.000			13.959			-2.792
118800.000			13.959			-2.792
118901.000			13.958			-2.792
119002.000			13.958			-2.792
119100.000			13.959			-2.792
119200.000			13.958			-2.792
119301.000			13.957			-2.791
119400.000			13.957			-2.791
119500.000			13.957			-2.791
119601.000			13.957			-2.791
119700.000			13.956			-2.791
119801.000			13.956			-2.791
119902.000			13.955			-2.791
120000.000			13.956			-2.791
120100.000			13.955			-2.791
120200.000			13.955			-2.791
120300.000			13.956			-2.791
120401.000			13.955			-2.791
120500.000			13.954			-2.791
120600.000			13.955			-2.791
120702.000			13.955			-2.791
120801.000			13.953			-2.791
120900.000			13.954			-2.791
121001.000			13.955			-2.791
121100.000			13.953			-2.791
121200.000			13.954			-2.791
121301.000			13.954			-2.791
121400.000			13.953			-2.791
121501.000			13.953			-2.791
121602.000			13.952			-2.790
121700.000			13.952			-2.790
121800.000			13.953			-2.791
121901.000			13.953			-2.791
122000.000			13.953			-2.791
122100.000			13.953			-2.791
122201.000			13.952			-2.790
122301.000			13.952			-2.790
122401.000			13.952			-2.790
122501.000			13.951			-2.790
122600.000			13.951			-2.790
122700.000			13.951			-2.790
122801.000			13.950			-2.790
122900.000			13.950			-2.790
123000.000			13.950			-2.790
123101.000			13.950			-2.790
123201.000			13.949			-2.790
123302.000			13.949			-2.790
123400.000			13.949			-2.790
123500.000			13.949			-2.790
123601.000			13.949			-2.790
123700.000			13.949			-2.790
123800.000			13.950			-2.790
123901.000			13.950			-2.790
124000.000			13.949			-2.790
124101.000			13.949			-2.790
124202.000			13.948			-2.790
124300.000			13.948			-2.790
124400.000			13.947			-2.789
124501.000			13.948			-2.790
124600.000			13.948			-2.790
124700.000			13.948			-2.790
124801.000			13.947			-2.789
124901.000			13.947			-2.789
125001.000			13.948			-2.790
125102.000			13.947			-2.789
125200.000			13.947			-2.789
125300.000			13.947			-2.789
125401.000			13.947			-2.789
125500.000			13.946			-2.789
125600.000			13.947			-2.789
125701.000			13.946			-2.789
125801.000			13.946			-2.789
125901.000			13.946			-2.789
126001.000			13.945			-2.789
126100.000			13.944			-2.789
126200.000			13.944			-2.789
126301.000			13.945			-2.789
126400.000			13.945			-2.789
126500.000			13.945			-2.789
126600.000			13.944			-2.789
126701.000			13.944			-2.789
126802.000			13.943			-2.789
126900.000			13.943			-2.789
127000.000			13.943			-2.789
127101.000			13.942			-2.788
127200.000			13.941			-2.788
127300.000			13.942			-2.788
127401.000			13.941			-2.788
127501.000			13.940			-2.788
127601.000			13.940			-2.788
127702.000			13.942			-2.788
127800.000			13.942			-2.788
127900.000			13.941			-2.788
128001.000			13.941			-2.788
128100.000			13.941			-2.788
128200.000			13.940			-2.788
128301.000			13.940			-2.788
128401.000			13.940			-2.788
128501.000			13.939			-2.788
128601.000			13.938			-2.788
128700.000			13.939			-2.788
128800.000			13.938			-2.788
128901.000			13.937			-2.787
129000.000			13.937			-2.787
129100.000			13.938			-2.788
129201.000			13.938			-2.788
129301.000			13.938			-2.788
129401.000			13.937			-2.787
129501.000			13.938			-2.788
129600.000			13.937			-2.787
129700.000			13.936			-2.787
129800.000			13.937			-2.787
129900.000			13.936			-2.787
130001.000			13.936			-2.787
130100.000			13.937			-2.787
130201.000			13.937			-2.787
130302.000			13.936			-2.787
130400.000			13.935			-2.787
130500.000			13.935			-2.787
130601.000			13.935			-2.787
130700.000			13.935			-2.787
130800.000			13.935			-2.787
130901.000			13.935			-2.787
131001.000			13.935			-2.787
131101.000			13.933			-2.787
131201.000			13.933			-2.787
131300.000			13.934			-2.787
131400.000			13.933			-2.787
131501.000			13.934			-2.787
131600.000			13.934			-2.787
131700.000			13.933			-2.787
131801.000			13.934			-2.787
131901.000			13.934			-2.787
132001.000			13.934			-2.787
132102.000			13.934			-2.787
132200.000			13.934			-2.787
132300.000			13.933			-2.787
132401.000			13.932			-2.786
132500.000			13.933			-2.787
132600.000			13.933			-2.787
132701.000			13.933			-2.787
132800.000			13.933			-2.787
132902.000			13.933			-2.787
133001.000			13.933			-2.787
133100.000			13.933			-2.787
133201.000			13.932			-2.786
133300.000			13.932			-2.786
133400.000			13.931			-2.786
133501.000			13.931			-2.786
133600.000			13.932			-2.786
133700.000			13.931			-2.786
133802.000			13.931			-2.786
133901.000			13.931			-2.786
134000.000			13.930			-2.786
134101.000			13.930			-2.786
134200.000			13.929			-2.786
134300.000			13.929			-2.786
134401.000			13.930			-2.786
134500.000			13.929			-2.786
134600.000			13.929			-2.786
134702.000			13.928			-2.786
134801.000			13.929			-2.786
134901.000			13.928			-2.786
135001.000			13.928			-2.786
135100.000			13.929			-2.786
135200.000			13.928			-2.786
135301.000			13.927			-2.785
135400.000			13.926			-2.785
135500.000			13.926			-2.785
135601.000			13.926			-2.785
135701.000			13.927			-2.785
135801.000			13.927			-2.785
135901.000			13.926			-2.785
136000.000			13.926			-2.785
136100.000			13.925			-2.785
136200.000			13.925			-2.785
136300.000			13.925			-2.785
136401.000			13.925			-2.785
136500.000			13.925			-2.785
136601.000			13.924			-2.785
136702.000			13.924			-2.785
136801.000			13.924			-2.785
136900.000			13.924			-2.785
137001.000			13.924			-2.785
137100.000			13.924			-2.785
137200.000			13.923			-2.785
137301.000			13.923			-2.785
137400.000			13.924			-2.785
137500.000			13.923			-2.785
137602.000			13.924			-2.785
137701.000			13.924			-2.785
137800.000			13.923			-2.785
137901.000			13.923			-2.785
138000.000			13.925			-2.785
138100.000			13.924			-2.785
138201.000			13.922			-2.784
138300.000			13.922			-2.784
138400.000			13.922			-2.784
138502.000			13.922			-2.784
138601.000			13.923			-2.785
138700.000			13.923			-2.785
138801.000			13.922			-2.784
138900.000			13.921			-2.784
139000.000			13.922			-2.784
139101.000			13.922			-2.784
139200.000			13.922			-2.784
139300.000			13.922			-2.784
139402.000			13.920			-2.784
139501.000			13.920			-2.784
139602.000			13.920			-2.784
139700.000			13.921			-2.784
139800.000			13.920			-2.784
139901.000			13.920			-2.784
140000.000			13.920			-2.784
140100.000			13.919			-2.784
140201.000			13.919			-2.784
140300.000			13.919			-2.784
140401.000			13.919			-2.784
140502.000			13.918			-2.784
140600.000			13.918			-2.784
140700.000			13.919			-2.784
140801.000			13.919			-2.784
140900.000			13.918			-2.784
141000.000			13.917			-2.783
141101.000			13.916			-2.783
141200.000			13.917			-2.783
141301.000			13.918			-2.784
141402.000			13.918			-2.784
141500.000			13.918			-2.784
141600.000			13.917			-2.783
141701.000			13.916			-2.783
141800.000			13.916			-2.783
141900.000			13.916			-2.783
142001.000			13.916			-2.783
142100.000			13.916			-2.783
142201.000			13.916			-2.783
142302.000			13.916			-2.783
142401.000			13.916			-2.783
142500.000			13.915			-2.783
142600.000			13.915			-2.783
142700.000			13.915			-2.783
142801.000			13.915			-2.783
142900.000			13.916			-2.783
143000.000			13.915			-2.783
143102.000			13.915			-2.783
143201.000			13.916			-2.783
143301.000			13.915			-2.783
143401.000			13.913			-2.783
143500.000			13.913			-2.783
143600.000			13.914			-2.783
143701.000			13.914			-2.783
143800.000			13.913			-2.783
143900.000			13.913			-2.783
144001.000			13.914			-2.783
144101.000			13.913			-2.783
144201.000			13.914			-2.783
144301.000			13.914			-2.783
144400.000			13.914			-2.783
144500.000			13.914			-2.783
144601.000			13.914			-2.783
144700.000			13.914			-2.783
144800.000			13.915			-2.783
144901.000			13.914			-2.783
145001.000			13.914			-2.783
145101.000			13.913			-2.783
145201.000			13.914			-2.783
145300.000			13.914			-2.783
145400.000			13.914			-2.783
145501.000			13.913			-2.783
145600.000			13.912			-2.782
145700.000			13.912			-2.782
145800.000			13.913			-2.783
145901.000			13.914			-2.783
146002.000			13.914			-2.783
146101.000			13.912			-2.782
146200.000			13.912			-2.782
146301.000			13.912			-2.782
146400.000			13.912			-2.782
146500.000			13.912			-2.782
146601.000			13.911			-2.782
146700.000			13.911			-2.782
146801.000			13.911			-2.782
146902.000			13.911			-2.782
147001.000			13.910			-2.782
147100.000			13.910			-2.782
147201.000			13.911			-2.782
147300.000			13.911			-2.782
147400.000			13.910			-2.782
147501.000			13.910			-2.782
147600.000			13.910			-2.782
147700.000			13.909			-2.782
147802.000			13.910			-2.782
147901.000			13.910			-2.782
148000.000			13.910			-2.782
148101.000			13.910			-2.782
148200.000			13.910			-2.782
148300.000			13.910			-2.782
148401.000			13.910			-2.782
148500.000			13.909			-2.782
148600.000			13.909			-2.782
148702.000			13.909			-2.782
148801.000			13.909			-2.782
148902.000			13.908			-2.782
149000.000			13.909			-2.782
149100.000			13.908			-2.782
149201.000			13.908			-2.782
149300.000			13.908			-2.782
149400.000			13.907			-2.781
149501.000			13.907			-2.781
149600.000			13.908			-2.782
149701.000			13.908			-2.782
149802.000			13.908			-2.782
149900.000			13.909			-2.782
150000.000			13.907			-2.781
150101.000			13.907			-2.781
150200.000			13.908			-2.782
150300.000			13.907			-2.781
150401.000			13.907			-2.781
150500.000			13.907			-2.781
150601.000			13.906			-2.781
150702.000			13.906			-2.781
150801.000			13.907			-2.781
150900.000			13.907			-2.781
151001.000			13.906			-2.781
151100.000			13.906			-2.781
151200.000			13.906			-2.781
151301.000			13.905			-2.781
151400.000			13.905			-2.781
151501.000			13.906			-2.781
151602.000			13.906			-2.781
151701.000			13.905			-2.781
151800.000			13.904			-2.781
151901.000			13.904			-2.781
152000.000			13.904			-2.781
152100.000			13.905			-2.781
152200.000			13.904			-2.781
152300.000			13.904			-2.781
152401.000			13.904			-2.781
152501.000			13.904			-2.781
152601.000			13.903			-2.781
152701.000			13.903			-2.781
152800.000			13.904			-2.781
152900.000			13.903			-2.781
153001.000			13.903			-2.781
153100.000			13.903			-2.781
153200.000			13.904			-2.781
153301.000			13.903			-2.781
153401.000			13.903			-2.781
153501.000			13.903			-2.781
153601.000			13.901			-2.780
153700.000			13.901			-2.780
153800.000			13.901			-2.780
153901.000			13.901			-2.780
154000.000			13.901			-2.780
154100.000			13.900			-2.780
154201.000			13.901			-2.780
154301.000			13.901			-2.780
154401.000			13.901			-2.780
154501.000			13.900			-2.780
154600.000			13.900			-2.780
154700.000			13.899			-2.780
154801.000			13.899			-2.780
154900.000			13.900			-2.780
155000.000			13.900			-2.780
155101.000			13.899			-2.780
155201.000			13.898			-2.780
155302.000			13.898			-2.780
155401.000			13.899			-2.780
155500.000			13.898			-2.780
155601.000			13.897			-2.779
155700.000			13.898			-2.780
155800.000			13.898			-2.780
155901.000			13.899			-2.780
156000.000			13.898			-2.780
156100.000			13.897			-2.779
156202.000			13.897			-2.779
156301.000			13.897			-2.779
156401.000			13.896			-2.779
156501.000			13.897			-2.779
156600.000			13.897			-2.779
156700.000			13.897			-2.779
156801.000			13.898			-2.780
156900.000			13.897			-2.779
157000.000			13.896			-2.779
157101.000			13.895			-2.779
157201.000			13.894			-2.779
157301.000			13.895			-2.779
157402.000			13.896			-2.779
157500.000			13.895			-2.779
157600.000			13.895			-2.779
157701.000			13.895			-2.779
157800.000			13.895			-2.779
157900.000			13.894			-2.779
158001.000			13.894			-2.779
158100.000			13.894			-2.779
158201.000			13.894			-2.779
158302.000			13.894			-2.779
158401.000			13.894			-2.779
158500.000			13.893			-2.779
158600.000			13.893			-2.779
158700.000			13.893			-2.779
158801.000			13.893			-2.779
158900.000			13.892			-2.778
159000.000			13.892			-2.778
159101.000			13.891			-2.778
159201.000			13.891			-2.778
159301.000			13.892			-2.778
159402.000			13.892			-2.778
159500.000			13.891			-2.778
159600.000			13.891			-2.778
159701.000			13.892			-2.778
159800.000			13.891			-2.778
159900.000			13.892			-2.778
160001.000			13.891			-2.778
160100.000			13.891			-2.778
160201.000			13.889			-2.778
160302.000			13.889			-2.778
160401.000			13.890			-2.778
160500.000			13.891			-2.778
160601.000			13.890			-2.778
160700.000			13.888			-2.778
160800.000			13.889			-2.778
160901.000			13.890			-2.778
161000.000			13.889			-2.778
161100.000			13.889			-2.778
161202.000			13.888			-2.778
161301.000			13.887			-2.777
161400.000			13.888			-2.778
161501.000			13.888			-2.778
161600.000			13.888			-2.778
161700.000			13.888			-2.778
161800.000			13.887			-2.777
161900.000			13.887			-2.777
162001.000			13.887			-2.777
162101.000			13.888			-2.778
162201.000			13.888			-2.778
162302.000			13.887			-2.777
162400.000			13.887			-2.777
162500.000			13.886			-2.777
162601.000			13.887			-2.777
162700.000			13.887			-2.777
162800.000			13.886			-2.777
162901.000			13.885			-2.777
163000.000			13.886			-2.777
163101.000			13.887			-2.777
163202.000			13.886			-2.777
163301.000			13.885			-2.777
163400.000			13.886			-2.777
163501.000			13.886			-2.777
163600.000			13.885			-2.777
163700.000			13.887			-2.777
163801.000			13.886			-2.777
163900.000			13.886			-2.777
164000.000			13.886			-2.777
164102.000			13.885			-2.777
164201.000			13.886			-2.777
164300.000			13.885			-2.777
164401.000			13.884			-2.777
164500.000			13.885			-2.777
164600.000			13.885			-2.777
164701.000			13.885			-2.777
164800.000			13.885			-2.777
164900.000			13.886			-2.777
165002.000			13.885			-2.777
165101.000			13.885			-2.777
165202.000			13.885			-2.777
165300.000			13.884			-2.777
165400.000			13.884			-2.777
165501.000			13.883			-2.777
165600.000			13.884			-2.777
165700.000			13.884			-2.777
165801.000			13.884			-2.777
165900.000			13.884			-2.777
166001.000			13.883			-2.777
166102.000			13.884			-2.777
166201.000			13.884			-2.777
166300.000			13.884			-2.777
166401.000			13.883			-2.777
166500.000			13.884			-2.777
166600.000			13.883			-2.777
166701.000			13.883			-2.777
166800.000			13.882			-2.776
166900.000			13.883			-2.777
167002.000			13.883			-2.777
167101.000			13.882			-2.776
167200.000			13.881			-2.776
167301.000			13.882			-2.776
167400.000			13.881			-2.776
167500.000			13.881			-2.776
167601.000			13.881			-2.776
167700.000			13.882			-2.776
167800.000			13.883			-2.777
167902.000			13.881			-2.776
168001.000			13.881			-2.776
168102.000			13.881			-2.776
168200.000			13.881			-2.776
168300.000			13.880			-2.776
168401.000			13.881			-2.776
168500.000			13.880			-2.776
168600.000			13.880			-2.776
168701.000			13.880			-2.776
168800.000			13.880			-2.776
168901.000			13.881			-2.776
169002.000			13.880			-2.776
169101.000			13.879			-2.776
169200.000			13.878			-2.776
169301.000			13.878			-2.776
169400.000			13.878			-2.776
169500.000			13.879			-2.776
169601.000			13.879			-2.776
169700.000			13.878			-2.776
169800.000			13.879			-2.776
169901.000			13.879			-2.776
170001.000			13.878			-2.776
170101.000			13.877			-2.775
170201.000			13.877			-2.775
170300.000			13.877			-2.775
170400.000			13.876			-2.775
170501.000			13.876			-2.775
170600.000			13.877			-2.775
170700.000			13.877			-2.775
170801.000			13.877			-2.775
170901.000			13.876			-2.775
171001.000			13.876			-2.775
171102.000			13.875			-2.775
171200.000			13.875			-2.775
171300.000			13.875			-2.775
171400.000			13.874			-2.775
171500.000			13.875			-2.775
171601.000			13.874			-2.775
171700.000			13.874			-2.775
171800.000			13.873			-2.775
171902.000			13.873			-2.775
172001.000			13.874			-2.775
172100.000			13.873			-2.775
172201.000			13.873			-2.775
172300.000			13.873			-2.775
172400.000			13.872			-2.774
172501.000			13.872			-2.774
172600.000			13.872			-2.774
172700.000			13.871			-2.774
172802.000			13.872			-2.774
172901.000			13.872			-2.774
173001.000			13.872			-2.774
173101.000			13.871			-2.774
173200.000			13.872			-2.774
173300.000			13.871			-2.774
173401.000			13.871			-2.774
173500.000			13.870			-2.774
173600.000			13.871			-2.774
173701.000			13.871			-2.774
173801.000			13.871			-2.774
173901.000			13.871			-2.774
174001.000			13.871			-2.774
174100.000			13.871			-2.774
174200.000			13.871			-2.774
174301.000			13.872			-2.774
174400.000			13.872			-2.774
174500.000			13.871			-2.774
174600.000			13.871			-2.774
174700.000			13.871			-2.774
174802.000			13.872			-2.774
174901.000			13.871			-2.774
175000.000			13.871			-2.774
175101.000			13.870			-2.774
175200.000			13.870			-2.774
175300.000			13.870			-2.774
175401.000			13.869			-2.774
175500.000			13.869			-2.774
175600.000			13.868			-2.774
175702.000			13.868			-2.774
175801.000			13.867			-2.773
175901.000			13.868			-2.774
176001.000			13.868			-2.774
176100.000			13.868			-2.774
176200.000			13.867			-2.773
176301.000			13.867			-2.773
176400.000			13.867			-2.773
176500.000			13.868			-2.774
176601.000			13.867			-2.773
176701.000			13.867			-2.773
176801.000			13.867			-2.773
176902.000			13.867			-2.773
177000.000			13.867			-2.773
177100.000			13.866			-2.773
177201.000			13.866			-2.773
177300.000			13.866			-2.773
177400.000			13.866			-2.773
177501.000			13.865			-2.773
177600.000			13.865			-2.773
177702.000			13.864			-2.773
177801.000			13.864			-2.773
177901.000			13.865			-2.773
178001.000			13.865			-2.773
178100.000			13.864			-2.773
178200.000			13.864			-2.773
178301.000			13.864			-2.773
178400.000			13.863			-2.773
178500.000			13.864			-2.773
178601.000			13.864			-2.773
178701.000			13.864			-2.773
178801.000			13.865			-2.773
178902.000			13.865			-2.773
179000.000			13.865			-2.773
179100.000			13.864			-2.773
179201.000			13.864			-2.773
179300.000			13.864			-2.773
179400.000			13.863			-2.773
179501.000			13.864			-2.773
179600.000			13.864			-2.773
179701.000			13.864			-2.773
179802.000			13.863			-2.773
179901.000			13.864			-2.773
180000.000			13.865			-2.773
180101.000			13.865			-2.773
180200.000			13.864			-2.773
180300.000			13.864			-2.773
180401.000			13.864			-2.773
180500.000			13.864			-2.773
180600.000			13.863			-2.773
180702.000			13.863			-2.773
180801.000			13.863			-2.773
180902.000			13.864			-2.773
181000.000			13.863			-2.773
181100.000			13.863			-2.773
181201.000			13.863			-2.773
181300.000			13.863			-2.773
181400.000			13.863			-2.773
181501.000			13.862			-2.772
181600.000			13.861			-2.772
181701.000			13.861			-2.772
181802.000			13.861			-2.772
181900.000			13.862			-2.772
182000.000			13.861			-2.772
182101.000			13.860			-2.772
182200.000			13.860			-2.772
182300.000			13.860			-2.772
182401.000			13.861			-2.772
182500.000			13.861			-2.772
182601.000			13.860			-2.772
182702.000			13.860			-2.772
182800.000			13.860			-2.772
182900.000			13.860			-2.772
183001.000			13.860			-2.772
183100.000			13.860			-2.772
183200.000			13.859			-2.772
183301.000			13.859			-2.772
183400.000			13.860			-2.772
183501.000			13.859			-2.772
183602.000			13.860			-2.772
183701.000			13.859			-2.772
183800.000			13.859			-2.772
183901.000			13.857			-2.771
184000.000			13.857			-2.771
184100.000			13.857			-2.771
184200.000			13.857			-2.771
184300.000			13.857			-2.771
184401.000			13.857			-2.771
184501.000			13.857			-2.771
184601.000			13.856			-2.771
184702.000			13.856			-2.771
184800.000			13.856			-2.771
184900.000			13.856			-2.771
185001.000			13.854			-2.771
185100.000			13.855			-2.771
185200.000			13.855			-2.771
185301.000			13.856			-2.771
185400.000			13.856			-2.771
185501.000			13.855			-2.771
185602.000			13.856			-2.771
185701.000			13.855			-2.771
185800.000			13.855			-2.771
185901.000			13.855			-2.771
186000.000			13.854			-2.771
186100.000			13.854			-2.771
186201.000			13.854			-2.771
186300.000			13.853			-2.771
186400.000			13.853			-2.771
186502.000			13.853			-2.771
186601.000			13.853			-2.771
186700.000			13.852			-2.770
186801.000			13.851			-2.770
186900.000			13.852			-2.770
187000.000			13.852			-2.770
187101.000			13.851			-2.770
187200.000			13.853			-2.771
187300.000			13.851			-2.770
187402.000			13.851			-2.770
187501.000			13.851			-2.770
187602.000			13.852			-2.770
187700.000			13.851			-2.770
187800.000			13.851			-2.770
187901.000			13.850			-2.770
188000.000			13.849			-2.770
188100.000			13.850			-2.770
188201.000			13.850			-2.770
188300.000			13.849			-2.770
188401.000			13.850			-2.770
188502.000			13.849			-2.770
188601.000			13.849			-2.770
188700.000			13.848			-2.770
188801.000			13.848			-2.770
188900.000			13.849			-2.770
189000.000			13.848			-2.770
189101.000			13.848			-2.770
189200.000			13.848			-2.770
189300.000			13.848			-2.770
189402.000			13.848			-2.770
189501.000			13.848			-2.770
189601.000			13.848			-2.770
189701.000			13.848			-2.770
189800.000			13.848			-2.770
189900.000			13.848			-2.770
190001.000			13.848			-2.770
190100.000			13.848			-2.770
190200.000			13.848			-2.770
190301.000			13.849			-2.770
190401.000			13.849			-2.770
190502.000			13.849			-2.770
190601.000			13.849			-2.770
190700.000			13.848			-2.770
190801.000			13.848			-2.770
190900.000			13.848			-2.770
191000.000			13.848			-2.770
191101.000			13.849			-2.770
191200.000			13.849			-2.770
191300.000			13.849			-2.770
191402.000			13.850			-2.770
191501.000			13.850			-2.770
191600.000			13.848			-2.770
191701.000			13.847			-2.769
191800.000			13.848			-2.770
191900.000			13.849			-2.770
192001.000			13.848			-2.770
192100.000			13.848			-2.770
192200.000			13.848			-2.770
192302.000			13.847			-2.769
192401.000			13.847			-2.769
192501.000			13.848			-2.770
192601.000			13.848			-2.770
192700.000			13.847			-2.769
192800.000			13.846			-2.769
192901.000			13.847			-2.769
193000.000			13.846			-2.769
193100.000			13.845			-2.769
193201.000			13.846			-2.769
193301.000			13.845			-2.769
193401.000			13.846			-2.769
193501.000			13.847			-2.769
193600.000			13.846			-2.769
193700.000			13.846			-2.769
193800.000			13.844			-2.769
193900.000			13.844			-2.769
194001.000			13.844			-2.769
194100.000			13.845			-2.769
194200.000			13.844			-2.769
194302.000			13.845			-2.769
194401.000			13.844			-2.769
194500.000			13.844			-2.769
194601.000			13.844			-2.769
194700.000			13.843			-2.769
194800.000			13.842			-2.768
194901.000			13.843			-2.769
195000.000			13.842			-2.768
195100.000			13.842			-2.768
195202.000			13.842			-2.768
195301.000			13.841			-2.768
195401.000			13.841			-2.768
195501.000			13.841			-2.768
195600.000			13.841			-2.768
195700.000			13.842			-2.768
195801.000			13.841			-2.768
195900.000			13.841			-2.768
196000.000			13.841			-2.768
196101.000			13.841			-2.768
196201.000			13.840			-2.768
196301.000			13.841			-2.768
196401.000			13.840			-2.768
196500.000			13.840			-2.768
196600.000			13.840			-2.768
196701.000			13.839			-2.768
196800.000			13.839			-2.768
196900.000			13.838			-2.768
197000.000			13.838			-2.768
197100.000			13.838			-2.768
197202.000			13.838			-2.768
197301.000			13.839			-2.768
197400.000			13.839			-2.768
197501.000			13.838			-2.768
197600.000			13.837			-2.767
197700.000			13.838			-2.768
197801.000			13.838			-2.768
197900.000			13.837			-2.767
198000.000			13.837			-2.767
198101.000			13.837			-2.767
198201.000			13.836			-2.767
198301.000			13.836			-2.767
198401.000			13.837			-2.767
198500.000			13.837			-2.767
198600.000			13.837			-2.767
198701.000			13.837			-2.767
198800.000			13.837			-2.767
198900.000			13.837			-2.767
199001.000			13.836			-2.767
199101.000			13.836			-2.767
199201.000			13.837			-2.767
199302.000			13.837			-2.767
199400.000			13.836			-2.767
199500.000			13.836			-2.767
199601.000			13.836			-2.767
199700.000			13.837			-2.767
199800.000			13.837			-2.767
199901.000			13.837			-2.767
200000.000			13.837			-2.767
200102.000			13.837			-2.767
200201.000			13.836			-2.767
200301.000			13.837			-2.767
200401.000			13.837			-2.767
200500.000			13.837			-2.767
200600.000			13.836			-2.767
200701.000			13.834			-2.767
200800.000			13.834			-2.767
200900.000			13.835			-2.767
201002.000			13.834			-2.767
201101.000			13.835			-2.767
201201.000			13.834			-2.767
201301.000			13.834			-2.767
201400.000			13.834			-2.767
201500.000			13.834			-2.767
201601.000			13.834			-2.767
201700.000			13.834			-2.767
201800.000			13.834			-2.767
201902.000			13.834			-2.767
202001.000			13.833			-2.767
202101.000			13.833			-2.767
202201.000			13.833			-2.767
202300.000			13.833			-2.767
202400.000			13.833			-2.767
202501.000			13.833			-2.767
202600.000			13.833			-2.767
202700.000			13.833			-2.767
202802.000			13.832			-2.766
202901.000			13.834			-2.767
203001.000			13.834			-2.767
203101.000			13.834			-2.767
203200.000			13.832			-2.766
203300.000			13.832			-2.766
203400.000			13.832			-2.766
203500.000			13.832			-2.766
203601.000			13.832			-2.766
203700.000			13.831			-2.766
203801.000			13.831			-2.766
203902.000			13.831			-2.766
204000.000			13.831			-2.766
204100.000			13.830			-2.766
204201.000			13.830			-2.766
204300.000			13.831			-2.766
204400.000			13.830			-2.766
204501.000			13.830			-2.766
204600.000			13.830			-2.766
204701.000			13.830			-2.766
204802.000			13.829			-2.766
204900.000			13.829			-2.766
205000.000			13.829			-2.766
205101.000			13.830			-2.766
205200.000			13.830			-2.766
205300.000			13.830			-2.766
205401.000			13.828			-2.766
205500.000			13.828			-2.766
205601.000			13.829			-2.766
205702.000			13.828			-2.766
205801.000			13.828			-2.766
205900.000			13.827			-2.765
206001.000			13.828			-2.766
206100.000			13.828			-2.766
206200.000			13.828			-2.766
206301.000			13.827			-2.765
206400.000			13.827			-2.765
206500.000			13.828			-2.766
206602.000			13.827			-2.765
206701.000			13.827			-2.765
206801.000			13.827			-2.765
206900.000			13.827			-2.765
207000.000			13.826			-2.765
207101.000			13.825			-2.765
207200.000			13.826			-2.765
207300.000			13.827			-2.765
207401.000			13.825			-2.765
207501.000			13.826			-2.765
207601.000			13.825			-2.765
207701.000			13.825			-2.765
207800.000			13.826			-2.765
207900.000			13.826			-2.765
208001.000			13.825			-2.765
208100.000			13.825			-2.765
208200.000			13.826			-2.765
208301.000			13.825			-2.765
208401.000			13.826			-2.765
208501.000			13.826			-2.765
208601.000			13.825			-2.765
208700.000			13.825			-2.765
208800.000			13.825			-2.765
208901.000			13.825			-2.765
209000.000			13.826			-2.765
209100.000			13.825			-2.765
209201.000			13.825			-2.765
209301.000			13.825			-2.765
209401.000			13.825			-2.765
209502.000			13.824			-2.765
209600.000			13.824			-2.765
209700.000			13.826			-2.765
209800.000			13.824			-2.765
209900.000			13.825			-2.765
210001.000			13.826			-2.765
210100.000			13.826			-2.765
210200.000			13.826			-2.765
210302.000			13.825			-2.765
210401.000			13.826			-2.765
210500.000			13.824			-2.765
210601.000			13.826			-2.765
210700.000			13.825			-2.765
210800.000			13.825			-2.765
210901.000			13.825			-2.765
211000.000			13.825			-2.765
211100.000			13.825			-2.765
211202.000			13.825			-2.765
211301.000			13.824			-2.765
211400.000			13.823			-2.765
211501.000			13.823			-2.765
211600.000			13.824			-2.765
211700.000			13.824			-2.765
211801.000			13.824			-2.765
211900.000			13.823			-2.765
212000.000			13.823			-2.765
212102.000			13.823			-2.765
212201.000			13.823			-2.765
212300.000			13.823			-2.765
212401.000			13.823			-2.765
212500.000			13.823			-2.765
212600.000			13.823			-2.765
212701.000			13.821			-2.764
212800.000			13.822			-2.764
212900.000			13.822			-2.764
213002.000			13.821			-2.764
213101.000			13.822			-2.764
213201.000			13.823			-2.765
213300.000			13.822			-2.764
213400.000			13.822			-2.764
213501.000			13.821			-2.764
213600.000			13.822			-2.764
213700.000			13.822			-2.764
213801.000			13.820			-2.764
213901.000			13.820			-2.764
214001.000			13.821			-2.764
214101.000			13.820			-2.764
214200.000			13.820			-2.764
214300.000			13.820			-2.764
214401.000			13.820			-2.764
214500.000			13.821			-2.764
214600.000			13.822			-2.764
214701.000			13.821			-2.764
214801.000			13.820			-2.764
214901.000			13.821			-2.764
215001.000			13.821			-2.764
215100.000			13.821			-2.764
215200.000			13.820			-2.764
215301.000			13.820			-2.764
215400.000			13.819			-2.764
215500.000			13.819			-2.764
215601.000			13.819			-2.764
215701.000			13.820			-2.764
215801.000			13.820			-2.764
215901.000			13.820			-2.764
216000.000			13.820			-2.764
216100.000			13.821			-2.764
216200.000			13.820			-2.764
216300.000			13.820			-2.764
216401.000			13.818			-2.764
216500.000			13.820			-2.764
216601.000			13.819			-2.764
216702.000			13.819			-2.764
216801.000			13.819			-2.764
216900.000			13.818			-2.764
217001.000			13.818			-2.764
217100.000			13.818			-2.764
217200.000			13.817			-2.763
217301.000			13.817			-2.763
217400.000			13.817			-2.763
217500.000			13.817			-2.763
217602.000			13.818			-2.764
217701.000			13.816			-2.763
217800.000			13.816			-2.763
217901.000			13.816			-2.763
218000.000			13.816			-2.763
218100.000			13.816			-2.763
218201.000			13.816			-2.763
218300.000			13.816			-2.763
218400.000			13.815			-2.763
218502.000			13.814			-2.763
218601.000			13.815			-2.763
218700.000			13.816			-2.763
218801.000			13.816			-2.763
218900.000			13.816			-2.763
219000.000			13.816			-2.763
219101.000			13.815			-2.763
219200.000			13.814			-2.763
219300.000			13.817			-2.763
219402.000			13.816			-2.763
219501.000			13.816			-2.763
219602.000			13.815			-2.763
219700.000			13.816			-2.763
219800.000			13.817			-2.763
219901.000			13.816			-2.763
220000.000			13.816			-2.763
220100.000			13.816			-2.763
220201.000			13.816			-2.763
220300.000			13.815			-2.763
220401.000			13.814			-2.763
220502.000			13.814			-2.763
220600.000			13.814			-2.763
220700.000			13.813			-2.763
220801.000			13.813			-2.763
220900.000			13.814			-2.763
221000.000			13.813			-2.763
221101.000			13.813			-2.763
221200.000			13.813			-2.763
221301.000			13.813			-2.763
221402.000			13.812			-2.762
221500.000			13.811			-2.762
221600.000			13.812			-2.762
221701.000			13.812			-2.762
221800.000			13.810			-2.762
221900.000			13.811			-2.762
222001.000			13.812			-2.762
222100.000			13.811			-2.762
222201.000			13.811			-2.762
222302.000			13.811			-2.762
222400.000			13.811			-2.762
222500.000			13.811			-2.762
222600.000			13.812			-2.762
222700.000			13.812			-2.762
222801.000			13.811			-2.762
222900.000			13.811			-2.762
223000.000			13.811			-2.762
223102.000			13.811			-2.762
223201.000			13.811			-2.762
223300.000			13.811			-2.762
223401.000			13.811			-2.762
223500.000			13.810			-2.762
223600.000			13.810			-2.762
223701.000			13.810			-2.762
223800.000			13.809			-2.762
223900.000			13.809			-2.762
224002.000			13.809			-2.762
224101.000			13.809			-2.762
224201.000			13.810			-2.762
224301.000			13.808			-2.762
224400.000			13.808			-2.762
224500.000			13.808			-2.762
224601.000			13.808			-2.762
224700.000			13.808			-2.762
224800.000			13.807			-2.761
224901.000			13.806			-2.761
225001.000			13.807			-2.761
225101.000			13.807			-2.761
225201.000			13.807			-2.761
225300.000			13.808			-2.762
225400.000			13.808			-2.762
225501.000			13.807			-2.761
225600.000			13.806			-2.761
225700.000			13.805			-2.761
225800.000			13.805			-2.761
225901.000			13.806			-2.761
226002.000			13.805			-2.761
226101.000			13.805			-2.761
226200.000			13.805			-2.761
226301.000			13.805			-2.761
226400.000			13.805			-2.761
226500.000			13.805			-2.761
226601.000			13.804			-2.761
226700.000			13.805			-2.761
226801.000			13.804			-2.761
226902.000			13.803			-2.761
227001.000			13.803			-2.761
227100.000			13.803			-2.761
227201.000			13.802			-2.760
227300.000			13.802			-2.760
227400.000			13.803			-2.761
227501.000			13.804			-2.761
227600.000			13.804			-2.761
227700.000			13.803			-2.761
227802.000			13.803			-2.761
227901.000			13.803			-2.761
228000.000			13.802			-2.760
228101.000			13.802			-2.760
228200.000			13.803			-2.761
228300.000			13.802			-2.760
228401.000			13.802			-2.760
228500.000			13.802			-2.760
228600.000			13.802			-2.760
228702.000			13.803			-2.761
228801.000			13.801			-2.760
228900.000			13.801			-2.760
229000.000			13.802			-2.760
229100.000			13.801			-2.760
229201.000			13.801			-2.760
229300.000			13.801			-2.760
229400.000			13.801			-2.760
229501.000			13.801			-2.760
229601.000			13.801			-2.760
229701.000			13.801			-2.760
229801.000			13.800			-2.760
229900.000			13.801			-2.760
230000.000			13.800			-2.760
230101.000			13.800			-2.760
230200.000			13.800			-2.760
230300.000			13.801			-2.760
230401.000			13.800			-2.760
230500.000			13.799			-2.760
230601.000			13.799			-2.760
230702.000			13.800			-2.760
230800.000			13.800			-2.760
230900.000			13.800			-2.760
231001.000			13.801			-2.760
231100.000			13.800			-2.760
231200.000			13.800			-2.760
231301.000			13.799			-2.760
231400.000			13.800			-2.760
231501.000			13.800			-2.760
231602.000			13.800			-2.760
231701.000			13.799			-2.760
231800.000			13.799			-2.760
231901.000			13.798			-2.760
232000.000			13.798			-2.760
232100.000			13.799			-2.760
232200.000			13.800			-2.760
232300.000			13.799			-2.760
232401.000			13.800			-2.760
232501.000			13.798			-2.760
232601.000			13.798			-2.760
232701.000			13.799			-2.760
232800.000			13.799			-2.760
232900.000			13.797			-2.759
233001.000			13.797			-2.759
233100.000			13.798			-2.760
233200.000			13.797			-2.759
233301.000			13.797			-2.759
233401.000			13.797			-2.759
233501.000			13.798			-2.760
233602.000			13.798			-2.760
233700.000			13.798			-2.760
233800.000			13.797			-2.759
233901.000			13.796			-2.759
234000.000			13.796			-2.759
234100.000			13.797			-2.759
234201.000			13.797			-2.759
234300.000			13.797			-2.759
234401.000			13.798			-2.760
234502.000			13.798			-2.760
234600.000			13.796			-2.759
234700.000			13.796			-2.759
234801.000			13.796			-2.759
234900.000			13.796			-2.759
235000.000			13.796			-2.759
235101.000			13.797			-2.759
235200.000			13.797			-2.759
235302.000			13.795			-2.759
235401.000			13.797			-2.759
235501.000			13.796			-2.759
235601.000			13.795			-2.759
235700.000			13.794			-2.759
235800.000			13.794			-2.759
235901.000			13.795			-2.759
236000.000			13.795			-2.759
236100.000			13.794			-2.759
236201.000			13.794			-2.759
236301.000			13.794			-2.759
236401.000			13.795			-2.759
236501.000			13.795			-2.759
236600.000			13.794			-2.759
236700.000			13.794			-2.759
236801.000			13.794			-2.759
236900.000			13.795			-2.759
237000.000			13.794			-2.759
237101.000			13.794			-2.759
237200.000			13.794			-2.759
237301.000			13.794			-2.759
237402.000			13.794			-2.759
237500.000			13.793			-2.759
237600.000			13.793			-2.759
237701.000			13.793			-2.759
237800.000			13.793			-2.759
237900.000			13.793			-2.759
238001.000			13.793			-2.759
238100.000			13.793			-2.759
238201.000			13.794			-2.759
238302.000			13.794			-2.759
238401.000			13.794			-2.759
238500.000			13.793			-2.759
238600.000			13.793			-2.759
238700.000			13.793			-2.759
238801.000			13.792			-2.758
238900.000			13.793			-2.759
239000.000			13.793			-2.759
239101.000			13.793			-2.759
239201.000			13.793			-2.759
239301.000			13.793			-2.759
239402.000			13.793			-2.759
239500.000			13.792			-2.758
239600.000			13.791			-2.758
239701.000			13.792			-2.758
239800.000			13.792			-2.758
239900.000			13.793			-2.759
240001.000			13.793			-2.759
240100.000			13.793			-2.759
240201.000			13.792			-2.758
240302.000			13.791			-2.758
240400.000			13.791			-2.758
240500.000			13.791			-2.758
240601.000			13.791			-2.758
240700.000			13.792			-2.758
240800.000			13.791			-2.758
240901.000			13.792			-2.758
241000.000			13.792			-2.758
241101.000			13.791			-2.758
241202.000			13.791			-2.758
241301.000			13.791			-2.758
241400.000			13.791			-2.758
241501.000			13.791			-2.758
241600.000			13.791			-2.758
241700.000			13.792			-2.758
241800.000			13.791			-2.758
241900.000			13.790			-2.758
242002.000			13.790			-2.758
242101.000			13.791			-2.758
242201.000			13.792			-2.758
242301.000			13.791			-2.758
242400.000			13.791			-2.758
242500.000			13.790			-2.758
242601.000			13.790			-2.758
242700.000			13.791			-2.758
242800.000			13.792			-2.758
242901.000			13.791			-2.758
243001.000			13.791			-2.758
243101.000			13.791			-2.758
243201.000			13.790			-2.758
243300.000			13.791			-2.758
243400.000			13.790			-2.758
243501.000			13.791			-2.758
243600.000			13.790			-2.758
243700.000			13.791			-2.758
243801.000			13.790			-2.758
243901.000			13.789			-2.758
244001.000			13.790			-2.758
244102.000			13.790			-2.758
244200.000			13.790			-2.758
244300.000			13.790			-2.758
244401.000			13.789			-2.758
244500.000			13.789			-2.758
244600.000			13.789			-2.758
244701.000			13.790			-2.758
244800.000			13.788			-2.758
244902.000			13.788			-2.758
245001.000			13.788			-2.758
245101.000			13.789			-2.758
245201.000			13.788			-2.758
245300.000			13.789			-2.758
245400.000			13.789			-2.758
245501.000			13.788			-2.758
245600.000			13.788			-2.758
245700.000			13.788			-2.758
245801.000			13.788			-2.758
245901.000			13.787			-2.757
246001.000			13.786			-2.757
246102.000			13.786			-2.757
246200.000			13.787			-2.757
246300.000			13.787			-2.757
246401.000			13.787			-2.757
246500.000			13.787			-2.757
246600.000			13.787			-2.757
246701.000			13.786			-2.757
246800.000			13.786			-2.757
246901.000			13.787			-2.757
247002.000			13.785			-2.757
247100.000			13.785			-2.757
247200.000			13.786			-2.757
247301.000			13.786			-2.757
247400.000			13.786			-2.757
247500.000			13.785			-2.757
247601.000			13.786			-2.757
247700.000			13.785			-2.757
247801.000			13.786			-2.757
247902.000			13.786			-2.757
248001.000			13.785			-2.757
248100.000			13.784			-2.757
248200.000			13.784			-2.757
248300.000			13.785			-2.757
248401.000			13.785			-2.757
248500.000			13.785			-2.757
248600.000			13.784			-2.757
248701.000			13.784			-2.757
248801.000			13.785			-2.757
248901.000			13.786			-2.757
249002.000			13.785			-2.757
249100.000			13.785			-2.757
249200.000			13.783			-2.757
249301.000			13.783			-2.757
249400.000			13.784			-2.757
249500.000			13.785			-2.757
249601.000			13.785			-2.757
249700.000			13.783			-2.757
249801.000			13.783			-2.757
249902.000			13.784			-2.757
250001.000			13.783			-2.757
250100.000			13.783			-2.757
250201.000			13.784			-2.757
250300.000			13.784			-2.757
250400.000			13.783			-2.757
250501.000			13.784			-2.757
250600.000			13.783			-2.757
250700.000			13.785			-2.757
250802.000			13.784			-2.757
250901.000			13.782			-2.756
251000.000			13.783			-2.757
251101.000			13.783			-2.757
251200.000			13.783			-2.757
251300.000			13.783			-2.757
251400.000			13.782			-2.756
251500.000			13.782			-2.756
251601.000			13.781			-2.756
251701.000			13.782			-2.756
251801.000			13.783			-2.757
251901.000			13.783			-2.757
252000.000			13.782			-2.756
252100.000			13.781			-2.756
252201.000			13.782			-2.756
252300.000			13.782			-2.756
252400.000			13.782			-2.756
252501.000			13.782			-2.756
252601.000			13.781			-2.756
252701.000			13.781			-2.756
252802.000			13.781			-2.756
252900.000			13.782			-2.756
253000.000			13.782			-2.756
253101.000			13.780			-2.756
253200.000			13.780			-2.756
253300.000			13.780			-2.756
253401.000			13.781			-2.756
253500.000			13.782			-2.756
253601.000			13.781			-2.756
253702.000			13.781			-2.756
253800.000			13.782			-2.756
253900.000			13.782			-2.756
254001.000			13.781			-2.756
254100.000			13.781			-2.756
254200.000			13.780			-2.756
254301.000			13.781			-2.756
254400.000			13.781			-2.756
254502.000			13.781			-2.756
254601.000			13.781			-2.756
254701.000			13.782			-2.756
254801.000			13.781			-2.756
254900.000			13.780			-2.756
255000.000			13.781			-2.756
255101.000			13.781			-2.756
255200.000			13.780			-2.756
255300.000			13.780			-2.756
255401.000			13.780			-2.756
255501.000			13.780			-2.756
255601.000			13.780			-2.756
255702.000			13.780			-2.756
255800.000			13.780			-2.756
255900.000			13.780			-2.756
256001.000			13.779			-2.756
256100.000			13.779			-2.756
256200.000			13.778			-2.756
256301.000			13.777			-2.755
256400.000			13.777			-2.755
256501.000			13.778			-2.756
256602.000			13.778			-2.756
256701.000			13.779			-2.756
256800.000			13.778			-2.756
256901.000			13.778			-2.756
257000.000			13.777			-2.755
257100.000			13.777			-2.755
257201.000			13.778			-2.756
257300.000			13.777			-2.755
257400.000			13.777			-2.755
257502.000			13.777			-2.755
257601.000			13.777			-2.755
257700.000			13.776			-2.755
257800.000			13.776			-2.755
257900.000			13.775			-2.755
258001.000			13.777			-2.755
258100.000			13.776			-2.755
258200.000			13.777			-2.755
258301.000			13.778			-2.756
258400.000			13.776			-2.755
258501.000			13.776			-2.755
258602.000			13.776			-2.755
258700.000			13.776			-2.755
258800.000			13.776			-2.755
258901.000			13.777			-2.755
259000.000			13.776			-2.755
259100.000			13.775			-2.755
259201.000			13.775			-2.755
259300.000			13.776			-2.755
259400.000			13.777			-2.755
259502.000			13.776			-2.755
259601.000			13.777			-2.755
259700.000			13.776			-2.755
259801.000			13.776			-2.755
259900.000			13.775			-2.755
260000.000			13.775			-2.755
260101.000			13.776			-2.755
260200.000			13.777			-2.755
260300.000			13.776			-2.755
260402.000			13.776			-2.755
260501.000			13.776			-2.755
260601.000			13.776			-2.755
260701.000			13.776			-2.755
260800.000			13.776			-2.755
260900.000			13.775			-2.755
261000.000			13.775			-2.755
261100.000			13.776			-2.755
261201.000			13.775			-2.755
261300.000			13.776			-2.755
261401.000			13.777			-2.755
261502.000			13.776			-2.755
261601.000			13.775			-2.755
261700.000			13.775			-2.755
261801.000			13.775			-2.755
261900.000			13.774			-2.755
262000.000			13.775			-2.755
262101.000			13.776			-2.755
262200.000			13.776			-2.755
262300.000			13.774			-2.755
262402.000			13.775			-2.755
262501.000			13.776			-2.755
262600.000			13.776			-2.755
262701.000			13.775			-2.755
262800.000			13.774			-2.755
262900.000			13.775			-2.755
263001.000			13.775			-2.755
263100.000			13.775			-2.755
263200.000			13.774			-2.755
263302.000			13.774			-2.755
263401.000			13.774			-2.755
263501.000			13.775			-2.755
263601.000			13.774			-2.755
263700.000			13.773			-2.755
263800.000			13.774			-2.755
263901.000			13.773			-2.755
264000.000			13.773			-2.755
264100.000			13.773			-2.755
264202.000			13.772			-2.754
264301.000			13.773			-2.755
264402.000			13.774			-2.755
264500.000			13.773			-2.755
264600.000			13.773			-2.755
264701.000			13.774			-2.755
264800.000			13.772			-2.754
264900.000			13.772			-2.754
265001.000			13.774			-2.755
265100.000			13.773			-2.755
265201.000			13.773			-2.755
265302.000			13.773			-2.755
265401.000			13.773			-2.755
265500.000			13.774			-2.755
265601.000			13.773			-2.755
265700.000			13.773			-2.755
265800.000			13.773			-2.755
265901.000			13.773			-2.755
266000.000			13.773			-2.755
266101.000			13.773			-2.755
266202.000			13.772			-2.754
266301.000			13.772			-2.754
266400.000			13.772			-2.754
266501.000			13.772			-2.754
266600.000			13.772			-2.754
266700.000			13.772			-2.754
266801.000			13.772			-2.754
266900.000			13.771			-2.754
267000.000			13.772			-2.754
267102.000			13.773			-2.755
267201.000			13.771			-2.754
267300.000			13.769			-2.754
267400.000			13.770			-2.754
267500.000			13.770			-2.754
267601.000			13.770			-2.754
267700.000			13.770			-2.754
267800.000			13.770			-2.754
267901.000			13.770			-2.754
268000.000			13.770			-2.754
268101.000			13.770			-2.754
268202.000			13.768			-2.754
268300.000			13.770			-2.754
268400.000			13.770			-2.754
268501.000			13.769			-2.754
268600.000			13.769			-2.754
268700.000			13.770			-2.754
268801.000			13.769			-2.754
268900.000			13.767			-2.753
269000.000			13.768			-2.754
269102.000			13.768			-2.754
269201.000			13.768			-2.754
269300.000			13.768			-2.754
269401.000			13.768			-2.754
269500.000			13.769			-2.754
269600.000			13.768			-2.754
269701.000			13.768			-2.754
269800.000			13.769			-2.754
269900.000			13.769			-2.754
270002.000			13.769			-2.754
270101.000			13.768			-2.754
270201.000			13.767			-2.753
270301.000			13.767			-2.753
270400.000			13.767			-2.753
270500.000			13.767			-2.753
270600.000			13.767			-2.753
270700.000			13.767			-2.753
270801.000			13.767			-2.753
270900.000			13.767			-2.753
271001.000			13.767			-2.753
271102.000			13.766			-2.753
271200.000			13.766			-2.753
271300.000			13.766			-2.753
271401.000			13.765			-2.753
271500.000			13.765			-2.753
271600.000			13.765			-2.753
271701.000			13.766			-2.753
271800.000			13.766			-2.753
271901.000			13.766			-2.753
272002.000			13.766			-2.753
272101.000			13.766			-2.753
272200.000			13.765			-2.753
272301.000			13.765			-2.753
272400.000			13.765			-2.753
272500.000			13.763			-2.753
272601.000			13.764			-2.753
272700.000			13.764			-2.753
272800.000			13.764			-2.753
272902.000			13.764			-2.753
273001.000			13.763			-2.753
273100.000			13.764			-2.753
273201.000			13.764			-2.753
273300.000			13.763			-2.753
273400.000			13.763			-2.753
273501.000			13.764			-2.753
273600.000			13.763			-2.753
273700.000			13.764			-2.753
273802.000			13.764			-2.753
273901.000			13.763			-2.753
274002.000			13.763			-2.753
274100.000			13.763			-2.753
274200.000			13.763			-2.753
274301.000			13.764			-2.753
274400.000			13.763			-2.753
274500.000			13.763			-2.753
274601.000			13.762			-2.752
274701.000			13.763			-2.753
274801.000			13.762			-2.752
274902.000			13.762			-2.752
275000.000			13.762			-2.752
275100.000			13.763			-2.753
275201.000			13.762			-2.752
275300.000			13.762			-2.752
275400.000			13.763			-2.753
275501.000			13.763			-2.753
275600.000			13.763			-2.753
275701.000			13.762			-2.752
275802.000			13.761			-2.752
275900.000			13.762			-2.752
276000.000			13.762			-2.752
276101.000			13.761			-2.752
276200.000			13.760			-2.752
276300.000			13.761			-2.752
276401.000			13.760			-2.752
276500.000			13.759			-2.752
276600.000			13.759			-2.752
276702.000			13.760			-2.752
276801.000			13.760			-2.752
276900.000			13.759			-2.752
277000.000			13.760			-2.752
277100.000			13.760			-2.752
277201.000			13.760			-2.752
277300.000			13.759			-2.752
277400.000			13.759			-2.752
277501.000			13.760			-2.752
277601.000			13.759			-2.752
277701.000			13.760			-2.752
277802.000			13.759			-2.752
277900.000			13.759			-2.752
278000.000			13.758			-2.752
278101.000			13.758			-2.752
278200.000			13.758			-2.752
278300.000			13.758			-2.752
278401.000			13.758			-2.752
278500.000			13.758			-2.752
278601.000			13.758			-2.752
278702.000			13.758			-2.752
278801.000			13.757			-2.751
278900.000			13.758			-2.752
279001.000			13.757			-2.751
279100.000			13.757			-2.751
279200.000			13.757			-2.751
279301.000			13.757			-2.751
279400.000			13.756			-2.751
279500.000			13.756			-2.751
279602.000			13.756			-2.751
279701.000			13.755			-2.751
279801.000			13.756			-2.751
279901.000			13.756			-2.751
280000.000			13.757			-2.751
280100.000			13.757			-2.751
280200.000			13.756			-2.751
280300.000			13.756			-2.751
280401.000			13.756			-2.751
280500.000			13.756			-2.751
280601.000			13.756			-2.751
280702.000			13.755			-2.751
280801.000			13.755			-2.751
280900.000			13.754			-2.751
281001.000			13.755			-2.751
281100.000			13.756			-2.751
281200.000			13.756			-2.751
281301.000			13.755			-2.751
281400.000			13.755			-2.751
281500.000			13.756			-2.751
281602.000			13.756			-2.751
281701.000			13.755			-2.751
281800.000			13.755			-2.751
281901.000			13.755			-2.751
282000.000			13.754			-2.751
282100.000			13.756			-2.751
282201.000			13.756			-2.751
282300.000			13.754			-2.751
282400.000			13.755			-2.751
282502.000			13.755			-2.751
282601.000			13.755			-2.751
282701.000			13.755			-2.751
282801.000			13.755			-2.751
282900.000			13.754			-2.751
283000.000			13.754			-2.751
283101.000			13.754			-2.751
283200.000			13.755			-2.751
283300.000			13.754			-2.751
283402.000			13.754			-2.751
283501.000			13.755			-2.751
283602.000			13.755			-2.751
283700.000			13.754			-2.751
283800.000			13.754			-2.751
283901.000			13.754			-2.751
284000.000			13.754			-2.751
284100.000			13.754			-2.751
284201.000			13.755			-2.751
284300.000			13.753			-2.751
284401.000			13.752			-2.750
284502.000			13.753			-2.751
284600.000			13.753			-2.751
284700.000			13.753			-2.751
284801.000			13.753			-2.751
284900.000			13.753			-2.751
285000.000			13.752			-2.750
285101.000			13.751			-2.750
285200.000			13.752			-2.750
285301.000			13.752			-2.750
285402.000			13.753			-2.751
285501.000			13.752			-2.750
285600.000			13.753			-2.751
285701.000			13.752			-2.750
285800.000			13.752			-2.750
285900.000			13.752			-2.750
286001.000			13.752			-2.750
286100.000			13.752			-2.750
286200.000			13.751			-2.750
286302.000			13.751			-2.750
286401.000			13.751			-2.750
286500.000			13.751			-2.750
286600.000			13.750			-2.750
286700.000			13.750			-2.750
286801.000			13.749			-2.750
286900.000			13.749			-2.750
287000.000			13.750			-2.750
287101.000			13.750			-2.750
287200.000			13.749			-2.750
287301.000			13.750			-2.750
287402.000			13.750			-2.750
287500.000			13.750			-2.750
287600.000			13.750			-2.750
287701.000			13.750			-2.750
287800.000			13.750			-2.750
287900.000			13.751			-2.750
288001.000			13.750			-2.750
288100.000			13.750			-2.750
288201.000			13.750			-2.750
288302.000			13.750			-2.750
288401.000			13.749			-2.750
288500.000			13.750			-2.750
288601.000			13.750			-2.750
288700.000			13.750			-2.750
288800.000			13.750			-2.750
288901.000			13.750			-2.750
289000.000			13.750			-2.750
289100.000			13.749			-2.750
289202.000			13.749			-2.750
289301.000			13.750			-2.750
289401.000			13.750			-2.750
289501.000			13.750			-2.750
289600.000			13.749			-2.750
289700.000			13.749			-2.750
289800.000			13.750			-2.750
289900.000			13.750			-2.750
290001.000			13.749			-2.750
290100.000			13.749			-2.750
290201.000			13.749			-2.750
290302.000			13.749			-2.750
290401.000			13.749			-2.750
290500.000			13.749			-2.750
290601.000			13.748			-2.750
290700.000			13.749			-2.750
290800.000			13.749			-2.750
290901.000			13.748			-2.750
291000.000			13.748			-2.750
291100.000			13.749			-2.750
291202.000			13.748			-2.750
291301.000			13.748			-2.750
291400.000			13.748			-2.750
291501.000			13.748			-2.750
291600.000			13.748			-2.750
291700.000			13.748			-2.750
291801.000			13.749			-2.750
291900.000			13.749			-2.750
292000.000			13.749			-2.750
292102.000			13.748			-2.750
292201.000			13.748			-2.750
292301.000			13.748			-2.750
292401.000			13.748			-2.750
292500.000			13.748			-2.750
292600.000			13.747			-2.749
292701.000			13.747			-2.749
292800.000			13.748			-2.750
292900.000			13.747			-2.749
293000.000			13.747			-2.749
293101.000			13.748			-2.750
293202.000			13.747			-2.749
293301.000			13.746			-2.749
293400.000			13.746			-2.749
293501.000			13.747			-2.749
293600.000			13.746			-2.749
293700.000			13.747			-2.749
293801.000			13.747			-2.749
293900.000			13.746			-2.749
294000.000			13.746			-2.749
294102.000			13.746			-2.749
294201.000			13.747			-2.749
294301.000			13.746			-2.749
294401.000			13.746			-2.749
294500.000			13.745			-2.749
294600.000			13.744			-2.749
294701.000			13.745			-2.749
294800.000			13.746			-2.749
294900.000			13.746			-2.749
295001.000			13.745			-2.749
295101.000			13.744			-2.749
295201.000			13.744			-2.749
295301.000			13.745			-2.749
295400.000			13.745			-2.749
295500.000			13.744			-2.749
295601.000			13.744			-2.749
295700.000			13.744			-2.749
295800.000			13.744			-2.749
295901.000			13.745			-2.749
296001.000			13.745			-2.749
296102.000			13.744			-2.749
296201.000			13.743			-2.749
296300.000			13.743			-2.749
296401.000			13.743			-2.749
296500.000			13.742			-2.748
296600.000			13.743			-2.749
296701.000			13.743			-2.749
296800.000			13.743			-2.749
296900.000			13.744			-2.749
297002.000			13.744			-2.749
297101.000			13.744			-2.749
297200.000			13.743			-2.749
297301.000			13.742			-2.748
297400.000			13.742			-2.748
297500.000			13.742			-2.748
297601.000			13.743			-2.749
297700.000			13.743			-2.749
297800.000			13.742			-2.748
297901.000			13.743			-2.749
298001.000			13.742			-2.748
298101.000			13.743			-2.749
298201.000			13.743			-2.749
298300.000			13.743			-2.749
298400.000			13.743			-2.749
298501.000			13.742			-2.748
298600.000			13.742			-2.748
298700.000			13.742			-2.748
298801.000			13.742			-2.748
298901.000			13.742			-2.748
299001.000			13.742			-2.748
299102.000			13.742			-2.748
299200.000			13.742			-2.748
299300.000			13.742			-2.748
299400.000			13.741			-2.748
299500.000			13.743			-2.749
299601.000			13.742			-2.748
299700.000			13.742			-2.748
299800.000			13.742			-2.748
299902.000			13.742			-2.748
