# Acquired on 10/01/2024 14:34:10 
# SPIDER: Creep_-5mm_07714532B-2
# CREEP MEASUREMENT

# time [ms]		force [N]		stiffness [N/mm]
0.000			13.051			-2.610
100.000			14.099			-2.820
201.000			14.562			-2.912
302.000			14.564			-2.913
400.000			14.508			-2.902
500.000			14.463			-2.893
601.000			14.427			-2.885
700.000			14.395			-2.879
800.000			14.365			-2.873
902.000			14.339			-2.868
1001.000			14.296			-2.859
1101.000			14.276			-2.855
1201.000			14.258			-2.852
1300.000			14.242			-2.848
1400.000			14.226			-2.845
1501.000			14.212			-2.842
1600.000			14.198			-2.840
1701.000			14.184			-2.837
1802.000			14.159			-2.832
1900.000			14.148			-2.830
2000.000			14.138			-2.828
2101.000			14.128			-2.826
2200.000			14.117			-2.823
2300.000			14.108			-2.822
2401.000			14.099			-2.820
2501.000			14.082			-2.816
2600.000			14.074			-2.815
2701.000			14.066			-2.813
2800.000			14.058			-2.812
2900.000			14.051			-2.810
3001.000			14.044			-2.809
3100.000			14.036			-2.807
3202.000			14.024			-2.805
3301.000			14.016			-2.803
3400.000			14.011			-2.802
3501.000			14.005			-2.801
3600.000			13.999			-2.800
3700.000			13.993			-2.799
3801.000			13.988			-2.798
3901.000			13.983			-2.797
4001.000			13.973			-2.795
4101.000			13.968			-2.794
4200.000			13.964			-2.793
4300.000			13.958			-2.792
4401.000			13.953			-2.791
4500.000			13.949			-2.790
4600.000			13.945			-2.789
4702.000			13.935			-2.787
4801.000			13.931			-2.786
4900.000			13.927			-2.785
5001.000			13.924			-2.785
5100.000			13.919			-2.784
5200.000			13.915			-2.783
5301.000			13.911			-2.782
5400.000			13.903			-2.781
5501.000			13.899			-2.780
5602.000			13.896			-2.779
5700.000			13.893			-2.779
5800.000			13.888			-2.778
5901.000			13.884			-2.777
6000.000			13.882			-2.776
6100.000			13.875			-2.775
6201.000			13.872			-2.774
6301.000			13.868			-2.774
6402.000			13.865			-2.773
6500.000			13.861			-2.772
6600.000			13.859			-2.772
6701.000			13.856			-2.771
6800.000			13.853			-2.771
6900.000			13.846			-2.769
7001.000			13.843			-2.769
7101.000			13.840			-2.768
7201.000			13.837			-2.767
7301.000			13.834			-2.767
7400.000			13.832			-2.766
7500.000			13.829			-2.766
7601.000			13.822			-2.764
7700.000			13.820			-2.764
7801.000			13.819			-2.764
7902.000			13.816			-2.763
8000.000			13.813			-2.763
8100.000			13.811			-2.762
8201.000			13.808			-2.762
8300.000			13.804			-2.761
8400.000			13.801			-2.760
8501.000			13.798			-2.760
8601.000			13.795			-2.759
8701.000			13.793			-2.759
8801.000			13.791			-2.758
8900.000			13.790			-2.758
9000.000			13.787			-2.757
9101.000			13.782			-2.756
9200.000			13.780			-2.756
9300.000			13.778			-2.756
9402.000			13.776			-2.755
9501.000			13.774			-2.755
9600.000			13.771			-2.754
9700.000			13.769			-2.754
9800.000			13.766			-2.753
9901.000			13.764			-2.753
10000.000			13.761			-2.752
10100.000			13.759			-2.752
10202.000			13.757			-2.751
10301.000			13.755			-2.751
10400.000			13.754			-2.751
10501.000			13.749			-2.750
10600.000			13.748			-2.750
10700.000			13.746			-2.749
10801.000			13.744			-2.749
10900.000			13.743			-2.749
11001.000			13.742			-2.748
11102.000			13.741			-2.748
11200.000			13.738			-2.748
11300.000			13.736			-2.747
11401.000			13.734			-2.747
11500.000			13.732			-2.746
11600.000			13.730			-2.746
11701.000			13.728			-2.746
11801.000			13.726			-2.745
11901.000			13.724			-2.745
12001.000			13.721			-2.744
12100.000			13.719			-2.744
12200.000			13.717			-2.743
12301.000			13.715			-2.743
12400.000			13.715			-2.743
12500.000			13.713			-2.743
12602.000			13.713			-2.743
12701.000			13.709			-2.742
12800.000			13.706			-2.741
12900.000			13.706			-2.741
13000.000			13.704			-2.741
13101.000			13.702			-2.740
13200.000			13.701			-2.740
13301.000			13.700			-2.740
13402.000			13.697			-2.739
13501.000			13.696			-2.739
13600.000			13.693			-2.739
13701.000			13.692			-2.738
13800.000			13.692			-2.738
13900.000			13.689			-2.738
14001.000			13.687			-2.737
14100.000			13.686			-2.737
14201.000			13.685			-2.737
14302.000			13.683			-2.737
14400.000			13.681			-2.736
14500.000			13.679			-2.736
14601.000			13.678			-2.736
14700.000			13.676			-2.735
14800.000			13.675			-2.735
14901.000			13.673			-2.735
15001.000			13.671			-2.734
15101.000			13.670			-2.734
15201.000			13.669			-2.734
15300.000			13.667			-2.733
15400.000			13.666			-2.733
15501.000			13.665			-2.733
15600.000			13.662			-2.732
15700.000			13.661			-2.732
15802.000			13.660			-2.732
15901.000			13.657			-2.731
16000.000			13.655			-2.731
16100.000			13.655			-2.731
16200.000			13.655			-2.731
16301.000			13.653			-2.731
16400.000			13.651			-2.730
16500.000			13.650			-2.730
16602.000			13.649			-2.730
16701.000			13.648			-2.730
16800.000			13.646			-2.729
16901.000			13.644			-2.729
17000.000			13.643			-2.729
17100.000			13.641			-2.728
17201.000			13.640			-2.728
17300.000			13.639			-2.728
17401.000			13.638			-2.728
17502.000			13.637			-2.727
17600.000			13.635			-2.727
17700.000			13.635			-2.727
17801.000			13.633			-2.727
17900.000			13.632			-2.726
18000.000			13.630			-2.726
18101.000			13.630			-2.726
18201.000			13.629			-2.726
18301.000			13.628			-2.726
18401.000			13.627			-2.725
18500.000			13.626			-2.725
18600.000			13.624			-2.725
18701.000			13.623			-2.725
18800.000			13.622			-2.724
18900.000			13.621			-2.724
19002.000			13.621			-2.724
19101.000			13.619			-2.724
19200.000			13.618			-2.724
19300.000			13.617			-2.723
19400.000			13.615			-2.723
19501.000			13.614			-2.723
19600.000			13.612			-2.722
19700.000			13.611			-2.722
19802.000			13.610			-2.722
19901.000			13.609			-2.722
20000.000			13.608			-2.722
20101.000			13.606			-2.721
20200.000			13.606			-2.721
20300.000			13.605			-2.721
20401.000			13.605			-2.721
20501.000			13.605			-2.721
20601.000			13.603			-2.721
20701.000			13.602			-2.720
20800.000			13.600			-2.720
20900.000			13.600			-2.720
21001.000			13.598			-2.720
21100.000			13.597			-2.719
21200.000			13.596			-2.719
21302.000			13.594			-2.719
21401.000			13.593			-2.719
21500.000			13.592			-2.718
21601.000			13.591			-2.718
21700.000			13.591			-2.718
21800.000			13.591			-2.718
21901.000			13.589			-2.718
22000.000			13.589			-2.718
22101.000			13.587			-2.717
22202.000			13.586			-2.717
22300.000			13.585			-2.717
22400.000			13.584			-2.717
22500.000			13.584			-2.717
22600.000			13.583			-2.717
22701.000			13.582			-2.716
22800.000			13.581			-2.716
22901.000			13.579			-2.716
23002.000			13.578			-2.716
23100.000			13.576			-2.715
23200.000			13.574			-2.715
23301.000			13.574			-2.715
23400.000			13.574			-2.715
23500.000			13.573			-2.715
23601.000			13.571			-2.714
23701.000			13.569			-2.714
23801.000			13.569			-2.714
23901.000			13.569			-2.714
24000.000			13.569			-2.714
24100.000			13.567			-2.713
24201.000			13.566			-2.713
24300.000			13.565			-2.713
24400.000			13.563			-2.713
24502.000			13.561			-2.712
24601.000			13.561			-2.712
24700.000			13.561			-2.712
24801.000			13.560			-2.712
24900.000			13.559			-2.712
25000.000			13.558			-2.712
25101.000			13.556			-2.711
25200.000			13.555			-2.711
25301.000			13.556			-2.711
25402.000			13.556			-2.711
25500.000			13.554			-2.711
25600.000			13.554			-2.711
25700.000			13.552			-2.710
25800.000			13.551			-2.710
25901.000			13.550			-2.710
26000.000			13.549			-2.710
26101.000			13.548			-2.710
26202.000			13.548			-2.710
26300.000			13.547			-2.709
26400.000			13.546			-2.709
26501.000			13.546			-2.709
26600.000			13.545			-2.709
26700.000			13.543			-2.709
26801.000			13.543			-2.709
26901.000			13.543			-2.709
27001.000			13.541			-2.708
27101.000			13.540			-2.708
27200.000			13.539			-2.708
27300.000			13.538			-2.708
27401.000			13.537			-2.707
27500.000			13.537			-2.707
27600.000			13.537			-2.707
27702.000			13.536			-2.707
27801.000			13.534			-2.707
27900.000			13.534			-2.707
28001.000			13.533			-2.707
28100.000			13.532			-2.706
28200.000			13.532			-2.706
28301.000			13.530			-2.706
28400.000			13.530			-2.706
28501.000			13.530			-2.706
28602.000			13.528			-2.706
28700.000			13.527			-2.705
28800.000			13.527			-2.705
28900.000			13.526			-2.705
29000.000			13.525			-2.705
29101.000			13.524			-2.705
29200.000			13.525			-2.705
29301.000			13.524			-2.705
29402.000			13.522			-2.704
29500.000			13.520			-2.704
29600.000			13.521			-2.704
29701.000			13.520			-2.704
29800.000			13.519			-2.704
29900.000			13.518			-2.704
30001.000			13.518			-2.704
30101.000			13.516			-2.703
30201.000			13.516			-2.703
30301.000			13.516			-2.703
30400.000			13.515			-2.703
30500.000			13.513			-2.703
30601.000			13.513			-2.703
30700.000			13.513			-2.703
30801.000			13.512			-2.702
30902.000			13.512			-2.702
31000.000			13.510			-2.702
31100.000			13.510			-2.702
31201.000			13.508			-2.702
31300.000			13.508			-2.702
31400.000			13.507			-2.701
31501.000			13.507			-2.701
31601.000			13.506			-2.701
31701.000			13.507			-2.701
31801.000			13.505			-2.701
31900.000			13.503			-2.701
32000.000			13.503			-2.701
32100.000			13.503			-2.701
32200.000			13.503			-2.701
32301.000			13.502			-2.700
32401.000			13.501			-2.700
32501.000			13.499			-2.700
32601.000			13.500			-2.700
32700.000			13.500			-2.700
32800.000			13.499			-2.700
32901.000			13.498			-2.700
33000.000			13.497			-2.699
33100.000			13.497			-2.699
33202.000			13.496			-2.699
33301.000			13.494			-2.699
33400.000			13.495			-2.699
33501.000			13.494			-2.699
33600.000			13.493			-2.699
33700.000			13.492			-2.698
33801.000			13.491			-2.698
33900.000			13.490			-2.698
34001.000			13.490			-2.698
34102.000			13.490			-2.698
34200.000			13.489			-2.698
34300.000			13.488			-2.698
34401.000			13.488			-2.698
34500.000			13.487			-2.697
34600.000			13.486			-2.697
34701.000			13.486			-2.697
34801.000			13.486			-2.697
34901.000			13.485			-2.697
35001.000			13.484			-2.697
35100.000			13.483			-2.697
35200.000			13.483			-2.697
35300.000			13.482			-2.696
35400.000			13.482			-2.696
35501.000			13.480			-2.696
35601.000			13.480			-2.696
35701.000			13.480			-2.696
35801.000			13.480			-2.696
35900.000			13.479			-2.696
36000.000			13.477			-2.695
36101.000			13.477			-2.695
36200.000			13.477			-2.695
36300.000			13.476			-2.695
36402.000			13.476			-2.695
36501.000			13.476			-2.695
36600.000			13.476			-2.695
36701.000			13.473			-2.695
36800.000			13.473			-2.695
36900.000			13.471			-2.694
37001.000			13.471			-2.694
37100.000			13.471			-2.694
37201.000			13.471			-2.694
37302.000			13.470			-2.694
37400.000			13.470			-2.694
37500.000			13.469			-2.694
37601.000			13.468			-2.694
37700.000			13.468			-2.694
37800.000			13.467			-2.693
37901.000			13.466			-2.693
38001.000			13.466			-2.693
38101.000			13.465			-2.693
38201.000			13.464			-2.693
38300.000			13.464			-2.693
38400.000			13.464			-2.693
38500.000			13.464			-2.693
38600.000			13.462			-2.692
38701.000			13.462			-2.692
38801.000			13.461			-2.692
38901.000			13.461			-2.692
39001.000			13.459			-2.692
39100.000			13.459			-2.692
39200.000			13.459			-2.692
39301.000			13.459			-2.692
39400.000			13.459			-2.692
39500.000			13.459			-2.692
39602.000			13.458			-2.692
39701.000			13.457			-2.691
39800.000			13.456			-2.691
39901.000			13.456			-2.691
40000.000			13.455			-2.691
40100.000			13.454			-2.691
40201.000			13.454			-2.691
40300.000			13.453			-2.691
40401.000			13.452			-2.690
40502.000			13.451			-2.690
40600.000			13.450			-2.690
40700.000			13.449			-2.690
40801.000			13.450			-2.690
40900.000			13.449			-2.690
41000.000			13.448			-2.690
41101.000			13.447			-2.689
41201.000			13.447			-2.689
41301.000			13.445			-2.689
41401.000			13.445			-2.689
41500.000			13.446			-2.689
41600.000			13.445			-2.689
41700.000			13.445			-2.689
41800.000			13.443			-2.689
41901.000			13.443			-2.689
42001.000			13.443			-2.689
42101.000			13.442			-2.688
42201.000			13.441			-2.688
42300.000			13.441			-2.688
42400.000			13.440			-2.688
42501.000			13.440			-2.688
42600.000			13.439			-2.688
42701.000			13.439			-2.688
42802.000			13.438			-2.688
42901.000			13.437			-2.687
43000.000			13.437			-2.687
43101.000			13.436			-2.687
43200.000			13.437			-2.687
43300.000			13.436			-2.687
43401.000			13.436			-2.687
43501.000			13.435			-2.687
43601.000			13.434			-2.687
43701.000			13.433			-2.687
43800.000			13.434			-2.687
43900.000			13.434			-2.687
44001.000			13.432			-2.686
44100.000			13.431			-2.686
44200.000			13.431			-2.686
44302.000			13.431			-2.686
44401.000			13.431			-2.686
44500.000			13.430			-2.686
44601.000			13.430			-2.686
44700.000			13.430			-2.686
44800.000			13.428			-2.686
44900.000			13.428			-2.686
45000.000			13.428			-2.686
45102.000			13.427			-2.685
45201.000			13.426			-2.685
45300.000			13.426			-2.685
45401.000			13.425			-2.685
45500.000			13.424			-2.685
45600.000			13.424			-2.685
45701.000			13.424			-2.685
45800.000			13.424			-2.685
45901.000			13.423			-2.685
46002.000			13.422			-2.684
46100.000			13.422			-2.684
46200.000			13.420			-2.684
46301.000			13.421			-2.684
46400.000			13.421			-2.684
46500.000			13.420			-2.684
46601.000			13.418			-2.684
46701.000			13.418			-2.684
46801.000			13.418			-2.684
46901.000			13.418			-2.684
47000.000			13.418			-2.684
47100.000			13.417			-2.683
47201.000			13.417			-2.683
47300.000			13.417			-2.683
47400.000			13.416			-2.683
47502.000			13.415			-2.683
47601.000			13.415			-2.683
47700.000			13.414			-2.683
47801.000			13.413			-2.683
47900.000			13.414			-2.683
48000.000			13.413			-2.683
48100.000			13.412			-2.682
48200.000			13.412			-2.682
48302.000			13.411			-2.682
48401.000			13.410			-2.682
48500.000			13.411			-2.682
48601.000			13.410			-2.682
48700.000			13.409			-2.682
48800.000			13.409			-2.682
48901.000			13.408			-2.682
49000.000			13.408			-2.682
49101.000			13.407			-2.681
49202.000			13.407			-2.681
49300.000			13.405			-2.681
49400.000			13.405			-2.681
49501.000			13.406			-2.681
49600.000			13.406			-2.681
49700.000			13.406			-2.681
49801.000			13.405			-2.681
49901.000			13.405			-2.681
50001.000			13.404			-2.681
50101.000			13.403			-2.681
50200.000			13.404			-2.681
50300.000			13.403			-2.681
50401.000			13.402			-2.680
50500.000			13.402			-2.680
50601.000			13.400			-2.680
50702.000			13.400			-2.680
50800.000			13.399			-2.680
50900.000			13.399			-2.680
51001.000			13.399			-2.680
51100.000			13.398			-2.680
51200.000			13.399			-2.680
51300.000			13.398			-2.680
51401.000			13.398			-2.680
51502.000			13.397			-2.679
51601.000			13.397			-2.679
51700.000			13.397			-2.679
51801.000			13.395			-2.679
51900.000			13.395			-2.679
52000.000			13.396			-2.679
52101.000			13.396			-2.679
52201.000			13.395			-2.679
52301.000			13.394			-2.679
52402.000			13.393			-2.679
52500.000			13.393			-2.679
52600.000			13.394			-2.679
52701.000			13.393			-2.679
52800.000			13.391			-2.678
52900.000			13.391			-2.678
53001.000			13.391			-2.678
53101.000			13.390			-2.678
53201.000			13.390			-2.678
53301.000			13.389			-2.678
53400.000			13.389			-2.678
53500.000			13.389			-2.678
53601.000			13.389			-2.678
53700.000			13.388			-2.678
53800.000			13.388			-2.678
53902.000			13.387			-2.677
54001.000			13.387			-2.677
54100.000			13.387			-2.677
54201.000			13.386			-2.677
54300.000			13.386			-2.677
54400.000			13.385			-2.677
54500.000			13.385			-2.677
54600.000			13.384			-2.677
54702.000			13.383			-2.677
54801.000			13.383			-2.677
54900.000			13.383			-2.677
55001.000			13.383			-2.677
55100.000			13.383			-2.677
55200.000			13.382			-2.676
55301.000			13.382			-2.676
55400.000			13.381			-2.676
55501.000			13.380			-2.676
55602.000			13.380			-2.676
55700.000			13.380			-2.676
55800.000			13.380			-2.676
55901.000			13.380			-2.676
56000.000			13.379			-2.676
56100.000			13.379			-2.676
56201.000			13.378			-2.676
56301.000			13.377			-2.675
56401.000			13.377			-2.675
56501.000			13.377			-2.675
56600.000			13.377			-2.675
56700.000			13.377			-2.675
56801.000			13.376			-2.675
56900.000			13.376			-2.675
57000.000			13.376			-2.675
57102.000			13.375			-2.675
57201.000			13.374			-2.675
57300.000			13.374			-2.675
57401.000			13.374			-2.675
57500.000			13.374			-2.675
57600.000			13.373			-2.675
57700.000			13.371			-2.674
57800.000			13.372			-2.674
57902.000			13.372			-2.674
58001.000			13.372			-2.674
58100.000			13.372			-2.674
58201.000			13.371			-2.674
58300.000			13.372			-2.674
58400.000			13.371			-2.674
58501.000			13.371			-2.674
58600.000			13.367			-2.673
58701.000			13.368			-2.674
58802.000			13.368			-2.674
58900.000			13.368			-2.674
59000.000			13.368			-2.674
59101.000			13.367			-2.673
59200.000			13.367			-2.673
59300.000			13.367			-2.673
59401.000			13.366			-2.673
59501.000			13.366			-2.673
59601.000			13.366			-2.673
59701.000			13.367			-2.673
59800.000			13.366			-2.673
59900.000			13.366			-2.673
60001.000			13.365			-2.673
60100.000			13.366			-2.673
60200.000			13.366			-2.673
60302.000			13.364			-2.673
60401.000			13.363			-2.673
60500.000			13.363			-2.673
60601.000			13.364			-2.673
60700.000			13.364			-2.673
60800.000			13.364			-2.673
60900.000			13.363			-2.673
61000.000			13.362			-2.672
61102.000			13.362			-2.672
61201.000			13.361			-2.672
61300.000			13.361			-2.672
61401.000			13.361			-2.672
61500.000			13.361			-2.672
61600.000			13.361			-2.672
61701.000			13.359			-2.672
61801.000			13.360			-2.672
61901.000			13.360			-2.672
62001.000			13.358			-2.672
62100.000			13.359			-2.672
62200.000			13.359			-2.672
62301.000			13.358			-2.672
62400.000			13.358			-2.672
62500.000			13.358			-2.672
62602.000			13.358			-2.672
62701.000			13.357			-2.671
62800.000			13.356			-2.671
62901.000			13.357			-2.671
63000.000			13.355			-2.671
63100.000			13.356			-2.671
63201.000			13.355			-2.671
63300.000			13.355			-2.671
63401.000			13.354			-2.671
63502.000			13.354			-2.671
63600.000			13.354			-2.671
63700.000			13.353			-2.671
63801.000			13.353			-2.671
63900.000			13.352			-2.670
64000.000			13.352			-2.670
64100.000			13.352			-2.670
64201.000			13.351			-2.670
64302.000			13.351			-2.670
64400.000			13.351			-2.670
64500.000			13.350			-2.670
64601.000			13.349			-2.670
64700.000			13.349			-2.670
64800.000			13.349			-2.670
64901.000			13.349			-2.670
65001.000			13.348			-2.670
65101.000			13.348			-2.670
65201.000			13.347			-2.669
65300.000			13.347			-2.669
65400.000			13.347			-2.669
65501.000			13.345			-2.669
65600.000			13.345			-2.669
65700.000			13.345			-2.669
65802.000			13.345			-2.669
65901.000			13.344			-2.669
66000.000			13.344			-2.669
66101.000			13.344			-2.669
66200.000			13.344			-2.669
66300.000			13.343			-2.669
66401.000			13.342			-2.668
66500.000			13.342			-2.668
66601.000			13.342			-2.668
66702.000			13.341			-2.668
66800.000			13.340			-2.668
66900.000			13.340			-2.668
67001.000			13.339			-2.668
67100.000			13.341			-2.668
67200.000			13.341			-2.668
67300.000			13.340			-2.668
67401.000			13.340			-2.668
67502.000			13.340			-2.668
67600.000			13.339			-2.668
67700.000			13.338			-2.668
67801.000			13.338			-2.668
67900.000			13.339			-2.668
68000.000			13.339			-2.668
68101.000			13.337			-2.667
68201.000			13.337			-2.667
68301.000			13.337			-2.667
68401.000			13.336			-2.667
68500.000			13.336			-2.667
68600.000			13.335			-2.667
68701.000			13.336			-2.667
68800.000			13.337			-2.667
68900.000			13.337			-2.667
69002.000			13.336			-2.667
69101.000			13.335			-2.667
69201.000			13.334			-2.667
69301.000			13.335			-2.667
69400.000			13.334			-2.667
69500.000			13.335			-2.667
69601.000			13.334			-2.667
69700.000			13.333			-2.667
69800.000			13.333			-2.667
69902.000			13.332			-2.666
70001.000			13.332			-2.666
70100.000			13.332			-2.666
70201.000			13.331			-2.666
70300.000			13.331			-2.666
70400.000			13.331			-2.666
70500.000			13.330			-2.666
70600.000			13.329			-2.666
70702.000			13.329			-2.666
70801.000			13.330			-2.666
70900.000			13.329			-2.666
71001.000			13.328			-2.666
71100.000			13.328			-2.666
71200.000			13.329			-2.666
71301.000			13.328			-2.666
71401.000			13.327			-2.665
71501.000			13.327			-2.665
71602.000			13.328			-2.666
71700.000			13.328			-2.666
71800.000			13.327			-2.665
71901.000			13.326			-2.665
72000.000			13.326			-2.665
72100.000			13.326			-2.665
72201.000			13.326			-2.665
72301.000			13.326			-2.665
72401.000			13.324			-2.665
72501.000			13.325			-2.665
72600.000			13.326			-2.665
72700.000			13.324			-2.665
72801.000			13.323			-2.665
72900.000			13.322			-2.664
73000.000			13.323			-2.665
73102.000			13.323			-2.665
73201.000			13.323			-2.665
73300.000			13.323			-2.665
73401.000			13.322			-2.664
73500.000			13.322			-2.664
73600.000			13.322			-2.664
73700.000			13.322			-2.664
73801.000			13.321			-2.664
73902.000			13.319			-2.664
74001.000			13.319			-2.664
74100.000			13.319			-2.664
74201.000			13.319			-2.664
74300.000			13.319			-2.664
74400.000			13.319			-2.664
74501.000			13.318			-2.664
74600.000			13.320			-2.664
74701.000			13.318			-2.664
74802.000			13.318			-2.664
74900.000			13.318			-2.664
75000.000			13.318			-2.664
75101.000			13.317			-2.663
75200.000			13.317			-2.663
75300.000			13.316			-2.663
75401.000			13.316			-2.663
75501.000			13.315			-2.663
75601.000			13.316			-2.663
75701.000			13.315			-2.663
75800.000			13.316			-2.663
75900.000			13.315			-2.663
76001.000			13.314			-2.663
76100.000			13.313			-2.663
76200.000			13.314			-2.663
76302.000			13.314			-2.663
76401.000			13.312			-2.662
76500.000			13.312			-2.662
76601.000			13.312			-2.662
76700.000			13.312			-2.662
76800.000			13.313			-2.663
76900.000			13.312			-2.662
77000.000			13.311			-2.662
77102.000			13.311			-2.662
77201.000			13.311			-2.662
77300.000			13.310			-2.662
77401.000			13.310			-2.662
77500.000			13.312			-2.662
77600.000			13.310			-2.662
77701.000			13.309			-2.662
77801.000			13.309			-2.662
77901.000			13.310			-2.662
78002.000			13.309			-2.662
78100.000			13.309			-2.662
78200.000			13.310			-2.662
78301.000			13.309			-2.662
78400.000			13.308			-2.662
78500.000			13.307			-2.661
78601.000			13.307			-2.661
78701.000			13.307			-2.661
78801.000			13.307			-2.661
78901.000			13.307			-2.661
79000.000			13.306			-2.661
79100.000			13.305			-2.661
79201.000			13.306			-2.661
79300.000			13.306			-2.661
79400.000			13.305			-2.661
79502.000			13.306			-2.661
79601.000			13.305			-2.661
79700.000			13.305			-2.661
79801.000			13.305			-2.661
79900.000			13.304			-2.661
80000.000			13.303			-2.661
80100.000			13.304			-2.661
80200.000			13.304			-2.661
80302.000			13.304			-2.661
80401.000			13.303			-2.661
80500.000			13.303			-2.661
80601.000			13.302			-2.660
80700.000			13.301			-2.660
80800.000			13.302			-2.660
80901.000			13.302			-2.660
81000.000			13.301			-2.660
81101.000			13.302			-2.660
81201.000			13.300			-2.660
81300.000			13.300			-2.660
81400.000			13.301			-2.660
81501.000			13.300			-2.660
81600.000			13.300			-2.660
81700.000			13.300			-2.660
81802.000			13.299			-2.660
81901.000			13.299			-2.660
82001.000			13.299			-2.660
82101.000			13.298			-2.660
82200.000			13.298			-2.660
82300.000			13.299			-2.660
82401.000			13.298			-2.660
82500.000			13.296			-2.659
82600.000			13.297			-2.659
82702.000			13.298			-2.660
82801.000			13.296			-2.659
82900.000			13.297			-2.659
83001.000			13.297			-2.659
83100.000			13.296			-2.659
83200.000			13.295			-2.659
83300.000			13.296			-2.659
83400.000			13.295			-2.659
83502.000			13.295			-2.659
83601.000			13.295			-2.659
83700.000			13.294			-2.659
83801.000			13.295			-2.659
83900.000			13.294			-2.659
84000.000			13.294			-2.659
84101.000			13.293			-2.659
84200.000			13.292			-2.658
84301.000			13.292			-2.658
84402.000			13.292			-2.658
84500.000			13.292			-2.658
84600.000			13.292			-2.658
84701.000			13.292			-2.658
84800.000			13.292			-2.658
84900.000			13.292			-2.658
85001.000			13.291			-2.658
85101.000			13.291			-2.658
85201.000			13.291			-2.658
85301.000			13.291			-2.658
85400.000			13.291			-2.658
85500.000			13.289			-2.658
85601.000			13.289			-2.658
85700.000			13.289			-2.658
85800.000			13.288			-2.658
85902.000			13.289			-2.658
86001.000			13.288			-2.658
86100.000			13.288			-2.658
86201.000			13.287			-2.657
86300.000			13.288			-2.658
86400.000			13.286			-2.657
86500.000			13.285			-2.657
86600.000			13.285			-2.657
86701.000			13.285			-2.657
86801.000			13.285			-2.657
86901.000			13.285			-2.657
87001.000			13.285			-2.657
87100.000			13.285			-2.657
87200.000			13.284			-2.657
87301.000			13.284			-2.657
87400.000			13.283			-2.657
87500.000			13.283			-2.657
87602.000			13.284			-2.657
87701.000			13.283			-2.657
87800.000			13.283			-2.657
87901.000			13.282			-2.656
88000.000			13.283			-2.657
88100.000			13.282			-2.656
88201.000			13.281			-2.656
88300.000			13.282			-2.656
88401.000			13.281			-2.656
88502.000			13.281			-2.656
88601.000			13.281			-2.656
88700.000			13.280			-2.656
88801.000			13.280			-2.656
88900.000			13.280			-2.656
89000.000			13.280			-2.656
89101.000			13.280			-2.656
89200.000			13.280			-2.656
89301.000			13.279			-2.656
89402.000			13.279			-2.656
89500.000			13.279			-2.656
89600.000			13.278			-2.656
89700.000			13.278			-2.656
89800.000			13.279			-2.656
89901.000			13.279			-2.656
90000.000			13.279			-2.656
90101.000			13.278			-2.656
90202.000			13.278			-2.656
90301.000			13.277			-2.655
90400.000			13.277			-2.655
90501.000			13.278			-2.656
90600.000			13.276			-2.655
90700.000			13.276			-2.655
90801.000			13.276			-2.655
90900.000			13.276			-2.655
91001.000			13.276			-2.655
91102.000			13.275			-2.655
91200.000			13.275			-2.655
91300.000			13.274			-2.655
91401.000			13.274			-2.655
91500.000			13.275			-2.655
91600.000			13.274			-2.655
91701.000			13.274			-2.655
91801.000			13.273			-2.655
91901.000			13.273			-2.655
92001.000			13.273			-2.655
92100.000			13.273			-2.655
92200.000			13.273			-2.655
92301.000			13.272			-2.654
92400.000			13.271			-2.654
92500.000			13.271			-2.654
92602.000			13.271			-2.654
92701.000			13.272			-2.654
92800.000			13.270			-2.654
92900.000			13.270			-2.654
93000.000			13.270			-2.654
93101.000			13.270			-2.654
93200.000			13.269			-2.654
93300.000			13.270			-2.654
93402.000			13.271			-2.654
93501.000			13.270			-2.654
93600.000			13.269			-2.654
93701.000			13.269			-2.654
93800.000			13.268			-2.654
93900.000			13.267			-2.653
94001.000			13.268			-2.654
94100.000			13.269			-2.654
94201.000			13.268			-2.654
94302.000			13.267			-2.653
94400.000			13.267			-2.653
94500.000			13.267			-2.653
94601.000			13.267			-2.653
94700.000			13.267			-2.653
94800.000			13.267			-2.653
94901.000			13.267			-2.653
95001.000			13.265			-2.653
95101.000			13.266			-2.653
95201.000			13.266			-2.653
95300.000			13.266			-2.653
95400.000			13.265			-2.653
95501.000			13.264			-2.653
95600.000			13.265			-2.653
95700.000			13.264			-2.653
95802.000			13.264			-2.653
95901.000			13.264			-2.653
96000.000			13.264			-2.653
96100.000			13.264			-2.653
96200.000			13.263			-2.653
96301.000			13.263			-2.653
96400.000			13.263			-2.653
96500.000			13.262			-2.652
96602.000			13.262			-2.652
96701.000			13.262			-2.652
96801.000			13.262			-2.652
96901.000			13.261			-2.652
97000.000			13.260			-2.652
97100.000			13.260			-2.652
97201.000			13.260			-2.652
97300.000			13.260			-2.652
97400.000			13.260			-2.652
97502.000			13.260			-2.652
97601.000			13.259			-2.652
97700.000			13.259			-2.652
97801.000			13.259			-2.652
97900.000			13.259			-2.652
98000.000			13.258			-2.652
98101.000			13.257			-2.651
98200.000			13.258			-2.652
98301.000			13.258			-2.652
98402.000			13.258			-2.652
98500.000			13.258			-2.652
98600.000			13.257			-2.651
98701.000			13.256			-2.651
98800.000			13.255			-2.651
98900.000			13.256			-2.651
99001.000			13.257			-2.651
99101.000			13.255			-2.651
99202.000			13.254			-2.651
99301.000			13.255			-2.651
99400.000			13.254			-2.651
99501.000			13.254			-2.651
99600.000			13.255			-2.651
99700.000			13.255			-2.651
99801.000			13.255			-2.651
99900.000			13.254			-2.651
100001.000			13.254			-2.651
100102.000			13.253			-2.651
100200.000			13.253			-2.651
100300.000			13.253			-2.651
100401.000			13.253			-2.651
100500.000			13.254			-2.651
100600.000			13.253			-2.651
100701.000			13.252			-2.650
100801.000			13.251			-2.650
100901.000			13.251			-2.650
101001.000			13.250			-2.650
101100.000			13.251			-2.650
101200.000			13.252			-2.650
101301.000			13.251			-2.650
101400.000			13.250			-2.650
101500.000			13.251			-2.650
101602.000			13.250			-2.650
101701.000			13.251			-2.650
101800.000			13.251			-2.650
101901.000			13.251			-2.650
102000.000			13.250			-2.650
102100.000			13.248			-2.650
102201.000			13.248			-2.650
102300.000			13.248			-2.650
102400.000			13.249			-2.650
102502.000			13.250			-2.650
102601.000			13.250			-2.650
102701.000			13.249			-2.650
102800.000			13.247			-2.649
102900.000			13.247			-2.649
103001.000			13.247			-2.649
103100.000			13.246			-2.649
103200.000			13.246			-2.649
103302.000			13.246			-2.649
103401.000			13.247			-2.649
103500.000			13.247			-2.649
103601.000			13.246			-2.649
103700.000			13.247			-2.649
103800.000			13.246			-2.649
103901.000			13.246			-2.649
104000.000			13.246			-2.649
104101.000			13.245			-2.649
104202.000			13.245			-2.649
104300.000			13.244			-2.649
104400.000			13.244			-2.649
104501.000			13.244			-2.649
104600.000			13.244			-2.649
104700.000			13.243			-2.649
104801.000			13.243			-2.649
104901.000			13.243			-2.649
105001.000			13.242			-2.648
105101.000			13.242			-2.648
105200.000			13.241			-2.648
105300.000			13.241			-2.648
105401.000			13.241			-2.648
105500.000			13.241			-2.648
105600.000			13.241			-2.648
105702.000			13.241			-2.648
105801.000			13.240			-2.648
105902.000			13.241			-2.648
106000.000			13.241			-2.648
106100.000			13.240			-2.648
106201.000			13.239			-2.648
106300.000			13.239			-2.648
106400.000			13.240			-2.648
106501.000			13.240			-2.648
106601.000			13.240			-2.648
106701.000			13.238			-2.648
106801.000			13.238			-2.648
106900.000			13.239			-2.648
107000.000			13.238			-2.648
107101.000			13.238			-2.648
107200.000			13.238			-2.648
107300.000			13.237			-2.647
107402.000			13.237			-2.647
107501.000			13.238			-2.648
107600.000			13.237			-2.647
107701.000			13.237			-2.647
107800.000			13.236			-2.647
107900.000			13.236			-2.647
108001.000			13.236			-2.647
108100.000			13.236			-2.647
108201.000			13.236			-2.647
108302.000			13.236			-2.647
108400.000			13.236			-2.647
108500.000			13.235			-2.647
108601.000			13.235			-2.647
108700.000			13.234			-2.647
108800.000			13.235			-2.647
108900.000			13.234			-2.647
109000.000			13.234			-2.647
109102.000			13.233			-2.647
109201.000			13.233			-2.647
109300.000			13.232			-2.646
109401.000			13.233			-2.647
109500.000			13.232			-2.646
109600.000			13.233			-2.647
109701.000			13.232			-2.646
109800.000			13.231			-2.646
109901.000			13.231			-2.646
110002.000			13.232			-2.646
110100.000			13.232			-2.646
110200.000			13.231			-2.646
110301.000			13.231			-2.646
110400.000			13.231			-2.646
110500.000			13.232			-2.646
110601.000			13.231			-2.646
110701.000			13.230			-2.646
110801.000			13.230			-2.646
110901.000			13.231			-2.646
111000.000			13.229			-2.646
111100.000			13.229			-2.646
111201.000			13.228			-2.646
111300.000			13.228			-2.646
111400.000			13.228			-2.646
111502.000			13.229			-2.646
111601.000			13.229			-2.646
111700.000			13.228			-2.646
111801.000			13.228			-2.646
111900.000			13.227			-2.645
112000.000			13.226			-2.645
112100.000			13.226			-2.645
112200.000			13.227			-2.645
112302.000			13.226			-2.645
112401.000			13.226			-2.645
112500.000			13.226			-2.645
112601.000			13.227			-2.645
112700.000			13.226			-2.645
112800.000			13.225			-2.645
112901.000			13.225			-2.645
113000.000			13.225			-2.645
113101.000			13.225			-2.645
113202.000			13.225			-2.645
113300.000			13.224			-2.645
113400.000			13.224			-2.645
113501.000			13.224			-2.645
113600.000			13.224			-2.645
113700.000			13.223			-2.645
113801.000			13.223			-2.645
113901.000			13.223			-2.645
114001.000			13.223			-2.645
114101.000			13.223			-2.645
114200.000			13.222			-2.644
114300.000			13.221			-2.644
114401.000			13.222			-2.644
114500.000			13.223			-2.645
114600.000			13.222			-2.644
114702.000			13.221			-2.644
114801.000			13.221			-2.644
114901.000			13.221			-2.644
115001.000			13.221			-2.644
115100.000			13.221			-2.644
115200.000			13.221			-2.644
115300.000			13.220			-2.644
115400.000			13.221			-2.644
115502.000			13.220			-2.644
115601.000			13.220			-2.644
115701.000			13.220			-2.644
115801.000			13.220			-2.644
115900.000			13.219			-2.644
116000.000			13.219			-2.644
116101.000			13.219			-2.644
116200.000			13.219			-2.644
116300.000			13.219			-2.644
116402.000			13.219			-2.644
116501.000			13.219			-2.644
116600.000			13.218			-2.644
116701.000			13.218			-2.644
116800.000			13.217			-2.643
116900.000			13.217			-2.643
117001.000			13.217			-2.643
117100.000			13.218			-2.644
117201.000			13.218			-2.644
117302.000			13.217			-2.643
117400.000			13.217			-2.643
117500.000			13.216			-2.643
117601.000			13.216			-2.643
117700.000			13.216			-2.643
117800.000			13.216			-2.643
117901.000			13.216			-2.643
118001.000			13.216			-2.643
118101.000			13.215			-2.643
118201.000			13.215			-2.643
118300.000			13.215			-2.643
118400.000			13.216			-2.643
118500.000			13.214			-2.643
118600.000			13.214			-2.643
118701.000			13.215			-2.643
118801.000			13.215			-2.643
118901.000			13.214			-2.643
119001.000			13.214			-2.643
119100.000			13.213			-2.643
119200.000			13.213			-2.643
119301.000			13.213			-2.643
119400.000			13.213			-2.643
119500.000			13.213			-2.643
119602.000			13.213			-2.643
119701.000			13.213			-2.643
119801.000			13.212			-2.642
119901.000			13.212			-2.642
120000.000			13.211			-2.642
120100.000			13.212			-2.642
120201.000			13.211			-2.642
120300.000			13.210			-2.642
120400.000			13.212			-2.642
120502.000			13.211			-2.642
120601.000			13.211			-2.642
120700.000			13.211			-2.642
120801.000			13.210			-2.642
120900.000			13.209			-2.642
121000.000			13.209			-2.642
121101.000			13.209			-2.642
121201.000			13.208			-2.642
121301.000			13.209			-2.642
121402.000			13.208			-2.642
121500.000			13.209			-2.642
121600.000			13.209			-2.642
121700.000			13.209			-2.642
121800.000			13.209			-2.642
121901.000			13.208			-2.642
122000.000			13.208			-2.642
122101.000			13.207			-2.641
122202.000			13.207			-2.641
122300.000			13.207			-2.641
122400.000			13.208			-2.642
122501.000			13.208			-2.642
122600.000			13.207			-2.641
122700.000			13.207			-2.641
122801.000			13.206			-2.641
122901.000			13.206			-2.641
123001.000			13.207			-2.641
123101.000			13.207			-2.641
123200.000			13.206			-2.641
123300.000			13.205			-2.641
123401.000			13.206			-2.641
123500.000			13.205			-2.641
123600.000			13.206			-2.641
123702.000			13.206			-2.641
123801.000			13.205			-2.641
123901.000			13.205			-2.641
124001.000			13.204			-2.641
124100.000			13.205			-2.641
124200.000			13.205			-2.641
124301.000			13.203			-2.641
124400.000			13.203			-2.641
124500.000			13.204			-2.641
124602.000			13.204			-2.641
124701.000			13.203			-2.641
124800.000			13.202			-2.640
124900.000			13.203			-2.641
125000.000			13.203			-2.641
125101.000			13.203			-2.641
125200.000			13.203			-2.641
125300.000			13.202			-2.640
125402.000			13.202			-2.640
125501.000			13.202			-2.640
125600.000			13.202			-2.640
125701.000			13.202			-2.640
125800.000			13.202			-2.640
125900.000			13.202			-2.640
126001.000			13.201			-2.640
126100.000			13.200			-2.640
126201.000			13.201			-2.640
126302.000			13.200			-2.640
126400.000			13.200			-2.640
126500.000			13.201			-2.640
126601.000			13.200			-2.640
126700.000			13.200			-2.640
126800.000			13.200			-2.640
126901.000			13.199			-2.640
127001.000			13.199			-2.640
127101.000			13.199			-2.640
127201.000			13.199			-2.640
127300.000			13.199			-2.640
127400.000			13.199			-2.640
127501.000			13.199			-2.640
127600.000			13.200			-2.640
127700.000			13.199			-2.640
127801.000			13.198			-2.640
127901.000			13.197			-2.639
128002.000			13.197			-2.639
128100.000			13.197			-2.639
128200.000			13.197			-2.639
128301.000			13.196			-2.639
128400.000			13.197			-2.639
128500.000			13.197			-2.639
128601.000			13.197			-2.639
128700.000			13.197			-2.639
128801.000			13.197			-2.639
128902.000			13.197			-2.639
129000.000			13.197			-2.639
129100.000			13.197			-2.639
129201.000			13.196			-2.639
129300.000			13.196			-2.639
129400.000			13.197			-2.639
129501.000			13.196			-2.639
129601.000			13.196			-2.639
129701.000			13.195			-2.639
129802.000			13.196			-2.639
129900.000			13.195			-2.639
130000.000			13.195			-2.639
130101.000			13.195			-2.639
130200.000			13.194			-2.639
130300.000			13.195			-2.639
130401.000			13.194			-2.639
130501.000			13.195			-2.639
130601.000			13.194			-2.639
130701.000			13.194			-2.639
130800.000			13.194			-2.639
130900.000			13.194			-2.639
131001.000			13.194			-2.639
131100.000			13.195			-2.639
131200.000			13.194			-2.639
131302.000			13.194			-2.639
131401.000			13.194			-2.639
131501.000			13.194			-2.639
131600.000			13.193			-2.639
131700.000			13.193			-2.639
131801.000			13.193			-2.639
131900.000			13.193			-2.639
132000.000			13.193			-2.639
132101.000			13.194			-2.639
132201.000			13.193			-2.639
132301.000			13.194			-2.639
132401.000			13.194			-2.639
132500.000			13.193			-2.639
132600.000			13.192			-2.638
132701.000			13.192			-2.638
132800.000			13.193			-2.639
132900.000			13.193			-2.639
133001.000			13.192			-2.638
133101.000			13.192			-2.638
133201.000			13.192			-2.638
133301.000			13.193			-2.639
133400.000			13.192			-2.638
133500.000			13.191			-2.638
133601.000			13.192			-2.638
133700.000			13.192			-2.638
133800.000			13.192			-2.638
133901.000			13.192			-2.638
134001.000			13.191			-2.638
134101.000			13.191			-2.638
134201.000			13.191			-2.638
134300.000			13.190			-2.638
134400.000			13.190			-2.638
134500.000			13.190			-2.638
134600.000			13.189			-2.638
134701.000			13.190			-2.638
134800.000			13.191			-2.638
134901.000			13.190			-2.638
135002.000			13.190			-2.638
135101.000			13.190			-2.638
135200.000			13.190			-2.638
135301.000			13.190			-2.638
135400.000			13.189			-2.638
135500.000			13.189			-2.638
135601.000			13.188			-2.638
135700.000			13.188			-2.638
135800.000			13.188			-2.638
135902.000			13.188			-2.638
136001.000			13.189			-2.638
136100.000			13.188			-2.638
136201.000			13.188			-2.638
136300.000			13.187			-2.637
136400.000			13.187			-2.637
136501.000			13.187			-2.637
136600.000			13.188			-2.638
136700.000			13.187			-2.637
136802.000			13.186			-2.637
136901.000			13.186			-2.637
137001.000			13.186			-2.637
137101.000			13.187			-2.637
137200.000			13.185			-2.637
137300.000			13.186			-2.637
137401.000			13.186			-2.637
137500.000			13.186			-2.637
137600.000			13.186			-2.637
137702.000			13.186			-2.637
137801.000			13.185			-2.637
137902.000			13.186			-2.637
138000.000			13.185			-2.637
138100.000			13.185			-2.637
138201.000			13.184			-2.637
138300.000			13.184			-2.637
138400.000			13.185			-2.637
138501.000			13.185			-2.637
138600.000			13.184			-2.637
138701.000			13.183			-2.637
138802.000			13.184			-2.637
138901.000			13.184			-2.637
139000.000			13.184			-2.637
139101.000			13.184			-2.637
139200.000			13.183			-2.637
139300.000			13.182			-2.636
139401.000			13.183			-2.637
139500.000			13.183			-2.637
139600.000			13.182			-2.636
139702.000			13.182			-2.636
139801.000			13.182			-2.636
139900.000			13.182			-2.636
140001.000			13.182			-2.636
140100.000			13.181			-2.636
140200.000			13.181			-2.636
140301.000			13.180			-2.636
140400.000			13.180			-2.636
140500.000			13.181			-2.636
140602.000			13.181			-2.636
140701.000			13.181			-2.636
140800.000			13.181			-2.636
140900.000			13.180			-2.636
141000.000			13.181			-2.636
141101.000			13.180			-2.636
141200.000			13.179			-2.636
141300.000			13.179			-2.636
141401.000			13.179			-2.636
141501.000			13.180			-2.636
141601.000			13.179			-2.636
141701.000			13.178			-2.636
141800.000			13.178			-2.636
141900.000			13.178			-2.636
142001.000			13.178			-2.636
142100.000			13.178			-2.636
142200.000			13.178			-2.636
142301.000			13.177			-2.635
142401.000			13.177			-2.635
142501.000			13.177			-2.635
142601.000			13.177			-2.635
142700.000			13.177			-2.635
142800.000			13.176			-2.635
142901.000			13.176			-2.635
143000.000			13.175			-2.635
143100.000			13.175			-2.635
143201.000			13.176			-2.635
143301.000			13.176			-2.635
143401.000			13.176			-2.635
143501.000			13.175			-2.635
143600.000			13.175			-2.635
143700.000			13.175			-2.635
143801.000			13.175			-2.635
143900.000			13.174			-2.635
144000.000			13.174			-2.635
144100.000			13.174			-2.635
144201.000			13.173			-2.635
144302.000			13.174			-2.635
144401.000			13.174			-2.635
144500.000			13.172			-2.634
144601.000			13.172			-2.634
144700.000			13.172			-2.634
144800.000			13.172			-2.634
144901.000			13.172			-2.634
145000.000			13.172			-2.634
145100.000			13.172			-2.634
145202.000			13.171			-2.634
145301.000			13.171			-2.634
145400.000			13.171			-2.634
145501.000			13.171			-2.634
145600.000			13.170			-2.634
145700.000			13.170			-2.634
145801.000			13.170			-2.634
145900.000			13.170			-2.634
146000.000			13.170			-2.634
146102.000			13.171			-2.634
146201.000			13.170			-2.634
146300.000			13.170			-2.634
146401.000			13.170			-2.634
146500.000			13.169			-2.634
146600.000			13.169			-2.634
146701.000			13.168			-2.634
146800.000			13.169			-2.634
146900.000			13.169			-2.634
147002.000			13.169			-2.634
147101.000			13.167			-2.633
147202.000			13.167			-2.633
147300.000			13.168			-2.634
147400.000			13.168			-2.634
147501.000			13.167			-2.633
147600.000			13.167			-2.633
147700.000			13.166			-2.633
147801.000			13.167			-2.633
147901.000			13.167			-2.633
148001.000			13.166			-2.633
148102.000			13.166			-2.633
148200.000			13.164			-2.633
148300.000			13.166			-2.633
148401.000			13.166			-2.633
148500.000			13.166			-2.633
148600.000			13.166			-2.633
148701.000			13.165			-2.633
148800.000			13.165			-2.633
148901.000			13.165			-2.633
149002.000			13.165			-2.633
149101.000			13.164			-2.633
149200.000			13.164			-2.633
149301.000			13.164			-2.633
149400.000			13.164			-2.633
149500.000			13.164			-2.633
149601.000			13.165			-2.633
149700.000			13.165			-2.633
149801.000			13.164			-2.633
149902.000			13.163			-2.633
150001.000			13.163			-2.633
150100.000			13.163			-2.633
150201.000			13.162			-2.632
150300.000			13.162			-2.632
150400.000			13.162			-2.632
150500.000			13.163			-2.633
150600.000			13.163			-2.633
150702.000			13.163			-2.633
150801.000			13.162			-2.632
150901.000			13.162			-2.632
151001.000			13.162			-2.632
151100.000			13.161			-2.632
151200.000			13.161			-2.632
151301.000			13.160			-2.632
151400.000			13.160			-2.632
151500.000			13.159			-2.632
151602.000			13.159			-2.632
151701.000			13.160			-2.632
151801.000			13.159			-2.632
151901.000			13.159			-2.632
152000.000			13.160			-2.632
152100.000			13.159			-2.632
152201.000			13.160			-2.632
152300.000			13.160			-2.632
152400.000			13.159			-2.632
152502.000			13.158			-2.632
152601.000			13.157			-2.631
152700.000			13.157			-2.631
152801.000			13.158			-2.632
152900.000			13.158			-2.632
153000.000			13.156			-2.631
153101.000			13.156			-2.631
153200.000			13.158			-2.632
153300.000			13.157			-2.631
153402.000			13.157			-2.631
153501.000			13.158			-2.632
153602.000			13.158			-2.632
153700.000			13.158			-2.632
153800.000			13.158			-2.632
153901.000			13.157			-2.631
154000.000			13.157			-2.631
154100.000			13.157			-2.631
154201.000			13.158			-2.632
154301.000			13.157			-2.631
154401.000			13.156			-2.631
154502.000			13.155			-2.631
154600.000			13.156			-2.631
154700.000			13.156			-2.631
154801.000			13.155			-2.631
154900.000			13.156			-2.631
155000.000			13.155			-2.631
155101.000			13.155			-2.631
155200.000			13.155			-2.631
155301.000			13.156			-2.631
155402.000			13.155			-2.631
155500.000			13.156			-2.631
155600.000			13.156			-2.631
155701.000			13.156			-2.631
155800.000			13.156			-2.631
155900.000			13.155			-2.631
156001.000			13.155			-2.631
156100.000			13.155			-2.631
156201.000			13.154			-2.631
156302.000			13.154			-2.631
156400.000			13.154			-2.631
156500.000			13.154			-2.631
156601.000			13.155			-2.631
156700.000			13.155			-2.631
156800.000			13.155			-2.631
156900.000			13.155			-2.631
157000.000			13.154			-2.631
157102.000			13.153			-2.631
157201.000			13.153			-2.631
157301.000			13.154			-2.631
157401.000			13.153			-2.631
157500.000			13.153			-2.631
157600.000			13.154			-2.631
157701.000			13.154			-2.631
157800.000			13.154			-2.631
157900.000			13.153			-2.631
158002.000			13.153			-2.631
158101.000			13.153			-2.631
158201.000			13.154			-2.631
158301.000			13.153			-2.631
158400.000			13.152			-2.630
158500.000			13.153			-2.631
158601.000			13.153			-2.631
158700.000			13.153			-2.631
158800.000			13.152			-2.630
158901.000			13.151			-2.630
159001.000			13.152			-2.630
159101.000			13.151			-2.630
159201.000			13.151			-2.630
159300.000			13.152			-2.630
159400.000			13.151			-2.630
159501.000			13.151			-2.630
159600.000			13.151			-2.630
159700.000			13.151			-2.630
159801.000			13.151			-2.630
159901.000			13.150			-2.630
160002.000			13.151			-2.630
160100.000			13.150			-2.630
160200.000			13.150			-2.630
160301.000			13.149			-2.630
160400.000			13.149			-2.630
160500.000			13.150			-2.630
160601.000			13.149			-2.630
160700.000			13.150			-2.630
160801.000			13.149			-2.630
160902.000			13.149			-2.630
161000.000			13.148			-2.630
161100.000			13.149			-2.630
161201.000			13.150			-2.630
161300.000			13.149			-2.630
161400.000			13.148			-2.630
161501.000			13.149			-2.630
161600.000			13.148			-2.630
161701.000			13.149			-2.630
161802.000			13.147			-2.629
161900.000			13.147			-2.629
162000.000			13.148			-2.630
162101.000			13.147			-2.629
162200.000			13.147			-2.629
162300.000			13.148			-2.630
162401.000			13.147			-2.629
162500.000			13.147			-2.629
162601.000			13.147			-2.629
162702.000			13.147			-2.629
162800.000			13.147			-2.629
162900.000			13.146			-2.629
163001.000			13.146			-2.629
163100.000			13.146			-2.629
163200.000			13.144			-2.629
163300.000			13.145			-2.629
163400.000			13.146			-2.629
163502.000			13.144			-2.629
163601.000			13.144			-2.629
163700.000			13.144			-2.629
163801.000			13.144			-2.629
163900.000			13.143			-2.629
164000.000			13.144			-2.629
164101.000			13.144			-2.629
164200.000			13.144			-2.629
164300.000			13.144			-2.629
164402.000			13.142			-2.628
164501.000			13.143			-2.629
164600.000			13.144			-2.629
164701.000			13.143			-2.629
164800.000			13.143			-2.629
164900.000			13.144			-2.629
165001.000			13.143			-2.629
165100.000			13.143			-2.629
165200.000			13.143			-2.629
165302.000			13.143			-2.629
165401.000			13.143			-2.629
165500.000			13.142			-2.628
165601.000			13.142			-2.628
165700.000			13.141			-2.628
165800.000			13.141			-2.628
165901.000			13.141			-2.628
166000.000			13.141			-2.628
166100.000			13.140			-2.628
166202.000			13.141			-2.628
166301.000			13.142			-2.628
166400.000			13.141			-2.628
166500.000			13.141			-2.628
166600.000			13.141			-2.628
166701.000			13.141			-2.628
166800.000			13.140			-2.628
166900.000			13.139			-2.628
167001.000			13.139			-2.628
167101.000			13.138			-2.628
167201.000			13.139			-2.628
167301.000			13.139			-2.628
167400.000			13.138			-2.628
167500.000			13.138			-2.628
167601.000			13.138			-2.628
167700.000			13.138			-2.628
167800.000			13.138			-2.628
167901.000			13.138			-2.628
168001.000			13.137			-2.627
168101.000			13.137			-2.627
168202.000			13.137			-2.627
168300.000			13.137			-2.627
168400.000			13.136			-2.627
168501.000			13.136			-2.627
168600.000			13.136			-2.627
168700.000			13.136			-2.627
168801.000			13.135			-2.627
168900.000			13.135			-2.627
169001.000			13.135			-2.627
169102.000			13.135			-2.627
169200.000			13.135			-2.627
169300.000			13.134			-2.627
169401.000			13.134			-2.627
169500.000			13.134			-2.627
169600.000			13.134			-2.627
169700.000			13.135			-2.627
169800.000			13.135			-2.627
169902.000			13.134			-2.627
170001.000			13.132			-2.626
170101.000			13.132			-2.626
170201.000			13.133			-2.627
170300.000			13.133			-2.627
170400.000			13.132			-2.626
170501.000			13.131			-2.626
170600.000			13.131			-2.626
170700.000			13.132			-2.626
170802.000			13.133			-2.627
170901.000			13.132			-2.626
171000.000			13.132			-2.626
171101.000			13.131			-2.626
171200.000			13.131			-2.626
171300.000			13.131			-2.626
171401.000			13.130			-2.626
171500.000			13.131			-2.626
171600.000			13.131			-2.626
171702.000			13.130			-2.626
171801.000			13.130			-2.626
171900.000			13.130			-2.626
172001.000			13.130			-2.626
172100.000			13.129			-2.626
172200.000			13.130			-2.626
172301.000			13.129			-2.626
172400.000			13.130			-2.626
172500.000			13.129			-2.626
172602.000			13.130			-2.626
172701.000			13.129			-2.626
172800.000			13.129			-2.626
172900.000			13.128			-2.626
173000.000			13.127			-2.625
173101.000			13.128			-2.626
173200.000			13.128			-2.626
173300.000			13.128			-2.626
173401.000			13.128			-2.626
173501.000			13.128			-2.626
173601.000			13.129			-2.626
173702.000			13.127			-2.625
173800.000			13.127			-2.625
173900.000			13.126			-2.625
174001.000			13.127			-2.625
174100.000			13.127			-2.625
174200.000			13.127			-2.625
174301.000			13.126			-2.625
174401.000			13.125			-2.625
174501.000			13.124			-2.625
174602.000			13.125			-2.625
174700.000			13.126			-2.625
174800.000			13.126			-2.625
174901.000			13.125			-2.625
175000.000			13.125			-2.625
175100.000			13.126			-2.625
175201.000			13.125			-2.625
175301.000			13.125			-2.625
175401.000			13.125			-2.625
175502.000			13.125			-2.625
175600.000			13.125			-2.625
175700.000			13.126			-2.625
175801.000			13.125			-2.625
175900.000			13.126			-2.625
176000.000			13.127			-2.625
176100.000			13.125			-2.625
176200.000			13.125			-2.625
176302.000			13.125			-2.625
176401.000			13.125			-2.625
176500.000			13.125			-2.625
176601.000			13.124			-2.625
176700.000			13.124			-2.625
176800.000			13.125			-2.625
176901.000			13.124			-2.625
177000.000			13.124			-2.625
177100.000			13.124			-2.625
177202.000			13.124			-2.625
177301.000			13.124			-2.625
177400.000			13.124			-2.625
177501.000			13.125			-2.625
177600.000			13.124			-2.625
177700.000			13.124			-2.625
177801.000			13.124			-2.625
177900.000			13.123			-2.625
178000.000			13.123			-2.625
178102.000			13.125			-2.625
178201.000			13.125			-2.625
178301.000			13.123			-2.625
178401.000			13.123			-2.625
178500.000			13.123			-2.625
178600.000			13.123			-2.625
178701.000			13.124			-2.625
178800.000			13.123			-2.625
178900.000			13.123			-2.625
179001.000			13.123			-2.625
179101.000			13.122			-2.624
179202.000			13.122			-2.624
179300.000			13.122			-2.624
179400.000			13.122			-2.624
179501.000			13.122			-2.624
179600.000			13.122			-2.624
179700.000			13.121			-2.624
179801.000			13.121			-2.624
179900.000			13.122			-2.624
180001.000			13.121			-2.624
180102.000			13.121			-2.624
180200.000			13.121			-2.624
180300.000			13.120			-2.624
180401.000			13.121			-2.624
180500.000			13.121			-2.624
180600.000			13.121			-2.624
180701.000			13.121			-2.624
180800.000			13.121			-2.624
180901.000			13.121			-2.624
181002.000			13.120			-2.624
181100.000			13.121			-2.624
181200.000			13.121			-2.624
181301.000			13.120			-2.624
181400.000			13.121			-2.624
181500.000			13.121			-2.624
181601.000			13.120			-2.624
181700.000			13.121			-2.624
181801.000			13.121			-2.624
181902.000			13.120			-2.624
182000.000			13.119			-2.624
182100.000			13.120			-2.624
182201.000			13.121			-2.624
182300.000			13.120			-2.624
182400.000			13.120			-2.624
182500.000			13.120			-2.624
182600.000			13.120			-2.624
182702.000			13.119			-2.624
182801.000			13.119			-2.624
182900.000			13.120			-2.624
183001.000			13.120			-2.624
183100.000			13.118			-2.624
183200.000			13.118			-2.624
183301.000			13.119			-2.624
183400.000			13.119			-2.624
183500.000			13.119			-2.624
183602.000			13.119			-2.624
183701.000			13.119			-2.624
183801.000			13.118			-2.624
183901.000			13.118			-2.624
184000.000			13.118			-2.624
184100.000			13.118			-2.624
184201.000			13.118			-2.624
184300.000			13.117			-2.623
184400.000			13.116			-2.623
184501.000			13.117			-2.623
184601.000			13.117			-2.623
184701.000			13.116			-2.623
184801.000			13.117			-2.623
184900.000			13.117			-2.623
185000.000			13.117			-2.623
185101.000			13.117			-2.623
185200.000			13.117			-2.623
185300.000			13.117			-2.623
185401.000			13.116			-2.623
185501.000			13.115			-2.623
185602.000			13.116			-2.623
185700.000			13.116			-2.623
185800.000			13.116			-2.623
185901.000			13.115			-2.623
186000.000			13.115			-2.623
186100.000			13.115			-2.623
186201.000			13.115			-2.623
186300.000			13.114			-2.623
186401.000			13.115			-2.623
186502.000			13.115			-2.623
186600.000			13.116			-2.623
186700.000			13.116			-2.623
186801.000			13.114			-2.623
186900.000			13.114			-2.623
187000.000			13.115			-2.623
187101.000			13.115			-2.623
187200.000			13.114			-2.623
187301.000			13.114			-2.623
187402.000			13.114			-2.623
187501.000			13.114			-2.623
187600.000			13.114			-2.623
187701.000			13.114			-2.623
187800.000			13.115			-2.623
187900.000			13.115			-2.623
188001.000			13.114			-2.623
188100.000			13.114			-2.623
188200.000			13.114			-2.623
188302.000			13.113			-2.623
188401.000			13.113			-2.623
188500.000			13.114			-2.623
188601.000			13.114			-2.623
188700.000			13.114			-2.623
188800.000			13.113			-2.623
188900.000			13.112			-2.622
189000.000			13.112			-2.622
189101.000			13.112			-2.622
189201.000			13.112			-2.622
189301.000			13.112			-2.622
189401.000			13.111			-2.622
189500.000			13.112			-2.622
189600.000			13.112			-2.622
189701.000			13.111			-2.622
189800.000			13.112			-2.622
189900.000			13.111			-2.622
190001.000			13.111			-2.622
190101.000			13.111			-2.622
190201.000			13.111			-2.622
190301.000			13.111			-2.622
190400.000			13.109			-2.622
190500.000			13.109			-2.622
190601.000			13.110			-2.622
190700.000			13.110			-2.622
190800.000			13.111			-2.622
190901.000			13.110			-2.622
191001.000			13.110			-2.622
191101.000			13.109			-2.622
191201.000			13.110			-2.622
191300.000			13.109			-2.622
191400.000			13.108			-2.622
191501.000			13.108			-2.622
191600.000			13.108			-2.622
191700.000			13.108			-2.622
191801.000			13.107			-2.621
191901.000			13.107			-2.621
192002.000			13.106			-2.621
192100.000			13.107			-2.621
192200.000			13.107			-2.621
192301.000			13.106			-2.621
192400.000			13.107			-2.621
192500.000			13.106			-2.621
192601.000			13.106			-2.621
192700.000			13.106			-2.621
192801.000			13.106			-2.621
192902.000			13.105			-2.621
193001.000			13.105			-2.621
193100.000			13.105			-2.621
193201.000			13.105			-2.621
193300.000			13.105			-2.621
193400.000			13.104			-2.621
193501.000			13.105			-2.621
193600.000			13.105			-2.621
193701.000			13.104			-2.621
193802.000			13.104			-2.621
193901.000			13.104			-2.621
194000.000			13.103			-2.621
194101.000			13.104			-2.621
194200.000			13.103			-2.621
194300.000			13.103			-2.621
194401.000			13.103			-2.621
194500.000			13.103			-2.621
194601.000			13.103			-2.621
194702.000			13.102			-2.620
194801.000			13.104			-2.621
194900.000			13.104			-2.621
195001.000			13.104			-2.621
195100.000			13.103			-2.621
195200.000			13.103			-2.621
195300.000			13.102			-2.620
195400.000			13.103			-2.621
195502.000			13.103			-2.621
195601.000			13.103			-2.621
195701.000			13.102			-2.620
195801.000			13.102			-2.620
195900.000			13.102			-2.620
196000.000			13.102			-2.620
196101.000			13.102			-2.620
196200.000			13.101			-2.620
196300.000			13.102			-2.620
196402.000			13.101			-2.620
196501.000			13.101			-2.620
196601.000			13.101			-2.620
196701.000			13.102			-2.620
196800.000			13.102			-2.620
196900.000			13.101			-2.620
197001.000			13.101			-2.620
197100.000			13.100			-2.620
197200.000			13.100			-2.620
197301.000			13.100			-2.620
197401.000			13.101			-2.620
197501.000			13.100			-2.620
197601.000			13.099			-2.620
197700.000			13.100			-2.620
197800.000			13.099			-2.620
197901.000			13.098			-2.620
198000.000			13.099			-2.620
198100.000			13.100			-2.620
198201.000			13.099			-2.620
198301.000			13.098			-2.620
198402.000			13.099			-2.620
198501.000			13.099			-2.620
198600.000			13.098			-2.620
198701.000			13.098			-2.620
198800.000			13.097			-2.619
198900.000			13.098			-2.620
199001.000			13.098			-2.620
199100.000			13.098			-2.620
199200.000			13.098			-2.620
199302.000			13.098			-2.620
199401.000			13.098			-2.620
199501.000			13.099			-2.620
199601.000			13.098			-2.620
199700.000			13.097			-2.619
199800.000			13.097			-2.619
199901.000			13.098			-2.620
200000.000			13.098			-2.620
200100.000			13.098			-2.620
200201.000			13.099			-2.620
200301.000			13.098			-2.620
200401.000			13.098			-2.620
200501.000			13.098			-2.620
200600.000			13.097			-2.619
200700.000			13.098			-2.620
200801.000			13.098			-2.620
200900.000			13.098			-2.620
201000.000			13.098			-2.620
201101.000			13.098			-2.620
201201.000			13.098			-2.620
201301.000			13.098			-2.620
201401.000			13.096			-2.619
201500.000			13.097			-2.619
201600.000			13.098			-2.620
201700.000			13.097			-2.619
201800.000			13.096			-2.619
201901.000			13.096			-2.619
202000.000			13.096			-2.619
202101.000			13.097			-2.619
202202.000			13.096			-2.619
202301.000			13.096			-2.619
202400.000			13.096			-2.619
202501.000			13.096			-2.619
202600.000			13.096			-2.619
202700.000			13.095			-2.619
202801.000			13.095			-2.619
202900.000			13.096			-2.619
203000.000			13.096			-2.619
203102.000			13.096			-2.619
203201.000			13.095			-2.619
203300.000			13.095			-2.619
203401.000			13.096			-2.619
203500.000			13.096			-2.619
203600.000			13.095			-2.619
203701.000			13.095			-2.619
203800.000			13.096			-2.619
203900.000			13.095			-2.619
204002.000			13.095			-2.619
204101.000			13.095			-2.619
204200.000			13.096			-2.619
204301.000			13.095			-2.619
204400.000			13.095			-2.619
204500.000			13.095			-2.619
204601.000			13.095			-2.619
204700.000			13.096			-2.619
204800.000			13.095			-2.619
204902.000			13.095			-2.619
205001.000			13.096			-2.619
205101.000			13.095			-2.619
205200.000			13.095			-2.619
205300.000			13.095			-2.619
205401.000			13.095			-2.619
205500.000			13.094			-2.619
205600.000			13.094			-2.619
205701.000			13.093			-2.619
205801.000			13.093			-2.619
205901.000			13.093			-2.619
206001.000			13.093			-2.619
206100.000			13.093			-2.619
206200.000			13.093			-2.619
206301.000			13.093			-2.619
206400.000			13.093			-2.619
206500.000			13.093			-2.619
206601.000			13.092			-2.618
206701.000			13.093			-2.619
206801.000			13.093			-2.619
206901.000			13.092			-2.618
207000.000			13.092			-2.618
207100.000			13.093			-2.619
207201.000			13.091			-2.618
207300.000			13.092			-2.618
207400.000			13.091			-2.618
207501.000			13.091			-2.618
207601.000			13.091			-2.618
207701.000			13.092			-2.618
207801.000			13.091			-2.618
207900.000			13.091			-2.618
208000.000			13.091			-2.618
208100.000			13.091			-2.618
208200.000			13.091			-2.618
208301.000			13.091			-2.618
208400.000			13.091			-2.618
208501.000			13.090			-2.618
208602.000			13.091			-2.618
208700.000			13.091			-2.618
208800.000			13.091			-2.618
208901.000			13.091			-2.618
209000.000			13.090			-2.618
209100.000			13.089			-2.618
209201.000			13.089			-2.618
209300.000			13.090			-2.618
209401.000			13.089			-2.618
209502.000			13.089			-2.618
209601.000			13.089			-2.618
209700.000			13.089			-2.618
209801.000			13.088			-2.618
209900.000			13.089			-2.618
210000.000			13.089			-2.618
210101.000			13.089			-2.618
210200.000			13.089			-2.618
210300.000			13.089			-2.618
210402.000			13.088			-2.618
210501.000			13.089			-2.618
210600.000			13.089			-2.618
210701.000			13.088			-2.618
210800.000			13.088			-2.618
210900.000			13.087			-2.617
211001.000			13.088			-2.618
211100.000			13.088			-2.618
211200.000			13.087			-2.617
211302.000			13.087			-2.617
211401.000			13.087			-2.617
211501.000			13.087			-2.617
211600.000			13.087			-2.617
211700.000			13.087			-2.617
211801.000			13.088			-2.618
211900.000			13.088			-2.618
212000.000			13.088			-2.618
212101.000			13.088			-2.618
212201.000			13.087			-2.617
212301.000			13.087			-2.617
212401.000			13.087			-2.617
212500.000			13.086			-2.617
212600.000			13.087			-2.617
212701.000			13.086			-2.617
212800.000			13.087			-2.617
212900.000			13.086			-2.617
213001.000			13.086			-2.617
213101.000			13.086			-2.617
213201.000			13.086			-2.617
213302.000			13.085			-2.617
213400.000			13.086			-2.617
213500.000			13.084			-2.617
213601.000			13.084			-2.617
213700.000			13.083			-2.617
213800.000			13.085			-2.617
213901.000			13.085			-2.617
214001.000			13.084			-2.617
214101.000			13.084			-2.617
214202.000			13.084			-2.617
214300.000			13.084			-2.617
214400.000			13.083			-2.617
214500.000			13.084			-2.617
214600.000			13.083			-2.617
214701.000			13.083			-2.617
214800.000			13.083			-2.617
214900.000			13.083			-2.617
215002.000			13.083			-2.617
215101.000			13.083			-2.617
215200.000			13.082			-2.616
215301.000			13.081			-2.616
215400.000			13.082			-2.616
215500.000			13.082			-2.616
215601.000			13.082			-2.616
215700.000			13.081			-2.616
215800.000			13.081			-2.616
215902.000			13.081			-2.616
216001.000			13.080			-2.616
216100.000			13.081			-2.616
216201.000			13.081			-2.616
216300.000			13.080			-2.616
216400.000			13.079			-2.616
216501.000			13.079			-2.616
216600.000			13.080			-2.616
216700.000			13.081			-2.616
216802.000			13.080			-2.616
216901.000			13.079			-2.616
217000.000			13.079			-2.616
217101.000			13.079			-2.616
217200.000			13.079			-2.616
217300.000			13.080			-2.616
217401.000			13.080			-2.616
217500.000			13.080			-2.616
217600.000			13.080			-2.616
217702.000			13.080			-2.616
217801.000			13.080			-2.616
217902.000			13.079			-2.616
218000.000			13.078			-2.616
218100.000			13.080			-2.616
218201.000			13.079			-2.616
218300.000			13.079			-2.616
218400.000			13.079			-2.616
218501.000			13.079			-2.616
218600.000			13.079			-2.616
218701.000			13.078			-2.616
218802.000			13.078			-2.616
218900.000			13.078			-2.616
219000.000			13.077			-2.615
219101.000			13.078			-2.616
219200.000			13.078			-2.616
219300.000			13.078			-2.616
219401.000			13.079			-2.616
219500.000			13.079			-2.616
219601.000			13.078			-2.616
219702.000			13.078			-2.616
219801.000			13.077			-2.615
219900.000			13.077			-2.615
220001.000			13.077			-2.615
220100.000			13.077			-2.615
220200.000			13.077			-2.615
220301.000			13.078			-2.616
220400.000			13.077			-2.615
220500.000			13.077			-2.615
220602.000			13.077			-2.615
220701.000			13.077			-2.615
220800.000			13.077			-2.615
220900.000			13.077			-2.615
221000.000			13.076			-2.615
221101.000			13.077			-2.615
221200.000			13.077			-2.615
221300.000			13.076			-2.615
221401.000			13.075			-2.615
221501.000			13.075			-2.615
221601.000			13.076			-2.615
221701.000			13.075			-2.615
221800.000			13.075			-2.615
221900.000			13.075			-2.615
222001.000			13.075			-2.615
222100.000			13.075			-2.615
222200.000			13.075			-2.615
222301.000			13.075			-2.615
222401.000			13.074			-2.615
222501.000			13.074			-2.615
222601.000			13.074			-2.615
222700.000			13.074			-2.615
222800.000			13.074			-2.615
222901.000			13.075			-2.615
223000.000			13.075			-2.615
223100.000			13.074			-2.615
223201.000			13.073			-2.615
223301.000			13.073			-2.615
223401.000			13.073			-2.615
223501.000			13.073			-2.615
223600.000			13.073			-2.615
223700.000			13.074			-2.615
223801.000			13.073			-2.615
223900.000			13.072			-2.614
224000.000			13.073			-2.615
224100.000			13.073			-2.615
224201.000			13.073			-2.615
224302.000			13.072			-2.614
224400.000			13.072			-2.614
224500.000			13.072			-2.614
224601.000			13.071			-2.614
224700.000			13.071			-2.614
224800.000			13.072			-2.614
224901.000			13.072			-2.614
225000.000			13.070			-2.614
225101.000			13.069			-2.614
225202.000			13.071			-2.614
225300.000			13.071			-2.614
225400.000			13.070			-2.614
225501.000			13.070			-2.614
225600.000			13.071			-2.614
225700.000			13.070			-2.614
225801.000			13.071			-2.614
225900.000			13.070			-2.614
226001.000			13.070			-2.614
226102.000			13.069			-2.614
226200.000			13.068			-2.614
226300.000			13.068			-2.614
226401.000			13.068			-2.614
226500.000			13.068			-2.614
226600.000			13.069			-2.614
226701.000			13.068			-2.614
226800.000			13.069			-2.614
226901.000			13.067			-2.613
227002.000			13.068			-2.614
227101.000			13.068			-2.614
227200.000			13.068			-2.614
227300.000			13.068			-2.614
227400.000			13.068			-2.614
227501.000			13.067			-2.613
227600.000			13.068			-2.614
227700.000			13.067			-2.613
227801.000			13.067			-2.613
227901.000			13.067			-2.613
228001.000			13.068			-2.614
228101.000			13.068			-2.614
228200.000			13.067			-2.613
228300.000			13.067			-2.613
228401.000			13.067			-2.613
228500.000			13.067			-2.613
228600.000			13.067			-2.613
228701.000			13.066			-2.613
228801.000			13.066			-2.613
228901.000			13.066			-2.613
229002.000			13.066			-2.613
229100.000			13.065			-2.613
229200.000			13.066			-2.613
229301.000			13.065			-2.613
229400.000			13.066			-2.613
229500.000			13.066			-2.613
229601.000			13.066			-2.613
229701.000			13.066			-2.613
229801.000			13.065			-2.613
229902.000			13.064			-2.613
230000.000			13.064			-2.613
230100.000			13.066			-2.613
230201.000			13.064			-2.613
230300.000			13.065			-2.613
230400.000			13.065			-2.613
230500.000			13.064			-2.613
230600.000			13.064			-2.613
230702.000			13.064			-2.613
230801.000			13.065			-2.613
230900.000			13.064			-2.613
231001.000			13.064			-2.613
231100.000			13.064			-2.613
231200.000			13.064			-2.613
231301.000			13.064			-2.613
231400.000			13.064			-2.613
231500.000			13.063			-2.613
231602.000			13.063			-2.613
231701.000			13.063			-2.613
231800.000			13.063			-2.613
231901.000			13.063			-2.613
232000.000			13.062			-2.612
232100.000			13.062			-2.612
232201.000			13.063			-2.613
232300.000			13.063			-2.613
232400.000			13.063			-2.613
232502.000			13.064			-2.613
232601.000			13.065			-2.613
232700.000			13.062			-2.612
232801.000			13.063			-2.613
232900.000			13.063			-2.613
233000.000			13.062			-2.612
233101.000			13.062			-2.612
233200.000			13.064			-2.613
233300.000			13.063			-2.613
233402.000			13.062			-2.612
233501.000			13.062			-2.612
233600.000			13.062			-2.612
233700.000			13.062			-2.612
233800.000			13.062			-2.612
233901.000			13.063			-2.613
234000.000			13.063			-2.613
234100.000			13.063			-2.613
234201.000			13.063			-2.613
234301.000			13.062			-2.612
234401.000			13.062			-2.612
234501.000			13.063			-2.613
234600.000			13.063			-2.613
234700.000			13.062			-2.612
234801.000			13.062			-2.612
234900.000			13.063			-2.613
235000.000			13.063			-2.613
235101.000			13.062			-2.612
235201.000			13.062			-2.612
235301.000			13.063			-2.613
235401.000			13.063			-2.613
235500.000			13.062			-2.612
235600.000			13.063			-2.613
235701.000			13.062			-2.612
235800.000			13.062			-2.612
235900.000			13.061			-2.612
236001.000			13.060			-2.612
236101.000			13.060			-2.612
236201.000			13.061			-2.612
236301.000			13.061			-2.612
236400.000			13.062			-2.612
236500.000			13.061			-2.612
236601.000			13.060			-2.612
236700.000			13.061			-2.612
236800.000			13.061			-2.612
236900.000			13.060			-2.612
237001.000			13.060			-2.612
237102.000			13.060			-2.612
237201.000			13.061			-2.612
237300.000			13.062			-2.612
237401.000			13.061			-2.612
237500.000			13.061			-2.612
237600.000			13.061			-2.612
237701.000			13.060			-2.612
237800.000			13.061			-2.612
237901.000			13.060			-2.612
238002.000			13.060			-2.612
238101.000			13.060			-2.612
238200.000			13.060			-2.612
238301.000			13.060			-2.612
238400.000			13.060			-2.612
238500.000			13.060			-2.612
238601.000			13.060			-2.612
238700.000			13.060			-2.612
238800.000			13.060			-2.612
238902.000			13.060			-2.612
239001.000			13.061			-2.612
239100.000			13.060			-2.612
239201.000			13.058			-2.612
239300.000			13.059			-2.612
239400.000			13.059			-2.612
239501.000			13.060			-2.612
239600.000			13.061			-2.612
239700.000			13.060			-2.612
239802.000			13.059			-2.612
239901.000			13.058			-2.612
240000.000			13.059			-2.612
240100.000			13.059			-2.612
240200.000			13.059			-2.612
240301.000			13.059			-2.612
240400.000			13.058			-2.612
240500.000			13.058			-2.612
240601.000			13.058			-2.612
240701.000			13.058			-2.612
240801.000			13.057			-2.611
240901.000			13.058			-2.612
241000.000			13.059			-2.612
241100.000			13.059			-2.612
241201.000			13.058			-2.612
241300.000			13.058			-2.612
241400.000			13.058			-2.612
241501.000			13.058			-2.612
241601.000			13.058			-2.612
241701.000			13.056			-2.611
241801.000			13.057			-2.611
241900.000			13.058			-2.612
242000.000			13.057			-2.611
242101.000			13.056			-2.611
242200.000			13.057			-2.611
242300.000			13.058			-2.612
242401.000			13.056			-2.611
242501.000			13.056			-2.611
242601.000			13.056			-2.611
242701.000			13.056			-2.611
242800.000			13.056			-2.611
242900.000			13.055			-2.611
243001.000			13.056			-2.611
243100.000			13.056			-2.611
243200.000			13.056			-2.611
243300.000			13.055			-2.611
243401.000			13.055			-2.611
243502.000			13.056			-2.611
243601.000			13.056			-2.611
243700.000			13.054			-2.611
243801.000			13.055			-2.611
243900.000			13.054			-2.611
244000.000			13.054			-2.611
244101.000			13.055			-2.611
244200.000			13.055			-2.611
244301.000			13.055			-2.611
244402.000			13.054			-2.611
244501.000			13.054			-2.611
244600.000			13.054			-2.611
244701.000			13.053			-2.611
244800.000			13.053			-2.611
244900.000			13.053			-2.611
245001.000			13.053			-2.611
245100.000			13.054			-2.611
245201.000			13.053			-2.611
245302.000			13.053			-2.611
245401.000			13.054			-2.611
245500.000			13.053			-2.611
245601.000			13.053			-2.611
245700.000			13.053			-2.611
245800.000			13.053			-2.611
245901.000			13.054			-2.611
246000.000			13.053			-2.611
246101.000			13.053			-2.611
246202.000			13.052			-2.610
246301.000			13.051			-2.610
246400.000			13.051			-2.610
246500.000			13.051			-2.610
246600.000			13.052			-2.610
246701.000			13.052			-2.610
246800.000			13.051			-2.610
246900.000			13.051			-2.610
247001.000			13.051			-2.610
247101.000			13.051			-2.610
247201.000			13.052			-2.610
247301.000			13.051			-2.610
247400.000			13.051			-2.610
247500.000			13.051			-2.610
247601.000			13.050			-2.610
247700.000			13.051			-2.610
247800.000			13.051			-2.610
247901.000			13.051			-2.610
248001.000			13.051			-2.610
248101.000			13.051			-2.610
248201.000			13.052			-2.610
248300.000			13.051			-2.610
248400.000			13.050			-2.610
248501.000			13.051			-2.610
248600.000			13.052			-2.610
248700.000			13.051			-2.610
248801.000			13.051			-2.610
248901.000			13.050			-2.610
249001.000			13.050			-2.610
249101.000			13.050			-2.610
249200.000			13.051			-2.610
249300.000			13.050			-2.610
249401.000			13.051			-2.610
249500.000			13.051			-2.610
249600.000			13.051			-2.610
249700.000			13.050			-2.610
249801.000			13.050			-2.610
249902.000			13.051			-2.610
250001.000			13.050			-2.610
250100.000			13.051			-2.610
250201.000			13.050			-2.610
250300.000			13.050			-2.610
250400.000			13.051			-2.610
250501.000			13.051			-2.610
250600.000			13.051			-2.610
250701.000			13.051			-2.610
250802.000			13.051			-2.610
250900.000			13.051			-2.610
251000.000			13.049			-2.610
251101.000			13.050			-2.610
251200.000			13.050			-2.610
251300.000			13.050			-2.610
251401.000			13.049			-2.610
251500.000			13.049			-2.610
251601.000			13.049			-2.610
251702.000			13.049			-2.610
251801.000			13.049			-2.610
251900.000			13.048			-2.610
252001.000			13.048			-2.610
252100.000			13.048			-2.610
252200.000			13.048			-2.610
252301.000			13.049			-2.610
252400.000			13.047			-2.609
252501.000			13.047			-2.609
252602.000			13.047			-2.609
252701.000			13.048			-2.610
252800.000			13.048			-2.610
252900.000			13.047			-2.609
253000.000			13.047			-2.609
253101.000			13.047			-2.609
253200.000			13.048			-2.610
253300.000			13.047			-2.609
253401.000			13.047			-2.609
253501.000			13.046			-2.609
253601.000			13.046			-2.609
253701.000			13.047			-2.609
253800.000			13.046			-2.609
253900.000			13.046			-2.609
254001.000			13.046			-2.609
254100.000			13.046			-2.609
254200.000			13.045			-2.609
254301.000			13.046			-2.609
254401.000			13.046			-2.609
254501.000			13.046			-2.609
254601.000			13.046			-2.609
254700.000			13.046			-2.609
254800.000			13.045			-2.609
254901.000			13.045			-2.609
255000.000			13.046			-2.609
255100.000			13.045			-2.609
255201.000			13.046			-2.609
255301.000			13.045			-2.609
255401.000			13.045			-2.609
255501.000			13.045			-2.609
255600.000			13.046			-2.609
255700.000			13.045			-2.609
255801.000			13.045			-2.609
255900.000			13.045			-2.609
256000.000			13.046			-2.609
256100.000			13.045			-2.609
256201.000			13.045			-2.609
256302.000			13.045			-2.609
256401.000			13.047			-2.609
256500.000			13.046			-2.609
256601.000			13.046			-2.609
256700.000			13.046			-2.609
256800.000			13.044			-2.609
256901.000			13.044			-2.609
257000.000			13.044			-2.609
257101.000			13.044			-2.609
257202.000			13.044			-2.609
257301.000			13.043			-2.609
257400.000			13.043			-2.609
257501.000			13.043			-2.609
257600.000			13.044			-2.609
257700.000			13.044			-2.609
257801.000			13.044			-2.609
257900.000			13.043			-2.609
258001.000			13.042			-2.608
258102.000			13.042			-2.608
258201.000			13.043			-2.609
258300.000			13.043			-2.609
258401.000			13.043			-2.609
258500.000			13.043			-2.609
258600.000			13.042			-2.608
258701.000			13.042			-2.608
258800.000			13.043			-2.609
258900.000			13.041			-2.608
259002.000			13.042			-2.608
259101.000			13.042			-2.608
259200.000			13.042			-2.608
259300.000			13.041			-2.608
259400.000			13.041			-2.608
259501.000			13.040			-2.608
259600.000			13.040			-2.608
259700.000			13.041			-2.608
259801.000			13.041			-2.608
259901.000			13.041			-2.608
260001.000			13.040			-2.608
260101.000			13.039			-2.608
260200.000			13.039			-2.608
260300.000			13.038			-2.608
260401.000			13.039			-2.608
260500.000			13.039			-2.608
260600.000			13.038			-2.608
260701.000			13.038			-2.608
260801.000			13.039			-2.608
260901.000			13.039			-2.608
261001.000			13.040			-2.608
261100.000			13.039			-2.608
261200.000			13.038			-2.608
261301.000			13.039			-2.608
261400.000			13.038			-2.608
261500.000			13.038			-2.608
261601.000			13.038			-2.608
261701.000			13.037			-2.607
261801.000			13.036			-2.607
261901.000			13.038			-2.608
262000.000			13.038			-2.608
262100.000			13.037			-2.607
262201.000			13.038			-2.608
262300.000			13.037			-2.607
262400.000			13.036			-2.607
262500.000			13.036			-2.607
262601.000			13.037			-2.607
262702.000			13.036			-2.607
262800.000			13.036			-2.607
262900.000			13.037			-2.607
263001.000			13.035			-2.607
263100.000			13.036			-2.607
263200.000			13.035			-2.607
263301.000			13.036			-2.607
263400.000			13.035			-2.607
263501.000			13.035			-2.607
263602.000			13.035			-2.607
263701.000			13.034			-2.607
263800.000			13.035			-2.607
263901.000			13.036			-2.607
264000.000			13.036			-2.607
264100.000			13.036			-2.607
264201.000			13.036			-2.607
264300.000			13.036			-2.607
264401.000			13.036			-2.607
264502.000			13.035			-2.607
264600.000			13.035			-2.607
264700.000			13.035			-2.607
264801.000			13.033			-2.607
264900.000			13.034			-2.607
265000.000			13.034			-2.607
265101.000			13.034			-2.607
265200.000			13.035			-2.607
265301.000			13.035			-2.607
265402.000			13.033			-2.607
265501.000			13.034			-2.607
265600.000			13.033			-2.607
265700.000			13.033			-2.607
265800.000			13.034			-2.607
265901.000			13.033			-2.607
266000.000			13.034			-2.607
266100.000			13.033			-2.607
266202.000			13.032			-2.606
266301.000			13.032			-2.606
266401.000			13.033			-2.607
266501.000			13.033			-2.607
266600.000			13.031			-2.606
266700.000			13.032			-2.606
266801.000			13.032			-2.606
266900.000			13.032			-2.606
267000.000			13.031			-2.606
267102.000			13.031			-2.606
267201.000			13.031			-2.606
267301.000			13.031			-2.606
267401.000			13.030			-2.606
267500.000			13.031			-2.606
267600.000			13.031			-2.606
267701.000			13.031			-2.606
267800.000			13.030			-2.606
267900.000			13.031			-2.606
268002.000			13.031			-2.606
268101.000			13.031			-2.606
268201.000			13.030			-2.606
268301.000			13.030			-2.606
268400.000			13.031			-2.606
268500.000			13.030			-2.606
268601.000			13.030			-2.606
268700.000			13.029			-2.606
268800.000			13.028			-2.606
268900.000			13.029			-2.606
269001.000			13.030			-2.606
269102.000			13.030			-2.606
269200.000			13.029			-2.606
269300.000			13.029			-2.606
269401.000			13.030			-2.606
269500.000			13.029			-2.606
269600.000			13.029			-2.606
269701.000			13.029			-2.606
269800.000			13.029			-2.606
269901.000			13.028			-2.606
270002.000			13.029			-2.606
270101.000			13.029			-2.606
270200.000			13.028			-2.606
270301.000			13.029			-2.606
270400.000			13.028			-2.606
270500.000			13.028			-2.606
270601.000			13.027			-2.605
270700.000			13.027			-2.605
270801.000			13.027			-2.605
270902.000			13.028			-2.606
271001.000			13.028			-2.606
271100.000			13.027			-2.605
271201.000			13.028			-2.606
271300.000			13.028			-2.606
271400.000			13.026			-2.605
271501.000			13.027			-2.605
271600.000			13.028			-2.606
271701.000			13.027			-2.605
271802.000			13.027			-2.605
271901.000			13.027			-2.605
272000.000			13.027			-2.605
272100.000			13.027			-2.605
272200.000			13.027			-2.605
272301.000			13.027			-2.605
272400.000			13.027			-2.605
272500.000			13.027			-2.605
272602.000			13.026			-2.605
272701.000			13.026			-2.605
272801.000			13.026			-2.605
272901.000			13.027			-2.605
273000.000			13.026			-2.605
273100.000			13.027			-2.605
273201.000			13.026			-2.605
273300.000			13.026			-2.605
273400.000			13.026			-2.605
273501.000			13.026			-2.605
273601.000			13.025			-2.605
273701.000			13.025			-2.605
273801.000			13.025			-2.605
273900.000			13.025			-2.605
274000.000			13.025			-2.605
274101.000			13.025			-2.605
274200.000			13.025			-2.605
274300.000			13.025			-2.605
274402.000			13.025			-2.605
274501.000			13.025			-2.605
274601.000			13.025			-2.605
274701.000			13.025			-2.605
274800.000			13.024			-2.605
274900.000			13.024			-2.605
275001.000			13.025			-2.605
275100.000			13.025			-2.605
275200.000			13.025			-2.605
275300.000			13.024			-2.605
275401.000			13.024			-2.605
275502.000			13.024			-2.605
275600.000			13.024			-2.605
275700.000			13.025			-2.605
275801.000			13.025			-2.605
275900.000			13.025			-2.605
276000.000			13.024			-2.605
276101.000			13.023			-2.605
276200.000			13.024			-2.605
276301.000			13.024			-2.605
276402.000			13.024			-2.605
276500.000			13.023			-2.605
276600.000			13.023			-2.605
276701.000			13.023			-2.605
276800.000			13.023			-2.605
276900.000			13.024			-2.605
277001.000			13.024			-2.605
277100.000			13.023			-2.605
277201.000			13.023			-2.605
277302.000			13.023			-2.605
277400.000			13.022			-2.604
277500.000			13.022			-2.604
277601.000			13.023			-2.605
277700.000			13.023			-2.605
277800.000			13.023			-2.605
277901.000			13.022			-2.604
278000.000			13.022			-2.604
278101.000			13.022			-2.604
278202.000			13.022			-2.604
278300.000			13.023			-2.605
278400.000			13.022			-2.604
278500.000			13.022			-2.604
278600.000			13.022			-2.604
278701.000			13.022			-2.604
278800.000			13.023			-2.605
278900.000			13.023			-2.605
279002.000			13.023			-2.605
279101.000			13.022			-2.604
279200.000			13.022			-2.604
279301.000			13.021			-2.604
279400.000			13.021			-2.604
279500.000			13.021			-2.604
279601.000			13.021			-2.604
279700.000			13.021			-2.604
279800.000			13.022			-2.604
279902.000			13.022			-2.604
280001.000			13.020			-2.604
280100.000			13.021			-2.604
280201.000			13.021			-2.604
280300.000			13.020			-2.604
280400.000			13.020			-2.604
280501.000			13.020			-2.604
280600.000			13.019			-2.604
280700.000			13.020			-2.604
280802.000			13.020			-2.604
280901.000			13.020			-2.604
281001.000			13.020			-2.604
281101.000			13.020			-2.604
281200.000			13.020			-2.604
281300.000			13.020			-2.604
281401.000			13.019			-2.604
281500.000			13.019			-2.604
281600.000			13.019			-2.604
281702.000			13.019			-2.604
281801.000			13.020			-2.604
281902.000			13.020			-2.604
282000.000			13.020			-2.604
282100.000			13.019			-2.604
282201.000			13.019			-2.604
282300.000			13.018			-2.604
282400.000			13.018			-2.604
282501.000			13.019			-2.604
282601.000			13.019			-2.604
282701.000			13.019			-2.604
282801.000			13.019			-2.604
282900.000			13.018			-2.604
283000.000			13.019			-2.604
283101.000			13.018			-2.604
283200.000			13.018			-2.604
283300.000			13.019			-2.604
283401.000			13.019			-2.604
283501.000			13.019			-2.604
283601.000			13.018			-2.604
283701.000			13.018			-2.604
283800.000			13.017			-2.603
283900.000			13.018			-2.604
284001.000			13.019			-2.604
284100.000			13.018			-2.604
284200.000			13.019			-2.604
284301.000			13.018			-2.604
284401.000			13.017			-2.603
284501.000			13.017			-2.603
284601.000			13.018			-2.604
284700.000			13.018			-2.604
284800.000			13.017			-2.603
284900.000			13.017			-2.603
285000.000			13.018			-2.604
285101.000			13.018			-2.604
285200.000			13.016			-2.603
285301.000			13.017			-2.603
285402.000			13.017			-2.603
285501.000			13.016			-2.603
285600.000			13.017			-2.603
285701.000			13.017			-2.603
285800.000			13.017			-2.603
285900.000			13.017			-2.603
286001.000			13.018			-2.604
286100.000			13.017			-2.603
286201.000			13.017			-2.603
286302.000			13.017			-2.603
286401.000			13.017			-2.603
286500.000			13.016			-2.603
286601.000			13.016			-2.603
286700.000			13.017			-2.603
286800.000			13.017			-2.603
286901.000			13.017			-2.603
287000.000			13.017			-2.603
287100.000			13.016			-2.603
287202.000			13.016			-2.603
287301.000			13.016			-2.603
287400.000			13.015			-2.603
287501.000			13.015			-2.603
287600.000			13.015			-2.603
287700.000			13.016			-2.603
287801.000			13.016			-2.603
287900.000			13.016			-2.603
288000.000			13.016			-2.603
288102.000			13.015			-2.603
288201.000			13.015			-2.603
288301.000			13.014			-2.603
288400.000			13.015			-2.603
288500.000			13.015			-2.603
288601.000			13.015			-2.603
288700.000			13.017			-2.603
288800.000			13.016			-2.603
288901.000			13.016			-2.603
289001.000			13.016			-2.603
289101.000			13.015			-2.603
289201.000			13.014			-2.603
289300.000			13.015			-2.603
289400.000			13.015			-2.603
289501.000			13.015			-2.603
289600.000			13.016			-2.603
289700.000			13.016			-2.603
289801.000			13.015			-2.603
289901.000			13.016			-2.603
290001.000			13.017			-2.603
290102.000			13.016			-2.603
290200.000			13.015			-2.603
290300.000			13.016			-2.603
290401.000			13.015			-2.603
290500.000			13.014			-2.603
290600.000			13.016			-2.603
290701.000			13.016			-2.603
290801.000			13.015			-2.603
290901.000			13.015			-2.603
291002.000			13.015			-2.603
291100.000			13.015			-2.603
291200.000			13.014			-2.603
291300.000			13.015			-2.603
291400.000			13.015			-2.603
291501.000			13.015			-2.603
291600.000			13.014			-2.603
291700.000			13.014			-2.603
291802.000			13.014			-2.603
291901.000			13.015			-2.603
292000.000			13.015			-2.603
292101.000			13.013			-2.603
292200.000			13.014			-2.603
292300.000			13.014			-2.603
292401.000			13.014			-2.603
292500.000			13.014			-2.603
292600.000			13.014			-2.603
292702.000			13.014			-2.603
292801.000			13.013			-2.603
292900.000			13.013			-2.603
293001.000			13.013			-2.603
293100.000			13.013			-2.603
293200.000			13.014			-2.603
293301.000			13.013			-2.603
293400.000			13.013			-2.603
293500.000			13.014			-2.603
293602.000			13.013			-2.603
293701.000			13.013			-2.603
293801.000			13.014			-2.603
293901.000			13.013			-2.603
294000.000			13.013			-2.603
294100.000			13.012			-2.602
294201.000			13.012			-2.602
294300.000			13.013			-2.603
294400.000			13.014			-2.603
294502.000			13.013			-2.603
294601.000			13.013			-2.603
294701.000			13.013			-2.603
294800.000			13.013			-2.603
294900.000			13.012			-2.602
295001.000			13.012			-2.602
295100.000			13.012			-2.602
295200.000			13.012			-2.602
295301.000			13.012			-2.602
295401.000			13.012			-2.602
295501.000			13.011			-2.602
295601.000			13.012			-2.602
295700.000			13.012			-2.602
295800.000			13.012			-2.602
295901.000			13.013			-2.603
296000.000			13.012			-2.602
296100.000			13.012			-2.602
296201.000			13.011			-2.602
296301.000			13.011			-2.602
296401.000			13.012			-2.602
296501.000			13.010			-2.602
296600.000			13.010			-2.602
296700.000			13.011			-2.602
296801.000			13.012			-2.602
296900.000			13.011			-2.602
297000.000			13.011			-2.602
297101.000			13.012			-2.602
297201.000			13.012			-2.602
297301.000			13.011			-2.602
297401.000			13.010			-2.602
297500.000			13.010			-2.602
297600.000			13.011			-2.602
297700.000			13.011			-2.602
297800.000			13.010			-2.602
297901.000			13.010			-2.602
298000.000			13.010			-2.602
298101.000			13.010			-2.602
298202.000			13.009			-2.602
298301.000			13.009			-2.602
298400.000			13.009			-2.602
298501.000			13.010			-2.602
298600.000			13.009			-2.602
298700.000			13.008			-2.602
298801.000			13.008			-2.602
298900.000			13.009			-2.602
299000.000			13.009			-2.602
299102.000			13.009			-2.602
299201.000			13.008			-2.602
299300.000			13.007			-2.601
299401.000			13.008			-2.602
299500.000			13.007			-2.601
299600.000			13.007			-2.601
299701.000			13.009			-2.602
299800.000			13.009			-2.602
299900.000			13.008			-2.602
