# Acquired on 25/01/2024 15:27:02 
# SPIDER: Creep_6mm_GRPCNT1454A-3
# CREEP MEASUREMENT

# time [ms]		force [N]		stiffness [N/mm]
0.000			-25.830			-4.305
103.000			-26.266			-4.378
204.000			-26.202			-4.367
305.000			-25.970			-4.328
404.000			-25.789			-4.298
504.000			-25.648			-4.275
604.000			-25.425			-4.237
704.000			-25.335			-4.223
804.000			-25.255			-4.209
904.000			-25.181			-4.197
1004.000			-25.113			-4.186
1104.000			-25.053			-4.175
1204.000			-24.997			-4.166
1304.000			-24.894			-4.149
1405.000			-24.848			-4.141
1504.000			-24.806			-4.134
1604.000			-24.765			-4.127
1705.000			-24.724			-4.121
1803.000			-24.686			-4.114
1904.000			-24.651			-4.109
2005.000			-24.586			-4.098
2104.000			-24.555			-4.093
2204.000			-24.525			-4.087
2304.000			-24.496			-4.083
2404.000			-24.469			-4.078
2504.000			-24.444			-4.074
2605.000			-24.419			-4.070
2704.000			-24.394			-4.066
2804.000			-24.348			-4.058
2905.000			-24.326			-4.054
3003.000			-24.303			-4.050
3104.000			-24.281			-4.047
3205.000			-24.261			-4.043
3304.000			-24.241			-4.040
3404.000			-24.222			-4.037
3504.000			-24.185			-4.031
3604.000			-24.167			-4.028
3704.000			-24.150			-4.025
3805.000			-24.133			-4.022
3904.000			-24.116			-4.019
4004.000			-24.100			-4.017
4105.000			-24.084			-4.014
4203.000			-24.054			-4.009
4305.000			-24.039			-4.006
4404.000			-24.024			-4.004
4504.000			-24.009			-4.001
4605.000			-23.996			-3.999
4704.000			-23.982			-3.997
4804.000			-23.968			-3.995
4904.000			-23.942			-3.990
5004.000			-23.931			-3.988
5104.000			-23.919			-3.986
5205.000			-23.905			-3.984
5304.000			-23.894			-3.982
5403.000			-23.882			-3.980
5505.000			-23.871			-3.978
5604.000			-23.859			-3.977
5704.000			-23.837			-3.973
5805.000			-23.826			-3.971
5904.000			-23.815			-3.969
6004.000			-23.805			-3.967
6104.000			-23.794			-3.966
6204.000			-23.784			-3.964
6304.000			-23.775			-3.962
6405.000			-23.755			-3.959
6504.000			-23.745			-3.957
6604.000			-23.735			-3.956
6705.000			-23.726			-3.954
6803.000			-23.716			-3.953
6904.000			-23.707			-3.951
7005.000			-23.698			-3.950
7104.000			-23.681			-3.947
7204.000			-23.672			-3.945
7304.000			-23.664			-3.944
7404.000			-23.655			-3.943
7504.000			-23.647			-3.941
7604.000			-23.639			-3.940
7704.000			-23.630			-3.938
7805.000			-23.614			-3.936
7904.000			-23.605			-3.934
8003.000			-23.598			-3.933
8105.000			-23.590			-3.932
8204.000			-23.582			-3.930
8304.000			-23.574			-3.929
8405.000			-23.567			-3.928
8504.000			-23.559			-3.926
8604.000			-23.546			-3.924
8704.000			-23.538			-3.923
8804.000			-23.532			-3.922
8904.000			-23.525			-3.921
9005.000			-23.517			-3.920
9104.000			-23.510			-3.918
9203.000			-23.504			-3.917
9305.000			-23.491			-3.915
9404.000			-23.485			-3.914
9504.000			-23.478			-3.913
9605.000			-23.470			-3.912
9704.000			-23.463			-3.911
9804.000			-23.457			-3.910
9904.000			-23.452			-3.909
10004.000			-23.439			-3.907
10104.000			-23.433			-3.906
10205.000			-23.427			-3.905
10304.000			-23.421			-3.904
10404.000			-23.415			-3.902
10505.000			-23.409			-3.901
10603.000			-23.403			-3.901
10705.000			-23.397			-3.900
10804.000			-23.386			-3.898
10904.000			-23.380			-3.897
11005.000			-23.375			-3.896
11104.000			-23.369			-3.895
11204.000			-23.365			-3.894
11304.000			-23.360			-3.893
11404.000			-23.354			-3.892
11504.000			-23.343			-3.890
11605.000			-23.338			-3.890
11704.000			-23.333			-3.889
11803.000			-23.327			-3.888
11905.000			-23.322			-3.887
12004.000			-23.318			-3.886
12104.000			-23.312			-3.885
12205.000			-23.301			-3.884
12304.000			-23.297			-3.883
12404.000			-23.291			-3.882
12504.000			-23.287			-3.881
12604.000			-23.282			-3.880
12704.000			-23.277			-3.880
12805.000			-23.272			-3.879
12904.000			-23.263			-3.877
13004.000			-23.258			-3.876
13105.000			-23.253			-3.875
13203.000			-23.248			-3.875
13304.000			-23.244			-3.874
13405.000			-23.239			-3.873
13504.000			-23.235			-3.872
13604.000			-23.230			-3.872
13703.000			-23.222			-3.870
13804.000			-23.217			-3.870
13905.000			-23.213			-3.869
14004.000			-23.208			-3.868
14104.000			-23.203			-3.867
14205.000			-23.200			-3.867
14304.000			-23.195			-3.866
14403.000			-23.187			-3.864
14505.000			-23.183			-3.864
14604.000			-23.178			-3.863
14704.000			-23.174			-3.862
14805.000			-23.170			-3.862
14904.000			-23.166			-3.861
15004.000			-23.163			-3.861
15104.000			-23.155			-3.859
15204.000			-23.150			-3.858
15304.000			-23.146			-3.858
15405.000			-23.142			-3.857
15504.000			-23.139			-3.856
15604.000			-23.134			-3.856
15705.000			-23.130			-3.855
15803.000			-23.127			-3.854
15904.000			-23.120			-3.853
16005.000			-23.116			-3.853
16104.000			-23.113			-3.852
16204.000			-23.109			-3.851
16304.000			-23.104			-3.851
16404.000			-23.100			-3.850
16504.000			-23.097			-3.849
16605.000			-23.089			-3.848
16704.000			-23.086			-3.848
16804.000			-23.083			-3.847
16905.000			-23.080			-3.847
17003.000			-23.075			-3.846
17105.000			-23.072			-3.845
17204.000			-23.068			-3.845
17304.000			-23.061			-3.843
17405.000			-23.057			-3.843
17504.000			-23.054			-3.842
17604.000			-23.051			-3.842
17704.000			-23.047			-3.841
17804.000			-23.044			-3.841
17904.000			-23.041			-3.840
18005.000			-23.033			-3.839
18104.000			-23.030			-3.838
18203.000			-23.027			-3.838
18305.000			-23.024			-3.837
18404.000			-23.021			-3.837
18504.000			-23.018			-3.836
18605.000			-23.016			-3.836
18704.000			-23.012			-3.835
18804.000			-23.005			-3.834
18904.000			-23.002			-3.834
19004.000			-22.999			-3.833
19104.000			-22.996			-3.833
19205.000			-22.992			-3.832
19304.000			-22.989			-3.832
19404.000			-22.986			-3.831
19505.000			-22.980			-3.830
19603.000			-22.978			-3.830
19704.000			-22.975			-3.829
19805.000			-22.972			-3.829
19904.000			-22.968			-3.828
20004.000			-22.965			-3.827
20104.000			-22.962			-3.827
20204.000			-22.956			-3.826
20304.000			-22.952			-3.825
20404.000			-22.950			-3.825
20504.000			-22.948			-3.825
20605.000			-22.944			-3.824
20704.000			-22.941			-3.823
20804.000			-22.938			-3.823
20905.000			-22.932			-3.822
21003.000			-22.928			-3.821
21104.000			-22.926			-3.821
21205.000			-22.924			-3.821
21304.000			-22.920			-3.820
21404.000			-22.918			-3.820
21505.000			-22.916			-3.819
21604.000			-22.912			-3.819
21703.000			-22.906			-3.818
21805.000			-22.904			-3.817
21904.000			-22.901			-3.817
22004.000			-22.899			-3.817
22105.000			-22.896			-3.816
22204.000			-22.892			-3.815
22304.000			-22.890			-3.815
22404.000			-22.884			-3.814
22504.000			-22.882			-3.814
22604.000			-22.879			-3.813
22705.000			-22.877			-3.813
22804.000			-22.874			-3.812
22903.000			-22.872			-3.812
23005.000			-22.869			-3.812
23104.000			-22.864			-3.811
23204.000			-22.861			-3.810
23305.000			-22.859			-3.810
23404.000			-22.856			-3.809
23505.000			-22.853			-3.809
23603.000			-22.851			-3.808
23704.000			-22.848			-3.808
23805.000			-22.843			-3.807
23904.000			-22.841			-3.807
24004.000			-22.838			-3.806
24105.000			-22.836			-3.806
24204.000			-22.834			-3.806
24303.000			-22.831			-3.805
24405.000			-22.829			-3.805
24504.000			-22.827			-3.805
24604.000			-22.821			-3.804
24705.000			-22.819			-3.803
24804.000			-22.816			-3.803
24904.000			-22.813			-3.802
25004.000			-22.810			-3.802
25104.000			-22.809			-3.801
25204.000			-22.807			-3.801
25305.000			-22.801			-3.800
25404.000			-22.799			-3.800
25504.000			-22.797			-3.799
25605.000			-22.795			-3.799
25703.000			-22.793			-3.799
25804.000			-22.790			-3.798
25905.000			-22.787			-3.798
26004.000			-22.783			-3.797
26104.000			-22.781			-3.797
26205.000			-22.779			-3.797
26304.000			-22.777			-3.796
26403.000			-22.775			-3.796
26505.000			-22.773			-3.795
26604.000			-22.769			-3.795
26705.000			-22.766			-3.794
26804.000			-22.764			-3.794
26904.000			-22.761			-3.793
27005.000			-22.759			-3.793
27103.000			-22.757			-3.793
27204.000			-22.754			-3.792
27305.000			-22.752			-3.792
27404.000			-22.749			-3.792
27504.000			-22.747			-3.791
27604.000			-22.745			-3.791
27704.000			-22.743			-3.790
27803.000			-22.740			-3.790
27905.000			-22.738			-3.790
28004.000			-22.736			-3.789
28104.000			-22.733			-3.789
28205.000			-22.730			-3.788
28303.000			-22.728			-3.788
28404.000			-22.725			-3.787
28505.000			-22.723			-3.787
28604.000			-22.722			-3.787
28704.000			-22.720			-3.787
28805.000			-22.716			-3.786
28904.000			-22.712			-3.785
29003.000			-22.711			-3.785
29105.000			-22.708			-3.785
29204.000			-22.707			-3.785
29304.000			-22.706			-3.784
29405.000			-22.704			-3.784
29504.000			-22.701			-3.783
29604.000			-22.696			-3.783
29703.000			-22.694			-3.782
29804.000			-22.693			-3.782
29905.000			-22.691			-3.782
30004.000			-22.690			-3.782
30104.000			-22.688			-3.781
30205.000			-22.685			-3.781
30304.000			-22.683			-3.780
30403.000			-22.679			-3.780
30505.000			-22.677			-3.780
30604.000			-22.675			-3.779
30704.000			-22.672			-3.779
30805.000			-22.670			-3.778
30904.000			-22.669			-3.778
31004.000			-22.667			-3.778
31104.000			-22.663			-3.777
31204.000			-22.661			-3.777
31304.000			-22.660			-3.777
31405.000			-22.658			-3.776
31504.000			-22.657			-3.776
31604.000			-22.655			-3.776
31705.000			-22.652			-3.775
31803.000			-22.649			-3.775
31904.000			-22.647			-3.775
32005.000			-22.645			-3.774
32104.000			-22.643			-3.774
32204.000			-22.641			-3.774
32304.000			-22.639			-3.773
32404.000			-22.638			-3.773
32503.000			-22.634			-3.772
32605.000			-22.633			-3.772
32704.000			-22.631			-3.772
32804.000			-22.629			-3.771
32905.000			-22.627			-3.771
33003.000			-22.624			-3.771
33105.000			-22.623			-3.770
33204.000			-22.621			-3.770
33304.000			-22.618			-3.770
33405.000			-22.617			-3.769
33504.000			-22.615			-3.769
33604.000			-22.613			-3.769
33704.000			-22.610			-3.768
33804.000			-22.609			-3.768
33904.000			-22.607			-3.768
34005.000			-22.604			-3.767
34104.000			-22.602			-3.767
34204.000			-22.600			-3.767
34305.000			-22.598			-3.766
34403.000			-22.596			-3.766
34504.000			-22.595			-3.766
34605.000			-22.594			-3.766
34704.000			-22.590			-3.765
34804.000			-22.588			-3.765
34905.000			-22.587			-3.764
35004.000			-22.585			-3.764
35103.000			-22.583			-3.764
35205.000			-22.581			-3.764
35304.000			-22.579			-3.763
35404.000			-22.577			-3.763
35505.000			-22.576			-3.763
35604.000			-22.574			-3.762
35704.000			-22.572			-3.762
35804.000			-22.571			-3.762
35904.000			-22.569			-3.761
36004.000			-22.566			-3.761
36104.000			-22.565			-3.761
36204.000			-22.562			-3.760
36305.000			-22.560			-3.760
36404.000			-22.559			-3.760
36503.000			-22.558			-3.760
36605.000			-22.556			-3.759
36704.000			-22.554			-3.759
36804.000			-22.552			-3.759
36905.000			-22.548			-3.758
37003.000			-22.547			-3.758
37104.000			-22.545			-3.757
37205.000			-22.544			-3.757
37304.000			-22.543			-3.757
37404.000			-22.541			-3.757
37505.000			-22.539			-3.756
37604.000			-22.537			-3.756
37703.000			-22.534			-3.756
37805.000			-22.531			-3.755
37904.000			-22.530			-3.755
38004.000			-22.529			-3.755
38105.000			-22.528			-3.755
38204.000			-22.528			-3.755
38304.000			-22.524			-3.754
38404.000			-22.522			-3.754
38504.000			-22.520			-3.753
38604.000			-22.518			-3.753
38705.000			-22.517			-3.753
38804.000			-22.516			-3.753
38904.000			-22.515			-3.753
39005.000			-22.513			-3.752
39103.000			-22.511			-3.752
39204.000			-22.509			-3.751
39305.000			-22.507			-3.751
39404.000			-22.505			-3.751
39505.000			-22.503			-3.751
39604.000			-22.502			-3.750
39704.000			-22.501			-3.750
39804.000			-22.497			-3.749
39904.000			-22.496			-3.749
40004.000			-22.495			-3.749
40105.000			-22.493			-3.749
40204.000			-22.492			-3.749
40304.000			-22.490			-3.748
40405.000			-22.489			-3.748
40503.000			-22.486			-3.748
40604.000			-22.485			-3.747
40705.000			-22.483			-3.747
40804.000			-22.481			-3.747
40904.000			-22.479			-3.746
41004.000			-22.478			-3.746
41104.000			-22.477			-3.746
41204.000			-22.475			-3.746
41305.000			-22.473			-3.746
41404.000			-22.472			-3.745
41504.000			-22.471			-3.745
41605.000			-22.469			-3.745
41703.000			-22.468			-3.745
41804.000			-22.466			-3.744
41905.000			-22.466			-3.744
42004.000			-22.462			-3.744
42104.000			-22.461			-3.743
42205.000			-22.460			-3.743
42304.000			-22.459			-3.743
42403.000			-22.456			-3.743
42505.000			-22.454			-3.742
42604.000			-22.454			-3.742
42705.000			-22.451			-3.742
42804.000			-22.449			-3.742
42904.000			-22.448			-3.741
43005.000			-22.447			-3.741
43103.000			-22.446			-3.741
43204.000			-22.444			-3.741
43305.000			-22.443			-3.740
43404.000			-22.441			-3.740
43504.000			-22.440			-3.740
43604.000			-22.438			-3.740
43704.000			-22.435			-3.739
43804.000			-22.434			-3.739
43905.000			-22.434			-3.739
44004.000			-22.433			-3.739
44104.000			-22.429			-3.738
44205.000			-22.428			-3.738
44303.000			-22.427			-3.738
44404.000			-22.425			-3.738
44505.000			-22.423			-3.737
44604.000			-22.422			-3.737
44704.000			-22.421			-3.737
44805.000			-22.421			-3.737
44904.000			-22.417			-3.736
45003.000			-22.416			-3.736
45105.000			-22.416			-3.736
45204.000			-22.414			-3.736
45304.000			-22.412			-3.735
45405.000			-22.410			-3.735
45504.000			-22.409			-3.735
45604.000			-22.406			-3.734
45703.000			-22.407			-3.734
45804.000			-22.405			-3.734
45905.000			-22.403			-3.734
46004.000			-22.401			-3.734
46104.000			-22.400			-3.733
46204.000			-22.399			-3.733
46304.000			-22.398			-3.733
46404.000			-22.396			-3.733
46505.000			-22.394			-3.732
46604.000			-22.392			-3.732
46704.000			-22.392			-3.732
46805.000			-22.391			-3.732
46904.000			-22.389			-3.731
47004.000			-22.387			-3.731
47104.000			-22.386			-3.731
47204.000			-22.384			-3.731
47304.000			-22.383			-3.730
47405.000			-22.382			-3.730
47504.000			-22.381			-3.730
47603.000			-22.380			-3.730
47705.000			-22.379			-3.730
47804.000			-22.376			-3.729
47904.000			-22.375			-3.729
48005.000			-22.373			-3.729
48104.000			-22.372			-3.729
48204.000			-22.371			-3.728
48304.000			-22.370			-3.728
48404.000			-22.369			-3.728
48503.000			-22.366			-3.728
48605.000			-22.365			-3.727
48704.000			-22.363			-3.727
48804.000			-22.363			-3.727
48905.000			-22.362			-3.727
49003.000			-22.360			-3.727
49105.000			-22.359			-3.727
49204.000			-22.357			-3.726
49304.000			-22.356			-3.726
49405.000			-22.355			-3.726
49504.000			-22.352			-3.725
49604.000			-22.352			-3.725
49704.000			-22.350			-3.725
49804.000			-22.349			-3.725
49904.000			-22.346			-3.724
50005.000			-22.346			-3.724
50104.000			-22.345			-3.724
50204.000			-22.343			-3.724
50305.000			-22.342			-3.724
50403.000			-22.341			-3.724
50504.000			-22.339			-3.723
50605.000			-22.338			-3.723
50704.000			-22.336			-3.723
50804.000			-22.335			-3.723
50904.000			-22.335			-3.722
51004.000			-22.333			-3.722
51104.000			-22.333			-3.722
51205.000			-22.331			-3.722
51304.000			-22.330			-3.722
51404.000			-22.327			-3.721
51505.000			-22.326			-3.721
51603.000			-22.324			-3.721
51704.000			-22.324			-3.721
51805.000			-22.324			-3.721
51904.000			-22.323			-3.720
52004.000			-22.321			-3.720
52104.000			-22.318			-3.720
52204.000			-22.317			-3.720
52304.000			-22.316			-3.719
52404.000			-22.315			-3.719
52504.000			-22.315			-3.719
52605.000			-22.313			-3.719
52704.000			-22.312			-3.719
52803.000			-22.311			-3.718
52905.000			-22.308			-3.718
53004.000			-22.307			-3.718
53104.000			-22.307			-3.718
53205.000			-22.306			-3.718
53304.000			-22.304			-3.717
53404.000			-22.304			-3.717
53504.000			-22.303			-3.717
53604.000			-22.300			-3.717
53704.000			-22.299			-3.717
53805.000			-22.298			-3.716
53904.000			-22.297			-3.716
54003.000			-22.296			-3.716
54105.000			-22.295			-3.716
54204.000			-22.294			-3.716
54304.000			-22.291			-3.715
54405.000			-22.290			-3.715
54504.000			-22.289			-3.715
54604.000			-22.288			-3.715
54704.000			-22.287			-3.715
54804.000			-22.286			-3.714
54904.000			-22.285			-3.714
55005.000			-22.283			-3.714
55104.000			-22.282			-3.714
55204.000			-22.281			-3.714
55305.000			-22.280			-3.713
55403.000			-22.279			-3.713
55505.000			-22.277			-3.713
55604.000			-22.275			-3.712
55704.000			-22.273			-3.712
55805.000			-22.273			-3.712
55904.000			-22.272			-3.712
56004.000			-22.271			-3.712
56104.000			-22.270			-3.712
56204.000			-22.269			-3.711
56304.000			-22.269			-3.711
56405.000			-22.268			-3.711
56504.000			-22.265			-3.711
56604.000			-22.264			-3.711
56705.000			-22.263			-3.710
56803.000			-22.261			-3.710
56904.000			-22.260			-3.710
57005.000			-22.259			-3.710
57104.000			-22.257			-3.710
57204.000			-22.257			-3.709
57305.000			-22.257			-3.709
57404.000			-22.256			-3.709
57503.000			-22.254			-3.709
57605.000			-22.253			-3.709
57704.000			-22.252			-3.709
57804.000			-22.251			-3.708
57905.000			-22.248			-3.708
58004.000			-22.246			-3.708
58104.000			-22.246			-3.708
58204.000			-22.245			-3.708
58304.000			-22.244			-3.707
58404.000			-22.243			-3.707
58504.000			-22.243			-3.707
58604.000			-22.240			-3.707
58704.000			-22.240			-3.707
58804.000			-22.238			-3.706
58904.000			-22.237			-3.706
59005.000			-22.237			-3.706
59104.000			-22.235			-3.706
59204.000			-22.235			-3.706
59305.000			-22.232			-3.705
59403.000			-22.232			-3.705
59504.000			-22.232			-3.705
59605.000			-22.230			-3.705
59704.000			-22.229			-3.705
59804.000			-22.228			-3.705
59905.000			-22.226			-3.704
60004.000			-22.226			-3.704
60103.000			-22.224			-3.704
60205.000			-22.223			-3.704
60304.000			-22.222			-3.704
60404.000			-22.222			-3.704
60505.000			-22.221			-3.703
60604.000			-22.220			-3.703
60704.000			-22.219			-3.703
60804.000			-22.216			-3.703
60904.000			-22.215			-3.703
61004.000			-22.215			-3.702
61105.000			-22.213			-3.702
61204.000			-22.212			-3.702
61303.000			-22.212			-3.702
61405.000			-22.211			-3.702
61504.000			-22.209			-3.701
61604.000			-22.208			-3.701
61705.000			-22.207			-3.701
61804.000			-22.206			-3.701
61905.000			-22.205			-3.701
62003.000			-22.204			-3.701
62104.000			-22.203			-3.700
62205.000			-22.202			-3.700
62304.000			-22.200			-3.700
62404.000			-22.199			-3.700
62505.000			-22.199			-3.700
62604.000			-22.198			-3.700
62703.000			-22.197			-3.700
62805.000			-22.196			-3.699
62904.000			-22.195			-3.699
63004.000			-22.193			-3.699
63105.000			-22.192			-3.699
63203.000			-22.191			-3.699
63304.000			-22.191			-3.698
63405.000			-22.190			-3.698
63504.000			-22.189			-3.698
63604.000			-22.188			-3.698
63705.000			-22.185			-3.697
63804.000			-22.185			-3.697
63903.000			-22.184			-3.697
64005.000			-22.183			-3.697
64104.000			-22.182			-3.697
64204.000			-22.182			-3.697
64305.000			-22.180			-3.697
64404.000			-22.178			-3.696
64504.000			-22.177			-3.696
64604.000			-22.177			-3.696
64704.000			-22.177			-3.696
64804.000			-22.176			-3.696
64904.000			-22.174			-3.696
65004.000			-22.173			-3.696
65105.000			-22.173			-3.695
65204.000			-22.171			-3.695
65303.000			-22.170			-3.695
65405.000			-22.170			-3.695
65504.000			-22.169			-3.695
65604.000			-22.169			-3.695
65705.000			-22.167			-3.695
65804.000			-22.165			-3.694
65904.000			-22.164			-3.694
66004.000			-22.163			-3.694
66104.000			-22.162			-3.694
66204.000			-22.161			-3.694
66305.000			-22.160			-3.693
66404.000			-22.158			-3.693
66503.000			-22.157			-3.693
66605.000			-22.157			-3.693
66704.000			-22.157			-3.693
66804.000			-22.155			-3.692
66905.000			-22.153			-3.692
67004.000			-22.153			-3.692
67104.000			-22.151			-3.692
67204.000			-22.151			-3.692
67304.000			-22.150			-3.692
67404.000			-22.149			-3.692
67505.000			-22.148			-3.691
67604.000			-22.147			-3.691
67704.000			-22.146			-3.691
67805.000			-22.145			-3.691
67903.000			-22.145			-3.691
68004.000			-22.144			-3.691
68105.000			-22.143			-3.690
68204.000			-22.142			-3.690
68305.000			-22.141			-3.690
68404.000			-22.140			-3.690
68504.000			-22.139			-3.690
68604.000			-22.137			-3.690
68704.000			-22.136			-3.689
68804.000			-22.136			-3.689
68905.000			-22.134			-3.689
69004.000			-22.134			-3.689
69104.000			-22.132			-3.689
69205.000			-22.132			-3.689
69303.000			-22.132			-3.689
69404.000			-22.131			-3.688
69505.000			-22.130			-3.688
69604.000			-22.128			-3.688
69704.000			-22.127			-3.688
69805.000			-22.126			-3.688
69904.000			-22.125			-3.688
70003.000			-22.124			-3.687
70105.000			-22.123			-3.687
70204.000			-22.122			-3.687
70304.000			-22.121			-3.687
70405.000			-22.121			-3.687
70504.000			-22.120			-3.687
70604.000			-22.119			-3.686
70704.000			-22.118			-3.686
70804.000			-22.117			-3.686
70904.000			-22.116			-3.686
71005.000			-22.113			-3.686
71104.000			-22.113			-3.686
71203.000			-22.114			-3.686
71305.000			-22.113			-3.685
71404.000			-22.112			-3.685
71505.000			-22.110			-3.685
71604.000			-22.109			-3.685
71704.000			-22.108			-3.685
71805.000			-22.108			-3.685
71903.000			-22.107			-3.684
72004.000			-22.106			-3.684
72105.000			-22.106			-3.684
72204.000			-22.105			-3.684
72304.000			-22.103			-3.684
72405.000			-22.101			-3.683
72504.000			-22.101			-3.683
72603.000			-22.100			-3.683
72705.000			-22.099			-3.683
72804.000			-22.098			-3.683
72904.000			-22.098			-3.683
73005.000			-22.097			-3.683
73104.000			-22.094			-3.682
73204.000			-22.094			-3.682
73304.000			-22.093			-3.682
73404.000			-22.093			-3.682
73504.000			-22.093			-3.682
73605.000			-22.092			-3.682
73704.000			-22.089			-3.682
73803.000			-22.089			-3.682
73905.000			-22.088			-3.681
74004.000			-22.087			-3.681
74104.000			-22.087			-3.681
74205.000			-22.087			-3.681
74304.000			-22.086			-3.681
74404.000			-22.083			-3.681
74503.000			-22.083			-3.681
74604.000			-22.083			-3.680
74705.000			-22.082			-3.680
74804.000			-22.081			-3.680
74904.000			-22.080			-3.680
75005.000			-22.079			-3.680
75104.000			-22.078			-3.680
75203.000			-22.078			-3.680
75305.000			-22.076			-3.679
75404.000			-22.076			-3.679
75504.000			-22.076			-3.679
75605.000			-22.075			-3.679
75704.000			-22.073			-3.679
75804.000			-22.072			-3.679
75904.000			-22.071			-3.679
76004.000			-22.070			-3.678
76104.000			-22.069			-3.678
76205.000			-22.068			-3.678
76304.000			-22.067			-3.678
76404.000			-22.067			-3.678
76505.000			-22.066			-3.678
76603.000			-22.065			-3.678
76704.000			-22.064			-3.677
76805.000			-22.063			-3.677
76904.000			-22.062			-3.677
77004.000			-22.061			-3.677
77105.000			-22.061			-3.677
77204.000			-22.061			-3.677
77303.000			-22.060			-3.677
77405.000			-22.059			-3.676
77504.000			-22.056			-3.676
77604.000			-22.055			-3.676
77705.000			-22.055			-3.676
77804.000			-22.054			-3.676
77905.000			-22.054			-3.676
78003.000			-22.054			-3.676
78104.000			-22.053			-3.675
78205.000			-22.050			-3.675
78304.000			-22.050			-3.675
78404.000			-22.051			-3.675
78505.000			-22.050			-3.675
78604.000			-22.049			-3.675
78703.000			-22.048			-3.675
78805.000			-22.047			-3.675
78904.000			-22.045			-3.674
79004.000			-22.044			-3.674
79105.000			-22.043			-3.674
79204.000			-22.042			-3.674
79304.000			-22.042			-3.674
79404.000			-22.041			-3.673
79504.000			-22.041			-3.673
79604.000			-22.039			-3.673
79705.000			-22.038			-3.673
79804.000			-22.038			-3.673
79904.000			-22.037			-3.673
80005.000			-22.035			-3.673
80103.000			-22.036			-3.673
80204.000			-22.035			-3.672
80305.000			-22.034			-3.672
80404.000			-22.032			-3.672
80504.000			-22.032			-3.672
80604.000			-22.031			-3.672
80704.000			-22.030			-3.672
80804.000			-22.029			-3.672
80904.000			-22.028			-3.671
81004.000			-22.027			-3.671
81105.000			-22.026			-3.671
81204.000			-22.026			-3.671
81303.000			-22.026			-3.671
81405.000			-22.025			-3.671
81504.000			-22.025			-3.671
81604.000			-22.024			-3.671
81705.000			-22.023			-3.670
81804.000			-22.021			-3.670
81904.000			-22.022			-3.670
82004.000			-22.020			-3.670
82104.000			-22.019			-3.670
82204.000			-22.018			-3.670
82305.000			-22.018			-3.670
82404.000			-22.017			-3.669
82504.000			-22.015			-3.669
82605.000			-22.014			-3.669
82703.000			-22.014			-3.669
82804.000			-22.013			-3.669
82905.000			-22.013			-3.669
83004.000			-22.012			-3.669
83104.000			-22.011			-3.669
83204.000			-22.010			-3.668
83304.000			-22.009			-3.668
83403.000			-22.009			-3.668
83505.000			-22.008			-3.668
83604.000			-22.007			-3.668
83704.000			-22.007			-3.668
83805.000			-22.006			-3.668
83903.000			-22.005			-3.668
84004.000			-22.005			-3.667
84105.000			-22.004			-3.667
84204.000			-22.003			-3.667
84305.000			-22.003			-3.667
84404.000			-22.002			-3.667
84504.000			-22.000			-3.667
84604.000			-22.000			-3.667
84704.000			-21.999			-3.667
84804.000			-21.999			-3.667
84905.000			-21.998			-3.666
85004.000			-21.997			-3.666
85104.000			-21.996			-3.666
85205.000			-21.996			-3.666
85303.000			-21.995			-3.666
85404.000			-21.994			-3.666
85505.000			-21.993			-3.665
85604.000			-21.993			-3.665
85704.000			-21.993			-3.665
85805.000			-21.992			-3.665
85904.000			-21.990			-3.665
86003.000			-21.989			-3.665
86105.000			-21.990			-3.665
86204.000			-21.988			-3.665
86304.000			-21.986			-3.664
86405.000			-21.986			-3.664
86504.000			-21.985			-3.664
86604.000			-21.985			-3.664
86705.000			-21.983			-3.664
86804.000			-21.983			-3.664
86903.000			-21.982			-3.664
87005.000			-21.981			-3.664
87104.000			-21.981			-3.663
87204.000			-21.982			-3.664
87305.000			-21.981			-3.663
87404.000			-21.979			-3.663
87505.000			-21.979			-3.663
87603.000			-21.978			-3.663
87704.000			-21.976			-3.663
87805.000			-21.976			-3.663
87904.000			-21.975			-3.662
88004.000			-21.974			-3.662
88105.000			-21.973			-3.662
88204.000			-21.973			-3.662
88303.000			-21.972			-3.662
88405.000			-21.971			-3.662
88504.000			-21.970			-3.662
88604.000			-21.970			-3.662
88705.000			-21.968			-3.661
88804.000			-21.968			-3.661
88904.000			-21.968			-3.661
89005.000			-21.968			-3.661
89104.000			-21.966			-3.661
89203.000			-21.965			-3.661
89305.000			-21.964			-3.661
89404.000			-21.963			-3.661
89504.000			-21.962			-3.660
89605.000			-21.963			-3.661
89704.000			-21.963			-3.660
89804.000			-21.960			-3.660
89904.000			-21.961			-3.660
90004.000			-21.960			-3.660
90104.000			-21.960			-3.660
90205.000			-21.959			-3.660
90304.000			-21.958			-3.660
90404.000			-21.957			-3.660
90505.000			-21.956			-3.659
90603.000			-21.955			-3.659
90705.000			-21.954			-3.659
90804.000			-21.954			-3.659
90904.000			-21.954			-3.659
91005.000			-21.953			-3.659
91104.000			-21.952			-3.659
91204.000			-21.951			-3.658
91304.000			-21.952			-3.659
91404.000			-21.950			-3.658
91504.000			-21.949			-3.658
91605.000			-21.950			-3.658
91704.000			-21.948			-3.658
91804.000			-21.947			-3.658
91905.000			-21.946			-3.658
92003.000			-21.945			-3.658
92104.000			-21.945			-3.657
92205.000			-21.944			-3.657
92304.000			-21.944			-3.657
92404.000			-21.943			-3.657
92505.000			-21.943			-3.657
92604.000			-21.943			-3.657
92703.000			-21.940			-3.657
92805.000			-21.940			-3.657
92904.000			-21.940			-3.657
93004.000			-21.939			-3.657
93105.000			-21.939			-3.656
93204.000			-21.938			-3.656
93304.000			-21.938			-3.656
93404.000			-21.936			-3.656
93504.000			-21.935			-3.656
93604.000			-21.934			-3.656
93704.000			-21.934			-3.656
93804.000			-21.934			-3.656
93905.000			-21.933			-3.655
94004.000			-21.932			-3.655
94103.000			-21.931			-3.655
94205.000			-21.931			-3.655
94304.000			-21.930			-3.655
94404.000			-21.929			-3.655
94505.000			-21.928			-3.655
94604.000			-21.928			-3.655
94704.000			-21.928			-3.655
94804.000			-21.926			-3.654
94904.000			-21.925			-3.654
95004.000			-21.925			-3.654
95105.000			-21.925			-3.654
95204.000			-21.924			-3.654
95304.000			-21.924			-3.654
95405.000			-21.922			-3.654
95503.000			-21.921			-3.653
95604.000			-21.920			-3.653
95705.000			-21.919			-3.653
95804.000			-21.919			-3.653
95904.000			-21.919			-3.653
96005.000			-21.919			-3.653
96104.000			-21.918			-3.653
96203.000			-21.918			-3.653
96305.000			-21.917			-3.653
96404.000			-21.915			-3.653
96504.000			-21.914			-3.652
96605.000			-21.914			-3.652
96704.000			-21.914			-3.652
96804.000			-21.914			-3.652
96903.000			-21.912			-3.652
97004.000			-21.912			-3.652
97105.000			-21.911			-3.652
97204.000			-21.910			-3.652
97304.000			-21.910			-3.652
97405.000			-21.909			-3.652
97504.000			-21.908			-3.651
97603.000			-21.908			-3.651
97705.000			-21.907			-3.651
97804.000			-21.906			-3.651
97904.000			-21.906			-3.651
98005.000			-21.905			-3.651
98104.000			-21.905			-3.651
98204.000			-21.904			-3.651
98304.000			-21.903			-3.650
98404.000			-21.902			-3.650
98503.000			-21.902			-3.650
98605.000			-21.901			-3.650
98704.000			-21.900			-3.650
98804.000			-21.899			-3.650
98905.000			-21.899			-3.650
99004.000			-21.898			-3.650
99104.000			-21.898			-3.650
99204.000			-21.895			-3.649
99304.000			-21.895			-3.649
99404.000			-21.895			-3.649
99505.000			-21.895			-3.649
99604.000			-21.894			-3.649
99704.000			-21.894			-3.649
99805.000			-21.892			-3.649
99903.000			-21.892			-3.649
100004.000			-21.892			-3.649
100105.000			-21.890			-3.648
100204.000			-21.890			-3.648
100305.000			-21.889			-3.648
100404.000			-21.889			-3.648
100504.000			-21.889			-3.648
100604.000			-21.887			-3.648
100704.000			-21.888			-3.648
100803.000			-21.887			-3.648
100905.000			-21.886			-3.648
101004.000			-21.886			-3.648
101104.000			-21.884			-3.647
101205.000			-21.884			-3.647
101304.000			-21.883			-3.647
101404.000			-21.881			-3.647
101504.000			-21.882			-3.647
101604.000			-21.882			-3.647
101704.000			-21.881			-3.647
101805.000			-21.881			-3.647
101904.000			-21.880			-3.647
102004.000			-21.879			-3.647
102105.000			-21.878			-3.646
102203.000			-21.877			-3.646
102304.000			-21.877			-3.646
102405.000			-21.876			-3.646
102504.000			-21.876			-3.646
102604.000			-21.875			-3.646
102705.000			-21.874			-3.646
102804.000			-21.873			-3.646
102903.000			-21.872			-3.645
103005.000			-21.872			-3.645
103104.000			-21.872			-3.645
103204.000			-21.871			-3.645
103305.000			-21.870			-3.645
103404.000			-21.870			-3.645
103505.000			-21.868			-3.645
103603.000			-21.868			-3.645
103704.000			-21.868			-3.645
103805.000			-21.868			-3.645
103904.000			-21.867			-3.644
104004.000			-21.866			-3.644
104105.000			-21.864			-3.644
104204.000			-21.864			-3.644
104303.000			-21.864			-3.644
104405.000			-21.862			-3.644
104504.000			-21.863			-3.644
104604.000			-21.862			-3.644
104705.000			-21.861			-3.643
104804.000			-21.860			-3.643
104904.000			-21.860			-3.643
105004.000			-21.859			-3.643
105104.000			-21.858			-3.643
105203.000			-21.858			-3.643
105305.000			-21.858			-3.643
105404.000			-21.858			-3.643
105504.000			-21.857			-3.643
105605.000			-21.856			-3.643
105704.000			-21.855			-3.643
105804.000			-21.854			-3.642
105904.000			-21.854			-3.642
106004.000			-21.854			-3.642
106104.000			-21.853			-3.642
106205.000			-21.852			-3.642
106304.000			-21.852			-3.642
106404.000			-21.850			-3.642
106505.000			-21.850			-3.642
106603.000			-21.850			-3.642
106705.000			-21.849			-3.642
106804.000			-21.848			-3.641
106904.000			-21.848			-3.641
107005.000			-21.848			-3.641
107104.000			-21.847			-3.641
107204.000			-21.845			-3.641
107304.000			-21.844			-3.641
107404.000			-21.844			-3.641
107504.000			-21.844			-3.641
107605.000			-21.844			-3.641
107704.000			-21.843			-3.641
107804.000			-21.842			-3.640
107905.000			-21.841			-3.640
108003.000			-21.840			-3.640
108104.000			-21.840			-3.640
108204.000			-21.840			-3.640
108304.000			-21.839			-3.640
108404.000			-21.839			-3.640
108505.000			-21.838			-3.640
108604.000			-21.837			-3.640
108704.000			-21.837			-3.640
108805.000			-21.836			-3.639
108903.000			-21.835			-3.639
109004.000			-21.835			-3.639
109105.000			-21.834			-3.639
109204.000			-21.834			-3.639
109304.000			-21.832			-3.639
109405.000			-21.832			-3.639
109504.000			-21.831			-3.639
109603.000			-21.831			-3.639
109705.000			-21.832			-3.639
109804.000			-21.831			-3.639
109905.000			-21.829			-3.638
110004.000			-21.829			-3.638
110104.000			-21.828			-3.638
110205.000			-21.827			-3.638
110303.000			-21.827			-3.638
110404.000			-21.827			-3.638
110505.000			-21.826			-3.638
110604.000			-21.826			-3.638
110704.000			-21.825			-3.638
110805.000			-21.824			-3.637
110904.000			-21.823			-3.637
111003.000			-21.824			-3.637
111105.000			-21.824			-3.637
111204.000			-21.823			-3.637
111304.000			-21.821			-3.637
111405.000			-21.820			-3.637
111504.000			-21.819			-3.637
111604.000			-21.820			-3.637
111704.000			-21.819			-3.637
111804.000			-21.818			-3.636
111904.000			-21.817			-3.636
112005.000			-21.817			-3.636
112104.000			-21.817			-3.636
112204.000			-21.815			-3.636
112305.000			-21.814			-3.636
112403.000			-21.815			-3.636
112504.000			-21.814			-3.636
112605.000			-21.814			-3.636
112704.000			-21.813			-3.636
112804.000			-21.812			-3.635
112904.000			-21.813			-3.635
113004.000			-21.811			-3.635
113104.000			-21.811			-3.635
113204.000			-21.810			-3.635
113304.000			-21.809			-3.635
113405.000			-21.810			-3.635
113504.000			-21.809			-3.635
113604.000			-21.808			-3.635
113705.000			-21.807			-3.634
113803.000			-21.807			-3.635
113904.000			-21.806			-3.634
114005.000			-21.805			-3.634
114104.000			-21.805			-3.634
114204.000			-21.805			-3.634
114305.000			-21.805			-3.634
114404.000			-21.802			-3.634
114503.000			-21.803			-3.634
114605.000			-21.803			-3.634
114704.000			-21.802			-3.634
114804.000			-21.801			-3.633
114905.000			-21.800			-3.633
115004.000			-21.800			-3.633
115104.000			-21.800			-3.633
115204.000			-21.799			-3.633
115304.000			-21.798			-3.633
115404.000			-21.797			-3.633
115505.000			-21.797			-3.633
115604.000			-21.797			-3.633
115704.000			-21.796			-3.633
115805.000			-21.796			-3.633
115903.000			-21.794			-3.632
116004.000			-21.793			-3.632
116103.000			-21.793			-3.632
116204.000			-21.792			-3.632
116305.000			-21.792			-3.632
116404.000			-21.792			-3.632
116504.000			-21.791			-3.632
116605.000			-21.791			-3.632
116704.000			-21.791			-3.632
116803.000			-21.791			-3.632
116905.000			-21.790			-3.632
117004.000			-21.788			-3.631
117104.000			-21.788			-3.631
117205.000			-21.788			-3.631
117304.000			-21.787			-3.631
117404.000			-21.786			-3.631
117504.000			-21.786			-3.631
117604.000			-21.785			-3.631
117704.000			-21.784			-3.631
117805.000			-21.785			-3.631
117904.000			-21.783			-3.631
118004.000			-21.782			-3.630
118105.000			-21.781			-3.630
118204.000			-21.782			-3.630
118304.000			-21.782			-3.630
118404.000			-21.780			-3.630
118504.000			-21.780			-3.630
118604.000			-21.780			-3.630
118705.000			-21.780			-3.630
118804.000			-21.778			-3.630
118904.000			-21.778			-3.630
119005.000			-21.777			-3.630
119103.000			-21.776			-3.629
119204.000			-21.776			-3.629
119305.000			-21.776			-3.629
119404.000			-21.776			-3.629
119505.000			-21.775			-3.629
119604.000			-21.774			-3.629
119704.000			-21.774			-3.629
119804.000			-21.774			-3.629
119904.000			-21.774			-3.629
120003.000			-21.773			-3.629
120105.000			-21.771			-3.629
120204.000			-21.771			-3.628
120304.000			-21.770			-3.628
120405.000			-21.770			-3.628
120504.000			-21.770			-3.628
120604.000			-21.769			-3.628
120704.000			-21.768			-3.628
120804.000			-21.768			-3.628
120904.000			-21.767			-3.628
121005.000			-21.767			-3.628
121104.000			-21.767			-3.628
121204.000			-21.766			-3.628
121305.000			-21.765			-3.627
121403.000			-21.764			-3.627
121504.000			-21.764			-3.627
121605.000			-21.764			-3.627
121704.000			-21.763			-3.627
121804.000			-21.762			-3.627
121905.000			-21.762			-3.627
122004.000			-21.761			-3.627
122103.000			-21.760			-3.627
122205.000			-21.760			-3.627
122304.000			-21.760			-3.627
122404.000			-21.759			-3.626
122505.000			-21.759			-3.626
122604.000			-21.759			-3.626
122705.000			-21.758			-3.626
122803.000			-21.757			-3.626
122904.000			-21.756			-3.626
123005.000			-21.756			-3.626
123104.000			-21.755			-3.626
123204.000			-21.755			-3.626
123305.000			-21.754			-3.626
123404.000			-21.753			-3.625
123503.000			-21.753			-3.626
123605.000			-21.753			-3.626
123704.000			-21.752			-3.625
123804.000			-21.752			-3.625
123905.000			-21.751			-3.625
124004.000			-21.750			-3.625
124104.000			-21.750			-3.625
124204.000			-21.749			-3.625
124304.000			-21.749			-3.625
124403.000			-21.749			-3.625
124505.000			-21.749			-3.625
124604.000			-21.748			-3.625
124704.000			-21.746			-3.624
124805.000			-21.746			-3.624
124904.000			-21.746			-3.624
125004.000			-21.745			-3.624
125104.000			-21.745			-3.624
125204.000			-21.744			-3.624
125304.000			-21.744			-3.624
125405.000			-21.743			-3.624
125504.000			-21.743			-3.624
125604.000			-21.743			-3.624
125705.000			-21.742			-3.624
125803.000			-21.742			-3.624
125905.000			-21.741			-3.623
126004.000			-21.739			-3.623
126104.000			-21.739			-3.623
126205.000			-21.739			-3.623
126304.000			-21.738			-3.623
126404.000			-21.738			-3.623
126504.000			-21.738			-3.623
126604.000			-21.737			-3.623
126704.000			-21.737			-3.623
126805.000			-21.737			-3.623
126904.000			-21.736			-3.623
127004.000			-21.735			-3.622
127105.000			-21.734			-3.622
127203.000			-21.734			-3.622
127304.000			-21.733			-3.622
127405.000			-21.733			-3.622
127504.000			-21.733			-3.622
127604.000			-21.732			-3.622
127705.000			-21.732			-3.622
127804.000			-21.732			-3.622
127903.000			-21.731			-3.622
128005.000			-21.730			-3.622
128103.000			-21.730			-3.622
128204.000			-21.729			-3.622
128305.000			-21.728			-3.621
128404.000			-21.728			-3.621
128504.000			-21.727			-3.621
128605.000			-21.726			-3.621
128704.000			-21.726			-3.621
128803.000			-21.725			-3.621
128905.000			-21.725			-3.621
129004.000			-21.725			-3.621
129105.000			-21.725			-3.621
129204.000			-21.724			-3.621
129304.000			-21.723			-3.621
129405.000			-21.723			-3.621
129503.000			-21.723			-3.621
129604.000			-21.721			-3.620
129705.000			-21.721			-3.620
129804.000			-21.720			-3.620
129904.000			-21.720			-3.620
130005.000			-21.720			-3.620
130104.000			-21.719			-3.620
130203.000			-21.718			-3.620
130305.000			-21.719			-3.620
130404.000			-21.717			-3.619
130504.000			-21.716			-3.619
130605.000			-21.717			-3.619
130704.000			-21.717			-3.619
130804.000			-21.716			-3.619
130904.000			-21.714			-3.619
131004.000			-21.714			-3.619
131104.000			-21.713			-3.619
131205.000			-21.713			-3.619
131304.000			-21.714			-3.619
131404.000			-21.713			-3.619
131505.000			-21.711			-3.619
131603.000			-21.712			-3.619
131704.000			-21.712			-3.619
131804.000			-21.711			-3.619
131904.000			-21.710			-3.618
132004.000			-21.710			-3.618
132104.000			-21.711			-3.618
132204.000			-21.709			-3.618
132305.000			-21.708			-3.618
132404.000			-21.707			-3.618
132503.000			-21.706			-3.618
132605.000			-21.707			-3.618
132704.000			-21.706			-3.618
132804.000			-21.706			-3.618
132905.000			-21.705			-3.618
133004.000			-21.705			-3.618
133104.000			-21.704			-3.617
133204.000			-21.703			-3.617
133304.000			-21.703			-3.617
133403.000			-21.703			-3.617
133505.000			-21.702			-3.617
133604.000			-21.702			-3.617
133704.000			-21.701			-3.617
133805.000			-21.701			-3.617
133904.000			-21.701			-3.617
134004.000			-21.699			-3.617
134104.000			-21.700			-3.617
134204.000			-21.700			-3.617
134304.000			-21.699			-3.616
134405.000			-21.697			-3.616
134504.000			-21.698			-3.616
134604.000			-21.698			-3.616
134705.000			-21.697			-3.616
134804.000			-21.696			-3.616
134904.000			-21.696			-3.616
135004.000			-21.695			-3.616
135104.000			-21.695			-3.616
135204.000			-21.695			-3.616
135304.000			-21.693			-3.616
135404.000			-21.693			-3.616
135505.000			-21.694			-3.616
135604.000			-21.693			-3.615
135704.000			-21.692			-3.615
135805.000			-21.692			-3.615
135903.000			-21.691			-3.615
136004.000			-21.691			-3.615
136105.000			-21.690			-3.615
136204.000			-21.690			-3.615
136304.000			-21.690			-3.615
136405.000			-21.689			-3.615
136504.000			-21.688			-3.615
136604.000			-21.688			-3.615
136705.000			-21.688			-3.615
136803.000			-21.686			-3.614
136904.000			-21.687			-3.614
137004.000			-21.686			-3.614
137104.000			-21.686			-3.614
137204.000			-21.686			-3.614
137305.000			-21.685			-3.614
137404.000			-21.683			-3.614
137504.000			-21.683			-3.614
137605.000			-21.684			-3.614
137703.000			-21.684			-3.614
137804.000			-21.682			-3.614
137904.000			-21.681			-3.613
138004.000			-21.681			-3.613
138104.000			-21.681			-3.613
138205.000			-21.680			-3.613
138304.000			-21.680			-3.613
138404.000			-21.679			-3.613
138505.000			-21.679			-3.613
138603.000			-21.679			-3.613
138705.000			-21.679			-3.613
138803.000			-21.678			-3.613
138904.000			-21.677			-3.613
139005.000			-21.676			-3.613
139104.000			-21.676			-3.613
139204.000			-21.675			-3.613
139305.000			-21.675			-3.613
139404.000			-21.675			-3.613
139503.000			-21.674			-3.612
139605.000			-21.673			-3.612
139704.000			-21.672			-3.612
139804.000			-21.672			-3.612
139905.000			-21.672			-3.612
140004.000			-21.672			-3.612
140104.000			-21.670			-3.612
140205.000			-21.670			-3.612
140304.000			-21.671			-3.612
140403.000			-21.670			-3.612
140505.000			-21.670			-3.612
140604.000			-21.669			-3.612
140704.000			-21.668			-3.611
140805.000			-21.668			-3.611
140904.000			-21.668			-3.611
141004.000			-21.667			-3.611
141105.000			-21.667			-3.611
141204.000			-21.666			-3.611
141303.000			-21.665			-3.611
141405.000			-21.665			-3.611
141504.000			-21.665			-3.611
141604.000			-21.664			-3.611
141705.000			-21.663			-3.611
141804.000			-21.663			-3.610
141905.000			-21.662			-3.610
142004.000			-21.662			-3.610
142104.000			-21.661			-3.610
142204.000			-21.661			-3.610
142304.000			-21.661			-3.610
142404.000			-21.660			-3.610
142505.000			-21.660			-3.610
142604.000			-21.658			-3.610
142704.000			-21.658			-3.610
142805.000			-21.657			-3.610
142904.000			-21.657			-3.609
143004.000			-21.657			-3.610
143104.000			-21.656			-3.609
143204.000			-21.656			-3.609
143304.000			-21.656			-3.609
143405.000			-21.656			-3.609
143504.000			-21.656			-3.609
143604.000			-21.656			-3.609
143705.000			-21.655			-3.609
143804.000			-21.654			-3.609
143904.000			-21.654			-3.609
144004.000			-21.653			-3.609
144104.000			-21.653			-3.609
144204.000			-21.652			-3.609
144305.000			-21.651			-3.609
144404.000			-21.650			-3.608
144504.000			-21.650			-3.608
144605.000			-21.651			-3.609
144703.000			-21.650			-3.608
144804.000			-21.649			-3.608
144903.000			-21.649			-3.608
145004.000			-21.648			-3.608
145105.000			-21.648			-3.608
145204.000			-21.647			-3.608
145304.000			-21.647			-3.608
145405.000			-21.647			-3.608
145504.000			-21.645			-3.607
145603.000			-21.646			-3.608
145705.000			-21.646			-3.608
145803.000			-21.645			-3.607
145904.000			-21.645			-3.607
146005.000			-21.645			-3.607
146104.000			-21.644			-3.607
146204.000			-21.642			-3.607
146305.000			-21.643			-3.607
146404.000			-21.643			-3.607
146503.000			-21.642			-3.607
146605.000			-21.641			-3.607
146704.000			-21.640			-3.607
146804.000			-21.639			-3.607
146905.000			-21.639			-3.607
147004.000			-21.639			-3.607
147104.000			-21.638			-3.606
147205.000			-21.637			-3.606
147304.000			-21.637			-3.606
147403.000			-21.636			-3.606
147505.000			-21.636			-3.606
147604.000			-21.637			-3.606
147704.000			-21.635			-3.606
147805.000			-21.634			-3.606
147904.000			-21.634			-3.606
148004.000			-21.633			-3.606
148104.000			-21.633			-3.605
148204.000			-21.633			-3.606
148304.000			-21.634			-3.606
148404.000			-21.633			-3.606
148504.000			-21.633			-3.605
148605.000			-21.632			-3.605
148704.000			-21.631			-3.605
148804.000			-21.632			-3.605
148905.000			-21.631			-3.605
149004.000			-21.630			-3.605
149104.000			-21.630			-3.605
149204.000			-21.630			-3.605
149304.000			-21.628			-3.605
149404.000			-21.628			-3.605
149505.000			-21.628			-3.605
149604.000			-21.627			-3.605
149704.000			-21.627			-3.605
149805.000			-21.627			-3.604
149904.000			-21.626			-3.604
150004.000			-21.625			-3.604
150104.000			-21.626			-3.604
150204.000			-21.625			-3.604
150304.000			-21.626			-3.604
150405.000			-21.626			-3.604
150504.000			-21.624			-3.604
150604.000			-21.622			-3.604
150705.000			-21.623			-3.604
150803.000			-21.622			-3.604
150904.000			-21.623			-3.604
151004.000			-21.622			-3.604
151104.000			-21.621			-3.604
151204.000			-21.621			-3.603
151304.000			-21.619			-3.603
151404.000			-21.619			-3.603
151505.000			-21.619			-3.603
151604.000			-21.619			-3.603
151703.000			-21.619			-3.603
151805.000			-21.618			-3.603
151904.000			-21.618			-3.603
152004.000			-21.617			-3.603
152105.000			-21.617			-3.603
152204.000			-21.616			-3.603
152304.000			-21.614			-3.602
152405.000			-21.614			-3.602
152504.000			-21.614			-3.602
152603.000			-21.615			-3.602
152705.000			-21.613			-3.602
152804.000			-21.613			-3.602
152904.000			-21.612			-3.602
153005.000			-21.612			-3.602
153104.000			-21.613			-3.602
153204.000			-21.612			-3.602
153304.000			-21.612			-3.602
153404.000			-21.612			-3.602
153503.000			-21.611			-3.602
153605.000			-21.612			-3.602
153704.000			-21.610			-3.602
153804.000			-21.609			-3.602
153905.000			-21.610			-3.602
154004.000			-21.608			-3.601
154104.000			-21.609			-3.601
154204.000			-21.607			-3.601
154304.000			-21.607			-3.601
154403.000			-21.607			-3.601
154505.000			-21.607			-3.601
154604.000			-21.607			-3.601
154705.000			-21.606			-3.601
154804.000			-21.605			-3.601
154904.000			-21.605			-3.601
155005.000			-21.604			-3.601
155103.000			-21.604			-3.601
155204.000			-21.603			-3.601
155305.000			-21.603			-3.601
155404.000			-21.603			-3.601
155504.000			-21.603			-3.601
155605.000			-21.602			-3.600
155704.000			-21.600			-3.600
155804.000			-21.601			-3.600
155905.000			-21.601			-3.600
156003.000			-21.601			-3.600
156104.000			-21.600			-3.600
156205.000			-21.600			-3.600
156304.000			-21.598			-3.600
156404.000			-21.599			-3.600
156505.000			-21.599			-3.600
156604.000			-21.597			-3.600
156704.000			-21.597			-3.599
156805.000			-21.597			-3.599
156903.000			-21.596			-3.599
157004.000			-21.596			-3.599
157105.000			-21.595			-3.599
157204.000			-21.595			-3.599
157304.000			-21.595			-3.599
157405.000			-21.595			-3.599
157504.000			-21.594			-3.599
157604.000			-21.593			-3.599
157705.000			-21.593			-3.599
157803.000			-21.592			-3.599
157905.000			-21.592			-3.599
158004.000			-21.592			-3.599
158104.000			-21.591			-3.599
158205.000			-21.590			-3.598
158304.000			-21.591			-3.598
158404.000			-21.591			-3.598
158505.000			-21.590			-3.598
158604.000			-21.588			-3.598
158703.000			-21.589			-3.598
158805.000			-21.589			-3.598
158904.000			-21.588			-3.598
159004.000			-21.587			-3.598
159105.000			-21.587			-3.598
159204.000			-21.587			-3.598
159304.000			-21.586			-3.598
159405.000			-21.587			-3.598
159504.000			-21.586			-3.598
159603.000			-21.585			-3.598
159705.000			-21.584			-3.597
159804.000			-21.584			-3.597
159904.000			-21.583			-3.597
160005.000			-21.582			-3.597
160104.000			-21.582			-3.597
160204.000			-21.582			-3.597
160305.000			-21.582			-3.597
160404.000			-21.582			-3.597
160503.000			-21.582			-3.597
160605.000			-21.581			-3.597
160704.000			-21.581			-3.597
160804.000			-21.580			-3.597
160905.000			-21.580			-3.597
161004.000			-21.580			-3.597
161105.000			-21.580			-3.597
161204.000			-21.580			-3.597
161304.000			-21.579			-3.596
161404.000			-21.579			-3.596
161504.000			-21.578			-3.596
161604.000			-21.577			-3.596
161705.000			-21.577			-3.596
161804.000			-21.577			-3.596
161904.000			-21.577			-3.596
162005.000			-21.576			-3.596
162104.000			-21.575			-3.596
162204.000			-21.574			-3.596
162304.000			-21.574			-3.596
162404.000			-21.574			-3.596
162504.000			-21.573			-3.596
162605.000			-21.574			-3.596
162704.000			-21.574			-3.596
162804.000			-21.572			-3.595
162905.000			-21.571			-3.595
163004.000			-21.571			-3.595
163104.000			-21.571			-3.595
163204.000			-21.571			-3.595
163304.000			-21.570			-3.595
163404.000			-21.570			-3.595
163505.000			-21.569			-3.595
163604.000			-21.570			-3.595
163704.000			-21.570			-3.595
163805.000			-21.569			-3.595
163904.000			-21.567			-3.595
164004.000			-21.568			-3.595
164103.000			-21.568			-3.595
164204.000			-21.568			-3.595
164305.000			-21.566			-3.594
164404.000			-21.566			-3.594
164504.000			-21.565			-3.594
164605.000			-21.564			-3.594
164704.000			-21.565			-3.594
164803.000			-21.565			-3.594
164905.000			-21.563			-3.594
165003.000			-21.563			-3.594
165104.000			-21.563			-3.594
165205.000			-21.562			-3.594
165304.000			-21.562			-3.594
165404.000			-21.563			-3.594
165505.000			-21.562			-3.594
165604.000			-21.562			-3.594
165703.000			-21.560			-3.593
165805.000			-21.560			-3.593
165903.000			-21.559			-3.593
166004.000			-21.559			-3.593
166105.000			-21.559			-3.593
166204.000			-21.559			-3.593
166304.000			-21.559			-3.593
166405.000			-21.558			-3.593
166504.000			-21.557			-3.593
166603.000			-21.557			-3.593
166705.000			-21.556			-3.593
166804.000			-21.557			-3.593
166904.000			-21.556			-3.593
167005.000			-21.556			-3.593
167104.000			-21.555			-3.593
167204.000			-21.554			-3.592
167304.000			-21.554			-3.592
167404.000			-21.554			-3.592
167504.000			-21.554			-3.592
167604.000			-21.553			-3.592
167703.000			-21.553			-3.592
167805.000			-21.553			-3.592
167904.000			-21.553			-3.592
168004.000			-21.551			-3.592
168105.000			-21.551			-3.592
168204.000			-21.551			-3.592
168304.000			-21.550			-3.592
168404.000			-21.549			-3.591
168504.000			-21.550			-3.592
168604.000			-21.549			-3.592
168705.000			-21.549			-3.592
168804.000			-21.549			-3.592
168904.000			-21.548			-3.591
169005.000			-21.547			-3.591
169104.000			-21.546			-3.591
169204.000			-21.547			-3.591
169304.000			-21.547			-3.591
169404.000			-21.545			-3.591
169504.000			-21.546			-3.591
169605.000			-21.546			-3.591
169704.000			-21.545			-3.591
169804.000			-21.544			-3.591
169905.000			-21.543			-3.590
170004.000			-21.543			-3.590
170104.000			-21.545			-3.591
170204.000			-21.544			-3.591
170304.000			-21.543			-3.591
170404.000			-21.542			-3.590
170504.000			-21.542			-3.590
170604.000			-21.542			-3.590
170705.000			-21.541			-3.590
170804.000			-21.541			-3.590
170904.000			-21.541			-3.590
171005.000			-21.541			-3.590
171103.000			-21.541			-3.590
171204.000			-21.540			-3.590
171305.000			-21.539			-3.590
171404.000			-21.539			-3.590
171504.000			-21.539			-3.590
171605.000			-21.537			-3.590
171704.000			-21.537			-3.590
171804.000			-21.537			-3.590
171905.000			-21.537			-3.589
172003.000			-21.536			-3.589
172104.000			-21.536			-3.589
172205.000			-21.536			-3.589
172304.000			-21.534			-3.589
172404.000			-21.534			-3.589
172505.000			-21.534			-3.589
172604.000			-21.535			-3.589
172703.000			-21.535			-3.589
172805.000			-21.534			-3.589
172903.000			-21.534			-3.589
173004.000			-21.533			-3.589
173105.000			-21.533			-3.589
173204.000			-21.532			-3.589
173304.000			-21.531			-3.589
173405.000			-21.531			-3.588
173504.000			-21.531			-3.588
173603.000			-21.530			-3.588
173705.000			-21.530			-3.588
173804.000			-21.529			-3.588
173905.000			-21.528			-3.588
174004.000			-21.528			-3.588
174104.000			-21.529			-3.588
174205.000			-21.529			-3.588
174304.000			-21.527			-3.588
174404.000			-21.527			-3.588
174504.000			-21.527			-3.588
174604.000			-21.527			-3.588
174704.000			-21.527			-3.588
174805.000			-21.525			-3.588
174904.000			-21.525			-3.587
175004.000			-21.525			-3.587
175105.000			-21.526			-3.588
175204.000			-21.524			-3.587
175304.000			-21.524			-3.587
175404.000			-21.523			-3.587
175504.000			-21.523			-3.587
175604.000			-21.523			-3.587
175705.000			-21.523			-3.587
175804.000			-21.522			-3.587
175904.000			-21.521			-3.587
176005.000			-21.522			-3.587
176104.000			-21.522			-3.587
176204.000			-21.521			-3.587
176304.000			-21.520			-3.587
176404.000			-21.520			-3.587
176504.000			-21.519			-3.587
176605.000			-21.520			-3.587
176704.000			-21.520			-3.587
176804.000			-21.519			-3.587
176905.000			-21.518			-3.586
177004.000			-21.517			-3.586
177105.000			-21.516			-3.586
177203.000			-21.516			-3.586
177304.000			-21.516			-3.586
177405.000			-21.515			-3.586
177504.000			-21.517			-3.586
177604.000			-21.517			-3.586
177705.000			-21.515			-3.586
177804.000			-21.515			-3.586
177903.000			-21.514			-3.586
178005.000			-21.514			-3.586
178103.000			-21.512			-3.585
178204.000			-21.513			-3.585
178305.000			-21.512			-3.585
178404.000			-21.512			-3.585
178504.000			-21.512			-3.585
178605.000			-21.513			-3.585
178704.000			-21.512			-3.585
178803.000			-21.511			-3.585
178905.000			-21.510			-3.585
179003.000			-21.510			-3.585
179104.000			-21.510			-3.585
179205.000			-21.509			-3.585
179304.000			-21.509			-3.585
179404.000			-21.510			-3.585
179505.000			-21.509			-3.585
179604.000			-21.508			-3.585
179703.000			-21.508			-3.585
179805.000			-21.507			-3.585
179903.000			-21.507			-3.584
180004.000			-21.508			-3.585
180105.000			-21.507			-3.584
180204.000			-21.506			-3.584
180305.000			-21.505			-3.584
180404.000			-21.505			-3.584
180504.000			-21.505			-3.584
180604.000			-21.504			-3.584
180704.000			-21.504			-3.584
180803.000			-21.504			-3.584
180905.000			-21.504			-3.584
181004.000			-21.503			-3.584
181104.000			-21.503			-3.584
181205.000			-21.503			-3.584
181304.000			-21.502			-3.584
181404.000			-21.501			-3.583
181504.000			-21.502			-3.584
181604.000			-21.502			-3.584
181704.000			-21.502			-3.584
181805.000			-21.500			-3.583
181904.000			-21.500			-3.583
182004.000			-21.500			-3.583
182105.000			-21.499			-3.583
182204.000			-21.499			-3.583
182304.000			-21.499			-3.583
182404.000			-21.498			-3.583
182504.000			-21.499			-3.583
182604.000			-21.497			-3.583
182705.000			-21.497			-3.583
182804.000			-21.497			-3.583
182904.000			-21.496			-3.583
183005.000			-21.495			-3.583
183104.000			-21.496			-3.583
183204.000			-21.496			-3.583
183303.000			-21.496			-3.583
183404.000			-21.495			-3.583
183505.000			-21.494			-3.582
183604.000			-21.494			-3.582
183704.000			-21.494			-3.582
183805.000			-21.493			-3.582
183904.000			-21.493			-3.582
184004.000			-21.492			-3.582
184105.000			-21.492			-3.582
184203.000			-21.492			-3.582
184304.000			-21.491			-3.582
184405.000			-21.491			-3.582
184504.000			-21.491			-3.582
184604.000			-21.490			-3.582
184705.000			-21.490			-3.582
184804.000			-21.489			-3.581
184904.000			-21.489			-3.582
185005.000			-21.489			-3.582
185103.000			-21.489			-3.581
185204.000			-21.488			-3.581
185305.000			-21.487			-3.581
185404.000			-21.487			-3.581
185504.000			-21.487			-3.581
185605.000			-21.487			-3.581
185704.000			-21.486			-3.581
185804.000			-21.486			-3.581
185905.000			-21.486			-3.581
186003.000			-21.486			-3.581
186104.000			-21.485			-3.581
186204.000			-21.484			-3.581
186304.000			-21.484			-3.581
186404.000			-21.483			-3.581
186504.000			-21.484			-3.581
186604.000			-21.484			-3.581
186705.000			-21.484			-3.581
186804.000			-21.484			-3.581
186903.000			-21.483			-3.580
187005.000			-21.482			-3.580
187103.000			-21.482			-3.580
187204.000			-21.482			-3.580
187305.000			-21.480			-3.580
187404.000			-21.480			-3.580
187504.000			-21.479			-3.580
187605.000			-21.480			-3.580
187704.000			-21.480			-3.580
187804.000			-21.479			-3.580
187905.000			-21.479			-3.580
188003.000			-21.478			-3.580
188104.000			-21.478			-3.580
188205.000			-21.477			-3.580
188304.000			-21.478			-3.580
188404.000			-21.477			-3.580
188505.000			-21.476			-3.579
188604.000			-21.477			-3.579
188704.000			-21.476			-3.579
188805.000			-21.476			-3.579
188903.000			-21.476			-3.579
189004.000			-21.475			-3.579
189104.000			-21.475			-3.579
189204.000			-21.475			-3.579
189304.000			-21.475			-3.579
189405.000			-21.473			-3.579
189504.000			-21.473			-3.579
189604.000			-21.473			-3.579
189705.000			-21.473			-3.579
189803.000			-21.473			-3.579
189905.000			-21.472			-3.579
190003.000			-21.473			-3.579
190104.000			-21.472			-3.579
190205.000			-21.470			-3.578
190304.000			-21.470			-3.578
190404.000			-21.470			-3.578
190505.000			-21.470			-3.578
190604.000			-21.470			-3.578
190703.000			-21.469			-3.578
190805.000			-21.468			-3.578
190903.000			-21.468			-3.578
191004.000			-21.468			-3.578
191105.000			-21.468			-3.578
191204.000			-21.468			-3.578
191304.000			-21.468			-3.578
191405.000			-21.468			-3.578
191504.000			-21.467			-3.578
191604.000			-21.466			-3.578
191705.000			-21.467			-3.578
191803.000			-21.466			-3.578
191904.000			-21.465			-3.578
192005.000			-21.465			-3.578
192104.000			-21.464			-3.577
192204.000			-21.464			-3.577
192305.000			-21.464			-3.577
192404.000			-21.464			-3.577
192504.000			-21.463			-3.577
192605.000			-21.463			-3.577
192703.000			-21.463			-3.577
192804.000			-21.464			-3.577
192905.000			-21.464			-3.577
193004.000			-21.462			-3.577
193105.000			-21.462			-3.577
193204.000			-21.462			-3.577
193304.000			-21.461			-3.577
193405.000			-21.461			-3.577
193504.000			-21.461			-3.577
193603.000			-21.461			-3.577
193705.000			-21.459			-3.577
193804.000			-21.459			-3.577
193904.000			-21.460			-3.577
194005.000			-21.459			-3.577
194104.000			-21.458			-3.576
194204.000			-21.459			-3.576
194305.000			-21.456			-3.576
194404.000			-21.456			-3.576
194503.000			-21.457			-3.576
194605.000			-21.457			-3.576
194704.000			-21.456			-3.576
194804.000			-21.456			-3.576
194905.000			-21.456			-3.576
195004.000			-21.456			-3.576
195104.000			-21.455			-3.576
195205.000			-21.454			-3.576
195304.000			-21.454			-3.576
195403.000			-21.454			-3.576
195505.000			-21.453			-3.576
195604.000			-21.453			-3.575
195704.000			-21.453			-3.575
195805.000			-21.452			-3.575
195904.000			-21.451			-3.575
196004.000			-21.451			-3.575
196104.000			-21.451			-3.575
196204.000			-21.451			-3.575
196304.000			-21.451			-3.575
196404.000			-21.450			-3.575
196504.000			-21.450			-3.575
196605.000			-21.449			-3.575
196704.000			-21.449			-3.575
196804.000			-21.449			-3.575
196905.000			-21.448			-3.575
197004.000			-21.447			-3.575
197104.000			-21.448			-3.575
197204.000			-21.448			-3.575
197304.000			-21.447			-3.575
197404.000			-21.447			-3.575
197505.000			-21.447			-3.574
197604.000			-21.446			-3.574
197704.000			-21.445			-3.574
197805.000			-21.445			-3.574
197904.000			-21.444			-3.574
198004.000			-21.444			-3.574
198104.000			-21.444			-3.574
198204.000			-21.444			-3.574
198304.000			-21.444			-3.574
198405.000			-21.443			-3.574
198504.000			-21.443			-3.574
198604.000			-21.443			-3.574
198705.000			-21.443			-3.574
198804.000			-21.442			-3.574
198904.000			-21.441			-3.574
199004.000			-21.440			-3.573
199104.000			-21.442			-3.574
199204.000			-21.441			-3.574
199304.000			-21.441			-3.573
199404.000			-21.440			-3.573
199505.000			-21.440			-3.573
199604.000			-21.440			-3.573
199704.000			-21.440			-3.573
199805.000			-21.440			-3.573
199903.000			-21.438			-3.573
200004.000			-21.438			-3.573
200105.000			-21.439			-3.573
200204.000			-21.439			-3.573
200304.000			-21.439			-3.573
200405.000			-21.438			-3.573
200504.000			-21.438			-3.573
200604.000			-21.435			-3.573
200705.000			-21.436			-3.573
200803.000			-21.436			-3.573
200904.000			-21.436			-3.573
201005.000			-21.436			-3.573
201104.000			-21.435			-3.572
201204.000			-21.434			-3.572
201305.000			-21.435			-3.572
201404.000			-21.435			-3.572
201503.000			-21.434			-3.572
201605.000			-21.434			-3.572
201703.000			-21.433			-3.572
201804.000			-21.432			-3.572
201905.000			-21.432			-3.572
202004.000			-21.432			-3.572
202104.000			-21.432			-3.572
202205.000			-21.431			-3.572
202304.000			-21.431			-3.572
202403.000			-21.431			-3.572
202505.000			-21.430			-3.572
202604.000			-21.429			-3.572
202705.000			-21.429			-3.572
202804.000			-21.429			-3.571
202904.000			-21.429			-3.571
203005.000			-21.430			-3.572
203104.000			-21.429			-3.572
203204.000			-21.428			-3.571
203304.000			-21.428			-3.571
203404.000			-21.427			-3.571
203504.000			-21.427			-3.571
203605.000			-21.427			-3.571
203704.000			-21.427			-3.571
203804.000			-21.426			-3.571
203905.000			-21.425			-3.571
204003.000			-21.425			-3.571
204104.000			-21.425			-3.571
204205.000			-21.424			-3.571
204304.000			-21.423			-3.571
204404.000			-21.423			-3.571
204505.000			-21.423			-3.571
204604.000			-21.424			-3.571
204703.000			-21.423			-3.570
204805.000			-21.422			-3.570
204903.000			-21.422			-3.570
205004.000			-21.422			-3.570
205105.000			-21.422			-3.570
205204.000			-21.422			-3.570
205304.000			-21.421			-3.570
205405.000			-21.421			-3.570
205504.000			-21.420			-3.570
205603.000			-21.420			-3.570
205705.000			-21.420			-3.570
205804.000			-21.420			-3.570
205905.000			-21.419			-3.570
206004.000			-21.418			-3.570
206104.000			-21.418			-3.570
206205.000			-21.419			-3.570
206303.000			-21.418			-3.570
206404.000			-21.417			-3.570
206504.000			-21.417			-3.570
206604.000			-21.417			-3.569
206704.000			-21.417			-3.569
206805.000			-21.416			-3.569
206904.000			-21.415			-3.569
207004.000			-21.415			-3.569
207105.000			-21.415			-3.569
207203.000			-21.415			-3.569
207304.000			-21.414			-3.569
207405.000			-21.413			-3.569
207504.000			-21.412			-3.569
207604.000			-21.412			-3.569
207705.000			-21.413			-3.569
207804.000			-21.412			-3.569
207904.000			-21.412			-3.569
208005.000			-21.411			-3.569
208103.000			-21.410			-3.568
208204.000			-21.411			-3.569
208305.000			-21.411			-3.569
208404.000			-21.410			-3.568
208504.000			-21.410			-3.568
208605.000			-21.410			-3.568
208704.000			-21.410			-3.568
208803.000			-21.409			-3.568
208905.000			-21.409			-3.568
209004.000			-21.408			-3.568
209105.000			-21.407			-3.568
209204.000			-21.407			-3.568
209304.000			-21.408			-3.568
209405.000			-21.407			-3.568
209504.000			-21.408			-3.568
209604.000			-21.408			-3.568
209704.000			-21.407			-3.568
209804.000			-21.406			-3.568
209904.000			-21.405			-3.568
210005.000			-21.404			-3.567
210104.000			-21.405			-3.567
210204.000			-21.405			-3.568
210305.000			-21.405			-3.567
210403.000			-21.405			-3.568
210504.000			-21.406			-3.568
210605.000			-21.405			-3.567
210704.000			-21.403			-3.567
210804.000			-21.402			-3.567
210905.000			-21.402			-3.567
211004.000			-21.403			-3.567
211104.000			-21.402			-3.567
211205.000			-21.402			-3.567
211303.000			-21.401			-3.567
211404.000			-21.402			-3.567
211505.000			-21.401			-3.567
211604.000			-21.401			-3.567
211704.000			-21.399			-3.567
211805.000			-21.400			-3.567
211904.000			-21.400			-3.567
212003.000			-21.400			-3.567
212105.000			-21.399			-3.567
212204.000			-21.398			-3.566
212305.000			-21.398			-3.566
212404.000			-21.398			-3.566
212504.000			-21.398			-3.566
212605.000			-21.397			-3.566
212704.000			-21.397			-3.566
212804.000			-21.398			-3.566
212904.000			-21.397			-3.566
213004.000			-21.398			-3.566
213103.000			-21.398			-3.566
213205.000			-21.397			-3.566
213304.000			-21.395			-3.566
213404.000			-21.394			-3.566
213505.000			-21.394			-3.566
213604.000			-21.395			-3.566
213704.000			-21.394			-3.566
213804.000			-21.394			-3.566
213904.000			-21.393			-3.566
214004.000			-21.393			-3.565
214105.000			-21.393			-3.565
214204.000			-21.393			-3.565
214304.000			-21.393			-3.565
214405.000			-21.392			-3.565
214504.000			-21.392			-3.565
214604.000			-21.393			-3.565
214704.000			-21.393			-3.566
214804.000			-21.392			-3.565
214904.000			-21.391			-3.565
215005.000			-21.391			-3.565
215104.000			-21.391			-3.565
215204.000			-21.390			-3.565
215305.000			-21.391			-3.565
215403.000			-21.390			-3.565
215505.000			-21.390			-3.565
215604.000			-21.390			-3.565
215704.000			-21.389			-3.565
215805.000			-21.388			-3.565
215904.000			-21.388			-3.565
216004.000			-21.388			-3.565
216105.000			-21.388			-3.565
216204.000			-21.388			-3.565
216303.000			-21.388			-3.565
216405.000			-21.387			-3.564
216504.000			-21.388			-3.565
216604.000			-21.387			-3.564
216705.000			-21.386			-3.564
216804.000			-21.385			-3.564
216904.000			-21.386			-3.564
217005.000			-21.386			-3.564
217104.000			-21.385			-3.564
217203.000			-21.384			-3.564
217305.000			-21.384			-3.564
217404.000			-21.383			-3.564
217504.000			-21.384			-3.564
217605.000			-21.383			-3.564
217704.000			-21.382			-3.564
217804.000			-21.383			-3.564
217905.000			-21.383			-3.564
218004.000			-21.381			-3.564
218103.000			-21.381			-3.564
218205.000			-21.380			-3.563
218304.000			-21.380			-3.563
218404.000			-21.381			-3.563
218505.000			-21.380			-3.563
218604.000			-21.381			-3.563
218705.000			-21.379			-3.563
218804.000			-21.379			-3.563
218904.000			-21.378			-3.563
219004.000			-21.379			-3.563
219104.000			-21.379			-3.563
219204.000			-21.380			-3.563
219305.000			-21.379			-3.563
219404.000			-21.377			-3.563
219504.000			-21.377			-3.563
219605.000			-21.377			-3.563
219704.000			-21.377			-3.563
219804.000			-21.377			-3.563
219904.000			-21.376			-3.563
220004.000			-21.375			-3.563
220104.000			-21.374			-3.562
220205.000			-21.374			-3.562
220304.000			-21.374			-3.562
220404.000			-21.374			-3.562
220505.000			-21.374			-3.562
220603.000			-21.374			-3.562
220704.000			-21.374			-3.562
220804.000			-21.374			-3.562
220904.000			-21.374			-3.562
221004.000			-21.373			-3.562
221105.000			-21.372			-3.562
221204.000			-21.372			-3.562
221304.000			-21.372			-3.562
221405.000			-21.372			-3.562
221503.000			-21.372			-3.562
221604.000			-21.372			-3.562
221705.000			-21.371			-3.562
221804.000			-21.371			-3.562
221905.000			-21.372			-3.562
222004.000			-21.371			-3.562
222104.000			-21.370			-3.562
222204.000			-21.369			-3.562
222304.000			-21.370			-3.562
222403.000			-21.369			-3.562
222505.000			-21.370			-3.562
222604.000			-21.369			-3.561
222704.000			-21.367			-3.561
222805.000			-21.368			-3.561
222904.000			-21.368			-3.561
223004.000			-21.368			-3.561
223104.000			-21.367			-3.561
223204.000			-21.366			-3.561
223303.000			-21.366			-3.561
223405.000			-21.365			-3.561
223504.000			-21.365			-3.561
223604.000			-21.365			-3.561
223705.000			-21.365			-3.561
223804.000			-21.366			-3.561
223904.000			-21.365			-3.561
224004.000			-21.364			-3.561
224104.000			-21.364			-3.561
224204.000			-21.365			-3.561
224305.000			-21.363			-3.560
224404.000			-21.364			-3.561
224504.000			-21.363			-3.560
224605.000			-21.363			-3.560
224704.000			-21.363			-3.560
224804.000			-21.363			-3.560
224903.000			-21.363			-3.560
225004.000			-21.362			-3.560
225105.000			-21.362			-3.560
225204.000			-21.360			-3.560
225304.000			-21.361			-3.560
225405.000			-21.361			-3.560
225504.000			-21.361			-3.560
225603.000			-21.361			-3.560
225705.000			-21.361			-3.560
225804.000			-21.361			-3.560
225904.000			-21.359			-3.560
226005.000			-21.360			-3.560
226104.000			-21.359			-3.560
226204.000			-21.358			-3.560
226305.000			-21.358			-3.560
226404.000			-21.358			-3.560
226503.000			-21.358			-3.560
226605.000			-21.358			-3.560
226704.000			-21.358			-3.560
226804.000			-21.356			-3.559
226905.000			-21.355			-3.559
227004.000			-21.357			-3.559
227104.000			-21.357			-3.559
227205.000			-21.356			-3.559
227304.000			-21.355			-3.559
227403.000			-21.354			-3.559
227505.000			-21.355			-3.559
227604.000			-21.354			-3.559
227704.000			-21.353			-3.559
227805.000			-21.354			-3.559
227904.000			-21.354			-3.559
228004.000			-21.353			-3.559
228104.000			-21.353			-3.559
228204.000			-21.353			-3.559
228304.000			-21.353			-3.559
228404.000			-21.352			-3.559
228504.000			-21.352			-3.559
228605.000			-21.352			-3.559
228704.000			-21.352			-3.559
228804.000			-21.351			-3.558
228905.000			-21.350			-3.558
229004.000			-21.350			-3.558
229104.000			-21.350			-3.558
229204.000			-21.349			-3.558
229304.000			-21.350			-3.558
229404.000			-21.350			-3.558
229505.000			-21.349			-3.558
229604.000			-21.349			-3.558
229704.000			-21.348			-3.558
229805.000			-21.347			-3.558
229904.000			-21.347			-3.558
230004.000			-21.348			-3.558
230104.000			-21.348			-3.558
230204.000			-21.347			-3.558
230304.000			-21.347			-3.558
230405.000			-21.347			-3.558
230504.000			-21.347			-3.558
230604.000			-21.347			-3.558
230705.000			-21.346			-3.558
230803.000			-21.346			-3.558
230904.000			-21.346			-3.558
231005.000			-21.346			-3.558
231104.000			-21.345			-3.558
231204.000			-21.345			-3.558
231304.000			-21.344			-3.557
231404.000			-21.345			-3.557
231505.000			-21.344			-3.557
231604.000			-21.342			-3.557
231703.000			-21.344			-3.557
231805.000			-21.343			-3.557
231904.000			-21.343			-3.557
232004.000			-21.343			-3.557
232105.000			-21.343			-3.557
232204.000			-21.342			-3.557
232304.000			-21.341			-3.557
232404.000			-21.341			-3.557
232504.000			-21.341			-3.557
232604.000			-21.341			-3.557
232705.000			-21.339			-3.557
232804.000			-21.339			-3.557
232904.000			-21.339			-3.557
233005.000			-21.339			-3.556
233104.000			-21.339			-3.556
233204.000			-21.340			-3.557
233304.000			-21.339			-3.557
233404.000			-21.339			-3.556
233504.000			-21.338			-3.556
233605.000			-21.338			-3.556
233704.000			-21.338			-3.556
233804.000			-21.337			-3.556
233905.000			-21.337			-3.556
234004.000			-21.338			-3.556
234104.000			-21.337			-3.556
234204.000			-21.336			-3.556
234304.000			-21.337			-3.556
234404.000			-21.337			-3.556
234504.000			-21.337			-3.556
234604.000			-21.335			-3.556
234705.000			-21.335			-3.556
234804.000			-21.335			-3.556
234903.000			-21.335			-3.556
235005.000			-21.334			-3.556
235104.000			-21.333			-3.556
235204.000			-21.333			-3.556
235305.000			-21.333			-3.555
235404.000			-21.334			-3.556
235504.000			-21.333			-3.556
235605.000			-21.332			-3.555
235704.000			-21.332			-3.555
235803.000			-21.332			-3.555
235905.000			-21.332			-3.555
236004.000			-21.330			-3.555
236104.000			-21.330			-3.555
236205.000			-21.329			-3.555
236304.000			-21.330			-3.555
236404.000			-21.330			-3.555
236504.000			-21.331			-3.555
236604.000			-21.330			-3.555
236703.000			-21.329			-3.555
236805.000			-21.327			-3.555
236904.000			-21.328			-3.555
237004.000			-21.328			-3.555
237105.000			-21.329			-3.555
237204.000			-21.328			-3.555
237304.000			-21.327			-3.554
237404.000			-21.326			-3.554
237504.000			-21.326			-3.554
237603.000			-21.326			-3.554
237705.000			-21.326			-3.554
237804.000			-21.326			-3.554
237905.000			-21.326			-3.554
238004.000			-21.326			-3.554
238104.000			-21.325			-3.554
238205.000			-21.325			-3.554
238303.000			-21.325			-3.554
238404.000			-21.325			-3.554
238505.000			-21.325			-3.554
238604.000			-21.325			-3.554
238704.000			-21.325			-3.554
238805.000			-21.325			-3.554
238904.000			-21.324			-3.554
239004.000			-21.323			-3.554
239105.000			-21.323			-3.554
239203.000			-21.323			-3.554
239304.000			-21.323			-3.554
239405.000			-21.323			-3.554
239504.000			-21.322			-3.554
239604.000			-21.320			-3.553
239705.000			-21.321			-3.554
239804.000			-21.322			-3.554
239903.000			-21.321			-3.554
240005.000			-21.320			-3.553
240104.000			-21.321			-3.553
240204.000			-21.320			-3.553
240305.000			-21.319			-3.553
240404.000			-21.320			-3.553
240504.000			-21.319			-3.553
240605.000			-21.319			-3.553
240704.000			-21.318			-3.553
240803.000			-21.318			-3.553
240905.000			-21.318			-3.553
241004.000			-21.318			-3.553
241105.000			-21.317			-3.553
241204.000			-21.317			-3.553
241304.000			-21.317			-3.553
241405.000			-21.317			-3.553
241503.000			-21.316			-3.553
241604.000			-21.316			-3.553
241705.000			-21.316			-3.553
241804.000			-21.316			-3.553
241904.000			-21.316			-3.553
242005.000			-21.316			-3.553
242104.000			-21.315			-3.553
242204.000			-21.315			-3.553
242305.000			-21.314			-3.552
242403.000			-21.313			-3.552
242504.000			-21.313			-3.552
242605.000			-21.314			-3.552
242704.000			-21.314			-3.552
242804.000			-21.313			-3.552
242905.000			-21.312			-3.552
243004.000			-21.312			-3.552
243103.000			-21.312			-3.552
243205.000			-21.313			-3.552
243304.000			-21.311			-3.552
243404.000			-21.311			-3.552
243505.000			-21.311			-3.552
243604.000			-21.311			-3.552
243704.000			-21.311			-3.552
243804.000			-21.312			-3.552
243904.000			-21.311			-3.552
244003.000			-21.310			-3.552
244105.000			-21.311			-3.552
244204.000			-21.310			-3.552
244305.000			-21.310			-3.552
244404.000			-21.309			-3.552
244504.000			-21.310			-3.552
244605.000			-21.309			-3.551
244703.000			-21.308			-3.551
244804.000			-21.307			-3.551
244904.000			-21.306			-3.551
245004.000			-21.306			-3.551
245104.000			-21.306			-3.551
245205.000			-21.307			-3.551
245304.000			-21.306			-3.551
245404.000			-21.306			-3.551
245505.000			-21.306			-3.551
245603.000			-21.306			-3.551
245704.000			-21.305			-3.551
245805.000			-21.305			-3.551
245904.000			-21.305			-3.551
246004.000			-21.304			-3.551
246105.000			-21.304			-3.551
246204.000			-21.304			-3.551
246304.000			-21.304			-3.551
246405.000			-21.303			-3.550
246503.000			-21.302			-3.550
246604.000			-21.303			-3.551
246705.000			-21.304			-3.551
246804.000			-21.302			-3.550
246904.000			-21.303			-3.551
247005.000			-21.302			-3.550
247104.000			-21.302			-3.550
247203.000			-21.301			-3.550
247305.000			-21.301			-3.550
247404.000			-21.301			-3.550
247505.000			-21.301			-3.550
247604.000			-21.301			-3.550
247704.000			-21.300			-3.550
247805.000			-21.299			-3.550
247904.000			-21.299			-3.550
248004.000			-21.300			-3.550
248104.000			-21.299			-3.550
248204.000			-21.298			-3.550
248304.000			-21.298			-3.550
248405.000			-21.298			-3.550
248504.000			-21.298			-3.550
248604.000			-21.298			-3.550
248705.000			-21.297			-3.549
248804.000			-21.297			-3.549
248904.000			-21.296			-3.549
249004.000			-21.296			-3.549
249104.000			-21.297			-3.549
249203.000			-21.297			-3.550
249305.000			-21.297			-3.550
249404.000			-21.296			-3.549
249504.000			-21.295			-3.549
249605.000			-21.295			-3.549
249704.000			-21.296			-3.549
249804.000			-21.295			-3.549
249904.000			-21.294			-3.549
250004.000			-21.294			-3.549
250103.000			-21.294			-3.549
250205.000			-21.293			-3.549
250304.000			-21.294			-3.549
250404.000			-21.293			-3.549
250505.000			-21.293			-3.549
250604.000			-21.293			-3.549
250705.000			-21.292			-3.549
250803.000			-21.292			-3.549
250904.000			-21.291			-3.549
251005.000			-21.291			-3.549
251104.000			-21.292			-3.549
251204.000			-21.291			-3.549
251305.000			-21.291			-3.549
251404.000			-21.291			-3.548
251504.000			-21.290			-3.548
251605.000			-21.289			-3.548
251703.000			-21.289			-3.548
251804.000			-21.289			-3.548
251905.000			-21.289			-3.548
252004.000			-21.289			-3.548
252104.000			-21.289			-3.548
252205.000			-21.288			-3.548
252304.000			-21.288			-3.548
252404.000			-21.287			-3.548
252505.000			-21.287			-3.548
252603.000			-21.288			-3.548
252704.000			-21.286			-3.548
252805.000			-21.287			-3.548
252904.000			-21.287			-3.548
253004.000			-21.286			-3.548
253105.000			-21.285			-3.548
253204.000			-21.285			-3.547
253303.000			-21.285			-3.547
253405.000			-21.285			-3.547
253503.000			-21.283			-3.547
253604.000			-21.283			-3.547
253705.000			-21.284			-3.547
253804.000			-21.284			-3.547
253905.000			-21.283			-3.547
254004.000			-21.283			-3.547
254104.000			-21.284			-3.547
254204.000			-21.282			-3.547
254304.000			-21.282			-3.547
254403.000			-21.282			-3.547
254505.000			-21.282			-3.547
254604.000			-21.282			-3.547
254704.000			-21.281			-3.547
254805.000			-21.281			-3.547
254904.000			-21.282			-3.547
255004.000			-21.281			-3.547
255104.000			-21.280			-3.547
255204.000			-21.281			-3.547
255304.000			-21.281			-3.547
255405.000			-21.280			-3.547
255504.000			-21.280			-3.547
255604.000			-21.279			-3.547
255705.000			-21.278			-3.546
255804.000			-21.278			-3.546
255904.000			-21.279			-3.546
256004.000			-21.278			-3.546
256104.000			-21.278			-3.546
256204.000			-21.278			-3.546
256305.000			-21.277			-3.546
256404.000			-21.278			-3.546
256504.000			-21.277			-3.546
256605.000			-21.277			-3.546
256704.000			-21.277			-3.546
256804.000			-21.277			-3.546
256903.000			-21.277			-3.546
257004.000			-21.277			-3.546
257105.000			-21.275			-3.546
257204.000			-21.275			-3.546
257304.000			-21.275			-3.546
257405.000			-21.275			-3.546
257504.000			-21.275			-3.546
257604.000			-21.275			-3.546
257705.000			-21.274			-3.546
257803.000			-21.274			-3.546
257904.000			-21.273			-3.546
258005.000			-21.274			-3.546
258104.000			-21.274			-3.546
258204.000			-21.273			-3.545
258305.000			-21.273			-3.545
258404.000			-21.272			-3.545
258504.000			-21.272			-3.545
258605.000			-21.272			-3.545
258703.000			-21.271			-3.545
258804.000			-21.271			-3.545
258905.000			-21.270			-3.545
259004.000			-21.270			-3.545
259104.000			-21.270			-3.545
259205.000			-21.269			-3.545
259304.000			-21.269			-3.545
259404.000			-21.269			-3.545
259505.000			-21.269			-3.545
259603.000			-21.270			-3.545
259704.000			-21.270			-3.545
259805.000			-21.269			-3.545
259904.000			-21.269			-3.545
260004.000			-21.269			-3.545
260104.000			-21.268			-3.545
260204.000			-21.268			-3.545
260305.000			-21.268			-3.545
260404.000			-21.268			-3.545
260503.000			-21.268			-3.545
260605.000			-21.267			-3.544
260704.000			-21.268			-3.545
260804.000			-21.268			-3.545
260905.000			-21.267			-3.545
261004.000			-21.266			-3.544
261104.000			-21.266			-3.544
261204.000			-21.266			-3.544
261304.000			-21.266			-3.544
261403.000			-21.265			-3.544
261505.000			-21.264			-3.544
261604.000			-21.263			-3.544
261704.000			-21.264			-3.544
261805.000			-21.263			-3.544
261904.000			-21.262			-3.544
262004.000			-21.262			-3.544
262105.000			-21.264			-3.544
262204.000			-21.263			-3.544
262303.000			-21.264			-3.544
262405.000			-21.263			-3.544
262504.000			-21.262			-3.544
262604.000			-21.262			-3.544
262705.000			-21.262			-3.544
262804.000			-21.262			-3.544
262904.000			-21.262			-3.544
263004.000			-21.261			-3.544
263104.000			-21.260			-3.543
263203.000			-21.260			-3.543
263305.000			-21.260			-3.543
263404.000			-21.260			-3.543
263505.000			-21.260			-3.543
263604.000			-21.260			-3.543
263704.000			-21.259			-3.543
263805.000			-21.258			-3.543
263903.000			-21.258			-3.543
264004.000			-21.258			-3.543
264105.000			-21.258			-3.543
264204.000			-21.259			-3.543
264304.000			-21.258			-3.543
264405.000			-21.257			-3.543
264504.000			-21.258			-3.543
264604.000			-21.257			-3.543
264705.000			-21.257			-3.543
264803.000			-21.256			-3.543
264904.000			-21.256			-3.543
265005.000			-21.256			-3.543
265104.000			-21.255			-3.543
265204.000			-21.256			-3.543
265305.000			-21.256			-3.543
265404.000			-21.254			-3.542
265503.000			-21.255			-3.543
265605.000			-21.255			-3.543
265703.000			-21.254			-3.542
265804.000			-21.255			-3.543
265905.000			-21.254			-3.542
266004.000			-21.254			-3.542
266104.000			-21.254			-3.542
266205.000			-21.254			-3.542
266304.000			-21.253			-3.542
266403.000			-21.252			-3.542
266505.000			-21.252			-3.542
266604.000			-21.251			-3.542
266705.000			-21.252			-3.542
266804.000			-21.253			-3.542
266904.000			-21.252			-3.542
267005.000			-21.251			-3.542
267104.000			-21.251			-3.542
267204.000			-21.251			-3.542
267304.000			-21.250			-3.542
267404.000			-21.249			-3.542
267504.000			-21.249			-3.542
267605.000			-21.250			-3.542
267704.000			-21.249			-3.541
267804.000			-21.248			-3.541
267905.000			-21.249			-3.541
268004.000			-21.249			-3.541
268104.000			-21.248			-3.541
268204.000			-21.248			-3.541
268304.000			-21.248			-3.541
268404.000			-21.248			-3.541
268505.000			-21.248			-3.541
268604.000			-21.247			-3.541
268704.000			-21.247			-3.541
268805.000			-21.247			-3.541
268904.000			-21.247			-3.541
269004.000			-21.247			-3.541
269104.000			-21.247			-3.541
269204.000			-21.246			-3.541
269304.000			-21.246			-3.541
269405.000			-21.245			-3.541
269504.000			-21.245			-3.541
269604.000			-21.244			-3.541
269705.000			-21.244			-3.541
269804.000			-21.244			-3.541
269905.000			-21.245			-3.541
270003.000			-21.245			-3.541
270104.000			-21.244			-3.541
270205.000			-21.243			-3.541
270304.000			-21.243			-3.541
270404.000			-21.243			-3.541
270505.000			-21.243			-3.541
270604.000			-21.243			-3.540
270703.000			-21.243			-3.540
270805.000			-21.242			-3.540
270903.000			-21.241			-3.540
271004.000			-21.242			-3.540
271105.000			-21.241			-3.540
271204.000			-21.240			-3.540
271304.000			-21.240			-3.540
271405.000			-21.240			-3.540
271504.000			-21.240			-3.540
271603.000			-21.240			-3.540
271705.000			-21.240			-3.540
271804.000			-21.240			-3.540
271904.000			-21.240			-3.540
272005.000			-21.240			-3.540
272104.000			-21.239			-3.540
272204.000			-21.238			-3.540
272304.000			-21.239			-3.540
272404.000			-21.238			-3.540
272503.000			-21.238			-3.540
272605.000			-21.238			-3.540
272704.000			-21.239			-3.540
272804.000			-21.237			-3.539
272905.000			-21.236			-3.539
273004.000			-21.237			-3.539
273105.000			-21.237			-3.540
273203.000			-21.237			-3.539
273304.000			-21.236			-3.539
273404.000			-21.237			-3.539
273504.000			-21.236			-3.539
273604.000			-21.234			-3.539
273705.000			-21.234			-3.539
273804.000			-21.234			-3.539
273904.000			-21.234			-3.539
274005.000			-21.234			-3.539
274103.000			-21.234			-3.539
274204.000			-21.234			-3.539
274305.000			-21.233			-3.539
274404.000			-21.233			-3.539
274504.000			-21.233			-3.539
274605.000			-21.233			-3.539
274704.000			-21.233			-3.539
274804.000			-21.233			-3.539
274905.000			-21.232			-3.539
275003.000			-21.232			-3.539
275104.000			-21.231			-3.539
275205.000			-21.232			-3.539
275304.000			-21.232			-3.539
275404.000			-21.231			-3.538
275505.000			-21.231			-3.538
275604.000			-21.230			-3.538
275703.000			-21.231			-3.538
275805.000			-21.229			-3.538
275903.000			-21.230			-3.538
276004.000			-21.229			-3.538
276105.000			-21.229			-3.538
276204.000			-21.229			-3.538
276305.000			-21.229			-3.538
276404.000			-21.230			-3.538
276504.000			-21.230			-3.538
276605.000			-21.227			-3.538
276704.000			-21.226			-3.538
276803.000			-21.226			-3.538
276905.000			-21.228			-3.538
277004.000			-21.227			-3.538
277104.000			-21.226			-3.538
277205.000			-21.227			-3.538
277304.000			-21.226			-3.538
277404.000			-21.226			-3.538
277504.000			-21.226			-3.538
277604.000			-21.226			-3.538
277703.000			-21.226			-3.538
277805.000			-21.225			-3.538
277904.000			-21.226			-3.538
278004.000			-21.225			-3.538
278105.000			-21.225			-3.537
278204.000			-21.225			-3.537
278304.000			-21.224			-3.537
278404.000			-21.223			-3.537
278504.000			-21.223			-3.537
278603.000			-21.224			-3.537
278705.000			-21.224			-3.537
278804.000			-21.224			-3.537
278904.000			-21.223			-3.537
279005.000			-21.222			-3.537
279104.000			-21.222			-3.537
279204.000			-21.222			-3.537
279303.000			-21.221			-3.537
279404.000			-21.221			-3.537
279505.000			-21.221			-3.537
279604.000			-21.220			-3.537
279704.000			-21.220			-3.537
279805.000			-21.220			-3.537
279904.000			-21.221			-3.537
280004.000			-21.221			-3.537
280105.000			-21.221			-3.537
280203.000			-21.220			-3.537
280304.000			-21.220			-3.537
280405.000			-21.219			-3.537
280504.000			-21.220			-3.537
280604.000			-21.219			-3.537
280705.000			-21.218			-3.536
280804.000			-21.218			-3.536
280903.000			-21.218			-3.536
281005.000			-21.218			-3.536
281104.000			-21.218			-3.536
281204.000			-21.217			-3.536
281305.000			-21.217			-3.536
281404.000			-21.218			-3.536
281504.000			-21.217			-3.536
281605.000			-21.217			-3.536
281704.000			-21.216			-3.536
281803.000			-21.215			-3.536
281905.000			-21.216			-3.536
282004.000			-21.215			-3.536
282104.000			-21.215			-3.536
282205.000			-21.215			-3.536
282304.000			-21.215			-3.536
282404.000			-21.215			-3.536
282503.000			-21.214			-3.536
282604.000			-21.214			-3.536
282705.000			-21.214			-3.536
282804.000			-21.214			-3.536
282904.000			-21.213			-3.536
283005.000			-21.213			-3.535
283104.000			-21.213			-3.535
283204.000			-21.213			-3.535
283305.000			-21.213			-3.535
283403.000			-21.213			-3.535
283504.000			-21.212			-3.535
283605.000			-21.213			-3.535
283704.000			-21.212			-3.535
283804.000			-21.212			-3.535
283905.000			-21.210			-3.535
284004.000			-21.210			-3.535
284103.000			-21.210			-3.535
284205.000			-21.211			-3.535
284304.000			-21.210			-3.535
284404.000			-21.210			-3.535
284505.000			-21.210			-3.535
284604.000			-21.209			-3.535
284704.000			-21.211			-3.535
284805.000			-21.210			-3.535
284904.000			-21.210			-3.535
285003.000			-21.209			-3.535
285105.000			-21.209			-3.535
285204.000			-21.208			-3.535
285304.000			-21.208			-3.535
285405.000			-21.208			-3.535
285504.000			-21.208			-3.535
285604.000			-21.208			-3.535
285704.000			-21.209			-3.535
285804.000			-21.208			-3.535
285904.000			-21.207			-3.535
286004.000			-21.207			-3.534
286104.000			-21.205			-3.534
286205.000			-21.206			-3.534
286304.000			-21.205			-3.534
286404.000			-21.205			-3.534
286505.000			-21.207			-3.534
286603.000			-21.206			-3.534
286704.000			-21.205			-3.534
286804.000			-21.205			-3.534
286904.000			-21.205			-3.534
287004.000			-21.204			-3.534
287105.000			-21.204			-3.534
287204.000			-21.204			-3.534
287304.000			-21.204			-3.534
287405.000			-21.204			-3.534
287503.000			-21.204			-3.534
287604.000			-21.203			-3.534
287705.000			-21.203			-3.534
287804.000			-21.202			-3.534
287904.000			-21.203			-3.534
288005.000			-21.202			-3.534
288104.000			-21.202			-3.534
288204.000			-21.201			-3.534
288305.000			-21.201			-3.534
288403.000			-21.201			-3.533
288504.000			-21.201			-3.534
288605.000			-21.202			-3.534
288704.000			-21.201			-3.534
288804.000			-21.201			-3.533
288904.000			-21.201			-3.533
289004.000			-21.200			-3.533
289104.000			-21.201			-3.534
289204.000			-21.201			-3.533
289303.000			-21.200			-3.533
289405.000			-21.199			-3.533
289504.000			-21.199			-3.533
289604.000			-21.198			-3.533
289705.000			-21.197			-3.533
289804.000			-21.197			-3.533
289904.000			-21.197			-3.533
290004.000			-21.198			-3.533
290104.000			-21.197			-3.533
290203.000			-21.197			-3.533
290305.000			-21.196			-3.533
290404.000			-21.197			-3.533
290504.000			-21.196			-3.533
290605.000			-21.196			-3.533
290704.000			-21.196			-3.533
290804.000			-21.195			-3.532
290904.000			-21.195			-3.533
291004.000			-21.195			-3.533
291103.000			-21.195			-3.532
291205.000			-21.194			-3.532
291304.000			-21.195			-3.533
291404.000			-21.195			-3.532
291505.000			-21.194			-3.532
291604.000			-21.194			-3.532
291704.000			-21.194			-3.532
291804.000			-21.194			-3.532
291904.000			-21.194			-3.532
292003.000			-21.193			-3.532
292105.000			-21.193			-3.532
292204.000			-21.193			-3.532
292305.000			-21.193			-3.532
292404.000			-21.192			-3.532
292504.000			-21.192			-3.532
292605.000			-21.191			-3.532
292703.000			-21.192			-3.532
292804.000			-21.192			-3.532
292904.000			-21.191			-3.532
293004.000			-21.190			-3.532
293104.000			-21.191			-3.532
293205.000			-21.190			-3.532
293304.000			-21.190			-3.532
293404.000			-21.190			-3.532
293505.000			-21.189			-3.532
293603.000			-21.189			-3.531
293704.000			-21.188			-3.531
293804.000			-21.189			-3.532
293904.000			-21.190			-3.532
294004.000			-21.188			-3.531
294105.000			-21.188			-3.531
294204.000			-21.188			-3.531
294304.000			-21.187			-3.531
294405.000			-21.187			-3.531
294503.000			-21.188			-3.531
294604.000			-21.187			-3.531
294704.000			-21.187			-3.531
294804.000			-21.186			-3.531
294904.000			-21.187			-3.531
295005.000			-21.187			-3.531
295104.000			-21.187			-3.531
295204.000			-21.187			-3.531
295305.000			-21.186			-3.531
295404.000			-21.186			-3.531
295505.000			-21.185			-3.531
295603.000			-21.185			-3.531
295704.000			-21.184			-3.531
295805.000			-21.185			-3.531
295904.000			-21.185			-3.531
296004.000			-21.185			-3.531
296105.000			-21.184			-3.531
296204.000			-21.184			-3.531
296304.000			-21.184			-3.531
296405.000			-21.183			-3.530
296503.000			-21.183			-3.530
296604.000			-21.183			-3.530
296705.000			-21.183			-3.531
296804.000			-21.182			-3.530
296904.000			-21.182			-3.530
297005.000			-21.183			-3.530
297104.000			-21.182			-3.530
297204.000			-21.181			-3.530
297305.000			-21.182			-3.530
297403.000			-21.183			-3.530
297504.000			-21.183			-3.530
297605.000			-21.181			-3.530
297704.000			-21.181			-3.530
297804.000			-21.181			-3.530
297905.000			-21.180			-3.530
298004.000			-21.180			-3.530
298104.000			-21.180			-3.530
298205.000			-21.180			-3.530
298303.000			-21.179			-3.530
298404.000			-21.179			-3.530
298505.000			-21.179			-3.530
298604.000			-21.179			-3.530
298705.000			-21.179			-3.530
298804.000			-21.179			-3.530
298904.000			-21.180			-3.530
299005.000			-21.179			-3.530
299104.000			-21.177			-3.529
299203.000			-21.177			-3.530
299305.000			-21.177			-3.529
299403.000			-21.177			-3.530
299504.000			-21.177			-3.529
299605.000			-21.177			-3.530
299704.000			-21.177			-3.530
299804.000			-21.176			-3.529
299905.000			-21.176			-3.529
