# Acquired on 27/11/2023 13:09:13 
# SPIDER: ProvaCreep-7mm180s
# CREEP MEASUREMENT

# time [ms]		force [N]		stiffness [N/mm]
1.000			3175422.000			453631.714
101.000			3251059.000			464437.000
200.000			3270127.000			467161.000
301.000			3260010.000			465715.714
400.000			3246210.000			463744.286
500.000			3235692.000			462241.714
601.000			3226791.000			460970.143
701.000			3219174.000			459882.000
801.000			3206041.000			458005.857
901.000			3200427.000			457203.857
1000.000			3195697.000			456528.143
1100.000			3191050.000			455864.286
1201.000			3186802.000			455257.429
1300.000			3182798.000			454685.429
1402.000			3179389.000			454198.429
1501.000			3172454.000			453207.714
1600.000			3169318.000			452759.714
1701.000			3166233.000			452319.000
1800.000			3163364.000			451909.143
1900.000			3160964.000			451566.286
2001.000			3158346.000			451192.286
2100.000			3156040.000			450862.857
2201.000			3151381.000			450197.286
2301.000			3149070.000			449867.143
2400.000			3147209.000			449601.286
2500.000			3145249.000			449321.286
2601.000			3143230.000			449032.857
2700.000			3141167.000			448738.143
2800.000			3139340.000			448477.143
2902.000			3137675.000			448239.286
3000.000			3134113.000			447730.429
3100.000			3132707.000			447529.571
3201.000			3131056.000			447293.714
3300.000			3129479.000			447068.429
3400.000			3128003.000			446857.571
3501.000			3126529.000			446647.000
3601.000			3125058.000			446436.857
3700.000			3122245.000			446035.000
3801.000			3120929.000			445847.000
3900.000			3119617.000			445659.571
4000.000			3118209.000			445458.429
4101.000			3117091.000			445298.714
4200.000			3116019.000			445145.571
4301.000			3114538.000			444934.000
4401.000			3112492.000			444641.714
4500.000			3111438.000			444491.143
4601.000			3110243.000			444320.429
4700.000			3109757.000			444251.000
4800.000			3108577.000			444082.429
4901.000			3107291.000			443898.714
5001.000			3106289.000			443755.571
5100.000			3105461.000			443637.286
5201.000			3103224.000			443317.714
5300.000			3102136.000			443162.286
5400.000			3101187.000			443026.714
5501.000			3100504.000			442929.143
5601.000			3099384.000			442769.143
5701.000			3098180.000			442597.143
5801.000			3097096.000			442442.286
5900.000			3095381.000			442197.286
6000.000			3094457.000			442065.286
6101.000			3093393.000			441913.286
6200.000			3092382.000			441768.857
6300.000			3091606.000			441658.000
6402.000			3090535.000			441505.000
6500.000			3089902.000			441414.571
6600.000			3088821.000			441260.143
6701.000			3087227.000			441032.429
6800.000			3086204.000			440886.286
6900.000			3085552.000			440793.143
7001.000			3084824.000			440689.143
7101.000			3084052.000			440578.857
7200.000			3083111.000			440444.429
7301.000			3082395.000			440342.143
7400.000			3080866.000			440123.714
7500.000			3080100.000			440014.286
7601.000			3079527.000			439932.429
7700.000			3078625.000			439803.571
7802.000			3077819.000			439688.429
7901.000			3077227.000			439603.857
8000.000			3076449.000			439492.714
8101.000			3075003.000			439286.143
8200.000			3074446.000			439206.571
8300.000			3073676.000			439096.571
8401.000			3072807.000			438972.429
8501.000			3072230.000			438890.000
8601.000			3071546.000			438792.286
8701.000			3071090.000			438727.143
8800.000			3070542.000			438648.857
8900.000			3069252.000			438464.571
9001.000			3068782.000			438397.429
9100.000			3068334.000			438333.429
9201.000			3067785.000			438255.000
9302.000			3067693.000			438241.857
9400.000			3069343.000			438477.571
9500.000			3069964.000			438566.286
9601.000			3068482.000			438354.571
9700.000			3067772.000			438253.143
9800.000			3067254.000			438179.143
9901.000			3066781.000			438111.571
10001.000			3066124.000			438017.714
10100.000			3065506.000			437929.429
10201.000			3065204.000			437886.286
10300.000			3064113.000			437730.429
10400.000			3063540.000			437648.571
10501.000			3063140.000			437591.429
10600.000			3062516.000			437502.286
10701.000			3061617.000			437373.857
10801.000			3061171.000			437310.143
10900.000			3060796.000			437256.571
11001.000			3060190.000			437170.000
11100.000			3059219.000			437031.286
11200.000			3059080.000			437011.429
11301.000			3058902.000			436986.000
11401.000			3058145.000			436877.857
11500.000			3057414.000			436773.429
11601.000			3056867.000			436695.286
11700.000			3056282.000			436611.714
11800.000			3055191.000			436455.857
11901.000			3055100.000			436442.857
12000.000			3054653.000			436379.000
12101.000			3053660.000			436237.143
12202.000			3053607.000			436229.571
12300.000			3053412.000			436201.714
12400.000			3052693.000			436099.000
12501.000			3051941.000			435991.571
12600.000			3051446.000			435920.857
12700.000			3050912.000			435844.571
12802.000			3050631.000			435804.429
12901.000			3050756.000			435822.286
13000.000			3050203.000			435743.286
13101.000			3049750.000			435678.571
13200.000			3049587.000			435655.286
13300.000			3048300.000			435471.429
13401.000			3047691.000			435384.429
13500.000			3047338.000			435334.000
13601.000			3046756.000			435250.857
13701.000			3046323.000			435189.000
13800.000			3046325.000			435189.286
13900.000			3046439.000			435205.571
14001.000			3045496.000			435070.857
14100.000			3045309.000			435044.143
14201.000			3045587.000			435083.857
14301.000			3045657.000			435093.857
14401.000			3045017.000			435002.429
14501.000			3044904.000			434986.286
14600.000			3045912.000			435130.286
14700.000			3046095.000			435156.429
14801.000			3045257.000			435036.714
14900.000			3045081.000			435011.571
15001.000			3044754.000			434964.857
15102.000			3044386.000			434912.286
15200.000			3044000.000			434857.143
15300.000			3043722.000			434817.429
15401.000			3043287.000			434755.286
15500.000			3042808.000			434686.857
15600.000			3042225.000			434603.571
15701.000			3041795.000			434542.143
15801.000			3041491.000			434498.714
15900.000			3041287.000			434469.571
16001.000			3041041.000			434434.429
16100.000			3041025.000			434432.143
16200.000			3040060.000			434294.286
16301.000			3039672.000			434238.857
16400.000			3039221.000			434174.429
16501.000			3038922.000			434131.714
16601.000			3038657.000			434093.857
16700.000			3038319.000			434045.571
16800.000			3038204.000			434029.143
16901.000			3037937.000			433991.000
17000.000			3037393.000			433913.286
17100.000			3037062.000			433866.000
17202.000			3036653.000			433807.571
17301.000			3036211.000			433744.429
17401.000			3035886.000			433698.000
17500.000			3035716.000			433673.714
17600.000			3035290.000			433612.857
17701.000			3034721.000			433531.571
17800.000			3034409.000			433487.000
17900.000			3033997.000			433428.143
18002.000			3033987.000			433426.714
18100.000			3033921.000			433417.286
18200.000			3033608.000			433372.571
18301.000			3033230.000			433318.571
18400.000			3032520.000			433217.143
18500.000			3032309.000			433187.000
18601.000			3032094.000			433156.286
18701.000			3031662.000			433094.571
18800.000			3031332.000			433047.429
18901.000			3031203.000			433029.000
19000.000			3030610.000			432944.286
19100.000			3030377.000			432911.000
19201.000			3029944.000			432849.143
19300.000			3030027.000			432861.000
19401.000			3029762.000			432823.143
19502.000			3029422.000			432774.571
19600.000			3029153.000			432736.143
19700.000			3028861.000			432694.429
19801.000			3028886.000			432698.000
19900.000			3028231.000			432604.429
20000.000			3027951.000			432564.429
20102.000			3027618.000			432516.857
20201.000			3027640.000			432520.000
20300.000			3027372.000			432481.714
20401.000			3027195.000			432456.429
20500.000			3026885.000			432412.143
20601.000			3026411.000			432344.429
20700.000			3026323.000			432331.857
20800.000			3026053.000			432293.286
20902.000			3025743.000			432249.000
21000.000			3025680.000			432240.000
21100.000			3025591.000			432227.286
21201.000			3025536.000			432219.429
21300.000			3025377.000			432196.714
21400.000			3024907.000			432129.571
21501.000			3024208.000			432029.714
21601.000			3023893.000			431984.714
21700.000			3023567.000			431938.143
21801.000			3023381.000			431911.571
21900.000			3023253.000			431893.286
22000.000			3023137.000			431876.714
22101.000			3022837.000			431833.857
22200.000			3022670.000			431810.000
22301.000			3022102.000			431728.857
22401.000			3021765.000			431680.714
22500.000			3021758.000			431679.714
22600.000			3021608.000			431658.286
22701.000			3021410.000			431630.000
22800.000			3020942.000			431563.143
22900.000			3020645.000			431520.714
23002.000			3020354.000			431479.143
23101.000			3020153.000			431450.429
23200.000			3019871.000			431410.143
23301.000			3019484.000			431354.857
23400.000			3019345.000			431335.000
23500.000			3019357.000			431336.714
23601.000			3019016.000			431288.000
23701.000			3018761.000			431251.571
23802.000			3018539.000			431219.857
23900.000			3018410.000			431201.429
24000.000			3018125.000			431160.714
24101.000			3017804.000			431114.857
24200.000			3017571.000			431081.571
24300.000			3017209.000			431029.857
24402.000			3017020.000			431002.857
24501.000			3016601.000			430943.000
24600.000			3016481.000			430925.857
24701.000			3016484.000			430926.286
24800.000			3016030.000			430861.429
24900.000			3015816.000			430830.857
25001.000			3015717.000			430816.714
25100.000			3015062.000			430723.143
25201.000			3014907.000			430701.000
25301.000			3014912.000			430701.714
25400.000			3014697.000			430671.000
25500.000			3014471.000			430638.714
25601.000			3014359.000			430622.714
25700.000			3014200.000			430600.000
25800.000			3013496.000			430499.429
25902.000			3013376.000			430482.286
26000.000			3013264.000			430466.286
26100.000			3012972.000			430424.571
26201.000			3012854.000			430407.714
26300.000			3012713.000			430387.571
26400.000			3012528.000			430361.143
26501.000			3011977.000			430282.429
26601.000			3011665.000			430237.857
26701.000			3011577.000			430225.286
26801.000			3011574.000			430224.857
26900.000			3011452.000			430207.429
27001.000			3011109.000			430158.429
27100.000			3010933.000			430133.286
27200.000			3010725.000			430103.571
27302.000			3010292.000			430041.714
27401.000			3010231.000			430033.000
27500.000			3010004.000			430000.571
27601.000			3009739.000			429962.714
27700.000			3009618.000			429945.429
27800.000			3009336.000			429905.143
27901.000			3009085.000			429869.286
28000.000			3008622.000			429803.143
28101.000			3008612.000			429801.714
28201.000			3008347.000			429763.857
28300.000			3008226.000			429746.571
28400.000			3008013.000			429716.143
28501.000			3007663.000			429666.143
28600.000			3007410.000			429630.000
28700.000			3007160.000			429594.286
28802.000			3007177.000			429596.714
28900.000			3006898.000			429556.857
29000.000			3006743.000			429534.714
29101.000			3006395.000			429485.000
29200.000			3006332.000			429476.000
29300.000			3006320.000			429474.286
29401.000			3006084.000			429440.571
29501.000			3005782.000			429397.429
29601.000			3005518.000			429359.714
29701.000			3005124.000			429303.429
29800.000			3005064.000			429294.857
29900.000			3005004.000			429286.286
30001.000			3004882.000			429268.857
30100.000			3004645.000			429235.000
30202.000			3004167.000			429166.714
30301.000			3003947.000			429135.286
30400.000			3003926.000			429132.286
30501.000			3003692.000			429098.857
30600.000			3003618.000			429088.286
30700.000			3003267.000			429038.143
30801.000			3003041.000			429005.857
30901.000			3002988.000			428998.286
31001.000			3002638.000			428948.286
31101.000			3002461.000			428923.000
31200.000			3002332.000			428904.571
31300.000			3001956.000			428850.857
31401.000			3001835.000			428833.571
31500.000			3001801.000			428828.714
31600.000			3001512.000			428787.429
31702.000			3000939.000			428705.571
31800.000			3000841.000			428691.571
31900.000			3000745.000			428677.857
32001.000			3000567.000			428652.429
32100.000			3000145.000			428592.143
32200.000			3000048.000			428578.286
32301.000			2999958.000			428565.429
32401.000			2999673.000			428524.714
32500.000			2999525.000			428503.571
32601.000			2999500.000			428500.000
32700.000			2999262.000			428466.000
32800.000			2999118.000			428445.429
32901.000			2999143.000			428449.000
33000.000			2999043.000			428434.714
33101.000			2999056.000			428436.571
33202.000			2998417.000			428345.286
33300.000			2998272.000			428324.571
33401.000			2998123.000			428303.286
33500.000			2998052.000			428293.143
33600.000			2997787.000			428255.286
33701.000			2997626.000			428232.286
33800.000			2997483.000			428211.857
33901.000			2997253.000			428179.000
34002.000			2997071.000			428153.000
34100.000			2996824.000			428117.714
34200.000			2996528.000			428075.429
34301.000			2996520.000			428074.286
34400.000			2996391.000			428055.857
34500.000			2996172.000			428024.571
34601.000			2995829.000			427975.571
34701.000			2995773.000			427967.571
34801.000			2995697.000			427956.714
34901.000			2995419.000			427917.000
35000.000			2995386.000			427912.286
35100.000			2995300.000			427900.000
35201.000			2995157.000			427879.571
35300.000			2994981.000			427854.429
35400.000			2994553.000			427793.286
35502.000			2994626.000			427803.714
35600.000			2994204.000			427743.429
35700.000			2994026.000			427718.000
35801.000			2993936.000			427705.143
35900.000			2993910.000			427701.429
36000.000			2993744.000			427677.714
36101.000			2993105.000			427586.429
36201.000			2992969.000			427567.000
36301.000			2992882.000			427554.571
36401.000			2992604.000			427514.857
36500.000			2992430.000			427490.000
36601.000			2992275.000			427467.857
36700.000			2992164.000			427452.000
36800.000			2992020.000			427431.429
36901.000			2991934.000			427419.143
37001.000			2992044.000			427434.857
37101.000			2991844.000			427406.286
37201.000			2991767.000			427395.286
37300.000			2991797.000			427399.571
37400.000			2991451.000			427350.143
37501.000			2991143.000			427306.143
37600.000			2990861.000			427265.857
37700.000			2990727.000			427246.714
37802.000			2990563.000			427223.286
37900.000			2990494.000			427213.429
38000.000			2990484.000			427212.000
38101.000			2990429.000			427204.143
38200.000			2990157.000			427165.286
38300.000			2989811.000			427115.857
38401.000			2989873.000			427124.714
38501.000			2989588.000			427084.000
38601.000			2989272.000			427038.857
38701.000			2988986.000			426998.000
38800.000			2988989.000			426998.429
38900.000			2988923.000			426989.000
39001.000			2988811.000			426973.000
39100.000			2988432.000			426918.857
39200.000			2988173.000			426881.857
39302.000			2988219.000			426888.429
39401.000			2988011.000			426858.714
39500.000			2987940.000			426848.571
39601.000			2987544.000			426792.000
39700.000			2987618.000			426802.571
39801.000			2987470.000			426781.429
39900.000			2987197.000			426742.429
40000.000			2987168.000			426738.286
40102.000			2987123.000			426731.857
40201.000			2987071.000			426724.429
40300.000			2986836.000			426690.857
40401.000			2986554.000			426650.571
40500.000			2986387.000			426626.714
40600.000			2986240.000			426605.714
40701.000			2986004.000			426572.000
40800.000			2986038.000			426576.857
40901.000			2985647.000			426521.000
41002.000			2985692.000			426527.429
41100.000			2985552.000			426507.429
41200.000			2985517.000			426502.429
41301.000			2985081.000			426440.143
41400.000			2985092.000			426441.714
41500.000			2985038.000			426434.000
41601.000			2984808.000			426401.143
41701.000			2984555.000			426365.000
41800.000			2984319.000			426331.286
41901.000			2984332.000			426333.143
42000.000			2984025.000			426289.286
42100.000			2983995.000			426285.000
42201.000			2984015.000			426287.857
42300.000			2983957.000			426279.571
42401.000			2983948.000			426278.286
42502.000			2983564.000			426223.429
42600.000			2983512.000			426216.000
42700.000			2983114.000			426159.143
42801.000			2983040.000			426148.571
42900.000			2982884.000			426126.286
43001.000			2982745.000			426106.429
43100.000			2982478.000			426068.286
43201.000			2982465.000			426066.429
43301.000			2982472.000			426067.429
43400.000			2982354.000			426050.571
43500.000			2982116.000			426016.571
43601.000			2982045.000			426006.429
43700.000			2981756.000			425965.143
43800.000			2981700.000			425957.143
43901.000			2981653.000			425950.429
44001.000			2981376.000			425910.857
44100.000			2981198.000			425885.429
44201.000			2981093.000			425870.429
44300.000			2980969.000			425852.714
44400.000			2980945.000			425849.286
44501.000			2980819.000			425831.286
44600.000			2980628.000			425804.000
44701.000			2980494.000			425784.857
44802.000			2980300.000			425757.143
44900.000			2980108.000			425729.714
45000.000			2979961.000			425708.714
45101.000			2980153.000			425736.143
45200.000			2980104.000			425729.143
45300.000			2979990.000			425712.857
45401.000			2979921.000			425703.000
45501.000			2979530.000			425647.143
45600.000			2979436.000			425633.714
45701.000			2979277.000			425611.000
45800.000			2979195.000			425599.286
45900.000			2978966.000			425566.571
46001.000			2978850.000			425550.000
46100.000			2978475.000			425496.429
46201.000			2978552.000			425507.429
46301.000			2978516.000			425502.286
46400.000			2978244.000			425463.429
46501.000			2978072.000			425438.857
46600.000			2977821.000			425403.000
46700.000			2977814.000			425402.000
46801.000			2977749.000			425392.714
46900.000			2977759.000			425394.143
47000.000			2977822.000			425403.143
47102.000			2977392.000			425341.714
47200.000			2977379.000			425339.857
47300.000			2977355.000			425336.429
47401.000			2977255.000			425322.143
47500.000			2977061.000			425294.429
47600.000			2976645.000			425235.000
47701.000			2976487.000			425212.429
47801.000			2976354.000			425193.429
47901.000			2976397.000			425199.571
48001.000			2976309.000			425187.000
48100.000			2976153.000			425164.714
48200.000			2976013.000			425144.714
48301.000			2975806.000			425115.143
48400.000			2975769.000			425109.857
48500.000			2975721.000			425103.000
48602.000			2975627.000			425089.571
48701.000			2975401.000			425057.286
48800.000			2975032.000			425004.571
48901.000			2975058.000			425008.286
49000.000			2975253.000			425036.143
49100.000			2975023.000			425003.286
49201.000			2974790.000			424970.000
49300.000			2974860.000			424980.000
49402.000			2974545.000			424935.000
49501.000			2974130.000			424875.714
49600.000			2974117.000			424873.857
49701.000			2974039.000			424862.714
49800.000			2973981.000			424854.429
49900.000			2973929.000			424847.000
50001.000			2973938.000			424848.286
50100.000			2973936.000			424848.000
50201.000			2973571.000			424795.857
50302.000			2973147.000			424735.286
50400.000			2973154.000			424736.286
50500.000			2973289.000			424755.571
50601.000			2973069.000			424724.143
50700.000			2972723.000			424674.714
50800.000			2972790.000			424684.286
50901.000			2972661.000			424665.857
51001.000			2972658.000			424665.429
51100.000			2972498.000			424642.571
51201.000			2972373.000			424624.714
51300.000			2972282.000			424611.714
51400.000			2971941.000			424563.000
51501.000			2971867.000			424552.429
51600.000			2971974.000			424567.714
51701.000			2971772.000			424538.857
51802.000			2971895.000			424556.429
51900.000			2971891.000			424555.857
52000.000			2971523.000			424503.286
52101.000			2971090.000			424441.429
52200.000			2971151.000			424450.143
52300.000			2971025.000			424432.143
52401.000			2971109.000			424444.143
52501.000			2970815.000			424402.143
52601.000			2970724.000			424389.143
52700.000			2970674.000			424382.000
52800.000			2970595.000			424370.714
52901.000			2970613.000			424373.286
53000.000			2970412.000			424344.571
53100.000			2970067.000			424295.286
53202.000			2969955.000			424279.286
53301.000			2969985.000			424283.571
53400.000			2970001.000			424285.857
53501.000			2970008.000			424286.857
53600.000			2970136.000			424305.143
53700.000			2969868.000			424266.857
53801.000			2969421.000			424203.000
53900.000			2969261.000			424180.143
54001.000			2969122.000			424160.286
54101.000			2969017.000			424145.286
54200.000			2968714.000			424102.000
54300.000			2968675.000			424096.429
54401.000			2968646.000			424092.286
54500.000			2968570.000			424081.429
54600.000			2968522.000			424074.571
54701.000			2968468.000			424066.857
54801.000			2968351.000			424050.143
54900.000			2968061.000			424008.714
55001.000			2968172.000			424024.571
55100.000			2968183.000			424026.143
55200.000			2967769.000			423967.000
55301.000			2967628.000			423946.857
55400.000			2967389.000			423912.714
55501.000			2967483.000			423926.143
55602.000			2967406.000			423915.143
55700.000			2967294.000			423899.143
55801.000			2967120.000			423874.286
55900.000			2966830.000			423832.857
56000.000			2966760.000			423822.857
56101.000			2966805.000			423829.286
56200.000			2966743.000			423820.429
56301.000			2966577.000			423796.714
56402.000			2966401.000			423771.571
56500.000			2966405.000			423772.143
56600.000			2966444.000			423777.714
56701.000			2966391.000			423770.143
56800.000			2966175.000			423739.286
56900.000			2965834.000			423690.571
57001.000			2965918.000			423702.571
57101.000			2966010.000			423715.714
57201.000			2965785.000			423683.571
57301.000			2965552.000			423650.286
57400.000			2965496.000			423642.286
57500.000			2965646.000			423663.714
57601.000			2965868.000			423695.429
57700.000			2965639.000			423662.714
57800.000			2965164.000			423594.857
57902.000			2964966.000			423566.571
58001.000			2964889.000			423555.571
58100.000			2964787.000			423541.000
58201.000			2964811.000			423544.429
58300.000			2964591.000			423513.000
58400.000			2964630.000			423518.571
58501.000			2964592.000			423513.143
58600.000			2964391.000			423484.429
58701.000			2964157.000			423451.000
58801.000			2964176.000			423453.714
58900.000			2963680.000			423382.857
59001.000			2963586.000			423369.429
59100.000			2963629.000			423375.571
59200.000			2963676.000			423382.286
59301.000			2963582.000			423368.857
59401.000			2963607.000			423372.429
59501.000			2963484.000			423354.857
59601.000			2963379.000			423339.857
59700.000			2963032.000			423290.286
59800.000			2963101.000			423300.143
59901.000			2963068.000			423295.429
60000.000			2962983.000			423283.286
60100.000			2962955.000			423279.286
60202.000			2962711.000			423244.429
60301.000			2962573.000			423224.714
60400.000			2962622.000			423231.714
60501.000			2962604.000			423229.143
60600.000			2962147.000			423163.857
60700.000			2961841.000			423120.143
60801.000			2961832.000			423118.857
60900.000			2961820.000			423117.143
61001.000			2961981.000			423140.143
61101.000			2961982.000			423140.286
61200.000			2961930.000			423132.857
61300.000			2961760.000			423108.571
61401.000			2961552.000			423078.857
61500.000			2961265.000			423037.857
61600.000			2960939.000			422991.286
61702.000			2961102.000			423014.571
61801.000			2961137.000			423019.571
61900.000			2961001.000			423000.143
62001.000			2960691.000			422955.857
62100.000			2960698.000			422956.857
62201.000			2960845.000			422977.857
62300.000			2960740.000			422962.857
62400.000			2960627.000			422946.714
62502.000			2960318.000			422902.571
62600.000			2960108.000			422872.571
62700.000			2960079.000			422868.429
62801.000			2960252.000			422893.143
62900.000			2960085.000			422869.286
63000.000			2959982.000			422854.571
63101.000			2960032.000			422861.714
63201.000			2959823.000			422831.857
63301.000			2959616.000			422802.286
63401.000			2959668.000			422809.714
63500.000			2959598.000			422799.714
63600.000			2959316.000			422759.429
63701.000			2959239.000			422748.429
63800.000			2959039.000			422719.857
63900.000			2959245.000			422749.286
64002.000			2959335.000			422762.143
64101.000			2958953.000			422707.571
64200.000			2958830.000			422690.000
64301.000			2958657.000			422665.286
64400.000			2958386.000			422626.571
64500.000			2958498.000			422642.571
64601.000			2958537.000			422648.143
64700.000			2958410.000			422630.000
64801.000			2958360.000			422622.857
64902.000			2958205.000			422600.714
65000.000			2958178.000			422596.857
65100.000			2958196.000			422599.429
65201.000			2957806.000			422543.714
65300.000			2957756.000			422536.571
65401.000			2957652.000			422521.714
65500.000			2957510.000			422501.429
65601.000			2957393.000			422484.714
65701.000			2957289.000			422469.857
65800.000			2957194.000			422456.286
65900.000			2957340.000			422477.143
66001.000			2957152.000			422450.286
66100.000			2956923.000			422417.571
66200.000			2956918.000			422416.857
66301.000			2956872.000			422410.286
66401.000			2956895.000			422413.571
66500.000			2956762.000			422394.571
66601.000			2956563.000			422366.143
66700.000			2956269.000			422324.143
66800.000			2956200.000			422314.286
66901.000			2956155.000			422307.857
67000.000			2956230.000			422318.571
67100.000			2955917.000			422273.857
67202.000			2955783.000			422254.714
67300.000			2955796.000			422256.571
67400.000			2955928.000			422275.429
67501.000			2955853.000			422264.714
67600.000			2955670.000			422238.571
67700.000			2955166.000			422166.571
67801.000			2955518.000			422216.857
67900.000			2955420.000			422202.857
68001.000			2955331.000			422190.143
68101.000			2955157.000			422165.286
68200.000			2954970.000			422138.571
68300.000			2955010.000			422144.286
68401.000			2955103.000			422157.571
68500.000			2954635.000			422090.714
68601.000			2954887.000			422126.714
68701.000			2954715.000			422102.143
68801.000			2954653.000			422093.286
68901.000			2954603.000			422086.143
69000.000			2954309.000			422044.143
69100.000			2954372.000			422053.143
69201.000			2954358.000			422051.143
69300.000			2954231.000			422033.000
69400.000			2953985.000			421997.857
69502.000			2954076.000			422010.857
69601.000			2954299.000			422042.714
69700.000			2953997.000			421999.571
69801.000			2953786.000			421969.429
69900.000			2953738.000			421962.571
70000.000			2953512.000			421930.286
70101.000			2953503.000			421929.000
70200.000			2953428.000			421918.286
70301.000			2953505.000			421929.286
70402.000			2953508.000			421929.714
70500.000			2953255.000			421893.571
70600.000			2953139.000			421877.000
70701.000			2953048.000			421864.000
70800.000			2953033.000			421861.857
70900.000			2952799.000			421828.429
71001.000			2952667.000			421809.571
71101.000			2952654.000			421807.714
71200.000			2952826.000			421832.286
71301.000			2952691.000			421813.000
71400.000			2952441.000			421777.286
71500.000			2952248.000			421749.714
71601.000			2952110.000			421730.000
71700.000			2951957.000			421708.143
71802.000			2951876.000			421696.571
71901.000			2951802.000			421686.000
72000.000			2951976.000			421710.857
72101.000			2951982.000			421711.714
72200.000			2951737.000			421676.714
72300.000			2951747.000			421678.143
72401.000			2951571.000			421653.000
72500.000			2951639.000			421662.714
72601.000			2951604.000			421657.714
72702.000			2951340.000			421620.000
72800.000			2951303.000			421614.714
72900.000			2951178.000			421596.857
73001.000			2951128.000			421589.714
73100.000			2950914.000			421559.143
73200.000			2950971.000			421567.286
73301.000			2950739.000			421534.143
73401.000			2950788.000			421541.143
73501.000			2950836.000			421548.000
73601.000			2950749.000			421535.571
73700.000			2950414.000			421487.714
73800.000			2950420.000			421488.571
73901.000			2950195.000			421456.429
74000.000			2950030.000			421432.857
74100.000			2949993.000			421427.571
74202.000			2950164.000			421452.000
74300.000			2950009.000			421429.857
74400.000			2949902.000			421414.571
74501.000			2949813.000			421401.857
74600.000			2949877.000			421411.000
74700.000			2949642.000			421377.429
74801.000			2949470.000			421352.857
74901.000			2949585.000			421369.286
75002.000			2949509.000			421358.429
75100.000			2949262.000			421323.143
75200.000			2949132.000			421304.571
75301.000			2949182.000			421311.714
75400.000			2949167.000			421309.571
75500.000			2948777.000			421253.857
75601.000			2948655.000			421236.429
75701.000			2948953.000			421279.000
75801.000			2948904.000			421272.000
75901.000			2948849.000			421264.143
76000.000			2948866.000			421266.571
76100.000			2948763.000			421251.857
76201.000			2948574.000			421224.857
76300.000			2948394.000			421199.143
76400.000			2948384.000			421197.714
76501.000			2948254.000			421179.143
76601.000			2948113.000			421159.000
76700.000			2948061.000			421151.571
76801.000			2947838.000			421119.714
76900.000			2947717.000			421102.429
77000.000			2947787.000			421112.429
77101.000			2947815.000			421116.429
77200.000			2947490.000			421070.000
77300.000			2947576.000			421082.286
77402.000			2947219.000			421031.286
77500.000			2947162.000			421023.143
77600.000			2947135.000			421019.286
77701.000			2947251.000			421035.857
77800.000			2947118.000			421016.857
77900.000			2947096.000			421013.714
78001.000			2947007.000			421001.000
78101.000			2947104.000			421014.857
78202.000			2946878.000			420982.571
78300.000			2946801.000			420971.571
78400.000			2946652.000			420950.286
78501.000			2946564.000			420937.714
78600.000			2946391.000			420913.000
78700.000			2946180.000			420882.857
78801.000			2946404.000			420914.857
78901.000			2946320.000			420902.857
79001.000			2946441.000			420920.143
79101.000			2946309.000			420901.286
79200.000			2946047.000			420863.857
79300.000			2945995.000			420856.429
79401.000			2945771.000			420824.429
79500.000			2945780.000			420825.714
79600.000			2945836.000			420833.714
79702.000			2945690.000			420812.857
79801.000			2945567.000			420795.286
79900.000			2945649.000			420807.000
80001.000			2945592.000			420798.857
80100.000			2945407.000			420772.429
80200.000			2945412.000			420773.143
80301.000			2945330.000			420761.429
80400.000			2945181.000			420740.143
80501.000			2945143.000			420734.714
80602.000			2944930.000			420704.286
80700.000			2944748.000			420678.286
80800.000			2944780.000			420682.857
80901.000			2944835.000			420690.714
81000.000			2944519.000			420645.571
81100.000			2944457.000			420636.714
81201.000			2944531.000			420647.286
81301.000			2944468.000			420638.286
81402.000			2944585.000			420655.000
81500.000			2944505.000			420643.571
81600.000			2944282.000			420611.714
81701.000			2944269.000			420609.857
81800.000			2944027.000			420575.286
81900.000			2944031.000			420575.857
82001.000			2944388.000			420626.857
82101.000			2944406.000			420629.429
82200.000			2944120.000			420588.571
82301.000			2943800.000			420542.857
82400.000			2943590.000			420512.857
82500.000			2943800.000			420542.857
82601.000			2943625.000			420517.857
82700.000			2943784.000			420540.571
82801.000			2943439.000			420491.286
82902.000			2943195.000			420456.429
83000.000			2943282.000			420468.857
83100.000			2943205.000			420457.857
83201.000			2943090.000			420441.429
83300.000			2943163.000			420451.857
83400.000			2943085.000			420440.714
83501.000			2943005.000			420429.286
83601.000			2942919.000			420417.000
83701.000			2942794.000			420399.143
83801.000			2942836.000			420405.143
83900.000			2942871.000			420410.143
84000.000			2942659.000			420379.857
84101.000			2942514.000			420359.143
84200.000			2942364.000			420337.714
84300.000			2942267.000			420323.857
84402.000			2942053.000			420293.286
84500.000			2941823.000			420260.429
84601.000			2941934.000			420276.286
84700.000			2941916.000			420273.714
84800.000			2941841.000			420263.000
84901.000			2941838.000			420262.571
85000.000			2941689.000			420241.286
85100.000			2941581.000			420225.857
85202.000			2941802.000			420257.429
85300.000			2941926.000			420275.143
85400.000			2941807.000			420258.143
85501.000			2941728.000			420246.857
85600.000			2941303.000			420186.143
85700.000			2941091.000			420155.857
85801.000			2941069.000			420152.714
85901.000			2941084.000			420154.857
86001.000			2941168.000			420166.857
86101.000			2941099.000			420157.000
86200.000			2941069.000			420152.714
86300.000			2941082.000			420154.571
86401.000			2940823.000			420117.571
86500.000			2940828.000			420118.286
86600.000			2940746.000			420106.571
86702.000			2940700.000			420100.000
86801.000			2940446.000			420063.714
86900.000			2940247.000			420035.286
87001.000			2940424.000			420060.571
87100.000			2940409.000			420058.429
87200.000			2940413.000			420059.000
87301.000			2940406.000			420058.000
87400.000			2940219.000			420031.286
87501.000			2940094.000			420013.429
87601.000			2940156.000			420022.286
87700.000			2939976.000			419996.571
87801.000			2939752.000			419964.571
87900.000			2939705.000			419957.857
88000.000			2939698.000			419956.857
88101.000			2939565.000			419937.857
88200.000			2939687.000			419955.286
88301.000			2939526.000			419932.286
88401.000			2939578.000			419939.714
88500.000			2939360.000			419908.571
88600.000			2939440.000			419920.000
88701.000			2939309.000			419901.286
88800.000			2939258.000			419894.000
88900.000			2939299.000			419899.857
89001.000			2938942.000			419848.857
89101.000			2939038.000			419862.571
89201.000			2938957.000			419851.000
89301.000			2938817.000			419831.000
89400.000			2938673.000			419810.429
89500.000			2938528.000			419789.714
89601.000			2938728.000			419818.286
89700.000			2938570.000			419795.714
89800.000			2938239.000			419748.429
89902.000			2938355.000			419765.000
90001.000			2938437.000			419776.714
90100.000			2938440.000			419777.143
90201.000			2938230.000			419747.143
90300.000			2938178.000			419739.714
90400.000			2938201.000			419743.000
90501.000			2938202.000			419743.143
90600.000			2937780.000			419682.857
90701.000			2937603.000			419657.571
90801.000			2937731.000			419675.857
90900.000			2937845.000			419692.143
91001.000			2937741.000			419677.286
91100.000			2937858.000			419694.000
91200.000			2937790.000			419684.286
91301.000			2937544.000			419649.143
91400.000			2937444.000			419634.857
91501.000			2937543.000			419649.000
91601.000			2937472.000			419638.857
91700.000			2937406.000			419629.429
91800.000			2937365.000			419623.571
91901.000			2937332.000			419618.857
92000.000			2937167.000			419595.286
92100.000			2937110.000			419587.143
92202.000			2937068.000			419581.143
92301.000			2936919.000			419559.857
92400.000			2936833.000			419547.571
92501.000			2936807.000			419543.857
92600.000			2936593.000			419513.286
92700.000			2936662.000			419523.143
92801.000			2936526.000			419503.714
92900.000			2936470.000			419495.714
93001.000			2936356.000			419479.429
93102.000			2936326.000			419475.143
93200.000			2936266.000			419466.571
93300.000			2936222.000			419460.286
93401.000			2936163.000			419451.857
93500.000			2935923.000			419417.571
93600.000			2935993.000			419427.571
93701.000			2935972.000			419424.571
93801.000			2935869.000			419409.857
93901.000			2935755.000			419393.571
94001.000			2935726.000			419389.429
94100.000			2935790.000			419398.571
94201.000			2935714.000			419387.714
94300.000			2935669.000			419381.286
94400.000			2935339.000			419334.143
94501.000			2935289.000			419327.000
94601.000			2935263.000			419323.286
94701.000			2935256.000			419322.286
94801.000			2935314.000			419330.571
94900.000			2935144.000			419306.286
95000.000			2935271.000			419324.429
95101.000			2934981.000			419283.000
95200.000			2934823.000			419260.429
95300.000			2935083.000			419297.571
95402.000			2934929.000			419275.571
95501.000			2934615.000			419230.714
95600.000			2934670.000			419238.571
95701.000			2934566.000			419223.714
95800.000			2934498.000			419214.000
95900.000			2934515.000			419216.429
96001.000			2934375.000			419196.429
96100.000			2934449.000			419207.000
96201.000			2934407.000			419201.000
96301.000			2934077.000			419153.857
96400.000			2934004.000			419143.429
96500.000			2934091.000			419155.857
96601.000			2934226.000			419175.143
96700.000			2933923.000			419131.857
96800.000			2933985.000			419140.714
96901.000			2934038.000			419148.286
97001.000			2933850.000			419121.429
97100.000			2933739.000			419105.571
97201.000			2933521.000			419074.429
97300.000			2933554.000			419079.143
97401.000			2933557.000			419079.571
97500.000			2933504.000			419072.000
97600.000			2933308.000			419044.000
97701.000			2932995.000			418999.286
97801.000			2933177.000			419025.286
97900.000			2933230.000			419032.857
98001.000			2933230.000			419032.857
98100.000			2933275.000			419039.286
98200.000			2933238.000			419034.000
98301.000			2933184.000			419026.286
98400.000			2932975.000			418996.429
98500.000			2932903.000			418986.143
98602.000			2932890.000			418984.286
98700.000			2932542.000			418934.571
98800.000			2932419.000			418917.000
98901.000			2932455.000			418922.143
99000.000			2932640.000			418948.571
99100.000			2932592.000			418941.714
99201.000			2932642.000			418948.857
99301.000			2932541.000			418934.429
99401.000			2932174.000			418882.000
99501.000			2931993.000			418856.143
99600.000			2931977.000			418853.857
99700.000			2932161.000			418880.143
99801.000			2932166.000			418880.857
99900.000			2931923.000			418846.143
100000.000			2931950.000			418850.000
100102.000			2931635.000			418805.000
100201.000			2931370.000			418767.143
100300.000			2931658.000			418808.286
100401.000			2931805.000			418829.286
100500.000			2931608.000			418801.143
100601.000			2931400.000			418771.429
100700.000			2931415.000			418773.571
100800.000			2931503.000			418786.143
100902.000			2931259.000			418751.286
101001.000			2931197.000			418742.429
101100.000			2931159.000			418737.000
101201.000			2931273.000			418753.286
101300.000			2931281.000			418754.429
101400.000			2931215.000			418745.000
101501.000			2931069.000			418724.143
101600.000			2930947.000			418706.714
101701.000			2930737.000			418676.714
101801.000			2930598.000			418656.857
101900.000			2930632.000			418661.714
102000.000			2930558.000			418651.143
102101.000			2930527.000			418646.714
102200.000			2930689.000			418669.857
102300.000			2930399.000			418628.429
102401.000			2930463.000			418637.571
102501.000			2930393.000			418627.571
102600.000			2930252.000			418607.429
102701.000			2930257.000			418608.143
102800.000			2930352.000			418621.714
102900.000			2930109.000			418587.000
103001.000			2929956.000			418565.143
103100.000			2930385.000			418626.429
103201.000			2930290.000			418612.857
103302.000			2929928.000			418561.143
103400.000			2929903.000			418557.571
103500.000			2929824.000			418546.286
103601.000			2929972.000			418567.429
103700.000			2929689.000			418527.000
103801.000			2929542.000			418506.000
103900.000			2929571.000			418510.143
104001.000			2929462.000			418494.571
104102.000			2929264.000			418466.286
104200.000			2929122.000			418446.000
104300.000			2929427.000			418489.571
104401.000			2929337.000			418476.714
104500.000			2929018.000			418431.143
104600.000			2929349.000			418478.429
104701.000			2929303.000			418471.857
104801.000			2929137.000			418448.143
104901.000			2929106.000			418443.714
105001.000			2929139.000			418448.429
105100.000			2929133.000			418447.571
105200.000			2928993.000			418427.571
105301.000			2928788.000			418398.286
105400.000			2928878.000			418411.143
105500.000			2928935.000			418419.286
105602.000			2928596.000			418370.857
105701.000			2928443.000			418349.000
105800.000			2928387.000			418341.000
105901.000			2928508.000			418358.286
106000.000			2928491.000			418355.857
106100.000			2928426.000			418346.571
106201.000			2928217.000			418316.714
106300.000			2928221.000			418317.286
106401.000			2928306.000			418329.429
106502.000			2928278.000			418325.429
106600.000			2928197.000			418313.857
106700.000			2928154.000			418307.714
106801.000			2928029.000			418289.857
106900.000			2927837.000			418262.429
107001.000			2927820.000			418260.000
107100.000			2927973.000			418281.857
107201.000			2928093.000			418299.000
107302.000			2927741.000			418248.714
107400.000			2927673.000			418239.000
107500.000			2927709.000			418244.143
107601.000			2927502.000			418214.571
107700.000			2927391.000			418198.714
107800.000			2927516.000			418216.571
107901.000			2927481.000			418211.571
108001.000			2927411.000			418201.571
108101.000			2927385.000			418197.857
108201.000			2926999.000			418142.714
108300.000			2926905.000			418129.286
108400.000			2927048.000			418149.714
108501.000			2927150.000			418164.286
108600.000			2927034.000			418147.714
108700.000			2926987.000			418141.000
108802.000			2926996.000			418142.286
108901.000			2927149.000			418164.143
109000.000			2926996.000			418142.286
109101.000			2926743.000			418106.143
109200.000			2926721.000			418103.000
109300.000			2926878.000			418125.429
109401.000			2926577.000			418082.429
109500.000			2926330.000			418047.143
109600.000			2926287.000			418041.000
109702.000			2926322.000			418046.000
109800.000			2926137.000			418019.571
109900.000			2926157.000			418022.429
110001.000			2926235.000			418033.571
110100.000			2926252.000			418036.000
110201.000			2926011.000			418001.571
110300.000			2926031.000			418004.429
110401.000			2926207.000			418029.571
110502.000			2926016.000			418002.286
110600.000			2925835.000			417976.429
110700.000			2925544.000			417934.857
110801.000			2925751.000			417964.429
110900.000			2925819.000			417974.143
111000.000			2925832.000			417976.000
111101.000			2925731.000			417961.571
111201.000			2925582.000			417940.286
111301.000			2925604.000			417943.429
111401.000			2925534.000			417933.429
111500.000			2925356.000			417908.000
111600.000			2925118.000			417874.000
111701.000			2925152.000			417878.857
111800.000			2925107.000			417872.429
111900.000			2925004.000			417857.714
112002.000			2925194.000			417884.857
112100.000			2925155.000			417879.286
112200.000			2924915.000			417845.000
112301.000			2924984.000			417854.857
112400.000			2924811.000			417830.143
112500.000			2924675.000			417810.714
112601.000			2924832.000			417833.143
112701.000			2924744.000			417820.571
112801.000			2924676.000			417810.857
112901.000			2924565.000			417795.000
113000.000			2924275.000			417753.571
113100.000			2924279.000			417754.143
113201.000			2924472.000			417781.714
113300.000			2924257.000			417751.000
113401.000			2924312.000			417758.857
113501.000			2924320.000			417760.000
113601.000			2924226.000			417746.571
113701.000			2924280.000			417754.286
113800.000			2924293.000			417756.143
113900.000			2924218.000			417745.429
114001.000			2923880.000			417697.143
114100.000			2923870.000			417695.714
114200.000			2923913.000			417701.857
114302.000			2923823.000			417689.000
114401.000			2923855.000			417693.571
114500.000			2923841.000			417691.571
114601.000			2923818.000			417688.286
114700.000			2923633.000			417661.857
114800.000			2923543.000			417649.000
114901.000			2923258.000			417608.286
115000.000			2923139.000			417591.286
115101.000			2923086.000			417583.714
115202.000			2923123.000			417589.000
115300.000			2923027.000			417575.286
115400.000			2923473.000			417639.000
115501.000			2923593.000			417656.143
115600.000			2922926.000			417560.857
115700.000			2922828.000			417546.857
115801.000			2922924.000			417560.571
115901.000			2922864.000			417552.000
116001.000			2922871.000			417553.000
116101.000			2922954.000			417564.857
116200.000			2922793.000			417541.857
116300.000			2922711.000			417530.143
116401.000			2922804.000			417543.429
116500.000			2922658.000			417522.571
116601.000			2922658.000			417522.571
116700.000			2922568.000			417509.714
116801.000			2922609.000			417515.571
116901.000			2922301.000			417471.571
117000.000			2922220.000			417460.000
117100.000			2922159.000			417451.286
117201.000			2922260.000			417465.714
117300.000			2922341.000			417477.286
117400.000			2922341.000			417477.286
117502.000			2922169.000			417452.714
117601.000			2922156.000			417450.857
117700.000			2922102.000			417443.143
117801.000			2922049.000			417435.571
117900.000			2922002.000			417428.857
118000.000			2921794.000			417399.143
118101.000			2921794.000			417399.143
118200.000			2921750.000			417392.857
118301.000			2921840.000			417405.714
118402.000			2921880.000			417411.429
118500.000			2921567.000			417366.714
118600.000			2921540.000			417362.857
118701.000			2921536.000			417362.286
118800.000			2921589.000			417369.857
118900.000			2921470.000			417352.857
119001.000			2921477.000			417353.857
119101.000			2921506.000			417358.000
119201.000			2921140.000			417305.714
119301.000			2921378.000			417339.714
119400.000			2921189.000			417312.714
119500.000			2921104.000			417300.571
119601.000			2920929.000			417275.571
119700.000			2920945.000			417277.857
119801.000			2920906.000			417272.286
119900.000			2920884.000			417269.143
120001.000			2921107.000			417301.000
120101.000			2920958.000			417279.714
120200.000			2920894.000			417270.571
120300.000			2920612.000			417230.286
120401.000			2920619.000			417231.286
120500.000			2920510.000			417215.714
120600.000			2920544.000			417220.571
120702.000			2920401.000			417200.143
120801.000			2920364.000			417194.857
120900.000			2920424.000			417203.429
121001.000			2920407.000			417201.000
121100.000			2920303.000			417186.143
121200.000			2920325.000			417189.286
121301.000			2920196.000			417170.857
121400.000			2920030.000			417147.143
121501.000			2920014.000			417144.857
121602.000			2920090.000			417155.714
121700.000			2920287.000			417183.857
121800.000			2920051.000			417150.143
121901.000			2919849.000			417121.286
122000.000			2919828.000			417118.286
122100.000			2919733.000			417104.714
122201.000			2919483.000			417069.000
122301.000			2919663.000			417094.714
122400.000			2919449.000			417064.143
122501.000			2919481.000			417068.714
122600.000			2919506.000			417072.286
122700.000			2919540.000			417077.143
122801.000			2919619.000			417088.429
122900.000			2919660.000			417094.286
123001.000			2919750.000			417107.143
123101.000			2919444.000			417063.429
123201.000			2919342.000			417048.857
123301.000			2919374.000			417053.429
123400.000			2919227.000			417032.429
123500.000			2918978.000			416996.857
123601.000			2918937.000			416991.000
123700.000			2919146.000			417020.857
123800.000			2918858.000			416979.714
123902.000			2918868.000			416981.143
124001.000			2918748.000			416964.000
124100.000			2919034.000			417004.857
124201.000			2918740.000			416962.857
124300.000			2918609.000			416944.143
124400.000			2918638.000			416948.286
124501.000			2918645.000			416949.286
124600.000			2918544.000			416934.857
124701.000			2918289.000			416898.429
124802.000			2918309.000			416901.286
124900.000			2918369.000			416909.857
125000.000			2918338.000			416905.429
125101.000			2918516.000			416930.857
125200.000			2918254.000			416893.429
125300.000			2918147.000			416878.143
125401.000			2918056.000			416865.143
125501.000			2918155.000			416879.286
125601.000			2918147.000			416878.143
125701.000			2918057.000			416865.286
125800.000			2918029.000			416861.286
125900.000			2918206.000			416886.571
126001.000			2918030.000			416861.429
126100.000			2918010.000			416858.571
126201.000			2917994.000			416856.286
126301.000			2917921.000			416845.857
126401.000			2917732.000			416818.857
126501.000			2917777.000			416825.286
126600.000			2917381.000			416768.714
126700.000			2917483.000			416783.286
126801.000			2917480.000			416782.857
126900.000			2917366.000			416766.571
127000.000			2917392.000			416770.286
127102.000			2917506.000			416786.571
127201.000			2917263.000			416751.857
127300.000			2916997.000			416713.857
127401.000			2917253.000			416750.429
127500.000			2917201.000			416743.000
127600.000			2917131.000			416733.000
127701.000			2916940.000			416705.714
127800.000			2917113.000			416730.429
127901.000			2917180.000			416740.000
128002.000			2917011.000			416715.857
128100.000			2916830.000			416690.000
128200.000			2916815.000			416687.857
128301.000			2916501.000			416643.000
128400.000			2916499.000			416642.714
128500.000			2916418.000			416631.143
128601.000			2916569.000			416652.714
128701.000			2916688.000			416669.714
128801.000			2916380.000			416625.714
128901.000			2916503.000			416643.286
129000.000			2916537.000			416648.143
129100.000			2916567.000			416652.429
129201.000			2916303.000			416614.714
129300.000			2916081.000			416583.000
129401.000			2916143.000			416591.857
129501.000			2916358.000			416622.571
129601.000			2915816.000			416545.143
129701.000			2915952.000			416564.571
129800.000			2916160.000			416594.286
129900.000			2916328.000			416618.286
130001.000			2916204.000			416600.571
130100.000			2915960.000			416565.714
130200.000			2915944.000			416563.429
130302.000			2915780.000			416540.000
130401.000			2915799.000			416542.714
130500.000			2915755.000			416536.429
130601.000			2915600.000			416514.286
130700.000			2915471.000			416495.857
130800.000			2915300.000			416471.429
130901.000			2915469.000			416495.571
131000.000			2915483.000			416497.571
131101.000			2915293.000			416470.429
131202.000			2915277.000			416468.143
131300.000			2915459.000			416494.143
131400.000			2915482.000			416497.429
131501.000			2915348.000			416478.286
131600.000			2915262.000			416466.000
131700.000			2915375.000			416482.143
131801.000			2915013.000			416430.429
131900.000			2915153.000			416450.429
132001.000			2915201.000			416457.286
132101.000			2915132.000			416447.429
132200.000			2915042.000			416434.571
132300.000			2915108.000			416444.000
132401.000			2914973.000			416424.714
132500.000			2914831.000			416404.429
132601.000			2914641.000			416377.286
132700.000			2914643.000			416377.571
132801.000			2914922.000			416417.429
132902.000			2914663.000			416380.429
133000.000			2914526.000			416360.857
133100.000			2914445.000			416349.286
133201.000			2914488.000			416355.429
133300.000			2914256.000			416322.286
133400.000			2914379.000			416339.857
133501.000			2914350.000			416335.714
133600.000			2914370.000			416338.571
133701.000			2914365.000			416337.857
133801.000			2914462.000			416351.714
133900.000			2914190.000			416312.857
134000.000			2913932.000			416276.000
134101.000			2914179.000			416311.286
134200.000			2914254.000			416322.000
134300.000			2914135.000			416305.000
134401.000			2913967.000			416281.000
134501.000			2913841.000			416263.000
134601.000			2913840.000			416262.857
134701.000			2913797.000			416256.714
134800.000			2913807.000			416258.143
134900.000			2913772.000			416253.143
135001.000			2913691.000			416241.571
135100.000			2913486.000			416212.286
135200.000			2913500.000			416214.286
135301.000			2913462.000			416208.857
135401.000			2913259.000			416179.857
135501.000			2913212.000			416173.143
135601.000			2913299.000			416185.571
135700.000			2912989.000			416141.286
135801.000			2913146.000			416163.714
135900.000			2913289.000			416184.143
136000.000			2913313.000			416187.571
136101.000			2913210.000			416172.857
136201.000			2913152.000			416164.571
136301.000			2913161.000			416165.857
136401.000			2912993.000			416141.857
136500.000			2912890.000			416127.143
136600.000			2912899.000			416128.429
136701.000			2912808.000			416115.429
136800.000			2912585.000			416083.571
136900.000			2912772.000			416110.286
137001.000			2913015.000			416145.000
137101.000			2912722.000			416103.143
137201.000			2912642.000			416091.714
137301.000			2912475.000			416067.857
137400.000			2912420.000			416060.000
137500.000			2912491.000			416070.143
137601.000			2912481.000			416068.714
137700.000			2912528.000			416075.429
137800.000			2912477.000			416068.143
137901.000			2912455.000			416065.000
138001.000			2912326.000			416046.571
138101.000			2912230.000			416032.857
138201.000			2912424.000			416060.571
138300.000			2912301.000			416043.000
138400.000			2911798.000			415971.143
138501.000			2911906.000			415986.571
138600.000			2912261.000			416037.286
138700.000			2912138.000			416019.714
138802.000			2911937.000			415991.000
138901.000			2911887.000			415983.857
139001.000			2911760.000			415965.714
139100.000			2911747.000			415963.857
139200.000			2911797.000			415971.000
139301.000			2911649.000			415949.857
139400.000			2911487.000			415926.714
139500.000			2911613.000			415944.714
139601.000			2911580.000			415940.000
139701.000			2911371.000			415910.143
139801.000			2911546.000			415935.143
139901.000			2911403.000			415914.714
140000.000			2911623.000			415946.143
140100.000			2911612.000			415944.571
140201.000			2911331.000			415904.429
140300.000			2911306.000			415900.857
140400.000			2911234.000			415890.571
140501.000			2911225.000			415889.286
140601.000			2911067.000			415866.714
140701.000			2910929.000			415847.000
140801.000			2910879.000			415839.857
140900.000			2910863.000			415837.571
141000.000			2910977.000			415853.857
141101.000			2910778.000			415825.429
141200.000			2910749.000			415821.286
141300.000			2910620.000			415802.857
141402.000			2910774.000			415824.857
141501.000			2910776.000			415825.143
141600.000			2910498.000			415785.429
141701.000			2910706.000			415815.143
141800.000			2910669.000			415809.857
141900.000			2910485.000			415783.571
142001.000			2910427.000			415775.286
142100.000			2910684.000			415812.000
142201.000			2910533.000			415790.429
142301.000			2910471.000			415781.571
142401.000			2910347.000			415763.857
142501.000			2910419.000			415774.143
142600.000			2910447.000			415778.143
142700.000			2910389.000			415769.857
142801.000			2910018.000			415716.857
142900.000			2909922.000			415703.143
143000.000			2909898.000			415699.714
143102.000			2909907.000			415701.000
143201.000			2909773.000			415681.857
143300.000			2909817.000			415688.143
143401.000			2909731.000			415675.857
143500.000			2909526.000			415646.571
143600.000			2909862.000			415694.571
143701.000			2909742.000			415677.429
143800.000			2909706.000			415672.286
143900.000			2909717.000			415673.857
144002.000			2909772.000			415681.714
144101.000			2909745.000			415677.857
144200.000			2909854.000			415693.429
144301.000			2909556.000			415650.857
144400.000			2909446.000			415635.143
144500.000			2909304.000			415614.857
144601.000			2909386.000			415626.571
144700.000			2909335.000			415619.286
144800.000			2909281.000			415611.571
144902.000			2909349.000			415621.286
145001.000			2909230.000			415604.286
145100.000			2909130.000			415590.000
145201.000			2909040.000			415577.143
145300.000			2908993.000			415570.429
145401.000			2909015.000			415573.571
145500.000			2909093.000			415584.714
145600.000			2909196.000			415599.429
145701.000			2909100.000			415585.714
145801.000			2908809.000			415544.143
145901.000			2909094.000			415584.857
146001.000			2909006.000			415572.286
146100.000			2908826.000			415546.571
146200.000			2908874.000			415553.429
146301.000			2908862.000			415551.714
146400.000			2908725.000			415532.143
146500.000			2908602.000			415514.571
146601.000			2908646.000			415520.857
146701.000			2908553.000			415507.571
146801.000			2908594.000			415513.429
146901.000			2908632.000			415518.857
147000.000			2908315.000			415473.571
147100.000			2907951.000			415421.571
147201.000			2908229.000			415461.286
147300.000			2908302.000			415471.714
147400.000			2908161.000			415451.571
147502.000			2908317.000			415473.857
147601.000			2908420.000			415488.571
147700.000			2908267.000			415466.714
147801.000			2908069.000			415438.429
147900.000			2908181.000			415454.429
148000.000			2907951.000			415421.571
148101.000			2908020.000			415431.429
148200.000			2907759.000			415394.143
148300.000			2907747.000			415392.429
148402.000			2907671.000			415381.571
148501.000			2907549.000			415364.143
148601.000			2907735.000			415390.714
148700.000			2907838.000			415405.429
148800.000			2907672.000			415381.714
148901.000			2907415.000			415345.000
149000.000			2907410.000			415344.286
149100.000			2907504.000			415357.714
149201.000			2907465.000			415352.143
149301.000			2907368.000			415338.286
149401.000			2907254.000			415322.000
149501.000			2907364.000			415337.714
149600.000			2907387.000			415341.000
149700.000			2907400.000			415342.857
149801.000			2907132.000			415304.571
149900.000			2907157.000			415308.143
150000.000			2907047.000			415292.429
150101.000			2907173.000			415310.429
150201.000			2907179.000			415311.286
150301.000			2907043.000			415291.857
150401.000			2906999.000			415285.571
150500.000			2906817.000			415259.571
150600.000			2906788.000			415255.429
150701.000			2906861.000			415265.857
150800.000			2907017.000			415288.143
150900.000			2906551.000			415221.571
151002.000			2906716.000			415245.143
151101.000			2906910.000			415272.857
151200.000			2906697.000			415242.429
151301.000			2906554.000			415222.000
151400.000			2906665.000			415237.857
151500.000			2906633.000			415233.286
151601.000			2906405.000			415200.714
151700.000			2906249.000			415178.429
151801.000			2906380.000			415197.143
151901.000			2906419.000			415202.714
152001.000			2906366.000			415195.143
152101.000			2906494.000			415213.429
152200.000			2906323.000			415189.000
152300.000			2906253.000			415179.000
152401.000			2906235.000			415176.429
152500.000			2906062.000			415151.714
152600.000			2906050.000			415150.000
152701.000			2906128.000			415161.143
152801.000			2906047.000			415149.571
152901.000			2906112.000			415158.857
153001.000			2906203.000			415171.857
153100.000			2905911.000			415130.143
153200.000			2905669.000			415095.571
153301.000			2905640.000			415091.429
153400.000			2905516.000			415073.714
153500.000			2905363.000			415051.857
153602.000			2905486.000			415069.429
153701.000			2905694.000			415099.143
153800.000			2905860.000			415122.857
153901.000			2905690.000			415098.571
154000.000			2905663.000			415094.714
154100.000			2905597.000			415085.286
154201.000			2905486.000			415069.429
154300.000			2905460.000			415065.714
154400.000			2905305.000			415043.571
154502.000			2905131.000			415018.714
154601.000			2905193.000			415027.571
154700.000			2905141.000			415020.143
154801.000			2905182.000			415026.000
154900.000			2905003.000			415000.429
155001.000			2905051.000			415007.286
155100.000			2904918.000			414988.286
155200.000			2905064.000			415009.143
155301.000			2905019.000			415002.714
155401.000			2904929.000			414989.857
155500.000			2905037.000			415005.286
155601.000			2904827.000			414975.286
155700.000			2904731.000			414961.571
155800.000			2904635.000			414947.857
155901.000			2904659.000			414951.286
156000.000			2904630.000			414947.143
156100.000			2904612.000			414944.571
156202.000			2904575.000			414939.286
156301.000			2904813.000			414973.286
156400.000			2904593.000			414941.857
156501.000			2904559.000			414937.000
156600.000			2904380.000			414911.429
156700.000			2904243.000			414891.857
156801.000			2904276.000			414896.571
156900.000			2904364.000			414909.143
157000.000			2904241.000			414891.571
157102.000			2904378.000			414911.143
157201.000			2904376.000			414910.857
157300.000			2904348.000			414906.857
157401.000			2904129.000			414875.571
157500.000			2904119.000			414874.143
157600.000			2904417.000			414916.714
157701.000			2904022.000			414860.286
157800.000			2903845.000			414835.000
157900.000			2904063.000			414866.143
158002.000			2904099.000			414871.286
158101.000			2904092.000			414870.286
158201.000			2903920.000			414845.714
158300.000			2903761.000			414823.000
158400.000			2903920.000			414845.714
158501.000			2903804.000			414829.143
158600.000			2903762.000			414823.143
158700.000			2903474.000			414782.000
158802.000			2903568.000			414795.429
158901.000			2903415.000			414773.571
159000.000			2903354.000			414764.857
159101.000			2903463.000			414780.429
159200.000			2903573.000			414796.143
159300.000			2903444.000			414777.714
159401.000			2903591.000			414798.714
159500.000			2903429.000			414775.571
159600.000			2903173.000			414739.000
159702.000			2902971.000			414710.143
159801.000			2903260.000			414751.429
159900.000			2903183.000			414740.429
160001.000			2903194.000			414742.000
160100.000			2903265.000			414752.143
160200.000			2902934.000			414704.857
160301.000			2903017.000			414716.714
160400.000			2903157.000			414736.714
160500.000			2903000.000			414714.286
160602.000			2902908.000			414701.143
160701.000			2903053.000			414721.857
160800.000			2902911.000			414701.571
160901.000			2902742.000			414677.429
161000.000			2902878.000			414696.857
161100.000			2902914.000			414702.000
161201.000			2902764.000			414680.571
161300.000			2902637.000			414662.429
161402.000			2902785.000			414683.571
161501.000			2902793.000			414684.714
161600.000			2902647.000			414663.857
161701.000			2902739.000			414677.000
161800.000			2902642.000			414663.143
161900.000			2902425.000			414632.143
162001.000			2902509.000			414644.143
162100.000			2902322.000			414617.429
162200.000			2902261.000			414608.714
162302.000			2902140.000			414591.429
162401.000			2902127.000			414589.571
162500.000			2902142.000			414591.714
162601.000			2902151.000			414593.000
162700.000			2902066.000			414580.857
162800.000			2902214.000			414602.000
162901.000			2902295.000			414613.571
163000.000			2902312.000			414616.000
163101.000			2902177.000			414596.714
163202.000			2902076.000			414582.286
163300.000			2902103.000			414586.143
163400.000			2901738.000			414534.000
163501.000			2901725.000			414532.143
163600.000			2901626.000			414518.000
163700.000			2901745.000			414535.000
163801.000			2901849.000			414549.857
163900.000			2901877.000			414553.857
164001.000			2901928.000			414561.143
164102.000			2901970.000			414567.143
164200.000			2901210.000			414458.571
164300.000			2901425.000			414489.286
164401.000			2901523.000			414503.286
164500.000			2901237.000			414462.429
164601.000			2901253.000			414464.714
164700.000			2901457.000			414493.857
164801.000			2901507.000			414501.000
164902.000			2901192.000			414456.000
165000.000			2901466.000			414495.143
165100.000			2901614.000			414516.286
165201.000			2901335.000			414476.429
165300.000			2901015.000			414430.714
165400.000			2901093.000			414441.857
165501.000			2901233.000			414461.857
165600.000			2901143.000			414449.000
165701.000			2900868.000			414409.714
165802.000			2900692.000			414384.571
165900.000			2900870.000			414410.000
166000.000			2900899.000			414414.143
166101.000			2900888.000			414412.571
166200.000			2900894.000			414413.429
166300.000			2900657.000			414379.571
166401.000			2900725.000			414389.286
166500.000			2900975.000			414425.000
166601.000			2900460.000			414351.429
166702.000			2900408.000			414344.000
166800.000			2900471.000			414353.000
166900.000			2900566.000			414366.571
167001.000			2900773.000			414396.143
167100.000			2900646.000			414378.000
167200.000			2900453.000			414350.429
167301.000			2900468.000			414352.571
167401.000			2900418.000			414345.429
167501.000			2900499.000			414357.000
167601.000			2900345.000			414335.000
167700.000			2900201.000			414314.429
167801.000			2900192.000			414313.143
167900.000			2900350.000			414335.714
168000.000			2900352.000			414336.000
168101.000			2900229.000			414318.429
168200.000			2900156.000			414308.000
168301.000			2899903.000			414271.857
168402.000			2899703.000			414243.286
168500.000			2899941.000			414277.286
168600.000			2899814.000			414259.143
168701.000			2899623.000			414231.857
168800.000			2899798.000			414256.857
168900.000			2899880.000			414268.571
169001.000			2900013.000			414287.571
169100.000			2899997.000			414285.286
169201.000			2899530.000			414218.571
169302.000			2899831.000			414261.571
169400.000			2899713.000			414244.714
169500.000			2899626.000			414232.286
169601.000			2899406.000			414200.857
169700.000			2899450.000			414207.143
169800.000			2899495.000			414213.571
169901.000			2899449.000			414207.000
170000.000			2899388.000			414198.286
170100.000			2899330.000			414190.000
170202.000			2899478.000			414211.143
170301.000			2899444.000			414206.286
170400.000			2899304.000			414186.286
170501.000			2899120.000			414160.000
170600.000			2899101.000			414157.286
170700.000			2899147.000			414163.857
170801.000			2899272.000			414181.714
170900.000			2899471.000			414210.143
171001.000			2899292.000			414184.571
171101.000			2898926.000			414132.286
171201.000			2899126.000			414160.857
171301.000			2898964.000			414137.714
171400.000			2898827.000			414118.143
171500.000			2899042.000			414148.857
171601.000			2899191.000			414170.143
171700.000			2899058.000			414151.143
171800.000			2898936.000			414133.714
171901.000			2898824.000			414117.714
172001.000			2899032.000			414147.429
172101.000			2898763.000			414109.000
172201.000			2898602.000			414086.000
172300.000			2898738.000			414105.429
172400.000			2898671.000			414095.857
172501.000			2898580.000			414082.857
172600.000			2898474.000			414067.714
172700.000			2898599.000			414085.571
172801.000			2898720.000			414102.857
172901.000			2898523.000			414074.714
173001.000			2898318.000			414045.429
173101.000			2898335.000			414047.857
173200.000			2898296.000			414042.286
173300.000			2898430.000			414061.429
173401.000			2898361.000			414051.571
173500.000			2898145.000			414020.714
173600.000			2898181.000			414025.857
173701.000			2898174.000			414024.857
173801.000			2898139.000			414019.857
173901.000			2898185.000			414026.429
174001.000			2898132.000			414018.857
174100.000			2898157.000			414022.429
174201.000			2898162.000			414023.143
174300.000			2898293.000			414041.857
174400.000			2898045.000			414006.429
174501.000			2897871.000			413981.571
174600.000			2897838.000			413976.857
174700.000			2897832.000			413976.000
174802.000			2897659.000			413951.286
174901.000			2897602.000			413943.143
175000.000			2897868.000			413981.143
175101.000			2897834.000			413976.286
175200.000			2897541.000			413934.429
175300.000			2897520.000			413931.429
175401.000			2897556.000			413936.571
175500.000			2897343.000			413906.143
175600.000			2897215.000			413887.857
175702.000			2897339.000			413905.571
175801.000			2897382.000			413911.714
175900.000			2897315.000			413902.143
176001.000			2897144.000			413877.714
176100.000			2897005.000			413857.857
176200.000			2896918.000			413845.429
176301.000			2896819.000			413831.286
176400.000			2896939.000			413848.429
176500.000			2896984.000			413854.857
176602.000			2896835.000			413833.571
176701.000			2896835.000			413833.571
176800.000			2896972.000			413853.143
176901.000			2897161.000			413880.143
177000.000			2897068.000			413866.857
177100.000			2896736.000			413819.429
177201.000			2896890.000			413841.429
177300.000			2896807.000			413829.571
177401.000			2896757.000			413822.429
177500.000			2896656.000			413808.000
177601.000			2896862.000			413837.429
177702.000			2896785.000			413826.429
177800.000			2896767.000			413823.857
177900.000			2896848.000			413835.429
178001.000			2896610.000			413801.429
178100.000			2896538.000			413791.143
178200.000			2896678.000			413811.143
178301.000			2896665.000			413809.286
178400.000			2896674.000			413810.571
178501.000			2896435.000			413776.429
178602.000			2896449.000			413778.429
178700.000			2896569.000			413795.571
178800.000			2896386.000			413769.429
178901.000			2896149.000			413735.571
179000.000			2896162.000			413737.429
179100.000			2896298.000			413756.857
179201.000			2896117.000			413731.000
179300.000			2896071.000			413724.429
179400.000			2896041.000			413720.143
179502.000			2896226.000			413746.571
179601.000			2896035.000			413719.286
179700.000			2896129.000			413732.714
179801.000			2895813.000			413687.571
179900.000			2895822.000			413688.857
