# Acquired on 25/01/2024 16:03:07 
# SPIDER: Creep_-6mm_GRPCNT1454A-1
# CREEP MEASUREMENT

# time [ms]		force [N]		stiffness [N/mm]
1.000			17.811			-2.969
105.000			18.173			-3.029
203.000			18.149			-3.025
304.000			18.005			-3.001
405.000			17.888			-2.981
504.000			17.793			-2.966
604.000			17.648			-2.941
704.000			17.589			-2.932
804.000			17.535			-2.923
904.000			17.488			-2.915
1005.000			17.444			-2.907
1104.000			17.404			-2.901
1204.000			17.367			-2.895
1305.000			17.301			-2.884
1403.000			17.271			-2.879
1504.000			17.244			-2.874
1605.000			17.218			-2.870
1704.000			17.193			-2.865
1804.000			17.168			-2.861
1904.000			17.145			-2.858
2004.000			17.124			-2.854
2104.000			17.083			-2.847
2205.000			17.064			-2.844
2304.000			17.046			-2.841
2404.000			17.028			-2.838
2505.000			17.012			-2.835
2603.000			16.995			-2.833
2705.000			16.981			-2.830
2804.000			16.950			-2.825
2904.000			16.935			-2.823
3005.000			16.922			-2.820
3104.000			16.910			-2.818
3204.000			16.897			-2.816
3304.000			16.885			-2.814
3404.000			16.873			-2.812
3504.000			16.848			-2.808
3605.000			16.837			-2.806
3704.000			16.826			-2.804
3803.000			16.815			-2.803
3905.000			16.806			-2.801
4004.000			16.795			-2.799
4104.000			16.785			-2.798
4205.000			16.765			-2.794
4304.000			16.756			-2.793
4404.000			16.746			-2.791
4504.000			16.738			-2.790
4604.000			16.730			-2.788
4704.000			16.721			-2.787
4805.000			16.712			-2.785
4904.000			16.704			-2.784
5004.000			16.689			-2.781
5105.000			16.681			-2.780
5203.000			16.673			-2.779
5304.000			16.665			-2.778
5405.000			16.658			-2.776
5504.000			16.652			-2.775
5604.000			16.646			-2.774
5704.000			16.630			-2.772
5804.000			16.624			-2.771
5905.000			16.617			-2.769
6004.000			16.610			-2.768
6104.000			16.603			-2.767
6205.000			16.597			-2.766
6304.000			16.591			-2.765
6403.000			16.578			-2.763
6505.000			16.571			-2.762
6604.000			16.566			-2.761
6704.000			16.561			-2.760
6805.000			16.556			-2.759
6904.000			16.549			-2.758
7004.000			16.544			-2.757
7104.000			16.533			-2.755
7204.000			16.528			-2.755
7304.000			16.523			-2.754
7405.000			16.517			-2.753
7504.000			16.512			-2.752
7604.000			16.507			-2.751
7705.000			16.502			-2.750
7803.000			16.497			-2.750
7904.000			16.487			-2.748
8005.000			16.482			-2.747
8104.000			16.478			-2.746
8204.000			16.473			-2.746
8304.000			16.469			-2.745
8404.000			16.463			-2.744
8504.000			16.459			-2.743
8605.000			16.451			-2.742
8704.000			16.447			-2.741
8804.000			16.442			-2.740
8905.000			16.438			-2.740
9003.000			16.433			-2.739
9105.000			16.429			-2.738
9204.000			16.426			-2.738
9304.000			16.418			-2.736
9405.000			16.413			-2.736
9504.000			16.409			-2.735
9604.000			16.405			-2.734
9704.000			16.400			-2.733
9804.000			16.396			-2.733
9904.000			16.393			-2.732
10005.000			16.385			-2.731
10104.000			16.382			-2.730
10203.000			16.379			-2.730
10305.000			16.376			-2.729
10404.000			16.371			-2.729
10504.000			16.367			-2.728
10605.000			16.364			-2.727
10704.000			16.360			-2.727
10804.000			16.352			-2.725
10904.000			16.350			-2.725
11004.000			16.347			-2.724
11104.000			16.344			-2.724
11205.000			16.341			-2.724
11304.000			16.337			-2.723
11404.000			16.334			-2.722
11505.000			16.328			-2.721
11603.000			16.325			-2.721
11704.000			16.322			-2.720
11805.000			16.319			-2.720
11904.000			16.316			-2.719
12004.000			16.313			-2.719
12103.000			16.310			-2.718
12204.000			16.303			-2.717
12305.000			16.299			-2.717
12404.000			16.296			-2.716
12504.000			16.294			-2.716
12605.000			16.291			-2.715
12704.000			16.289			-2.715
12803.000			16.285			-2.714
12905.000			16.278			-2.713
13004.000			16.277			-2.713
13104.000			16.274			-2.712
13205.000			16.271			-2.712
13304.000			16.267			-2.711
13404.000			16.264			-2.711
13504.000			16.262			-2.710
13604.000			16.259			-2.710
13704.000			16.254			-2.709
13805.000			16.252			-2.709
13904.000			16.249			-2.708
14004.000			16.245			-2.708
14105.000			16.243			-2.707
14203.000			16.240			-2.707
14304.000			16.238			-2.706
14405.000			16.233			-2.705
14504.000			16.230			-2.705
14604.000			16.227			-2.704
14704.000			16.225			-2.704
14804.000			16.223			-2.704
14903.000			16.220			-2.703
15005.000			16.217			-2.703
15104.000			16.212			-2.702
15204.000			16.210			-2.702
15305.000			16.209			-2.701
15403.000			16.205			-2.701
15505.000			16.203			-2.700
15604.000			16.201			-2.700
15704.000			16.197			-2.700
15805.000			16.193			-2.699
15904.000			16.191			-2.699
16004.000			16.189			-2.698
16104.000			16.186			-2.698
16204.000			16.184			-2.697
16304.000			16.182			-2.697
16405.000			16.180			-2.697
16504.000			16.178			-2.696
16604.000			16.173			-2.696
16705.000			16.172			-2.695
16803.000			16.170			-2.695
16904.000			16.168			-2.695
17005.000			16.164			-2.694
17104.000			16.163			-2.694
17204.000			16.161			-2.694
17305.000			16.156			-2.693
17404.000			16.154			-2.692
17503.000			16.153			-2.692
17605.000			16.150			-2.692
17704.000			16.149			-2.691
17804.000			16.146			-2.691
17905.000			16.144			-2.691
18004.000			16.141			-2.690
18104.000			16.137			-2.690
18204.000			16.136			-2.689
18304.000			16.134			-2.689
18404.000			16.132			-2.689
18504.000			16.131			-2.689
18604.000			16.128			-2.688
18703.000			16.124			-2.687
18804.000			16.123			-2.687
18904.000			16.121			-2.687
19005.000			16.118			-2.686
19104.000			16.117			-2.686
19204.000			16.115			-2.686
19305.000			16.112			-2.685
19403.000			16.110			-2.685
19504.000			16.107			-2.685
19605.000			16.106			-2.684
19704.000			16.104			-2.684
19804.000			16.103			-2.684
19905.000			16.100			-2.683
20004.000			16.098			-2.683
20103.000			16.096			-2.683
20205.000			16.092			-2.682
20304.000			16.090			-2.682
20404.000			16.089			-2.682
20505.000			16.087			-2.681
20604.000			16.085			-2.681
20704.000			16.083			-2.680
20804.000			16.082			-2.680
20904.000			16.079			-2.680
21004.000			16.077			-2.680
21105.000			16.076			-2.679
21204.000			16.074			-2.679
21303.000			16.072			-2.679
21405.000			16.071			-2.678
21504.000			16.068			-2.678
21604.000			16.064			-2.677
21705.000			16.063			-2.677
21804.000			16.062			-2.677
21905.000			16.060			-2.677
22003.000			16.058			-2.676
22104.000			16.057			-2.676
22205.000			16.055			-2.676
22304.000			16.053			-2.676
22404.000			16.050			-2.675
22505.000			16.049			-2.675
22604.000			16.047			-2.674
22703.000			16.045			-2.674
22805.000			16.044			-2.674
22904.000			16.042			-2.674
23004.000			16.041			-2.673
23105.000			16.037			-2.673
23204.000			16.035			-2.672
23304.000			16.034			-2.672
23404.000			16.032			-2.672
23504.000			16.031			-2.672
23604.000			16.029			-2.671
23705.000			16.028			-2.671
23804.000			16.025			-2.671
23903.000			16.023			-2.671
24005.000			16.021			-2.670
24104.000			16.020			-2.670
24204.000			16.019			-2.670
24305.000			16.018			-2.670
24404.000			16.017			-2.670
24504.000			16.013			-2.669
24604.000			16.010			-2.668
24704.000			16.010			-2.668
24804.000			16.007			-2.668
24904.000			16.005			-2.668
25004.000			16.006			-2.668
25105.000			16.004			-2.667
25204.000			16.003			-2.667
25303.000			16.000			-2.667
25405.000			15.999			-2.667
25504.000			15.998			-2.666
25604.000			15.995			-2.666
25705.000			15.994			-2.666
25804.000			15.994			-2.666
25904.000			15.992			-2.665
26004.000			15.988			-2.665
26104.000			15.988			-2.665
26204.000			15.985			-2.664
26305.000			15.984			-2.664
26404.000			15.984			-2.664
26504.000			15.983			-2.664
26605.000			15.981			-2.663
26703.000			15.978			-2.663
26804.000			15.977			-2.663
26905.000			15.976			-2.663
27004.000			15.974			-2.662
27104.000			15.973			-2.662
27205.000			15.972			-2.662
27304.000			15.970			-2.662
27403.000			15.967			-2.661
27505.000			15.967			-2.661
27604.000			15.965			-2.661
27704.000			15.963			-2.661
27805.000			15.961			-2.660
27904.000			15.960			-2.660
28004.000			15.960			-2.660
28103.000			15.958			-2.660
28204.000			15.956			-2.659
28305.000			15.954			-2.659
28404.000			15.953			-2.659
28504.000			15.952			-2.659
28605.000			15.951			-2.658
28704.000			15.949			-2.658
28803.000			15.947			-2.658
28905.000			15.945			-2.658
29004.000			15.944			-2.657
29104.000			15.944			-2.657
29205.000			15.942			-2.657
29304.000			15.940			-2.657
29404.000			15.938			-2.656
29504.000			15.939			-2.656
29604.000			15.936			-2.656
29704.000			15.935			-2.656
29805.000			15.934			-2.656
29904.000			15.932			-2.655
30004.000			15.931			-2.655
30105.000			15.930			-2.655
30203.000			15.929			-2.655
30304.000			15.926			-2.654
30405.000			15.925			-2.654
30504.000			15.924			-2.654
30604.000			15.923			-2.654
30704.000			15.921			-2.654
30804.000			15.921			-2.653
30904.000			15.920			-2.653
31005.000			15.918			-2.653
31104.000			15.916			-2.653
31204.000			15.916			-2.653
31305.000			15.915			-2.652
31403.000			15.913			-2.652
31505.000			15.912			-2.652
31604.000			15.910			-2.652
31704.000			15.909			-2.652
31805.000			15.907			-2.651
31904.000			15.905			-2.651
32004.000			15.904			-2.651
32104.000			15.904			-2.651
32204.000			15.902			-2.650
32304.000			15.901			-2.650
32405.000			15.900			-2.650
32504.000			15.899			-2.650
32604.000			15.898			-2.650
32705.000			15.897			-2.650
32803.000			15.896			-2.649
32904.000			15.893			-2.649
33005.000			15.892			-2.649
33104.000			15.892			-2.649
33204.000			15.890			-2.648
33305.000			15.889			-2.648
33404.000			15.887			-2.648
33503.000			15.886			-2.648
33605.000			15.885			-2.648
33704.000			15.885			-2.647
33804.000			15.883			-2.647
33905.000			15.881			-2.647
34004.000			15.880			-2.647
34104.000			15.879			-2.647
34204.000			15.878			-2.646
34304.000			15.877			-2.646
34404.000			15.876			-2.646
34504.000			15.875			-2.646
34604.000			15.874			-2.646
34705.000			15.872			-2.645
34804.000			15.871			-2.645
34903.000			15.870			-2.645
35005.000			15.869			-2.645
35104.000			15.869			-2.645
35204.000			15.868			-2.645
35305.000			15.866			-2.644
35404.000			15.863			-2.644
35504.000			15.863			-2.644
35604.000			15.862			-2.644
35704.000			15.862			-2.644
35804.000			15.860			-2.643
35905.000			15.858			-2.643
36004.000			15.858			-2.643
36104.000			15.856			-2.643
36205.000			15.856			-2.643
36303.000			15.854			-2.642
36404.000			15.853			-2.642
36505.000			15.852			-2.642
36604.000			15.852			-2.642
36704.000			15.849			-2.642
36804.000			15.849			-2.641
36904.000			15.848			-2.641
37003.000			15.848			-2.641
37105.000			15.847			-2.641
37204.000			15.844			-2.641
37304.000			15.843			-2.641
37405.000			15.843			-2.640
37503.000			15.840			-2.640
37604.000			15.840			-2.640
37705.000			15.839			-2.640
37804.000			15.838			-2.640
37905.000			15.837			-2.639
38004.000			15.835			-2.639
38104.000			15.835			-2.639
38204.000			15.834			-2.639
38304.000			15.833			-2.639
38404.000			15.832			-2.639
38505.000			15.830			-2.638
38604.000			15.829			-2.638
38704.000			15.828			-2.638
38805.000			15.827			-2.638
38903.000			15.827			-2.638
39004.000			15.823			-2.637
39105.000			15.824			-2.637
39204.000			15.824			-2.637
39304.000			15.822			-2.637
39405.000			15.821			-2.637
39504.000			15.820			-2.637
39603.000			15.820			-2.637
39705.000			15.818			-2.636
39804.000			15.816			-2.636
39904.000			15.816			-2.636
40005.000			15.815			-2.636
40104.000			15.814			-2.636
40204.000			15.813			-2.636
40304.000			15.812			-2.635
40404.000			15.811			-2.635
40504.000			15.809			-2.635
40605.000			15.808			-2.635
40704.000			15.807			-2.634
40804.000			15.806			-2.634
40905.000			15.805			-2.634
41003.000			15.804			-2.634
41105.000			15.804			-2.634
41204.000			15.803			-2.634
41304.000			15.802			-2.634
41405.000			15.800			-2.633
41503.000			15.800			-2.633
41604.000			15.799			-2.633
41705.000			15.799			-2.633
41804.000			15.799			-2.633
41904.000			15.796			-2.633
42005.000			15.796			-2.633
42104.000			15.795			-2.632
42203.000			15.794			-2.632
42305.000			15.792			-2.632
42404.000			15.792			-2.632
42504.000			15.790			-2.632
42605.000			15.788			-2.631
42704.000			15.788			-2.631
42804.000			15.788			-2.631
42904.000			15.787			-2.631
43004.000			15.787			-2.631
43103.000			15.785			-2.631
43205.000			15.784			-2.631
43304.000			15.783			-2.631
43404.000			15.781			-2.630
43505.000			15.781			-2.630
43603.000			15.781			-2.630
43704.000			15.779			-2.630
43805.000			15.779			-2.630
43904.000			15.779			-2.630
44004.000			15.777			-2.630
44104.000			15.775			-2.629
44204.000			15.774			-2.629
44303.000			15.774			-2.629
44404.000			15.773			-2.629
44503.000			15.771			-2.629
44605.000			15.771			-2.629
44704.000			15.771			-2.628
44804.000			15.768			-2.628
44905.000			15.768			-2.628
45004.000			15.767			-2.628
45104.000			15.767			-2.628
45204.000			15.766			-2.628
45304.000			15.765			-2.627
45404.000			15.764			-2.627
45505.000			15.763			-2.627
45604.000			15.763			-2.627
45703.000			15.762			-2.627
45805.000			15.760			-2.627
45904.000			15.759			-2.627
46004.000			15.758			-2.626
46105.000			15.758			-2.626
46204.000			15.756			-2.626
46304.000			15.755			-2.626
46404.000			15.754			-2.626
46504.000			15.754			-2.626
46604.000			15.753			-2.625
46705.000			15.752			-2.625
46804.000			15.752			-2.625
46904.000			15.751			-2.625
47005.000			15.750			-2.625
47103.000			15.750			-2.625
47204.000			15.748			-2.625
47305.000			15.747			-2.625
47404.000			15.746			-2.624
47505.000			15.745			-2.624
47604.000			15.745			-2.624
47704.000			15.744			-2.624
47804.000			15.743			-2.624
47904.000			15.742			-2.624
48004.000			15.741			-2.624
48105.000			15.741			-2.623
48204.000			15.740			-2.623
48304.000			15.739			-2.623
48405.000			15.740			-2.623
48503.000			15.738			-2.623
48604.000			15.736			-2.623
48705.000			15.734			-2.622
48804.000			15.735			-2.622
48904.000			15.735			-2.622
49005.000			15.734			-2.622
49104.000			15.733			-2.622
49203.000			15.731			-2.622
49305.000			15.730			-2.622
49404.000			15.730			-2.622
49504.000			15.730			-2.622
49605.000			15.729			-2.621
49704.000			15.728			-2.621
49804.000			15.728			-2.621
49904.000			15.725			-2.621
50004.000			15.724			-2.621
50103.000			15.724			-2.621
50205.000			15.724			-2.621
50304.000			15.723			-2.620
50404.000			15.722			-2.620
50505.000			15.720			-2.620
50603.000			15.720			-2.620
50705.000			15.719			-2.620
50804.000			15.719			-2.620
50904.000			15.720			-2.620
51005.000			15.718			-2.620
51104.000			15.717			-2.620
51204.000			15.716			-2.619
51304.000			15.714			-2.619
51404.000			15.713			-2.619
51504.000			15.713			-2.619
51605.000			15.713			-2.619
51704.000			15.712			-2.619
51804.000			15.711			-2.618
51905.000			15.710			-2.618
52003.000			15.710			-2.618
52104.000			15.708			-2.618
52205.000			15.708			-2.618
52304.000			15.707			-2.618
52404.000			15.706			-2.618
52504.000			15.707			-2.618
52604.000			15.707			-2.618
52704.000			15.705			-2.617
52805.000			15.704			-2.617
52904.000			15.704			-2.617
53004.000			15.702			-2.617
53105.000			15.701			-2.617
53203.000			15.701			-2.617
53304.000			15.701			-2.617
53405.000			15.699			-2.616
53504.000			15.699			-2.617
53604.000			15.698			-2.616
53704.000			15.698			-2.616
53804.000			15.697			-2.616
53903.000			15.696			-2.616
54004.000			15.695			-2.616
54104.000			15.694			-2.616
54205.000			15.693			-2.616
54304.000			15.693			-2.615
54404.000			15.691			-2.615
54505.000			15.690			-2.615
54603.000			15.690			-2.615
54704.000			15.689			-2.615
54805.000			15.689			-2.615
54904.000			15.687			-2.615
55004.000			15.688			-2.615
55105.000			15.687			-2.615
55204.000			15.686			-2.614
55303.000			15.686			-2.614
55405.000			15.686			-2.614
55504.000			15.683			-2.614
55604.000			15.683			-2.614
55705.000			15.682			-2.614
55804.000			15.682			-2.614
55904.000			15.682			-2.614
56004.000			15.682			-2.614
56104.000			15.681			-2.613
56204.000			15.680			-2.613
56305.000			15.680			-2.613
56404.000			15.679			-2.613
56504.000			15.678			-2.613
56605.000			15.677			-2.613
56703.000			15.676			-2.613
56804.000			15.675			-2.613
56905.000			15.675			-2.612
57004.000			15.675			-2.612
57105.000			15.673			-2.612
57204.000			15.673			-2.612
57304.000			15.672			-2.612
57404.000			15.670			-2.612
57504.000			15.670			-2.612
57603.000			15.669			-2.612
57705.000			15.668			-2.611
57804.000			15.670			-2.612
57904.000			15.667			-2.611
58005.000			15.667			-2.611
58104.000			15.666			-2.611
58204.000			15.665			-2.611
58304.000			15.664			-2.611
58404.000			15.664			-2.611
58504.000			15.664			-2.611
58605.000			15.662			-2.610
58704.000			15.662			-2.610
58804.000			15.661			-2.610
58905.000			15.660			-2.610
59003.000			15.660			-2.610
59104.000			15.660			-2.610
59205.000			15.659			-2.610
59304.000			15.657			-2.610
59404.000			15.657			-2.610
59505.000			15.657			-2.610
59604.000			15.657			-2.609
59703.000			15.654			-2.609
59805.000			15.654			-2.609
59904.000			15.654			-2.609
60004.000			15.654			-2.609
60105.000			15.653			-2.609
60204.000			15.652			-2.609
60305.000			15.651			-2.608
60403.000			15.649			-2.608
60504.000			15.649			-2.608
60605.000			15.649			-2.608
60704.000			15.649			-2.608
60804.000			15.647			-2.608
60904.000			15.646			-2.608
61004.000			15.646			-2.608
61103.000			15.646			-2.608
61205.000			15.644			-2.607
61304.000			15.644			-2.607
61404.000			15.644			-2.607
61505.000			15.643			-2.607
61603.000			15.642			-2.607
61704.000			15.642			-2.607
61805.000			15.640			-2.607
61904.000			15.641			-2.607
62004.000			15.640			-2.607
62105.000			15.638			-2.606
62204.000			15.638			-2.606
62303.000			15.637			-2.606
62405.000			15.637			-2.606
62504.000			15.637			-2.606
62604.000			15.635			-2.606
62705.000			15.634			-2.606
62804.000			15.635			-2.606
62904.000			15.633			-2.606
63004.000			15.632			-2.605
63104.000			15.632			-2.605
63204.000			15.632			-2.605
63304.000			15.632			-2.605
63404.000			15.631			-2.605
63505.000			15.630			-2.605
63604.000			15.630			-2.605
63703.000			15.628			-2.605
63805.000			15.628			-2.605
63904.000			15.627			-2.605
64004.000			15.626			-2.604
64105.000			15.627			-2.604
64204.000			15.626			-2.604
64304.000			15.625			-2.604
64404.000			15.624			-2.604
64504.000			15.624			-2.604
64604.000			15.623			-2.604
64705.000			15.623			-2.604
64804.000			15.622			-2.604
64904.000			15.622			-2.604
65005.000			15.622			-2.604
65103.000			15.620			-2.603
65204.000			15.619			-2.603
65305.000			15.619			-2.603
65404.000			15.618			-2.603
65504.000			15.618			-2.603
65605.000			15.618			-2.603
65704.000			15.618			-2.603
65803.000			15.615			-2.602
65905.000			15.615			-2.603
66004.000			15.615			-2.602
66104.000			15.615			-2.602
66205.000			15.615			-2.602
66304.000			15.613			-2.602
66404.000			15.612			-2.602
66503.000			15.612			-2.602
66604.000			15.612			-2.602
66705.000			15.612			-2.602
66804.000			15.611			-2.602
66904.000			15.610			-2.602
67005.000			15.609			-2.602
67104.000			15.610			-2.602
67203.000			15.609			-2.601
67305.000			15.607			-2.601
67404.000			15.606			-2.601
67504.000			15.607			-2.601
67605.000			15.606			-2.601
67704.000			15.604			-2.601
67804.000			15.605			-2.601
67904.000			15.604			-2.601
68004.000			15.603			-2.600
68104.000			15.602			-2.600
68205.000			15.601			-2.600
68304.000			15.601			-2.600
68404.000			15.600			-2.600
68505.000			15.599			-2.600
68603.000			15.599			-2.600
68704.000			15.599			-2.600
68805.000			15.599			-2.600
68904.000			15.599			-2.600
69004.000			15.597			-2.600
69105.000			15.597			-2.599
69204.000			15.596			-2.599
69303.000			15.596			-2.599
69405.000			15.595			-2.599
69504.000			15.594			-2.599
69604.000			15.594			-2.599
69705.000			15.594			-2.599
69804.000			15.593			-2.599
69905.000			15.593			-2.599
70003.000			15.592			-2.599
70104.000			15.590			-2.598
70205.000			15.590			-2.598
70304.000			15.589			-2.598
70404.000			15.589			-2.598
70505.000			15.589			-2.598
70604.000			15.588			-2.598
70703.000			15.588			-2.598
70805.000			15.587			-2.598
70904.000			15.587			-2.598
71004.000			15.586			-2.598
71105.000			15.586			-2.598
71204.000			15.585			-2.597
71304.000			15.584			-2.597
71404.000			15.584			-2.597
71504.000			15.584			-2.597
71604.000			15.582			-2.597
71705.000			15.582			-2.597
71804.000			15.581			-2.597
71904.000			15.580			-2.597
72005.000			15.580			-2.597
72103.000			15.580			-2.597
72204.000			15.580			-2.597
72305.000			15.579			-2.597
72404.000			15.578			-2.596
72504.000			15.577			-2.596
72605.000			15.577			-2.596
72704.000			15.576			-2.596
72803.000			15.576			-2.596
72905.000			15.577			-2.596
73004.000			15.575			-2.596
73105.000			15.574			-2.596
73204.000			15.573			-2.596
73304.000			15.572			-2.595
73405.000			15.573			-2.595
73504.000			15.573			-2.595
73604.000			15.572			-2.595
73704.000			15.572			-2.595
73804.000			15.570			-2.595
73904.000			15.569			-2.595
74005.000			15.569			-2.595
74104.000			15.569			-2.595
74204.000			15.569			-2.595
74305.000			15.568			-2.595
74403.000			15.567			-2.595
74504.000			15.566			-2.594
74605.000			15.565			-2.594
74704.000			15.565			-2.594
74804.000			15.565			-2.594
74905.000			15.566			-2.594
75004.000			15.564			-2.594
75103.000			15.563			-2.594
75205.000			15.563			-2.594
75304.000			15.561			-2.594
75404.000			15.562			-2.594
75505.000			15.562			-2.594
75604.000			15.560			-2.593
75704.000			15.559			-2.593
75804.000			15.560			-2.593
75904.000			15.560			-2.593
76004.000			15.559			-2.593
76104.000			15.558			-2.593
76204.000			15.557			-2.593
76305.000			15.557			-2.593
76404.000			15.556			-2.593
76503.000			15.556			-2.593
76605.000			15.555			-2.593
76704.000			15.555			-2.592
76804.000			15.554			-2.592
76905.000			15.555			-2.592
77004.000			15.554			-2.592
77104.000			15.553			-2.592
77204.000			15.551			-2.592
77304.000			15.551			-2.592
77404.000			15.551			-2.592
77505.000			15.551			-2.592
77604.000			15.551			-2.592
77704.000			15.550			-2.592
77805.000			15.549			-2.592
77903.000			15.549			-2.591
78004.000			15.550			-2.592
78105.000			15.548			-2.591
78204.000			15.547			-2.591
78304.000			15.548			-2.591
78405.000			15.548			-2.591
78504.000			15.547			-2.591
78604.000			15.546			-2.591
78705.000			15.546			-2.591
78803.000			15.545			-2.591
78904.000			15.545			-2.591
79005.000			15.544			-2.591
79104.000			15.544			-2.591
79204.000			15.543			-2.591
79304.000			15.542			-2.590
79404.000			15.542			-2.590
79503.000			15.541			-2.590
79604.000			15.539			-2.590
79704.000			15.539			-2.590
79805.000			15.541			-2.590
79904.000			15.541			-2.590
80004.000			15.540			-2.590
80105.000			15.539			-2.590
80203.000			15.539			-2.590
80304.000			15.537			-2.590
80405.000			15.537			-2.590
80504.000			15.537			-2.589
80604.000			15.535			-2.589
80705.000			15.535			-2.589
80804.000			15.535			-2.589
80903.000			15.534			-2.589
81005.000			15.534			-2.589
81104.000			15.533			-2.589
81204.000			15.533			-2.589
81305.000			15.532			-2.589
81404.000			15.531			-2.589
81504.000			15.532			-2.589
81604.000			15.531			-2.588
81704.000			15.531			-2.588
81804.000			15.530			-2.588
81905.000			15.530			-2.588
82004.000			15.529			-2.588
82104.000			15.528			-2.588
82205.000			15.528			-2.588
82303.000			15.528			-2.588
82404.000			15.527			-2.588
82505.000			15.525			-2.588
82604.000			15.525			-2.588
82705.000			15.525			-2.587
82804.000			15.524			-2.587
82904.000			15.525			-2.587
83004.000			15.524			-2.587
83104.000			15.524			-2.587
83204.000			15.523			-2.587
83305.000			15.522			-2.587
83404.000			15.521			-2.587
83504.000			15.521			-2.587
83605.000			15.520			-2.587
83703.000			15.520			-2.587
83804.000			15.519			-2.587
83905.000			15.520			-2.587
84004.000			15.519			-2.586
84104.000			15.518			-2.586
84205.000			15.518			-2.586
84304.000			15.518			-2.586
84403.000			15.518			-2.586
84505.000			15.517			-2.586
84604.000			15.517			-2.586
84704.000			15.516			-2.586
84805.000			15.516			-2.586
84904.000			15.515			-2.586
85004.000			15.514			-2.586
85104.000			15.514			-2.586
85204.000			15.513			-2.586
85304.000			15.513			-2.585
85405.000			15.513			-2.585
85504.000			15.511			-2.585
85604.000			15.510			-2.585
85705.000			15.510			-2.585
85803.000			15.510			-2.585
85905.000			15.509			-2.585
86004.000			15.509			-2.585
86104.000			15.510			-2.585
86205.000			15.508			-2.585
86304.000			15.509			-2.585
86404.000			15.508			-2.585
86504.000			15.507			-2.585
86604.000			15.507			-2.584
86704.000			15.507			-2.584
86805.000			15.507			-2.584
86904.000			15.507			-2.584
87004.000			15.507			-2.584
87105.000			15.505			-2.584
87203.000			15.504			-2.584
87304.000			15.503			-2.584
87405.000			15.504			-2.584
87504.000			15.504			-2.584
87604.000			15.503			-2.584
87705.000			15.503			-2.584
87804.000			15.503			-2.584
87903.000			15.502			-2.584
88005.000			15.501			-2.584
88104.000			15.501			-2.583
88204.000			15.500			-2.583
88305.000			15.499			-2.583
88404.000			15.499			-2.583
88504.000			15.498			-2.583
88604.000			15.498			-2.583
88704.000			15.498			-2.583
88804.000			15.498			-2.583
88904.000			15.498			-2.583
89004.000			15.497			-2.583
89105.000			15.496			-2.583
89204.000			15.496			-2.583
89303.000			15.495			-2.583
89405.000			15.495			-2.582
89504.000			15.494			-2.582
89604.000			15.494			-2.582
89705.000			15.492			-2.582
89804.000			15.492			-2.582
89904.000			15.492			-2.582
90005.000			15.491			-2.582
90104.000			15.490			-2.582
90203.000			15.490			-2.582
90305.000			15.491			-2.582
90404.000			15.491			-2.582
90504.000			15.490			-2.582
90605.000			15.489			-2.582
90704.000			15.488			-2.581
90804.000			15.488			-2.581
90904.000			15.488			-2.581
91004.000			15.488			-2.581
91104.000			15.488			-2.581
91205.000			15.486			-2.581
91304.000			15.487			-2.581
91404.000			15.486			-2.581
91505.000			15.486			-2.581
91603.000			15.485			-2.581
91704.000			15.484			-2.581
91805.000			15.485			-2.581
91904.000			15.484			-2.581
92004.000			15.483			-2.580
92104.000			15.483			-2.580
92204.000			15.482			-2.580
92303.000			15.481			-2.580
92404.000			15.482			-2.580
92504.000			15.482			-2.580
92605.000			15.481			-2.580
92704.000			15.480			-2.580
92804.000			15.479			-2.580
92905.000			15.480			-2.580
93003.000			15.480			-2.580
93104.000			15.479			-2.580
93205.000			15.477			-2.580
93304.000			15.478			-2.580
93404.000			15.477			-2.579
93505.000			15.477			-2.580
93604.000			15.477			-2.579
93703.000			15.476			-2.579
93805.000			15.476			-2.579
93904.000			15.475			-2.579
94004.000			15.475			-2.579
94105.000			15.473			-2.579
94204.000			15.473			-2.579
94304.000			15.473			-2.579
94405.000			15.473			-2.579
94504.000			15.472			-2.579
94603.000			15.472			-2.579
94705.000			15.472			-2.579
94804.000			15.471			-2.579
94904.000			15.470			-2.578
95005.000			15.470			-2.578
95104.000			15.470			-2.578
95204.000			15.469			-2.578
95303.000			15.468			-2.578
95404.000			15.468			-2.578
95505.000			15.468			-2.578
95604.000			15.467			-2.578
95704.000			15.467			-2.578
95805.000			15.467			-2.578
95904.000			15.467			-2.578
96003.000			15.466			-2.578
96105.000			15.466			-2.578
96204.000			15.465			-2.578
96304.000			15.464			-2.577
96405.000			15.463			-2.577
96504.000			15.463			-2.577
96604.000			15.463			-2.577
96704.000			15.463			-2.577
96804.000			15.463			-2.577
96904.000			15.463			-2.577
97005.000			15.462			-2.577
97104.000			15.461			-2.577
97204.000			15.461			-2.577
97305.000			15.461			-2.577
97403.000			15.461			-2.577
97504.000			15.461			-2.577
97605.000			15.461			-2.577
97704.000			15.459			-2.576
97804.000			15.458			-2.576
97905.000			15.457			-2.576
98004.000			15.458			-2.576
98103.000			15.458			-2.576
98205.000			15.457			-2.576
98304.000			15.456			-2.576
98404.000			15.456			-2.576
98505.000			15.455			-2.576
98604.000			15.455			-2.576
98705.000			15.454			-2.576
98804.000			15.455			-2.576
98904.000			15.454			-2.576
99004.000			15.454			-2.576
99104.000			15.454			-2.576
99204.000			15.452			-2.575
99305.000			15.452			-2.575
99404.000			15.452			-2.575
99504.000			15.451			-2.575
99605.000			15.453			-2.575
99703.000			15.452			-2.575
99804.000			15.450			-2.575
99905.000			15.451			-2.575
100004.000			15.450			-2.575
100104.000			15.450			-2.575
100205.000			15.449			-2.575
100304.000			15.449			-2.575
100403.000			15.447			-2.575
100505.000			15.447			-2.575
100604.000			15.447			-2.574
100704.000			15.446			-2.574
100805.000			15.446			-2.574
100904.000			15.446			-2.574
101004.000			15.447			-2.575
101104.000			15.447			-2.574
101204.000			15.446			-2.574
101304.000			15.444			-2.574
101405.000			15.443			-2.574
101504.000			15.444			-2.574
101604.000			15.444			-2.574
101705.000			15.442			-2.574
101803.000			15.442			-2.574
101905.000			15.443			-2.574
102004.000			15.442			-2.574
102104.000			15.441			-2.574
102205.000			15.441			-2.574
102304.000			15.441			-2.574
102404.000			15.441			-2.573
102504.000			15.439			-2.573
102604.000			15.439			-2.573
102704.000			15.439			-2.573
102805.000			15.438			-2.573
102904.000			15.438			-2.573
103004.000			15.438			-2.573
103105.000			15.437			-2.573
103203.000			15.437			-2.573
103304.000			15.436			-2.573
103405.000			15.436			-2.573
103504.000			15.435			-2.573
103604.000			15.435			-2.573
103705.000			15.437			-2.573
103804.000			15.436			-2.573
103903.000			15.435			-2.573
104005.000			15.435			-2.572
104104.000			15.435			-2.572
104204.000			15.434			-2.572
104305.000			15.431			-2.572
104404.000			15.432			-2.572
104504.000			15.433			-2.572
104604.000			15.432			-2.572
104704.000			15.431			-2.572
104804.000			15.430			-2.572
104904.000			15.431			-2.572
105004.000			15.430			-2.572
105105.000			15.429			-2.572
105204.000			15.429			-2.572
105303.000			15.429			-2.571
105405.000			15.428			-2.571
105504.000			15.428			-2.571
105604.000			15.428			-2.571
105705.000			15.427			-2.571
105804.000			15.427			-2.571
105904.000			15.427			-2.571
106004.000			15.427			-2.571
106104.000			15.427			-2.571
106204.000			15.427			-2.571
106305.000			15.425			-2.571
106404.000			15.425			-2.571
106504.000			15.426			-2.571
106605.000			15.425			-2.571
106703.000			15.424			-2.571
106804.000			15.424			-2.571
106905.000			15.424			-2.571
107004.000			15.423			-2.571
107104.000			15.424			-2.571
107205.000			15.423			-2.571
107304.000			15.422			-2.570
107403.000			15.421			-2.570
107505.000			15.421			-2.570
107604.000			15.421			-2.570
107704.000			15.420			-2.570
107805.000			15.420			-2.570
107904.000			15.420			-2.570
108004.000			15.419			-2.570
108103.000			15.418			-2.570
108204.000			15.418			-2.570
108305.000			15.419			-2.570
108404.000			15.419			-2.570
108504.000			15.418			-2.570
108605.000			15.418			-2.570
108704.000			15.418			-2.570
108803.000			15.416			-2.569
108905.000			15.417			-2.569
109004.000			15.417			-2.569
109104.000			15.416			-2.569
109205.000			15.415			-2.569
109304.000			15.415			-2.569
109404.000			15.415			-2.569
109504.000			15.414			-2.569
109604.000			15.414			-2.569
109703.000			15.414			-2.569
109805.000			15.413			-2.569
109904.000			15.413			-2.569
110004.000			15.414			-2.569
110105.000			15.412			-2.569
110204.000			15.412			-2.569
110304.000			15.411			-2.569
110404.000			15.411			-2.569
110504.000			15.410			-2.568
110604.000			15.410			-2.568
110705.000			15.410			-2.568
110804.000			15.409			-2.568
110903.000			15.409			-2.568
111005.000			15.409			-2.568
111104.000			15.408			-2.568
111204.000			15.408			-2.568
111305.000			15.407			-2.568
111404.000			15.407			-2.568
111505.000			15.407			-2.568
111604.000			15.406			-2.568
111704.000			15.405			-2.567
111804.000			15.405			-2.567
111904.000			15.406			-2.568
112004.000			15.406			-2.568
112105.000			15.406			-2.568
112204.000			15.404			-2.567
112304.000			15.404			-2.567
112405.000			15.404			-2.567
112503.000			15.403			-2.567
112604.000			15.403			-2.567
112705.000			15.402			-2.567
112804.000			15.402			-2.567
112904.000			15.402			-2.567
113005.000			15.402			-2.567
113104.000			15.402			-2.567
113203.000			15.401			-2.567
113305.000			15.401			-2.567
113404.000			15.401			-2.567
113504.000			15.400			-2.567
113605.000			15.400			-2.567
113704.000			15.400			-2.567
113804.000			15.399			-2.567
113904.000			15.399			-2.566
114004.000			15.398			-2.566
114104.000			15.397			-2.566
114205.000			15.398			-2.566
114304.000			15.397			-2.566
114404.000			15.397			-2.566
114505.000			15.397			-2.566
114603.000			15.396			-2.566
114705.000			15.396			-2.566
114804.000			15.395			-2.566
114904.000			15.395			-2.566
115005.000			15.394			-2.566
115104.000			15.394			-2.566
115204.000			15.395			-2.566
115304.000			15.394			-2.566
115404.000			15.394			-2.566
115504.000			15.393			-2.565
115605.000			15.392			-2.565
115704.000			15.392			-2.565
115804.000			15.392			-2.565
115905.000			15.392			-2.565
116003.000			15.391			-2.565
116104.000			15.390			-2.565
116205.000			15.391			-2.565
116304.000			15.391			-2.565
116404.000			15.390			-2.565
116505.000			15.389			-2.565
116604.000			15.389			-2.565
116703.000			15.388			-2.565
116805.000			15.387			-2.565
116903.000			15.388			-2.565
117004.000			15.388			-2.565
117105.000			15.388			-2.565
117204.000			15.387			-2.565
117304.000			15.388			-2.565
117405.000			15.387			-2.564
117504.000			15.386			-2.564
117603.000			15.385			-2.564
117705.000			15.386			-2.564
117804.000			15.385			-2.564
117905.000			15.385			-2.564
118004.000			15.384			-2.564
118104.000			15.384			-2.564
118205.000			15.384			-2.564
118303.000			15.384			-2.564
118404.000			15.383			-2.564
118505.000			15.383			-2.564
118604.000			15.383			-2.564
118704.000			15.382			-2.564
118805.000			15.382			-2.564
118904.000			15.380			-2.563
119003.000			15.381			-2.563
119105.000			15.382			-2.564
119204.000			15.380			-2.563
119304.000			15.380			-2.563
119405.000			15.381			-2.563
119504.000			15.379			-2.563
119604.000			15.378			-2.563
119705.000			15.378			-2.563
119804.000			15.378			-2.563
119903.000			15.378			-2.563
120005.000			15.377			-2.563
120104.000			15.378			-2.563
120204.000			15.379			-2.563
120305.000			15.378			-2.563
120404.000			15.378			-2.563
120504.000			15.377			-2.563
120604.000			15.377			-2.563
120704.000			15.376			-2.563
120804.000			15.376			-2.563
120904.000			15.377			-2.563
121004.000			15.377			-2.563
121105.000			15.376			-2.563
121204.000			15.375			-2.562
121303.000			15.374			-2.562
121405.000			15.375			-2.562
121504.000			15.374			-2.562
121604.000			15.374			-2.562
121705.000			15.374			-2.562
121804.000			15.372			-2.562
121904.000			15.373			-2.562
122004.000			15.375			-2.562
122104.000			15.373			-2.562
122203.000			15.372			-2.562
122305.000			15.373			-2.562
122404.000			15.372			-2.562
122504.000			15.372			-2.562
122605.000			15.372			-2.562
122704.000			15.371			-2.562
122804.000			15.371			-2.562
122904.000			15.371			-2.562
123004.000			15.371			-2.562
123104.000			15.372			-2.562
123205.000			15.371			-2.562
123304.000			15.372			-2.562
123404.000			15.372			-2.562
123505.000			15.371			-2.562
123603.000			15.372			-2.562
123704.000			15.372			-2.562
123805.000			15.371			-2.562
123904.000			15.371			-2.562
124004.000			15.371			-2.562
124104.000			15.371			-2.562
124204.000			15.371			-2.562
124303.000			15.371			-2.562
124404.000			15.369			-2.562
124504.000			15.369			-2.561
124605.000			15.369			-2.562
124704.000			15.369			-2.561
124804.000			15.368			-2.561
124905.000			15.366			-2.561
125003.000			15.366			-2.561
125104.000			15.367			-2.561
125205.000			15.367			-2.561
125304.000			15.367			-2.561
125404.000			15.366			-2.561
125505.000			15.365			-2.561
125604.000			15.364			-2.561
125703.000			15.365			-2.561
125805.000			15.365			-2.561
125904.000			15.365			-2.561
126004.000			15.362			-2.560
126105.000			15.363			-2.561
126204.000			15.363			-2.561
126304.000			15.363			-2.561
126404.000			15.361			-2.560
126504.000			15.361			-2.560
126603.000			15.362			-2.560
126705.000			15.362			-2.560
126804.000			15.361			-2.560
126904.000			15.361			-2.560
127005.000			15.361			-2.560
127104.000			15.360			-2.560
127204.000			15.360			-2.560
127303.000			15.360			-2.560
127404.000			15.359			-2.560
127505.000			15.358			-2.560
127604.000			15.358			-2.560
127704.000			15.357			-2.560
127805.000			15.357			-2.560
127904.000			15.358			-2.560
128003.000			15.357			-2.560
128105.000			15.357			-2.560
128204.000			15.355			-2.559
128304.000			15.355			-2.559
128405.000			15.355			-2.559
128504.000			15.355			-2.559
128604.000			15.355			-2.559
128704.000			15.354			-2.559
128804.000			15.354			-2.559
128903.000			15.353			-2.559
129005.000			15.353			-2.559
129104.000			15.353			-2.559
129204.000			15.353			-2.559
129305.000			15.354			-2.559
129404.000			15.353			-2.559
129504.000			15.352			-2.559
129604.000			15.351			-2.558
129704.000			15.352			-2.559
129804.000			15.352			-2.559
129905.000			15.351			-2.558
130004.000			15.351			-2.558
130104.000			15.350			-2.558
130205.000			15.350			-2.558
130303.000			15.349			-2.558
130404.000			15.349			-2.558
130505.000			15.349			-2.558
130604.000			15.348			-2.558
130705.000			15.346			-2.558
130804.000			15.346			-2.558
130904.000			15.347			-2.558
131004.000			15.348			-2.558
131104.000			15.346			-2.558
131204.000			15.345			-2.558
131305.000			15.345			-2.558
131404.000			15.344			-2.557
131504.000			15.344			-2.557
131605.000			15.344			-2.557
131703.000			15.344			-2.557
131804.000			15.343			-2.557
131904.000			15.342			-2.557
132004.000			15.342			-2.557
132104.000			15.341			-2.557
132205.000			15.341			-2.557
132304.000			15.342			-2.557
132404.000			15.342			-2.557
132505.000			15.341			-2.557
132603.000			15.340			-2.557
132704.000			15.339			-2.556
132805.000			15.338			-2.556
132904.000			15.339			-2.557
133004.000			15.339			-2.556
133105.000			15.338			-2.556
133204.000			15.338			-2.556
133304.000			15.338			-2.556
133405.000			15.338			-2.556
133503.000			15.337			-2.556
133604.000			15.336			-2.556
133705.000			15.336			-2.556
133804.000			15.336			-2.556
133905.000			15.336			-2.556
134004.000			15.335			-2.556
134104.000			15.335			-2.556
134205.000			15.333			-2.556
134304.000			15.333			-2.555
134403.000			15.334			-2.556
134505.000			15.333			-2.556
134604.000			15.332			-2.555
134704.000			15.333			-2.556
134805.000			15.333			-2.556
134904.000			15.331			-2.555
135004.000			15.331			-2.555
135104.000			15.332			-2.555
135204.000			15.332			-2.555
135303.000			15.331			-2.555
135405.000			15.330			-2.555
135504.000			15.329			-2.555
135604.000			15.329			-2.555
135705.000			15.329			-2.555
135804.000			15.329			-2.555
135904.000			15.330			-2.555
136004.000			15.329			-2.555
136104.000			15.328			-2.555
136203.000			15.328			-2.555
136305.000			15.327			-2.554
136404.000			15.326			-2.554
136504.000			15.326			-2.554
136605.000			15.327			-2.554
136704.000			15.327			-2.554
136804.000			15.326			-2.554
136903.000			15.326			-2.554
137004.000			15.326			-2.554
137105.000			15.326			-2.554
137204.000			15.324			-2.554
137304.000			15.324			-2.554
137405.000			15.324			-2.554
137504.000			15.324			-2.554
137604.000			15.323			-2.554
137705.000			15.323			-2.554
137803.000			15.322			-2.554
137904.000			15.322			-2.554
138005.000			15.322			-2.554
138104.000			15.322			-2.554
138204.000			15.322			-2.554
138305.000			15.321			-2.553
138404.000			15.322			-2.554
138504.000			15.322			-2.554
138605.000			15.321			-2.553
138703.000			15.320			-2.553
138804.000			15.321			-2.553
138905.000			15.320			-2.553
139004.000			15.320			-2.553
139104.000			15.320			-2.553
139205.000			15.319			-2.553
139304.000			15.318			-2.553
139404.000			15.318			-2.553
139505.000			15.318			-2.553
139603.000			15.319			-2.553
139704.000			15.318			-2.553
139805.000			15.317			-2.553
139904.000			15.316			-2.553
140004.000			15.316			-2.553
140104.000			15.315			-2.553
140204.000			15.316			-2.553
140303.000			15.316			-2.553
140404.000			15.316			-2.553
140503.000			15.316			-2.553
140605.000			15.316			-2.553
140704.000			15.315			-2.553
140804.000			15.314			-2.552
140905.000			15.314			-2.552
141004.000			15.314			-2.552
141104.000			15.314			-2.552
141204.000			15.314			-2.552
141304.000			15.314			-2.552
141404.000			15.313			-2.552
141505.000			15.312			-2.552
141604.000			15.312			-2.552
141704.000			15.312			-2.552
141805.000			15.312			-2.552
141904.000			15.312			-2.552
142004.000			15.311			-2.552
142104.000			15.311			-2.552
142204.000			15.310			-2.552
142304.000			15.311			-2.552
142405.000			15.311			-2.552
142504.000			15.310			-2.552
142604.000			15.310			-2.552
142705.000			15.309			-2.551
142803.000			15.309			-2.551
142904.000			15.308			-2.551
143005.000			15.309			-2.551
143104.000			15.309			-2.552
143204.000			15.309			-2.551
143304.000			15.307			-2.551
143404.000			15.308			-2.551
143505.000			15.308			-2.551
143604.000			15.307			-2.551
143703.000			15.306			-2.551
143805.000			15.305			-2.551
143904.000			15.304			-2.551
144004.000			15.303			-2.551
144105.000			15.305			-2.551
144204.000			15.305			-2.551
144304.000			15.304			-2.551
144404.000			15.304			-2.551
144504.000			15.304			-2.551
144603.000			15.304			-2.551
144705.000			15.305			-2.551
144804.000			15.303			-2.550
144904.000			15.302			-2.550
145005.000			15.302			-2.550
145104.000			15.303			-2.550
145204.000			15.302			-2.550
145304.000			15.303			-2.550
145404.000			15.302			-2.550
145504.000			15.301			-2.550
145605.000			15.301			-2.550
145704.000			15.300			-2.550
145804.000			15.300			-2.550
145905.000			15.300			-2.550
146004.000			15.299			-2.550
146104.000			15.300			-2.550
146204.000			15.300			-2.550
146304.000			15.300			-2.550
146404.000			15.299			-2.550
146504.000			15.299			-2.550
146604.000			15.298			-2.550
146705.000			15.298			-2.550
146804.000			15.297			-2.549
146904.000			15.297			-2.550
147005.000			15.298			-2.550
147103.000			15.297			-2.550
147204.000			15.297			-2.550
147304.000			15.297			-2.550
147404.000			15.297			-2.549
147504.000			15.296			-2.549
147605.000			15.296			-2.549
147704.000			15.296			-2.549
147804.000			15.294			-2.549
147905.000			15.295			-2.549
148003.000			15.296			-2.549
148104.000			15.296			-2.549
148204.000			15.296			-2.549
148304.000			15.295			-2.549
148404.000			15.296			-2.549
148505.000			15.295			-2.549
148604.000			15.294			-2.549
148704.000			15.294			-2.549
148805.000			15.293			-2.549
148903.000			15.293			-2.549
149004.000			15.293			-2.549
149104.000			15.293			-2.549
149204.000			15.293			-2.549
149304.000			15.292			-2.549
149405.000			15.292			-2.549
149504.000			15.292			-2.549
149604.000			15.292			-2.549
149705.000			15.292			-2.549
149803.000			15.292			-2.549
149905.000			15.292			-2.549
150003.000			15.291			-2.549
150104.000			15.291			-2.549
150205.000			15.291			-2.548
150304.000			15.290			-2.548
150404.000			15.291			-2.548
150505.000			15.291			-2.548
150604.000			15.290			-2.548
150703.000			15.291			-2.548
150805.000			15.291			-2.548
150904.000			15.290			-2.548
151004.000			15.288			-2.548
151105.000			15.289			-2.548
151204.000			15.289			-2.548
151304.000			15.288			-2.548
151405.000			15.288			-2.548
151504.000			15.288			-2.548
151603.000			15.286			-2.548
151705.000			15.286			-2.548
151804.000			15.287			-2.548
151904.000			15.286			-2.548
152005.000			15.286			-2.548
152104.000			15.285			-2.547
152204.000			15.285			-2.548
152305.000			15.285			-2.548
152404.000			15.284			-2.547
152503.000			15.283			-2.547
152605.000			15.284			-2.547
152704.000			15.285			-2.547
152804.000			15.283			-2.547
152905.000			15.284			-2.547
153004.000			15.282			-2.547
153105.000			15.282			-2.547
153204.000			15.283			-2.547
153304.000			15.283			-2.547
153404.000			15.282			-2.547
153504.000			15.282			-2.547
153604.000			15.283			-2.547
153705.000			15.283			-2.547
153804.000			15.282			-2.547
153904.000			15.281			-2.547
154005.000			15.281			-2.547
154104.000			15.281			-2.547
154204.000			15.281			-2.547
154304.000			15.281			-2.547
154404.000			15.281			-2.547
154504.000			15.280			-2.547
154605.000			15.282			-2.547
154704.000			15.282			-2.547
154804.000			15.283			-2.547
154905.000			15.281			-2.547
155004.000			15.281			-2.547
155104.000			15.280			-2.547
155204.000			15.280			-2.547
155304.000			15.280			-2.547
155404.000			15.280			-2.547
155505.000			15.280			-2.547
155604.000			15.279			-2.547
155704.000			15.279			-2.546
155805.000			15.279			-2.547
155904.000			15.279			-2.546
156004.000			15.278			-2.546
156103.000			15.278			-2.546
156204.000			15.278			-2.546
156305.000			15.278			-2.546
156404.000			15.277			-2.546
156504.000			15.277			-2.546
156605.000			15.277			-2.546
156704.000			15.276			-2.546
156804.000			15.275			-2.546
156905.000			15.275			-2.546
157003.000			15.275			-2.546
157104.000			15.274			-2.546
157205.000			15.274			-2.546
157304.000			15.274			-2.546
157404.000			15.273			-2.546
157505.000			15.273			-2.545
157604.000			15.273			-2.546
157704.000			15.273			-2.546
157805.000			15.272			-2.545
157903.000			15.271			-2.545
158004.000			15.270			-2.545
158105.000			15.270			-2.545
158204.000			15.271			-2.545
158304.000			15.271			-2.545
158405.000			15.270			-2.545
158504.000			15.270			-2.545
158604.000			15.269			-2.545
158705.000			15.269			-2.545
158803.000			15.269			-2.545
158904.000			15.270			-2.545
159005.000			15.269			-2.545
159104.000			15.268			-2.545
159204.000			15.267			-2.545
159304.000			15.267			-2.544
159404.000			15.266			-2.544
159505.000			15.266			-2.544
159604.000			15.267			-2.545
159703.000			15.267			-2.544
159805.000			15.266			-2.544
159903.000			15.266			-2.544
160004.000			15.265			-2.544
160105.000			15.264			-2.544
160204.000			15.265			-2.544
160304.000			15.264			-2.544
160405.000			15.264			-2.544
160504.000			15.263			-2.544
160603.000			15.264			-2.544
160705.000			15.263			-2.544
160804.000			15.263			-2.544
160904.000			15.264			-2.544
161005.000			15.264			-2.544
161104.000			15.263			-2.544
161204.000			15.263			-2.544
161305.000			15.262			-2.544
161404.000			15.262			-2.544
161503.000			15.262			-2.544
161605.000			15.261			-2.543
161704.000			15.261			-2.543
161804.000			15.261			-2.543
161905.000			15.260			-2.543
162004.000			15.260			-2.543
162104.000			15.260			-2.543
162205.000			15.260			-2.543
162304.000			15.259			-2.543
162403.000			15.260			-2.543
162505.000			15.259			-2.543
162604.000			15.258			-2.543
162705.000			15.258			-2.543
162804.000			15.259			-2.543
162904.000			15.257			-2.543
163005.000			15.257			-2.543
163104.000			15.256			-2.543
163204.000			15.257			-2.543
163304.000			15.256			-2.543
163404.000			15.256			-2.543
163504.000			15.256			-2.543
163605.000			15.255			-2.542
163704.000			15.255			-2.542
163804.000			15.255			-2.543
163905.000			15.255			-2.543
164004.000			15.255			-2.542
164104.000			15.255			-2.542
164204.000			15.255			-2.542
164304.000			15.254			-2.542
164404.000			15.253			-2.542
164505.000			15.252			-2.542
164604.000			15.254			-2.542
164704.000			15.255			-2.542
164805.000			15.254			-2.542
164904.000			15.252			-2.542
165004.000			15.252			-2.542
165104.000			15.252			-2.542
165204.000			15.251			-2.542
165304.000			15.252			-2.542
165405.000			15.251			-2.542
165504.000			15.251			-2.542
165604.000			15.250			-2.542
165705.000			15.250			-2.542
165804.000			15.250			-2.542
165905.000			15.250			-2.542
166003.000			15.250			-2.542
166104.000			15.250			-2.542
166205.000			15.249			-2.541
166304.000			15.249			-2.541
166404.000			15.248			-2.541
166505.000			15.248			-2.541
166604.000			15.248			-2.541
166704.000			15.248			-2.541
166805.000			15.249			-2.541
166903.000			15.248			-2.541
167004.000			15.247			-2.541
167105.000			15.247			-2.541
167204.000			15.247			-2.541
167304.000			15.248			-2.541
167405.000			15.247			-2.541
167504.000			15.246			-2.541
167604.000			15.246			-2.541
167705.000			15.246			-2.541
167803.000			15.246			-2.541
167904.000			15.245			-2.541
168005.000			15.246			-2.541
168104.000			15.245			-2.541
168204.000			15.244			-2.541
168305.000			15.245			-2.541
168404.000			15.245			-2.541
168504.000			15.245			-2.541
168605.000			15.244			-2.541
168703.000			15.244			-2.541
168804.000			15.243			-2.541
168905.000			15.242			-2.540
169004.000			15.243			-2.541
169105.000			15.243			-2.541
169204.000			15.243			-2.541
169304.000			15.243			-2.540
169405.000			15.242			-2.540
169504.000			15.243			-2.540
169603.000			15.242			-2.540
169705.000			15.241			-2.540
169804.000			15.241			-2.540
169904.000			15.243			-2.540
170005.000			15.243			-2.540
170104.000			15.241			-2.540
170204.000			15.242			-2.540
170304.000			15.243			-2.540
170404.000			15.241			-2.540
170503.000			15.242			-2.540
170605.000			15.241			-2.540
170704.000			15.241			-2.540
170804.000			15.240			-2.540
170905.000			15.241			-2.540
171004.000			15.241			-2.540
171104.000			15.240			-2.540
171204.000			15.240			-2.540
171304.000			15.240			-2.540
171404.000			15.241			-2.540
171505.000			15.240			-2.540
171604.000			15.240			-2.540
171704.000			15.240			-2.540
171805.000			15.240			-2.540
171904.000			15.239			-2.540
172004.000			15.238			-2.540
172103.000			15.238			-2.540
172204.000			15.238			-2.540
172305.000			15.236			-2.539
172404.000			15.236			-2.539
172504.000			15.236			-2.539
172605.000			15.236			-2.539
172704.000			15.236			-2.539
172804.000			15.236			-2.539
172905.000			15.235			-2.539
173003.000			15.235			-2.539
173104.000			15.234			-2.539
173205.000			15.234			-2.539
173304.000			15.235			-2.539
173404.000			15.235			-2.539
173505.000			15.234			-2.539
173604.000			15.234			-2.539
173703.000			15.232			-2.539
173805.000			15.233			-2.539
173903.000			15.234			-2.539
174004.000			15.233			-2.539
174105.000			15.233			-2.539
174204.000			15.234			-2.539
174304.000			15.234			-2.539
174405.000			15.233			-2.539
174504.000			15.233			-2.539
174603.000			15.233			-2.539
174705.000			15.233			-2.539
174804.000			15.233			-2.539
174904.000			15.233			-2.539
175005.000			15.232			-2.539
175104.000			15.232			-2.539
175204.000			15.232			-2.539
175304.000			15.232			-2.539
175404.000			15.232			-2.539
175503.000			15.231			-2.538
175604.000			15.231			-2.538
175704.000			15.230			-2.538
175805.000			15.229			-2.538
175904.000			15.229			-2.538
176004.000			15.228			-2.538
176105.000			15.229			-2.538
176204.000			15.228			-2.538
176304.000			15.228			-2.538
176404.000			15.227			-2.538
176504.000			15.227			-2.538
176603.000			15.227			-2.538
176705.000			15.226			-2.538
176804.000			15.226			-2.538
176904.000			15.225			-2.538
177005.000			15.226			-2.538
177104.000			15.225			-2.538
177204.000			15.226			-2.538
177304.000			15.225			-2.537
177404.000			15.226			-2.538
177503.000			15.225			-2.538
177605.000			15.225			-2.537
177704.000			15.224			-2.537
177804.000			15.223			-2.537
177905.000			15.223			-2.537
178004.000			15.223			-2.537
178104.000			15.222			-2.537
178204.000			15.222			-2.537
178304.000			15.223			-2.537
178403.000			15.222			-2.537
178505.000			15.221			-2.537
178604.000			15.221			-2.537
178705.000			15.222			-2.537
178804.000			15.222			-2.537
178904.000			15.221			-2.537
179005.000			15.221			-2.537
179103.000			15.220			-2.537
179204.000			15.219			-2.537
179305.000			15.219			-2.537
179404.000			15.219			-2.537
179504.000			15.218			-2.536
179605.000			15.219			-2.536
179704.000			15.218			-2.536
179804.000			15.217			-2.536
179905.000			15.218			-2.536
180003.000			15.219			-2.536
180104.000			15.218			-2.536
180205.000			15.217			-2.536
180304.000			15.217			-2.536
180404.000			15.218			-2.536
180505.000			15.217			-2.536
180604.000			15.216			-2.536
180704.000			15.216			-2.536
180805.000			15.215			-2.536
180903.000			15.215			-2.536
181004.000			15.216			-2.536
181105.000			15.215			-2.536
181204.000			15.214			-2.536
181304.000			15.216			-2.536
181405.000			15.216			-2.536
181504.000			15.215			-2.536
181604.000			15.215			-2.536
181705.000			15.214			-2.536
181803.000			15.214			-2.536
181905.000			15.214			-2.536
182004.000			15.213			-2.535
182104.000			15.214			-2.536
182205.000			15.213			-2.535
182304.000			15.213			-2.535
182404.000			15.214			-2.536
182504.000			15.212			-2.535
182604.000			15.212			-2.535
182703.000			15.212			-2.535
182805.000			15.212			-2.535
182904.000			15.212			-2.535
183004.000			15.212			-2.535
183105.000			15.211			-2.535
183204.000			15.210			-2.535
183304.000			15.211			-2.535
183404.000			15.211			-2.535
183504.000			15.210			-2.535
183604.000			15.210			-2.535
183705.000			15.209			-2.535
183804.000			15.209			-2.535
183904.000			15.210			-2.535
184005.000			15.209			-2.535
184104.000			15.209			-2.535
184204.000			15.208			-2.535
184304.000			15.209			-2.535
184404.000			15.208			-2.535
184504.000			15.208			-2.535
184605.000			15.207			-2.535
184704.000			15.207			-2.535
184804.000			15.207			-2.535
184905.000			15.207			-2.534
185004.000			15.207			-2.534
185105.000			15.207			-2.534
185203.000			15.207			-2.534
185304.000			15.206			-2.534
185405.000			15.204			-2.534
185504.000			15.204			-2.534
185604.000			15.205			-2.534
185705.000			15.206			-2.534
185804.000			15.206			-2.534
185904.000			15.205			-2.534
186005.000			15.205			-2.534
186103.000			15.204			-2.534
186204.000			15.204			-2.534
186305.000			15.204			-2.534
186404.000			15.203			-2.534
186504.000			15.203			-2.534
186605.000			15.203			-2.534
186704.000			15.204			-2.534
186804.000			15.202			-2.534
186905.000			15.202			-2.534
187003.000			15.202			-2.534
187104.000			15.202			-2.534
187205.000			15.203			-2.534
187304.000			15.202			-2.534
187404.000			15.201			-2.534
187505.000			15.201			-2.533
187604.000			15.200			-2.533
187704.000			15.200			-2.533
187805.000			15.201			-2.534
187903.000			15.201			-2.533
188004.000			15.200			-2.533
188105.000			15.200			-2.533
188204.000			15.200			-2.533
188305.000			15.200			-2.533
188404.000			15.199			-2.533
188504.000			15.199			-2.533
188605.000			15.199			-2.533
188704.000			15.199			-2.533
188803.000			15.199			-2.533
188905.000			15.199			-2.533
189003.000			15.198			-2.533
189104.000			15.198			-2.533
189205.000			15.198			-2.533
189304.000			15.197			-2.533
189404.000			15.197			-2.533
189505.000			15.198			-2.533
189604.000			15.198			-2.533
189704.000			15.196			-2.533
189805.000			15.197			-2.533
189903.000			15.197			-2.533
190004.000			15.196			-2.533
190105.000			15.195			-2.532
190204.000			15.195			-2.532
190304.000			15.196			-2.533
190405.000			15.194			-2.532
190504.000			15.195			-2.532
190604.000			15.196			-2.533
190705.000			15.196			-2.533
190803.000			15.196			-2.533
190904.000			15.194			-2.532
191005.000			15.193			-2.532
191104.000			15.193			-2.532
191204.000			15.192			-2.532
191304.000			15.193			-2.532
191404.000			15.193			-2.532
191505.000			15.193			-2.532
191604.000			15.193			-2.532
191703.000			15.193			-2.532
191805.000			15.193			-2.532
191904.000			15.192			-2.532
192004.000			15.192			-2.532
192105.000			15.192			-2.532
192204.000			15.191			-2.532
192304.000			15.191			-2.532
192405.000			15.191			-2.532
192504.000			15.191			-2.532
192603.000			15.190			-2.532
192705.000			15.190			-2.532
192804.000			15.190			-2.532
192904.000			15.190			-2.532
193005.000			15.190			-2.532
193104.000			15.190			-2.532
193204.000			15.190			-2.532
193305.000			15.189			-2.531
193404.000			15.188			-2.531
193503.000			15.188			-2.531
193605.000			15.189			-2.531
193704.000			15.189			-2.532
193804.000			15.188			-2.531
193905.000			15.188			-2.531
194004.000			15.188			-2.531
194104.000			15.189			-2.531
194205.000			15.189			-2.531
194304.000			15.188			-2.531
194403.000			15.187			-2.531
194505.000			15.187			-2.531
194603.000			15.187			-2.531
194705.000			15.188			-2.531
194804.000			15.187			-2.531
194904.000			15.186			-2.531
195005.000			15.185			-2.531
195104.000			15.184			-2.531
195204.000			15.185			-2.531
195304.000			15.186			-2.531
195404.000			15.186			-2.531
195503.000			15.186			-2.531
195605.000			15.186			-2.531
195704.000			15.184			-2.531
195804.000			15.184			-2.531
195905.000			15.185			-2.531
196004.000			15.184			-2.531
196104.000			15.184			-2.531
196205.000			15.184			-2.531
196304.000			15.184			-2.531
196403.000			15.182			-2.530
196505.000			15.183			-2.530
196604.000			15.184			-2.531
196704.000			15.184			-2.531
196805.000			15.183			-2.531
196904.000			15.182			-2.530
197004.000			15.182			-2.530
197105.000			15.181			-2.530
197204.000			15.182			-2.530
197303.000			15.182			-2.530
197405.000			15.182			-2.530
197503.000			15.181			-2.530
197604.000			15.181			-2.530
197705.000			15.180			-2.530
197804.000			15.180			-2.530
197905.000			15.180			-2.530
198004.000			15.181			-2.530
198104.000			15.180			-2.530
198204.000			15.179			-2.530
198304.000			15.180			-2.530
198403.000			15.179			-2.530
198505.000			15.179			-2.530
198604.000			15.179			-2.530
198704.000			15.178			-2.530
198805.000			15.177			-2.530
198904.000			15.178			-2.530
199004.000			15.178			-2.530
199105.000			15.178			-2.530
199204.000			15.177			-2.530
199303.000			15.177			-2.530
199405.000			15.177			-2.530
199504.000			15.176			-2.529
199604.000			15.176			-2.529
199705.000			15.177			-2.529
199804.000			15.177			-2.530
199904.000			15.177			-2.530
200005.000			15.176			-2.529
200104.000			15.175			-2.529
200203.000			15.175			-2.529
200305.000			15.175			-2.529
200404.000			15.175			-2.529
200504.000			15.174			-2.529
200605.000			15.175			-2.529
200704.000			15.175			-2.529
200804.000			15.175			-2.529
200904.000			15.175			-2.529
201004.000			15.176			-2.529
201103.000			15.175			-2.529
201204.000			15.173			-2.529
201304.000			15.173			-2.529
201405.000			15.173			-2.529
201504.000			15.174			-2.529
201604.000			15.174			-2.529
201705.000			15.174			-2.529
201803.000			15.174			-2.529
201904.000			15.174			-2.529
202005.000			15.172			-2.529
202104.000			15.172			-2.529
202204.000			15.171			-2.529
202305.000			15.170			-2.528
202404.000			15.171			-2.528
202504.000			15.170			-2.528
202605.000			15.170			-2.528
202703.000			15.170			-2.528
202804.000			15.171			-2.528
202905.000			15.170			-2.528
203004.000			15.169			-2.528
203104.000			15.169			-2.528
203205.000			15.169			-2.528
203304.000			15.170			-2.528
203403.000			15.170			-2.528
203505.000			15.168			-2.528
203603.000			15.168			-2.528
203704.000			15.169			-2.528
203805.000			15.168			-2.528
203904.000			15.168			-2.528
204004.000			15.168			-2.528
204104.000			15.168			-2.528
204204.000			15.167			-2.528
204303.000			15.168			-2.528
204404.000			15.168			-2.528
204503.000			15.168			-2.528
204605.000			15.167			-2.528
204704.000			15.166			-2.528
204804.000			15.166			-2.528
204905.000			15.166			-2.528
205004.000			15.166			-2.528
205104.000			15.165			-2.528
205204.000			15.165			-2.528
205304.000			15.166			-2.528
205403.000			15.166			-2.528
205505.000			15.165			-2.527
205604.000			15.165			-2.527
205704.000			15.164			-2.527
205805.000			15.165			-2.527
205904.000			15.165			-2.527
206004.000			15.164			-2.527
206104.000			15.163			-2.527
206204.000			15.163			-2.527
206304.000			15.163			-2.527
206405.000			15.163			-2.527
206504.000			15.164			-2.527
206604.000			15.163			-2.527
206705.000			15.163			-2.527
206804.000			15.163			-2.527
206904.000			15.162			-2.527
207004.000			15.162			-2.527
207104.000			15.162			-2.527
207204.000			15.161			-2.527
207304.000			15.161			-2.527
207404.000			15.162			-2.527
207505.000			15.161			-2.527
207604.000			15.160			-2.527
207704.000			15.161			-2.527
207805.000			15.161			-2.527
207903.000			15.160			-2.527
208004.000			15.159			-2.527
208105.000			15.160			-2.527
208204.000			15.161			-2.527
208304.000			15.160			-2.527
208405.000			15.159			-2.526
208504.000			15.158			-2.526
208603.000			15.159			-2.526
208705.000			15.159			-2.527
208803.000			15.159			-2.526
208904.000			15.159			-2.527
209005.000			15.158			-2.526
209104.000			15.158			-2.526
209204.000			15.159			-2.526
209305.000			15.157			-2.526
209404.000			15.157			-2.526
209503.000			15.157			-2.526
209605.000			15.157			-2.526
209703.000			15.157			-2.526
209804.000			15.157			-2.526
209905.000			15.158			-2.526
210004.000			15.157			-2.526
210104.000			15.156			-2.526
210205.000			15.156			-2.526
210304.000			15.157			-2.526
210403.000			15.157			-2.526
210505.000			15.156			-2.526
210604.000			15.155			-2.526
210705.000			15.155			-2.526
210804.000			15.154			-2.526
210904.000			15.155			-2.526
211005.000			15.154			-2.526
211104.000			15.153			-2.525
211204.000			15.153			-2.526
211304.000			15.154			-2.526
211404.000			15.152			-2.525
211504.000			15.153			-2.525
211605.000			15.154			-2.526
211704.000			15.154			-2.526
211804.000			15.154			-2.526
211905.000			15.153			-2.526
212003.000			15.154			-2.526
212104.000			15.153			-2.526
212205.000			15.153			-2.525
212304.000			15.153			-2.525
212404.000			15.152			-2.525
212505.000			15.151			-2.525
212604.000			15.151			-2.525
212704.000			15.152			-2.525
212805.000			15.152			-2.525
212903.000			15.151			-2.525
213004.000			15.151			-2.525
213105.000			15.151			-2.525
213204.000			15.151			-2.525
213304.000			15.151			-2.525
213405.000			15.151			-2.525
213504.000			15.152			-2.525
213603.000			15.150			-2.525
213705.000			15.150			-2.525
213804.000			15.150			-2.525
213905.000			15.149			-2.525
214004.000			15.149			-2.525
214104.000			15.149			-2.525
214205.000			15.149			-2.525
214304.000			15.148			-2.525
214404.000			15.148			-2.525
214504.000			15.148			-2.525
214604.000			15.148			-2.525
214704.000			15.148			-2.525
214805.000			15.149			-2.525
214904.000			15.148			-2.525
215004.000			15.147			-2.524
215105.000			15.146			-2.524
215204.000			15.147			-2.525
215304.000			15.147			-2.524
215404.000			15.146			-2.524
215504.000			15.146			-2.524
215604.000			15.147			-2.524
215705.000			15.147			-2.525
215804.000			15.146			-2.524
215904.000			15.145			-2.524
216005.000			15.146			-2.524
216104.000			15.145			-2.524
216204.000			15.146			-2.524
216304.000			15.145			-2.524
216404.000			15.145			-2.524
216504.000			15.145			-2.524
216605.000			15.145			-2.524
216704.000			15.145			-2.524
216804.000			15.144			-2.524
216905.000			15.143			-2.524
217004.000			15.143			-2.524
217105.000			15.144			-2.524
217203.000			15.144			-2.524
217304.000			15.143			-2.524
217405.000			15.143			-2.524
217504.000			15.143			-2.524
217604.000			15.143			-2.524
217705.000			15.143			-2.524
217804.000			15.143			-2.524
217903.000			15.142			-2.524
218005.000			15.142			-2.524
218104.000			15.142			-2.524
218204.000			15.142			-2.524
218305.000			15.142			-2.524
218404.000			15.141			-2.524
218504.000			15.142			-2.524
218605.000			15.142			-2.524
218704.000			15.141			-2.523
218803.000			15.141			-2.523
218905.000			15.140			-2.523
219004.000			15.140			-2.523
219104.000			15.140			-2.523
219205.000			15.140			-2.523
219304.000			15.139			-2.523
219404.000			15.139			-2.523
219504.000			15.139			-2.523
219604.000			15.139			-2.523
219703.000			15.139			-2.523
219805.000			15.139			-2.523
219904.000			15.138			-2.523
220004.000			15.137			-2.523
220105.000			15.138			-2.523
220204.000			15.138			-2.523
220305.000			15.138			-2.523
220403.000			15.138			-2.523
220504.000			15.137			-2.523
220605.000			15.137			-2.523
220704.000			15.137			-2.523
220804.000			15.136			-2.523
220905.000			15.136			-2.523
221004.000			15.137			-2.523
221104.000			15.136			-2.523
221205.000			15.136			-2.523
221303.000			15.135			-2.523
221404.000			15.135			-2.522
221505.000			15.135			-2.522
221604.000			15.135			-2.523
221704.000			15.136			-2.523
221805.000			15.134			-2.522
221904.000			15.134			-2.522
222003.000			15.134			-2.522
222105.000			15.134			-2.522
222204.000			15.135			-2.523
222304.000			15.135			-2.522
222405.000			15.134			-2.522
222504.000			15.134			-2.522
222604.000			15.133			-2.522
222705.000			15.133			-2.522
222804.000			15.132			-2.522
222903.000			15.132			-2.522
223005.000			15.133			-2.522
223104.000			15.132			-2.522
223204.000			15.133			-2.522
223305.000			15.132			-2.522
223404.000			15.131			-2.522
223505.000			15.132			-2.522
223603.000			15.132			-2.522
223704.000			15.130			-2.522
223805.000			15.132			-2.522
223904.000			15.131			-2.522
224004.000			15.130			-2.522
224105.000			15.130			-2.522
224204.000			15.130			-2.522
224304.000			15.130			-2.522
224405.000			15.130			-2.522
224503.000			15.130			-2.522
224604.000			15.130			-2.522
224705.000			15.129			-2.522
224804.000			15.129			-2.521
224904.000			15.128			-2.521
225005.000			15.129			-2.521
225104.000			15.129			-2.521
225203.000			15.129			-2.521
225305.000			15.128			-2.521
225403.000			15.128			-2.521
225504.000			15.128			-2.521
225605.000			15.128			-2.521
225704.000			15.127			-2.521
225804.000			15.127			-2.521
225905.000			15.127			-2.521
226004.000			15.126			-2.521
226103.000			15.126			-2.521
226205.000			15.126			-2.521
226304.000			15.127			-2.521
226404.000			15.127			-2.521
226505.000			15.127			-2.521
226604.000			15.126			-2.521
226705.000			15.126			-2.521
226804.000			15.127			-2.521
226904.000			15.126			-2.521
227004.000			15.125			-2.521
227104.000			15.127			-2.521
227203.000			15.126			-2.521
227305.000			15.125			-2.521
227404.000			15.124			-2.521
227504.000			15.124			-2.521
227605.000			15.125			-2.521
227704.000			15.126			-2.521
227804.000			15.124			-2.521
227904.000			15.124			-2.521
228004.000			15.125			-2.521
228104.000			15.124			-2.521
228205.000			15.124			-2.521
228304.000			15.124			-2.521
228404.000			15.124			-2.521
228505.000			15.124			-2.521
228604.000			15.123			-2.520
228704.000			15.123			-2.521
228804.000			15.123			-2.520
228904.000			15.123			-2.521
229004.000			15.123			-2.521
229105.000			15.123			-2.520
229204.000			15.123			-2.521
229304.000			15.122			-2.520
229405.000			15.122			-2.520
229503.000			15.122			-2.520
229604.000			15.122			-2.520
229705.000			15.122			-2.520
229804.000			15.122			-2.520
229905.000			15.121			-2.520
230004.000			15.122			-2.520
230104.000			15.121			-2.520
230205.000			15.122			-2.520
230304.000			15.121			-2.520
230403.000			15.122			-2.520
230505.000			15.122			-2.520
230604.000			15.122			-2.520
230704.000			15.120			-2.520
230805.000			15.119			-2.520
230904.000			15.120			-2.520
231004.000			15.119			-2.520
231104.000			15.119			-2.520
231204.000			15.120			-2.520
231304.000			15.120			-2.520
231405.000			15.119			-2.520
231504.000			15.119			-2.520
231604.000			15.119			-2.520
231705.000			15.118			-2.520
231804.000			15.118			-2.520
231904.000			15.118			-2.520
232004.000			15.119			-2.520
232104.000			15.118			-2.520
232204.000			15.118			-2.520
232305.000			15.117			-2.520
232404.000			15.118			-2.520
232504.000			15.117			-2.520
232605.000			15.117			-2.520
232703.000			15.117			-2.519
232804.000			15.117			-2.519
232903.000			15.117			-2.520
233004.000			15.117			-2.519
233105.000			15.115			-2.519
233204.000			15.115			-2.519
233304.000			15.115			-2.519
233405.000			15.116			-2.519
233504.000			15.116			-2.519
233603.000			15.115			-2.519
233705.000			15.116			-2.519
233804.000			15.116			-2.519
233904.000			15.115			-2.519
234005.000			15.115			-2.519
234104.000			15.115			-2.519
234204.000			15.114			-2.519
234305.000			15.114			-2.519
234404.000			15.114			-2.519
234503.000			15.114			-2.519
234605.000			15.114			-2.519
234704.000			15.114			-2.519
234804.000			15.114			-2.519
234905.000			15.113			-2.519
235004.000			15.113			-2.519
235104.000			15.113			-2.519
235204.000			15.113			-2.519
235304.000			15.114			-2.519
235403.000			15.114			-2.519
235505.000			15.113			-2.519
235604.000			15.112			-2.519
235704.000			15.112			-2.519
235805.000			15.112			-2.519
235904.000			15.111			-2.519
236004.000			15.112			-2.519
236103.000			15.112			-2.519
236204.000			15.111			-2.519
236305.000			15.110			-2.518
236404.000			15.110			-2.518
236504.000			15.111			-2.518
236605.000			15.111			-2.519
236704.000			15.110			-2.518
236804.000			15.109			-2.518
236905.000			15.109			-2.518
237003.000			15.109			-2.518
237104.000			15.110			-2.518
237205.000			15.110			-2.518
237304.000			15.110			-2.518
237404.000			15.109			-2.518
237505.000			15.109			-2.518
237604.000			15.109			-2.518
237703.000			15.108			-2.518
237805.000			15.107			-2.518
237903.000			15.108			-2.518
238004.000			15.108			-2.518
238105.000			15.108			-2.518
238204.000			15.106			-2.518
238304.000			15.106			-2.518
238405.000			15.108			-2.518
238504.000			15.108			-2.518
238603.000			15.107			-2.518
238705.000			15.107			-2.518
238804.000			15.106			-2.518
238904.000			15.105			-2.518
239005.000			15.105			-2.518
239104.000			15.106			-2.518
239204.000			15.106			-2.518
239304.000			15.105			-2.518
239404.000			15.105			-2.517
239503.000			15.103			-2.517
239604.000			15.104			-2.517
239704.000			15.104			-2.517
239805.000			15.104			-2.517
239904.000			15.104			-2.517
240004.000			15.103			-2.517
240105.000			15.103			-2.517
240204.000			15.104			-2.517
240304.000			15.104			-2.517
240404.000			15.103			-2.517
240504.000			15.103			-2.517
240604.000			15.103			-2.517
240705.000			15.103			-2.517
240804.000			15.102			-2.517
240904.000			15.103			-2.517
241005.000			15.103			-2.517
241103.000			15.102			-2.517
241204.000			15.102			-2.517
241305.000			15.102			-2.517
241404.000			15.101			-2.517
241504.000			15.101			-2.517
241605.000			15.102			-2.517
241704.000			15.102			-2.517
241803.000			15.102			-2.517
241905.000			15.101			-2.517
242004.000			15.101			-2.517
242104.000			15.102			-2.517
242205.000			15.100			-2.517
242304.000			15.099			-2.517
242404.000			15.100			-2.517
242504.000			15.100			-2.517
242604.000			15.100			-2.517
242703.000			15.099			-2.517
242804.000			15.099			-2.517
242904.000			15.099			-2.517
243005.000			15.099			-2.516
243104.000			15.099			-2.516
243204.000			15.099			-2.516
243305.000			15.098			-2.516
243403.000			15.098			-2.516
243504.000			15.099			-2.516
243604.000			15.098			-2.516
243704.000			15.098			-2.516
243804.000			15.097			-2.516
243905.000			15.097			-2.516
244004.000			15.097			-2.516
244104.000			15.096			-2.516
244205.000			15.096			-2.516
244303.000			15.097			-2.516
244404.000			15.097			-2.516
244504.000			15.097			-2.516
244604.000			15.096			-2.516
244704.000			15.095			-2.516
244805.000			15.096			-2.516
244904.000			15.096			-2.516
245004.000			15.096			-2.516
245105.000			15.097			-2.516
245203.000			15.096			-2.516
245304.000			15.096			-2.516
245405.000			15.095			-2.516
245504.000			15.095			-2.516
245604.000			15.095			-2.516
245704.000			15.096			-2.516
245804.000			15.095			-2.516
245905.000			15.095			-2.516
246004.000			15.095			-2.516
246103.000			15.095			-2.516
246205.000			15.094			-2.516
246304.000			15.094			-2.516
246404.000			15.095			-2.516
246505.000			15.095			-2.516
246604.000			15.094			-2.516
246704.000			15.094			-2.516
246805.000			15.094			-2.516
246904.000			15.092			-2.515
247003.000			15.093			-2.515
247105.000			15.093			-2.515
247204.000			15.093			-2.515
247304.000			15.093			-2.516
247405.000			15.093			-2.516
247504.000			15.092			-2.515
247604.000			15.091			-2.515
247705.000			15.092			-2.515
247804.000			15.092			-2.515
247903.000			15.092			-2.515
248005.000			15.093			-2.515
248104.000			15.092			-2.515
248204.000			15.091			-2.515
248305.000			15.091			-2.515
248404.000			15.090			-2.515
248504.000			15.090			-2.515
248605.000			15.090			-2.515
248704.000			15.089			-2.515
248803.000			15.089			-2.515
248905.000			15.089			-2.515
249003.000			15.089			-2.515
249105.000			15.089			-2.515
249204.000			15.090			-2.515
249304.000			15.090			-2.515
249405.000			15.089			-2.515
249504.000			15.089			-2.515
249604.000			15.089			-2.515
249704.000			15.088			-2.515
249804.000			15.087			-2.515
249903.000			15.087			-2.515
250005.000			15.087			-2.515
250104.000			15.088			-2.515
250204.000			15.088			-2.515
250305.000			15.087			-2.515
250404.000			15.087			-2.514
250504.000			15.087			-2.515
250604.000			15.086			-2.514
250704.000			15.086			-2.514
250803.000			15.086			-2.514
250905.000			15.087			-2.515
251004.000			15.087			-2.515
251104.000			15.086			-2.514
251205.000			15.086			-2.514
251304.000			15.086			-2.514
251404.000			15.085			-2.514
251504.000			15.086			-2.514
251604.000			15.085			-2.514
251703.000			15.085			-2.514
251805.000			15.084			-2.514
251904.000			15.085			-2.514
252004.000			15.085			-2.514
252105.000			15.084			-2.514
252204.000			15.085			-2.514
252305.000			15.084			-2.514
252403.000			15.085			-2.514
252504.000			15.085			-2.514
252605.000			15.084			-2.514
252704.000			15.084			-2.514
252804.000			15.085			-2.514
252905.000			15.085			-2.514
253004.000			15.084			-2.514
253104.000			15.083			-2.514
253205.000			15.083			-2.514
253303.000			15.083			-2.514
253404.000			15.083			-2.514
253505.000			15.084			-2.514
253604.000			15.082			-2.514
253704.000			15.083			-2.514
253805.000			15.083			-2.514
253904.000			15.083			-2.514
254004.000			15.082			-2.514
254105.000			15.083			-2.514
254203.000			15.081			-2.513
254304.000			15.082			-2.514
254405.000			15.083			-2.514
254504.000			15.082			-2.514
254604.000			15.081			-2.514
254705.000			15.082			-2.514
254804.000			15.081			-2.513
254904.000			15.081			-2.514
255005.000			15.081			-2.514
255103.000			15.081			-2.513
255204.000			15.080			-2.513
255305.000			15.080			-2.513
255404.000			15.080			-2.513
255505.000			15.079			-2.513
255604.000			15.079			-2.513
255704.000			15.080			-2.513
255804.000			15.080			-2.513
255904.000			15.079			-2.513
256003.000			15.079			-2.513
256105.000			15.079			-2.513
256204.000			15.078			-2.513
256304.000			15.078			-2.513
256405.000			15.079			-2.513
256504.000			15.080			-2.513
256604.000			15.079			-2.513
256705.000			15.078			-2.513
256804.000			15.078			-2.513
256903.000			15.079			-2.513
257005.000			15.078			-2.513
257104.000			15.077			-2.513
257204.000			15.077			-2.513
257305.000			15.077			-2.513
257404.000			15.077			-2.513
257504.000			15.078			-2.513
257605.000			15.079			-2.513
257704.000			15.076			-2.513
257803.000			15.077			-2.513
257905.000			15.076			-2.513
258004.000			15.077			-2.513
258104.000			15.077			-2.513
258205.000			15.076			-2.513
258304.000			15.077			-2.513
258404.000			15.076			-2.513
258504.000			15.076			-2.513
258604.000			15.076			-2.513
258703.000			15.076			-2.513
258804.000			15.077			-2.513
258903.000			15.076			-2.513
259005.000			15.076			-2.513
259104.000			15.075			-2.513
259204.000			15.074			-2.512
259305.000			15.074			-2.512
259404.000			15.075			-2.512
259504.000			15.074			-2.512
259604.000			15.074			-2.512
259704.000			15.074			-2.512
259803.000			15.074			-2.512
259905.000			15.074			-2.512
260004.000			15.073			-2.512
260104.000			15.073			-2.512
260205.000			15.073			-2.512
260304.000			15.073			-2.512
260404.000			15.073			-2.512
260504.000			15.072			-2.512
260604.000			15.071			-2.512
260703.000			15.072			-2.512
260805.000			15.071			-2.512
260904.000			15.072			-2.512
261004.000			15.072			-2.512
261105.000			15.072			-2.512
261204.000			15.071			-2.512
261304.000			15.072			-2.512
261404.000			15.071			-2.512
261504.000			15.071			-2.512
261604.000			15.071			-2.512
261704.000			15.071			-2.512
261804.000			15.071			-2.512
261905.000			15.071			-2.512
262004.000			15.070			-2.512
262104.000			15.068			-2.511
262205.000			15.069			-2.511
262303.000			15.069			-2.512
262404.000			15.069			-2.511
262505.000			15.069			-2.512
262604.000			15.069			-2.512
262704.000			15.069			-2.511
262805.000			15.068			-2.511
262904.000			15.068			-2.511
263004.000			15.068			-2.511
263105.000			15.067			-2.511
263203.000			15.068			-2.511
263304.000			15.068			-2.511
263405.000			15.068			-2.511
263504.000			15.068			-2.511
263604.000			15.068			-2.511
263705.000			15.067			-2.511
263804.000			15.066			-2.511
263904.000			15.066			-2.511
264005.000			15.067			-2.511
264103.000			15.068			-2.511
264204.000			15.067			-2.511
264305.000			15.067			-2.511
264404.000			15.066			-2.511
264504.000			15.066			-2.511
264605.000			15.065			-2.511
264704.000			15.066			-2.511
264804.000			15.065			-2.511
264905.000			15.066			-2.511
265003.000			15.066			-2.511
265105.000			15.066			-2.511
265204.000			15.066			-2.511
265304.000			15.066			-2.511
265405.000			15.065			-2.511
265504.000			15.064			-2.511
265604.000			15.064			-2.511
265705.000			15.064			-2.511
265804.000			15.064			-2.511
265903.000			15.065			-2.511
266005.000			15.064			-2.511
266104.000			15.064			-2.511
266204.000			15.065			-2.511
266305.000			15.064			-2.511
266404.000			15.062			-2.510
266504.000			15.062			-2.510
266604.000			15.062			-2.510
266704.000			15.062			-2.510
266803.000			15.062			-2.510
266905.000			15.062			-2.510
267004.000			15.063			-2.510
267104.000			15.062			-2.510
267205.000			15.063			-2.510
267304.000			15.063			-2.511
267404.000			15.063			-2.511
267504.000			15.063			-2.510
267604.000			15.062			-2.510
267703.000			15.062			-2.510
267805.000			15.063			-2.510
267904.000			15.062			-2.510
268004.000			15.061			-2.510
268105.000			15.062			-2.510
268204.000			15.061			-2.510
268305.000			15.061			-2.510
268403.000			15.060			-2.510
268504.000			15.060			-2.510
268604.000			15.061			-2.510
268704.000			15.061			-2.510
268804.000			15.061			-2.510
268905.000			15.060			-2.510
269004.000			15.060			-2.510
269104.000			15.059			-2.510
269205.000			15.058			-2.510
269303.000			15.058			-2.510
269404.000			15.060			-2.510
269504.000			15.059			-2.510
269604.000			15.059			-2.510
269704.000			15.059			-2.510
269805.000			15.059			-2.510
269904.000			15.059			-2.510
270004.000			15.058			-2.510
270105.000			15.057			-2.509
270203.000			15.056			-2.509
270304.000			15.056			-2.509
270404.000			15.056			-2.509
270504.000			15.057			-2.509
270604.000			15.058			-2.510
270705.000			15.056			-2.509
270804.000			15.056			-2.509
270904.000			15.056			-2.509
271005.000			15.057			-2.509
271103.000			15.056			-2.509
271204.000			15.056			-2.509
271305.000			15.056			-2.509
271404.000			15.056			-2.509
271505.000			15.056			-2.509
271604.000			15.055			-2.509
271704.000			15.054			-2.509
271805.000			15.054			-2.509
271904.000			15.054			-2.509
272003.000			15.055			-2.509
272105.000			15.054			-2.509
272204.000			15.054			-2.509
272304.000			15.054			-2.509
272405.000			15.053			-2.509
272504.000			15.054			-2.509
272604.000			15.054			-2.509
272705.000			15.052			-2.509
272804.000			15.053			-2.509
272903.000			15.052			-2.509
273005.000			15.052			-2.509
273104.000			15.053			-2.509
273204.000			15.053			-2.509
273305.000			15.052			-2.509
273404.000			15.051			-2.509
273504.000			15.052			-2.509
273604.000			15.052			-2.509
273704.000			15.051			-2.508
273803.000			15.050			-2.508
273905.000			15.051			-2.509
274004.000			15.051			-2.508
274104.000			15.051			-2.508
274205.000			15.051			-2.508
274304.000			15.051			-2.508
274404.000			15.051			-2.508
274503.000			15.051			-2.508
274604.000			15.051			-2.508
274705.000			15.051			-2.508
274804.000			15.050			-2.508
274904.000			15.049			-2.508
275005.000			15.049			-2.508
275104.000			15.049			-2.508
275204.000			15.048			-2.508
275305.000			15.049			-2.508
275403.000			15.049			-2.508
275504.000			15.049			-2.508
275605.000			15.048			-2.508
275704.000			15.047			-2.508
275804.000			15.048			-2.508
275905.000			15.048			-2.508
276004.000			15.048			-2.508
276104.000			15.047			-2.508
276205.000			15.046			-2.508
276303.000			15.047			-2.508
276404.000			15.048			-2.508
276504.000			15.049			-2.508
276604.000			15.048			-2.508
276704.000			15.048			-2.508
276805.000			15.048			-2.508
276904.000			15.047			-2.508
277004.000			15.047			-2.508
277105.000			15.046			-2.508
277203.000			15.046			-2.508
277304.000			15.047			-2.508
277404.000			15.046			-2.508
277504.000			15.046			-2.508
277604.000			15.047			-2.508
277704.000			15.047			-2.508
277804.000			15.047			-2.508
277905.000			15.046			-2.508
278004.000			15.046			-2.508
278103.000			15.046			-2.508
278205.000			15.045			-2.508
278303.000			15.045			-2.508
278404.000			15.045			-2.507
278505.000			15.044			-2.507
278604.000			15.044			-2.507
278704.000			15.044			-2.507
278805.000			15.044			-2.507
278904.000			15.044			-2.507
279003.000			15.044			-2.507
279105.000			15.044			-2.507
279203.000			15.043			-2.507
279304.000			15.043			-2.507
279405.000			15.044			-2.507
279504.000			15.044			-2.507
279604.000			15.043			-2.507
279705.000			15.043			-2.507
279804.000			15.043			-2.507
279903.000			15.042			-2.507
280005.000			15.042			-2.507
280103.000			15.042			-2.507
280204.000			15.042			-2.507
280305.000			15.042			-2.507
280404.000			15.040			-2.507
280504.000			15.041			-2.507
280605.000			15.041			-2.507
280704.000			15.041			-2.507
280803.000			15.041			-2.507
280905.000			15.041			-2.507
281004.000			15.040			-2.507
281105.000			15.040			-2.507
281204.000			15.040			-2.507
281304.000			15.041			-2.507
281405.000			15.041			-2.507
281503.000			15.041			-2.507
281604.000			15.040			-2.507
281704.000			15.039			-2.506
281804.000			15.039			-2.506
281904.000			15.039			-2.506
282005.000			15.039			-2.506
282104.000			15.039			-2.507
282204.000			15.039			-2.507
282305.000			15.039			-2.506
282403.000			15.038			-2.506
282504.000			15.039			-2.506
282605.000			15.038			-2.506
282704.000			15.038			-2.506
282804.000			15.038			-2.506
282905.000			15.037			-2.506
283004.000			15.038			-2.506
283104.000			15.038			-2.506
283205.000			15.038			-2.506
283303.000			15.038			-2.506
283404.000			15.039			-2.506
283505.000			15.038			-2.506
283604.000			15.037			-2.506
283704.000			15.037			-2.506
283805.000			15.036			-2.506
283904.000			15.036			-2.506
284004.000			15.036			-2.506
284105.000			15.036			-2.506
284203.000			15.035			-2.506
284305.000			15.035			-2.506
284404.000			15.036			-2.506
284504.000			15.035			-2.506
284605.000			15.035			-2.506
284704.000			15.035			-2.506
284804.000			15.036			-2.506
284905.000			15.034			-2.506
285004.000			15.034			-2.506
285103.000			15.034			-2.506
285205.000			15.034			-2.506
285304.000			15.034			-2.506
285404.000			15.034			-2.506
285505.000			15.033			-2.506
285604.000			15.034			-2.506
285704.000			15.034			-2.506
285804.000			15.034			-2.506
285904.000			15.033			-2.505
286003.000			15.033			-2.506
286105.000			15.034			-2.506
286204.000			15.033			-2.506
286304.000			15.033			-2.505
286405.000			15.033			-2.505
286504.000			15.033			-2.505
286604.000			15.033			-2.505
286704.000			15.033			-2.505
286804.000			15.033			-2.505
286903.000			15.032			-2.505
287005.000			15.032			-2.505
287104.000			15.032			-2.505
287204.000			15.032			-2.505
287305.000			15.031			-2.505
287404.000			15.032			-2.505
287505.000			15.031			-2.505
287603.000			15.031			-2.505
287704.000			15.032			-2.505
287805.000			15.031			-2.505
287904.000			15.031			-2.505
288004.000			15.030			-2.505
288105.000			15.031			-2.505
288204.000			15.031			-2.505
288304.000			15.031			-2.505
288405.000			15.031			-2.505
288503.000			15.031			-2.505
288604.000			15.030			-2.505
288705.000			15.031			-2.505
288804.000			15.030			-2.505
288904.000			15.029			-2.505
289005.000			15.029			-2.505
289104.000			15.028			-2.505
289204.000			15.028			-2.505
289305.000			15.029			-2.505
289403.000			15.029			-2.505
289504.000			15.029			-2.505
289605.000			15.029			-2.505
289704.000			15.029			-2.505
289804.000			15.028			-2.505
289905.000			15.028			-2.505
290004.000			15.029			-2.505
290104.000			15.029			-2.505
290205.000			15.029			-2.505
290303.000			15.028			-2.505
290404.000			15.029			-2.505
290505.000			15.029			-2.505
290604.000			15.028			-2.505
290705.000			15.028			-2.505
290804.000			15.028			-2.505
290904.000			15.027			-2.504
291005.000			15.026			-2.504
291104.000			15.027			-2.504
291203.000			15.027			-2.504
291305.000			15.027			-2.504
291404.000			15.026			-2.504
291504.000			15.025			-2.504
291605.000			15.025			-2.504
291704.000			15.026			-2.504
291804.000			15.026			-2.504
291905.000			15.025			-2.504
292004.000			15.025			-2.504
292103.000			15.025			-2.504
292205.000			15.025			-2.504
292304.000			15.026			-2.504
292404.000			15.024			-2.504
292505.000			15.026			-2.504
292604.000			15.025			-2.504
292704.000			15.025			-2.504
292805.000			15.024			-2.504
292904.000			15.023			-2.504
293003.000			15.023			-2.504
293105.000			15.024			-2.504
293204.000			15.025			-2.504
293304.000			15.024			-2.504
293405.000			15.023			-2.504
293504.000			15.025			-2.504
293604.000			15.024			-2.504
293703.000			15.024			-2.504
293804.000			15.023			-2.504
293903.000			15.022			-2.504
294004.000			15.022			-2.504
294104.000			15.023			-2.504
294205.000			15.023			-2.504
294304.000			15.022			-2.504
294404.000			15.022			-2.504
294505.000			15.022			-2.504
294603.000			15.022			-2.504
294704.000			15.022			-2.504
294805.000			15.022			-2.504
294904.000			15.022			-2.504
295004.000			15.021			-2.504
295105.000			15.021			-2.504
295204.000			15.021			-2.504
295304.000			15.022			-2.504
295405.000			15.021			-2.503
295503.000			15.020			-2.503
295604.000			15.020			-2.503
295705.000			15.021			-2.503
295804.000			15.020			-2.503
295904.000			15.021			-2.503
296005.000			15.021			-2.503
296104.000			15.020			-2.503
296203.000			15.019			-2.503
296305.000			15.020			-2.503
296403.000			15.020			-2.503
296504.000			15.020			-2.503
296605.000			15.019			-2.503
296704.000			15.019			-2.503
296804.000			15.019			-2.503
296904.000			15.019			-2.503
297004.000			15.018			-2.503
297103.000			15.018			-2.503
297204.000			15.019			-2.503
297303.000			15.018			-2.503
297405.000			15.018			-2.503
297504.000			15.019			-2.503
297604.000			15.018			-2.503
297705.000			15.017			-2.503
297804.000			15.017			-2.503
297904.000			15.017			-2.503
298004.000			15.017			-2.503
298104.000			15.017			-2.503
298203.000			15.017			-2.503
298305.000			15.016			-2.503
298404.000			15.016			-2.503
298504.000			15.016			-2.503
298605.000			15.016			-2.503
298704.000			15.017			-2.503
298804.000			15.017			-2.503
298904.000			15.016			-2.503
299004.000			15.016			-2.503
299103.000			15.015			-2.503
299205.000			15.015			-2.503
299304.000			15.015			-2.502
299404.000			15.016			-2.503
299505.000			15.016			-2.503
299604.000			15.016			-2.503
299704.000			15.015			-2.502
299804.000			15.015			-2.502
299904.000			15.015			-2.502
