# Acquired on 26/01/2024 15:38:36 
# SPIDER: Creep_6mm_HM077x145x38AB-2
# CREEP MEASUREMENT

# time [ms]		force [N]		stiffness [N/mm]
1.000			-21.251			-3.542
105.000			-21.640			-3.607
204.000			-21.696			-3.616
304.000			-21.630			-3.605
405.000			-21.570			-3.595
504.000			-21.521			-3.587
605.000			-21.446			-3.574
703.000			-21.415			-3.569
804.000			-21.384			-3.564
905.000			-21.357			-3.560
1004.000			-21.333			-3.555
1104.000			-21.310			-3.552
1204.000			-21.288			-3.548
1304.000			-21.249			-3.541
1404.000			-21.230			-3.538
1505.000			-21.213			-3.535
1604.000			-21.198			-3.533
1704.000			-21.182			-3.530
1805.000			-21.167			-3.528
1904.000			-21.152			-3.525
2004.000			-21.127			-3.521
2105.000			-21.113			-3.519
2204.000			-21.102			-3.517
2304.000			-21.090			-3.515
2404.000			-21.078			-3.513
2504.000			-21.066			-3.511
2604.000			-21.055			-3.509
2705.000			-21.043			-3.507
2804.000			-21.024			-3.504
2903.000			-21.014			-3.502
3005.000			-21.004			-3.501
3104.000			-20.995			-3.499
3204.000			-20.986			-3.498
3305.000			-20.978			-3.496
3404.000			-20.971			-3.495
3504.000			-20.954			-3.492
3604.000			-20.945			-3.491
3704.000			-20.937			-3.490
3805.000			-20.929			-3.488
3904.000			-20.921			-3.487
4004.000			-20.915			-3.486
4104.000			-20.907			-3.484
4204.000			-20.891			-3.482
4304.000			-20.885			-3.481
4405.000			-20.878			-3.480
4504.000			-20.871			-3.478
4604.000			-20.865			-3.477
4705.000			-20.859			-3.476
4803.000			-20.853			-3.475
4904.000			-20.839			-3.473
5005.000			-20.834			-3.472
5104.000			-20.828			-3.471
5204.000			-20.822			-3.470
5305.000			-20.816			-3.469
5404.000			-20.811			-3.468
5503.000			-20.805			-3.467
5605.000			-20.800			-3.467
5704.000			-20.790			-3.465
5804.000			-20.784			-3.464
5905.000			-20.779			-3.463
6003.000			-20.774			-3.462
6104.000			-20.768			-3.461
6205.000			-20.763			-3.461
6304.000			-20.758			-3.460
6404.000			-20.749			-3.458
6505.000			-20.744			-3.457
6604.000			-20.738			-3.456
6703.000			-20.734			-3.456
6805.000			-20.730			-3.455
6904.000			-20.725			-3.454
7005.000			-20.720			-3.453
7104.000			-20.712			-3.452
7203.000			-20.707			-3.451
7305.000			-20.702			-3.450
7404.000			-20.699			-3.450
7504.000			-20.695			-3.449
7605.000			-20.690			-3.448
7704.000			-20.685			-3.448
7804.000			-20.676			-3.446
7904.000			-20.673			-3.446
8004.000			-20.670			-3.445
8104.000			-20.665			-3.444
8205.000			-20.661			-3.443
8304.000			-20.658			-3.443
8403.000			-20.655			-3.442
8505.000			-20.649			-3.442
8604.000			-20.641			-3.440
8704.000			-20.637			-3.440
8805.000			-20.635			-3.439
8904.000			-20.631			-3.439
9004.000			-20.626			-3.438
9104.000			-20.623			-3.437
9204.000			-20.620			-3.437
9304.000			-20.613			-3.435
9405.000			-20.609			-3.435
9504.000			-20.606			-3.434
9603.000			-20.603			-3.434
9705.000			-20.598			-3.433
9804.000			-20.595			-3.432
9904.000			-20.592			-3.432
10005.000			-20.586			-3.431
10104.000			-20.583			-3.430
10205.000			-20.579			-3.430
10303.000			-20.576			-3.429
10404.000			-20.574			-3.429
10505.000			-20.570			-3.428
10604.000			-20.567			-3.428
10704.000			-20.563			-3.427
10805.000			-20.559			-3.426
10904.000			-20.555			-3.426
11003.000			-20.552			-3.425
11105.000			-20.549			-3.425
11204.000			-20.546			-3.424
11304.000			-20.543			-3.424
11405.000			-20.540			-3.423
11504.000			-20.535			-3.422
11604.000			-20.532			-3.422
11704.000			-20.529			-3.421
11804.000			-20.526			-3.421
11904.000			-20.523			-3.420
12005.000			-20.520			-3.420
12104.000			-20.518			-3.420
12203.000			-20.512			-3.419
12305.000			-20.508			-3.418
12404.000			-20.506			-3.418
12504.000			-20.504			-3.417
12605.000			-20.502			-3.417
12704.000			-20.499			-3.416
12804.000			-20.495			-3.416
12904.000			-20.490			-3.415
13004.000			-20.487			-3.414
13104.000			-20.485			-3.414
13205.000			-20.482			-3.414
13304.000			-20.480			-3.413
13403.000			-20.478			-3.413
13504.000			-20.475			-3.413
13603.000			-20.473			-3.412
13705.000			-20.466			-3.411
13804.000			-20.464			-3.411
13904.000			-20.462			-3.410
14005.000			-20.460			-3.410
14103.000			-20.458			-3.410
14204.000			-20.456			-3.409
14305.000			-20.452			-3.409
14404.000			-20.448			-3.408
14504.000			-20.446			-3.408
14605.000			-20.443			-3.407
14704.000			-20.440			-3.407
14803.000			-20.438			-3.406
14905.000			-20.436			-3.406
15004.000			-20.433			-3.406
15104.000			-20.429			-3.405
15205.000			-20.426			-3.404
15304.000			-20.424			-3.404
15404.000			-20.421			-3.404
15504.000			-20.419			-3.403
15604.000			-20.417			-3.403
15704.000			-20.415			-3.403
15805.000			-20.411			-3.402
15904.000			-20.410			-3.402
16004.000			-20.407			-3.401
16105.000			-20.405			-3.401
16203.000			-20.403			-3.400
16304.000			-20.400			-3.400
16405.000			-20.398			-3.400
16504.000			-20.395			-3.399
16605.000			-20.393			-3.399
16704.000			-20.390			-3.398
16804.000			-20.388			-3.398
16904.000			-20.386			-3.398
17004.000			-20.384			-3.397
17104.000			-20.382			-3.397
17205.000			-20.380			-3.397
17304.000			-20.376			-3.396
17403.000			-20.373			-3.396
17505.000			-20.371			-3.395
17604.000			-20.370			-3.395
17704.000			-20.368			-3.395
17805.000			-20.366			-3.394
17904.000			-20.365			-3.394
18004.000			-20.360			-3.393
18104.000			-20.357			-3.393
18204.000			-20.355			-3.392
18304.000			-20.353			-3.392
18405.000			-20.351			-3.392
18504.000			-20.349			-3.392
18604.000			-20.348			-3.391
18705.000			-20.347			-3.391
18803.000			-20.343			-3.390
18904.000			-20.341			-3.390
19005.000			-20.339			-3.390
19104.000			-20.337			-3.390
19204.000			-20.335			-3.389
19305.000			-20.332			-3.389
19404.000			-20.331			-3.389
19503.000			-20.328			-3.388
19605.000			-20.327			-3.388
19704.000			-20.325			-3.387
19805.000			-20.322			-3.387
19904.000			-20.319			-3.387
20004.000			-20.318			-3.386
20105.000			-20.317			-3.386
20204.000			-20.313			-3.386
20304.000			-20.311			-3.385
20405.000			-20.310			-3.385
20504.000			-20.308			-3.385
20604.000			-20.306			-3.384
20704.000			-20.304			-3.384
20804.000			-20.303			-3.384
20904.000			-20.301			-3.383
21005.000			-20.298			-3.383
21104.000			-20.296			-3.383
21204.000			-20.295			-3.383
21305.000			-20.294			-3.382
21404.000			-20.292			-3.382
21504.000			-20.290			-3.382
21605.000			-20.288			-3.381
21704.000			-20.285			-3.381
21804.000			-20.283			-3.380
21904.000			-20.282			-3.380
22004.000			-20.280			-3.380
22104.000			-20.279			-3.380
22205.000			-20.277			-3.380
22304.000			-20.276			-3.379
22404.000			-20.271			-3.379
22505.000			-20.270			-3.378
22603.000			-20.269			-3.378
22704.000			-20.267			-3.378
22805.000			-20.265			-3.378
22904.000			-20.264			-3.377
23005.000			-20.263			-3.377
23104.000			-20.260			-3.377
23204.000			-20.258			-3.376
23304.000			-20.256			-3.376
23404.000			-20.255			-3.376
23504.000			-20.255			-3.376
23605.000			-20.252			-3.375
23704.000			-20.251			-3.375
23803.000			-20.248			-3.375
23905.000			-20.246			-3.374
24004.000			-20.243			-3.374
24104.000			-20.242			-3.374
24205.000			-20.241			-3.374
24304.000			-20.240			-3.373
24404.000			-20.239			-3.373
24504.000			-20.239			-3.373
24604.000			-20.234			-3.372
24704.000			-20.232			-3.372
24805.000			-20.233			-3.372
24904.000			-20.231			-3.372
25003.000			-20.228			-3.371
25105.000			-20.227			-3.371
25204.000			-20.225			-3.371
25304.000			-20.223			-3.371
25405.000			-20.222			-3.370
25504.000			-20.221			-3.370
25604.000			-20.220			-3.370
25704.000			-20.218			-3.370
25804.000			-20.216			-3.369
25904.000			-20.215			-3.369
26005.000			-20.212			-3.369
26104.000			-20.210			-3.368
26205.000			-20.209			-3.368
26304.000			-20.208			-3.368
26403.000			-20.206			-3.368
26505.000			-20.206			-3.368
26604.000			-20.204			-3.367
26704.000			-20.203			-3.367
26805.000			-20.199			-3.367
26903.000			-20.198			-3.366
27004.000			-20.196			-3.366
27105.000			-20.195			-3.366
27204.000			-20.194			-3.366
27304.000			-20.192			-3.365
27405.000			-20.191			-3.365
27504.000			-20.189			-3.365
27603.000			-20.187			-3.365
27705.000			-20.185			-3.364
27804.000			-20.183			-3.364
27904.000			-20.181			-3.364
28005.000			-20.182			-3.364
28104.000			-20.181			-3.364
28204.000			-20.178			-3.363
28304.000			-20.177			-3.363
28404.000			-20.175			-3.363
28504.000			-20.175			-3.362
28605.000			-20.175			-3.362
28704.000			-20.172			-3.362
28804.000			-20.171			-3.362
28905.000			-20.168			-3.361
29003.000			-20.166			-3.361
29104.000			-20.166			-3.361
29205.000			-20.165			-3.361
29304.000			-20.163			-3.361
29405.000			-20.162			-3.360
29503.000			-20.161			-3.360
29604.000			-20.161			-3.360
29705.000			-20.157			-3.360
29804.000			-20.156			-3.359
29904.000			-20.155			-3.359
30005.000			-20.153			-3.359
30104.000			-20.152			-3.359
30203.000			-20.150			-3.358
30305.000			-20.149			-3.358
30404.000			-20.147			-3.358
30504.000			-20.146			-3.358
30605.000			-20.145			-3.358
30704.000			-20.144			-3.357
30804.000			-20.142			-3.357
30904.000			-20.140			-3.357
31004.000			-20.139			-3.357
31104.000			-20.138			-3.356
31205.000			-20.137			-3.356
31304.000			-20.136			-3.356
31403.000			-20.135			-3.356
31505.000			-20.133			-3.356
31604.000			-20.132			-3.355
31704.000			-20.130			-3.355
31805.000			-20.129			-3.355
31904.000			-20.128			-3.355
32004.000			-20.127			-3.354
32104.000			-20.126			-3.354
32204.000			-20.125			-3.354
32304.000			-20.123			-3.354
32405.000			-20.121			-3.354
32504.000			-20.121			-3.353
32603.000			-20.118			-3.353
32704.000			-20.116			-3.353
32804.000			-20.116			-3.353
32905.000			-20.115			-3.353
33004.000			-20.115			-3.352
33104.000			-20.113			-3.352
33205.000			-20.113			-3.352
33303.000			-20.109			-3.352
33404.000			-20.109			-3.351
33505.000			-20.108			-3.351
33604.000			-20.106			-3.351
33704.000			-20.105			-3.351
33804.000			-20.104			-3.351
33904.000			-20.103			-3.351
34004.000			-20.101			-3.350
34105.000			-20.099			-3.350
34204.000			-20.098			-3.350
34304.000			-20.097			-3.350
34405.000			-20.096			-3.349
34503.000			-20.095			-3.349
34604.000			-20.093			-3.349
34705.000			-20.093			-3.349
34804.000			-20.090			-3.348
34904.000			-20.089			-3.348
35005.000			-20.088			-3.348
35104.000			-20.087			-3.348
35203.000			-20.086			-3.348
35305.000			-20.085			-3.348
35404.000			-20.084			-3.347
35504.000			-20.083			-3.347
35605.000			-20.082			-3.347
35703.000			-20.081			-3.347
35805.000			-20.080			-3.347
35904.000			-20.077			-3.346
36004.000			-20.076			-3.346
36105.000			-20.076			-3.346
36204.000			-20.075			-3.346
36304.000			-20.073			-3.346
36404.000			-20.071			-3.345
36504.000			-20.070			-3.345
36604.000			-20.069			-3.345
36705.000			-20.069			-3.345
36804.000			-20.068			-3.345
36904.000			-20.067			-3.345
37005.000			-20.065			-3.344
37104.000			-20.064			-3.344
37204.000			-20.064			-3.344
37305.000			-20.062			-3.344
37404.000			-20.060			-3.343
37504.000			-20.059			-3.343
37604.000			-20.058			-3.343
37704.000			-20.056			-3.343
37804.000			-20.055			-3.343
37905.000			-20.054			-3.342
38004.000			-20.054			-3.342
38104.000			-20.053			-3.342
38205.000			-20.051			-3.342
38303.000			-20.051			-3.342
38404.000			-20.049			-3.341
38505.000			-20.047			-3.341
38604.000			-20.046			-3.341
38704.000			-20.046			-3.341
38805.000			-20.046			-3.341
38904.000			-20.044			-3.341
39003.000			-20.043			-3.341
39104.000			-20.041			-3.340
39204.000			-20.041			-3.340
39305.000			-20.039			-3.340
39404.000			-20.039			-3.340
39503.000			-20.037			-3.340
39605.000			-20.036			-3.339
39704.000			-20.035			-3.339
39804.000			-20.034			-3.339
39905.000			-20.034			-3.339
40004.000			-20.033			-3.339
40104.000			-20.032			-3.339
40204.000			-20.031			-3.338
40304.000			-20.029			-3.338
40404.000			-20.028			-3.338
40505.000			-20.027			-3.338
40604.000			-20.025			-3.337
40704.000			-20.024			-3.337
40805.000			-20.023			-3.337
40903.000			-20.022			-3.337
41004.000			-20.022			-3.337
41105.000			-20.021			-3.337
41204.000			-20.020			-3.337
41304.000			-20.019			-3.336
41404.000			-20.018			-3.336
41504.000			-20.018			-3.336
41604.000			-20.014			-3.336
41705.000			-20.014			-3.336
41804.000			-20.014			-3.336
41904.000			-20.012			-3.335
42005.000			-20.011			-3.335
42104.000			-20.010			-3.335
42205.000			-20.008			-3.335
42304.000			-20.007			-3.335
42404.000			-20.007			-3.335
42505.000			-20.007			-3.334
42603.000			-20.006			-3.334
42704.000			-20.005			-3.334
42805.000			-20.002			-3.334
42904.000			-20.001			-3.334
43004.000			-20.001			-3.334
43105.000			-20.000			-3.333
43204.000			-19.999			-3.333
43303.000			-19.999			-3.333
43405.000			-19.998			-3.333
43504.000			-19.995			-3.333
43604.000			-19.995			-3.332
43705.000			-19.993			-3.332
43804.000			-19.993			-3.332
43904.000			-19.992			-3.332
44004.000			-19.991			-3.332
44104.000			-19.990			-3.332
44204.000			-19.988			-3.331
44305.000			-19.987			-3.331
44404.000			-19.987			-3.331
44504.000			-19.986			-3.331
44605.000			-19.986			-3.331
44703.000			-19.984			-3.331
44804.000			-19.983			-3.331
44905.000			-19.983			-3.330
45004.000			-19.982			-3.330
45104.000			-19.981			-3.330
45205.000			-19.979			-3.330
45304.000			-19.979			-3.330
45403.000			-19.978			-3.330
45504.000			-19.977			-3.330
45604.000			-19.977			-3.329
45705.000			-19.975			-3.329
45804.000			-19.975			-3.329
45904.000			-19.974			-3.329
46005.000			-19.972			-3.329
46103.000			-19.972			-3.329
46204.000			-19.972			-3.329
46305.000			-19.970			-3.328
46404.000			-19.968			-3.328
46504.000			-19.967			-3.328
46605.000			-19.966			-3.328
46704.000			-19.965			-3.328
46803.000			-19.965			-3.327
46905.000			-19.964			-3.327
47004.000			-19.963			-3.327
47104.000			-19.960			-3.327
47205.000			-19.961			-3.327
47304.000			-19.961			-3.327
47404.000			-19.959			-3.327
47504.000			-19.957			-3.326
47604.000			-19.958			-3.326
47704.000			-19.958			-3.326
47805.000			-19.956			-3.326
47904.000			-19.955			-3.326
48004.000			-19.954			-3.326
48105.000			-19.953			-3.326
48203.000			-19.952			-3.325
48304.000			-19.951			-3.325
48405.000			-19.950			-3.325
48504.000			-19.950			-3.325
48605.000			-19.949			-3.325
48704.000			-19.947			-3.325
48804.000			-19.946			-3.324
48905.000			-19.945			-3.324
49004.000			-19.944			-3.324
49103.000			-19.945			-3.324
49205.000			-19.944			-3.324
49304.000			-19.942			-3.324
49404.000			-19.943			-3.324
49505.000			-19.941			-3.323
49604.000			-19.939			-3.323
49704.000			-19.939			-3.323
49804.000			-19.938			-3.323
49904.000			-19.937			-3.323
50004.000			-19.937			-3.323
50105.000			-19.936			-3.323
50204.000			-19.935			-3.322
50304.000			-19.934			-3.322
50405.000			-19.933			-3.322
50503.000			-19.933			-3.322
50604.000			-19.931			-3.322
50705.000			-19.931			-3.322
50804.000			-19.930			-3.322
50904.000			-19.929			-3.321
51005.000			-19.927			-3.321
51104.000			-19.926			-3.321
51203.000			-19.927			-3.321
51305.000			-19.926			-3.321
51404.000			-19.925			-3.321
51504.000			-19.924			-3.321
51605.000			-19.923			-3.320
51704.000			-19.922			-3.320
51805.000			-19.921			-3.320
51903.000			-19.920			-3.320
52004.000			-19.918			-3.320
52105.000			-19.918			-3.320
52204.000			-19.918			-3.320
52304.000			-19.917			-3.320
52405.000			-19.915			-3.319
52504.000			-19.914			-3.319
52603.000			-19.914			-3.319
52705.000			-19.914			-3.319
52804.000			-19.913			-3.319
52904.000			-19.913			-3.319
53005.000			-19.910			-3.318
53104.000			-19.909			-3.318
53204.000			-19.908			-3.318
53304.000			-19.908			-3.318
53404.000			-19.908			-3.318
53504.000			-19.907			-3.318
53605.000			-19.906			-3.318
53704.000			-19.905			-3.318
53803.000			-19.905			-3.317
53905.000			-19.904			-3.317
54003.000			-19.904			-3.317
54104.000			-19.902			-3.317
54205.000			-19.900			-3.317
54304.000			-19.900			-3.317
54404.000			-19.899			-3.317
54504.000			-19.899			-3.316
54604.000			-19.898			-3.316
54703.000			-19.898			-3.316
54805.000			-19.898			-3.316
54904.000			-19.896			-3.316
55005.000			-19.895			-3.316
55104.000			-19.894			-3.316
55204.000			-19.893			-3.316
55305.000			-19.892			-3.315
55403.000			-19.892			-3.315
55504.000			-19.891			-3.315
55605.000			-19.890			-3.315
55704.000			-19.889			-3.315
55804.000			-19.889			-3.315
55905.000			-19.887			-3.315
56004.000			-19.887			-3.314
56103.000			-19.887			-3.314
56205.000			-19.887			-3.314
56304.000			-19.885			-3.314
56404.000			-19.883			-3.314
56505.000			-19.884			-3.314
56604.000			-19.882			-3.314
56704.000			-19.881			-3.314
56804.000			-19.881			-3.313
56904.000			-19.880			-3.313
57004.000			-19.879			-3.313
57105.000			-19.879			-3.313
57204.000			-19.878			-3.313
57304.000			-19.877			-3.313
57405.000			-19.876			-3.313
57504.000			-19.875			-3.313
57604.000			-19.876			-3.313
57704.000			-19.875			-3.312
57804.000			-19.873			-3.312
57904.000			-19.873			-3.312
58005.000			-19.872			-3.312
58104.000			-19.871			-3.312
58205.000			-19.870			-3.312
58304.000			-19.869			-3.311
58403.000			-19.869			-3.311
58505.000			-19.868			-3.311
58604.000			-19.868			-3.311
58704.000			-19.866			-3.311
58805.000			-19.865			-3.311
58904.000			-19.864			-3.311
59004.000			-19.864			-3.311
59104.000			-19.863			-3.311
59204.000			-19.863			-3.310
59304.000			-19.862			-3.310
59405.000			-19.861			-3.310
59504.000			-19.859			-3.310
59604.000			-19.859			-3.310
59705.000			-19.858			-3.310
59804.000			-19.858			-3.310
59904.000			-19.857			-3.309
60004.000			-19.856			-3.309
60104.000			-19.856			-3.309
60204.000			-19.855			-3.309
60305.000			-19.855			-3.309
60404.000			-19.854			-3.309
60503.000			-19.852			-3.309
60605.000			-19.852			-3.309
60704.000			-19.851			-3.309
60804.000			-19.851			-3.308
60905.000			-19.850			-3.308
61004.000			-19.849			-3.308
61104.000			-19.849			-3.308
61204.000			-19.848			-3.308
61304.000			-19.848			-3.308
61403.000			-19.847			-3.308
61504.000			-19.846			-3.308
61604.000			-19.846			-3.308
61705.000			-19.845			-3.307
61804.000			-19.844			-3.307
61904.000			-19.842			-3.307
62005.000			-19.842			-3.307
62103.000			-19.841			-3.307
62204.000			-19.840			-3.307
62305.000			-19.841			-3.307
62404.000			-19.841			-3.307
62504.000			-19.839			-3.307
62604.000			-19.838			-3.306
62704.000			-19.837			-3.306
62803.000			-19.836			-3.306
62905.000			-19.837			-3.306
63004.000			-19.837			-3.306
63104.000			-19.836			-3.306
63205.000			-19.832			-3.305
63303.000			-19.833			-3.305
63404.000			-19.833			-3.306
63505.000			-19.831			-3.305
63604.000			-19.831			-3.305
63704.000			-19.832			-3.305
63805.000			-19.831			-3.305
63904.000			-19.829			-3.305
64003.000			-19.829			-3.305
64105.000			-19.828			-3.305
64204.000			-19.827			-3.305
64304.000			-19.826			-3.304
64405.000			-19.825			-3.304
64504.000			-19.826			-3.304
64605.000			-19.824			-3.304
64703.000			-19.823			-3.304
64804.000			-19.823			-3.304
64905.000			-19.823			-3.304
65004.000			-19.823			-3.304
65104.000			-19.821			-3.304
65205.000			-19.821			-3.303
65304.000			-19.821			-3.303
65403.000			-19.817			-3.303
65505.000			-19.817			-3.303
65604.000			-19.817			-3.303
65704.000			-19.818			-3.303
65805.000			-19.817			-3.303
65904.000			-19.816			-3.303
66004.000			-19.815			-3.303
66104.000			-19.814			-3.302
66204.000			-19.813			-3.302
66304.000			-19.813			-3.302
66405.000			-19.813			-3.302
66504.000			-19.812			-3.302
66604.000			-19.811			-3.302
66705.000			-19.810			-3.302
66803.000			-19.810			-3.302
66904.000			-19.808			-3.301
67005.000			-19.807			-3.301
67104.000			-19.807			-3.301
67204.000			-19.807			-3.301
67305.000			-19.806			-3.301
67404.000			-19.804			-3.301
67503.000			-19.803			-3.301
67605.000			-19.803			-3.300
67704.000			-19.804			-3.301
67805.000			-19.804			-3.301
67904.000			-19.802			-3.300
68004.000			-19.801			-3.300
68105.000			-19.801			-3.300
68203.000			-19.801			-3.300
68304.000			-19.800			-3.300
68404.000			-19.798			-3.300
68504.000			-19.797			-3.299
68604.000			-19.797			-3.300
68705.000			-19.797			-3.300
68804.000			-19.796			-3.299
68904.000			-19.796			-3.299
69005.000			-19.795			-3.299
69103.000			-19.794			-3.299
69204.000			-19.793			-3.299
69305.000			-19.792			-3.299
69404.000			-19.790			-3.298
69504.000			-19.789			-3.298
69605.000			-19.790			-3.298
69704.000			-19.789			-3.298
69803.000			-19.789			-3.298
69905.000			-19.788			-3.298
70004.000			-19.787			-3.298
70104.000			-19.787			-3.298
70205.000			-19.787			-3.298
70304.000			-19.785			-3.298
70404.000			-19.785			-3.297
70504.000			-19.785			-3.297
70604.000			-19.785			-3.297
70703.000			-19.783			-3.297
70805.000			-19.782			-3.297
70904.000			-19.781			-3.297
71005.000			-19.781			-3.297
71104.000			-19.781			-3.297
71204.000			-19.780			-3.297
71305.000			-19.780			-3.297
71403.000			-19.779			-3.296
71504.000			-19.778			-3.296
71605.000			-19.777			-3.296
71704.000			-19.777			-3.296
71804.000			-19.778			-3.296
71905.000			-19.776			-3.296
72004.000			-19.776			-3.296
72103.000			-19.776			-3.296
72205.000			-19.775			-3.296
72304.000			-19.775			-3.296
72404.000			-19.774			-3.296
72505.000			-19.772			-3.295
72604.000			-19.773			-3.295
72704.000			-19.772			-3.295
72804.000			-19.772			-3.295
72904.000			-19.770			-3.295
73004.000			-19.770			-3.295
73105.000			-19.770			-3.295
73204.000			-19.770			-3.295
73304.000			-19.769			-3.295
73405.000			-19.767			-3.295
73503.000			-19.767			-3.294
73604.000			-19.767			-3.294
73705.000			-19.766			-3.294
73804.000			-19.765			-3.294
73904.000			-19.765			-3.294
74005.000			-19.765			-3.294
74104.000			-19.764			-3.294
74205.000			-19.763			-3.294
74304.000			-19.763			-3.294
74403.000			-19.761			-3.294
74505.000			-19.761			-3.294
74604.000			-19.761			-3.294
74704.000			-19.760			-3.293
74805.000			-19.760			-3.293
74904.000			-19.758			-3.293
75004.000			-19.758			-3.293
75104.000			-19.757			-3.293
75204.000			-19.756			-3.293
75304.000			-19.757			-3.293
75405.000			-19.757			-3.293
75504.000			-19.756			-3.293
75604.000			-19.755			-3.293
75705.000			-19.755			-3.292
75803.000			-19.752			-3.292
75904.000			-19.753			-3.292
76005.000			-19.753			-3.292
76104.000			-19.753			-3.292
76204.000			-19.752			-3.292
76305.000			-19.751			-3.292
76404.000			-19.751			-3.292
76503.000			-19.750			-3.292
76605.000			-19.749			-3.292
76704.000			-19.748			-3.291
76804.000			-19.748			-3.291
76905.000			-19.748			-3.291
77004.000			-19.746			-3.291
77104.000			-19.747			-3.291
77205.000			-19.746			-3.291
77304.000			-19.745			-3.291
77403.000			-19.745			-3.291
77504.000			-19.744			-3.291
77604.000			-19.743			-3.291
77705.000			-19.743			-3.290
77804.000			-19.742			-3.290
77904.000			-19.742			-3.290
78005.000			-19.741			-3.290
78103.000			-19.740			-3.290
78204.000			-19.740			-3.290
78305.000			-19.740			-3.290
78404.000			-19.738			-3.290
78504.000			-19.738			-3.290
78605.000			-19.737			-3.290
78704.000			-19.738			-3.290
78803.000			-19.736			-3.289
78905.000			-19.736			-3.289
79004.000			-19.737			-3.289
79104.000			-19.737			-3.289
79205.000			-19.734			-3.289
79304.000			-19.735			-3.289
79404.000			-19.734			-3.289
79504.000			-19.734			-3.289
79604.000			-19.734			-3.289
79703.000			-19.732			-3.289
79805.000			-19.731			-3.289
79904.000			-19.731			-3.288
80004.000			-19.730			-3.288
80105.000			-19.729			-3.288
80204.000			-19.728			-3.288
80304.000			-19.728			-3.288
80404.000			-19.728			-3.288
80504.000			-19.728			-3.288
80605.000			-19.727			-3.288
80704.000			-19.725			-3.288
80804.000			-19.724			-3.287
80905.000			-19.725			-3.288
81004.000			-19.724			-3.287
81103.000			-19.724			-3.287
81205.000			-19.724			-3.287
81304.000			-19.723			-3.287
81404.000			-19.724			-3.287
81505.000			-19.722			-3.287
81603.000			-19.721			-3.287
81704.000			-19.721			-3.287
81805.000			-19.719			-3.287
81904.000			-19.720			-3.287
82004.000			-19.720			-3.287
82105.000			-19.719			-3.286
82204.000			-19.718			-3.286
82303.000			-19.717			-3.286
82405.000			-19.716			-3.286
82504.000			-19.717			-3.286
82604.000			-19.717			-3.286
82705.000			-19.716			-3.286
82804.000			-19.714			-3.286
82904.000			-19.714			-3.286
83005.000			-19.714			-3.286
83104.000			-19.714			-3.286
83203.000			-19.713			-3.286
83305.000			-19.713			-3.285
83404.000			-19.712			-3.285
83504.000			-19.711			-3.285
83605.000			-19.711			-3.285
83704.000			-19.710			-3.285
83805.000			-19.709			-3.285
83903.000			-19.709			-3.285
84004.000			-19.710			-3.285
84105.000			-19.709			-3.285
84204.000			-19.708			-3.285
84304.000			-19.707			-3.284
84405.000			-19.707			-3.284
84504.000			-19.706			-3.284
84603.000			-19.705			-3.284
84705.000			-19.705			-3.284
84804.000			-19.703			-3.284
84904.000			-19.703			-3.284
85005.000			-19.703			-3.284
85104.000			-19.703			-3.284
85204.000			-19.703			-3.284
85304.000			-19.702			-3.284
85404.000			-19.701			-3.283
85504.000			-19.701			-3.283
85605.000			-19.700			-3.283
85704.000			-19.699			-3.283
85804.000			-19.698			-3.283
85905.000			-19.697			-3.283
86003.000			-19.696			-3.283
86104.000			-19.695			-3.283
86205.000			-19.696			-3.283
86304.000			-19.696			-3.283
86404.000			-19.695			-3.283
86505.000			-19.694			-3.282
86604.000			-19.694			-3.282
86703.000			-19.694			-3.282
86805.000			-19.693			-3.282
86903.000			-19.693			-3.282
87005.000			-19.692			-3.282
87104.000			-19.692			-3.282
87204.000			-19.691			-3.282
87305.000			-19.690			-3.282
87404.000			-19.691			-3.282
87504.000			-19.690			-3.282
87604.000			-19.690			-3.282
87704.000			-19.689			-3.282
87804.000			-19.689			-3.282
87905.000			-19.688			-3.281
88004.000			-19.687			-3.281
88104.000			-19.686			-3.281
88205.000			-19.686			-3.281
88303.000			-19.686			-3.281
88404.000			-19.686			-3.281
88505.000			-19.685			-3.281
88604.000			-19.684			-3.281
88704.000			-19.685			-3.281
88805.000			-19.684			-3.281
88904.000			-19.683			-3.280
89004.000			-19.682			-3.280
89105.000			-19.681			-3.280
89203.000			-19.681			-3.280
89304.000			-19.680			-3.280
89405.000			-19.679			-3.280
89504.000			-19.679			-3.280
89604.000			-19.679			-3.280
89705.000			-19.679			-3.280
89804.000			-19.679			-3.280
89903.000			-19.678			-3.280
90005.000			-19.677			-3.280
90104.000			-19.676			-3.279
90205.000			-19.676			-3.279
90304.000			-19.675			-3.279
90404.000			-19.673			-3.279
90505.000			-19.674			-3.279
90603.000			-19.674			-3.279
90704.000			-19.674			-3.279
90805.000			-19.673			-3.279
90904.000			-19.672			-3.279
91004.000			-19.671			-3.279
91105.000			-19.671			-3.279
91204.000			-19.670			-3.278
91303.000			-19.671			-3.278
91405.000			-19.671			-3.278
91504.000			-19.670			-3.278
91604.000			-19.669			-3.278
91705.000			-19.669			-3.278
91804.000			-19.668			-3.278
91904.000			-19.668			-3.278
92005.000			-19.668			-3.278
92104.000			-19.668			-3.278
92203.000			-19.667			-3.278
92305.000			-19.666			-3.278
92404.000			-19.665			-3.278
92504.000			-19.664			-3.277
92605.000			-19.665			-3.277
92704.000			-19.664			-3.277
92804.000			-19.663			-3.277
92904.000			-19.663			-3.277
93004.000			-19.663			-3.277
93104.000			-19.663			-3.277
93205.000			-19.662			-3.277
93304.000			-19.662			-3.277
93405.000			-19.661			-3.277
93504.000			-19.661			-3.277
93603.000			-19.660			-3.277
93705.000			-19.660			-3.277
93804.000			-19.659			-3.276
93904.000			-19.658			-3.276
94005.000			-19.659			-3.276
94104.000			-19.659			-3.276
94204.000			-19.658			-3.276
94304.000			-19.657			-3.276
94404.000			-19.656			-3.276
94503.000			-19.655			-3.276
94605.000			-19.656			-3.276
94704.000			-19.655			-3.276
94804.000			-19.654			-3.276
94905.000			-19.653			-3.276
95004.000			-19.653			-3.276
95104.000			-19.652			-3.275
95204.000			-19.652			-3.275
95304.000			-19.652			-3.275
95404.000			-19.651			-3.275
95505.000			-19.651			-3.275
95604.000			-19.653			-3.275
95704.000			-19.652			-3.275
95805.000			-19.651			-3.275
95903.000			-19.647			-3.275
96004.000			-19.647			-3.275
96105.000			-19.647			-3.275
96204.000			-19.647			-3.275
96304.000			-19.647			-3.275
96405.000			-19.647			-3.274
96504.000			-19.646			-3.274
96603.000			-19.646			-3.274
96704.000			-19.646			-3.274
96804.000			-19.645			-3.274
96905.000			-19.644			-3.274
97004.000			-19.644			-3.274
97104.000			-19.644			-3.274
97205.000			-19.644			-3.274
97303.000			-19.643			-3.274
97404.000			-19.643			-3.274
97505.000			-19.643			-3.274
97604.000			-19.643			-3.274
97704.000			-19.641			-3.274
97805.000			-19.640			-3.273
97904.000			-19.640			-3.273
98003.000			-19.640			-3.273
98105.000			-19.639			-3.273
98203.000			-19.639			-3.273
98304.000			-19.639			-3.273
98405.000			-19.638			-3.273
98504.000			-19.638			-3.273
98604.000			-19.637			-3.273
98705.000			-19.637			-3.273
98804.000			-19.636			-3.273
98903.000			-19.635			-3.272
99005.000			-19.634			-3.272
99104.000			-19.633			-3.272
99204.000			-19.634			-3.272
99305.000			-19.634			-3.272
99404.000			-19.633			-3.272
99504.000			-19.632			-3.272
99604.000			-19.631			-3.272
99704.000			-19.632			-3.272
99805.000			-19.632			-3.272
99904.000			-19.632			-3.272
100004.000			-19.631			-3.272
100105.000			-19.630			-3.272
100204.000			-19.630			-3.272
100303.000			-19.629			-3.271
100405.000			-19.629			-3.272
100504.000			-19.628			-3.271
100604.000			-19.628			-3.271
100705.000			-19.628			-3.271
100804.000			-19.626			-3.271
100904.000			-19.627			-3.271
101004.000			-19.626			-3.271
101104.000			-19.624			-3.271
101203.000			-19.624			-3.271
101305.000			-19.625			-3.271
101404.000			-19.624			-3.271
101504.000			-19.623			-3.271
101605.000			-19.623			-3.271
101704.000			-19.622			-3.270
101804.000			-19.620			-3.270
101904.000			-19.619			-3.270
102004.000			-19.621			-3.270
102104.000			-19.620			-3.270
102205.000			-19.619			-3.270
102304.000			-19.618			-3.270
102404.000			-19.619			-3.270
102505.000			-19.619			-3.270
102603.000			-19.618			-3.270
102704.000			-19.618			-3.270
102805.000			-19.617			-3.270
102904.000			-19.617			-3.269
103005.000			-19.617			-3.270
103104.000			-19.615			-3.269
103204.000			-19.615			-3.269
103304.000			-19.615			-3.269
103404.000			-19.614			-3.269
103504.000			-19.614			-3.269
103605.000			-19.614			-3.269
103704.000			-19.613			-3.269
103804.000			-19.613			-3.269
103905.000			-19.611			-3.269
104003.000			-19.611			-3.268
104104.000			-19.611			-3.269
104205.000			-19.611			-3.268
104304.000			-19.611			-3.268
104404.000			-19.610			-3.268
104505.000			-19.609			-3.268
104604.000			-19.609			-3.268
104703.000			-19.608			-3.268
104805.000			-19.608			-3.268
104904.000			-19.608			-3.268
105004.000			-19.607			-3.268
105105.000			-19.606			-3.268
105204.000			-19.606			-3.268
105304.000			-19.606			-3.268
105404.000			-19.606			-3.268
105504.000			-19.605			-3.268
105604.000			-19.605			-3.267
105705.000			-19.604			-3.267
105804.000			-19.604			-3.267
105904.000			-19.605			-3.267
106005.000			-19.603			-3.267
106104.000			-19.602			-3.267
106205.000			-19.603			-3.267
106303.000			-19.601			-3.267
106404.000			-19.602			-3.267
106505.000			-19.603			-3.267
106604.000			-19.602			-3.267
106704.000			-19.599			-3.267
106805.000			-19.600			-3.267
106904.000			-19.599			-3.266
107003.000			-19.599			-3.266
107105.000			-19.599			-3.267
107204.000			-19.598			-3.266
107304.000			-19.599			-3.266
107405.000			-19.599			-3.266
107504.000			-19.596			-3.266
107604.000			-19.597			-3.266
107704.000			-19.597			-3.266
107804.000			-19.597			-3.266
107903.000			-19.597			-3.266
108005.000			-19.596			-3.266
108104.000			-19.596			-3.266
108204.000			-19.593			-3.266
108305.000			-19.593			-3.266
108404.000			-19.593			-3.266
108504.000			-19.593			-3.265
108604.000			-19.593			-3.266
108704.000			-19.593			-3.265
108804.000			-19.592			-3.265
108905.000			-19.591			-3.265
109004.000			-19.591			-3.265
109104.000			-19.591			-3.265
109205.000			-19.590			-3.265
109303.000			-19.589			-3.265
109405.000			-19.589			-3.265
109503.000			-19.590			-3.265
109604.000			-19.588			-3.265
109705.000			-19.587			-3.264
109804.000			-19.587			-3.264
109904.000			-19.587			-3.265
110005.000			-19.586			-3.264
110104.000			-19.585			-3.264
110203.000			-19.585			-3.264
110305.000			-19.584			-3.264
110404.000			-19.583			-3.264
110504.000			-19.582			-3.264
110605.000			-19.582			-3.264
110704.000			-19.582			-3.264
110804.000			-19.581			-3.264
110904.000			-19.581			-3.263
111004.000			-19.580			-3.263
111104.000			-19.580			-3.263
111205.000			-19.578			-3.263
111304.000			-19.578			-3.263
111404.000			-19.578			-3.263
111505.000			-19.578			-3.263
111603.000			-19.577			-3.263
111704.000			-19.577			-3.263
111804.000			-19.576			-3.263
111904.000			-19.575			-3.262
112004.000			-19.575			-3.262
112105.000			-19.574			-3.262
112204.000			-19.573			-3.262
112304.000			-19.573			-3.262
112405.000			-19.572			-3.262
112503.000			-19.573			-3.262
112605.000			-19.573			-3.262
112704.000			-19.573			-3.262
112804.000			-19.572			-3.262
112905.000			-19.571			-3.262
113004.000			-19.571			-3.262
113104.000			-19.571			-3.262
113204.000			-19.571			-3.262
113304.000			-19.570			-3.262
113404.000			-19.570			-3.262
113505.000			-19.569			-3.262
113604.000			-19.570			-3.262
113704.000			-19.570			-3.262
113805.000			-19.570			-3.262
113903.000			-19.569			-3.262
114004.000			-19.569			-3.261
114105.000			-19.569			-3.261
114204.000			-19.568			-3.261
114304.000			-19.567			-3.261
114405.000			-19.568			-3.261
114504.000			-19.567			-3.261
114603.000			-19.565			-3.261
114705.000			-19.566			-3.261
114803.000			-19.565			-3.261
114904.000			-19.564			-3.261
115005.000			-19.565			-3.261
115104.000			-19.564			-3.261
115204.000			-19.565			-3.261
115305.000			-19.564			-3.261
115404.000			-19.564			-3.261
115503.000			-19.564			-3.261
115605.000			-19.564			-3.261
115704.000			-19.562			-3.260
115805.000			-19.561			-3.260
115904.000			-19.562			-3.260
116004.000			-19.562			-3.260
116105.000			-19.561			-3.260
116203.000			-19.560			-3.260
116304.000			-19.559			-3.260
116405.000			-19.560			-3.260
116504.000			-19.560			-3.260
116604.000			-19.560			-3.260
116705.000			-19.560			-3.260
116804.000			-19.559			-3.260
116903.000			-19.558			-3.260
117005.000			-19.557			-3.260
117103.000			-19.558			-3.260
117204.000			-19.557			-3.259
117305.000			-19.555			-3.259
117404.000			-19.555			-3.259
117504.000			-19.555			-3.259
117605.000			-19.555			-3.259
117704.000			-19.552			-3.259
117803.000			-19.553			-3.259
117905.000			-19.553			-3.259
118004.000			-19.552			-3.259
118104.000			-19.551			-3.259
118205.000			-19.551			-3.259
118304.000			-19.551			-3.259
118404.000			-19.550			-3.258
118504.000			-19.550			-3.258
118604.000			-19.550			-3.258
118704.000			-19.549			-3.258
118805.000			-19.548			-3.258
118904.000			-19.547			-3.258
119005.000			-19.547			-3.258
119104.000			-19.547			-3.258
119204.000			-19.547			-3.258
119305.000			-19.546			-3.258
119403.000			-19.546			-3.258
119504.000			-19.546			-3.258
119605.000			-19.545			-3.257
119704.000			-19.545			-3.258
119804.000			-19.544			-3.257
119905.000			-19.545			-3.257
120004.000			-19.544			-3.257
120103.000			-19.543			-3.257
120205.000			-19.542			-3.257
120304.000			-19.543			-3.257
120404.000			-19.542			-3.257
120505.000			-19.542			-3.257
120604.000			-19.542			-3.257
120704.000			-19.541			-3.257
120804.000			-19.540			-3.257
120904.000			-19.540			-3.257
121004.000			-19.541			-3.257
121105.000			-19.541			-3.257
121204.000			-19.540			-3.257
121304.000			-19.539			-3.256
121405.000			-19.539			-3.257
121503.000			-19.540			-3.257
121604.000			-19.540			-3.257
121705.000			-19.540			-3.257
121804.000			-19.541			-3.257
121904.000			-19.539			-3.256
122005.000			-19.539			-3.257
122104.000			-19.539			-3.256
122205.000			-19.538			-3.256
122304.000			-19.537			-3.256
122403.000			-19.536			-3.256
122505.000			-19.536			-3.256
122604.000			-19.537			-3.256
122704.000			-19.536			-3.256
122805.000			-19.535			-3.256
122904.000			-19.535			-3.256
123004.000			-19.535			-3.256
123104.000			-19.535			-3.256
123204.000			-19.534			-3.256
123304.000			-19.535			-3.256
123405.000			-19.535			-3.256
123504.000			-19.535			-3.256
123604.000			-19.534			-3.256
123705.000			-19.533			-3.256
123803.000			-19.533			-3.255
123904.000			-19.533			-3.255
124005.000			-19.533			-3.255
124104.000			-19.533			-3.255
124204.000			-19.531			-3.255
124305.000			-19.531			-3.255
124404.000			-19.531			-3.255
124503.000			-19.531			-3.255
124605.000			-19.530			-3.255
124704.000			-19.530			-3.255
124804.000			-19.530			-3.255
124905.000			-19.529			-3.255
125004.000			-19.527			-3.255
125104.000			-19.527			-3.255
125205.000			-19.528			-3.255
125304.000			-19.528			-3.255
125403.000			-19.527			-3.254
125504.000			-19.527			-3.254
125604.000			-19.527			-3.254
125705.000			-19.527			-3.254
125804.000			-19.526			-3.254
125904.000			-19.526			-3.254
126005.000			-19.525			-3.254
126103.000			-19.525			-3.254
126204.000			-19.525			-3.254
126305.000			-19.524			-3.254
126404.000			-19.524			-3.254
126504.000			-19.524			-3.254
126605.000			-19.524			-3.254
126704.000			-19.523			-3.254
126803.000			-19.522			-3.254
126905.000			-19.522			-3.254
127004.000			-19.521			-3.254
127104.000			-19.520			-3.253
127205.000			-19.520			-3.253
127304.000			-19.521			-3.253
127404.000			-19.521			-3.253
127504.000			-19.520			-3.253
127604.000			-19.520			-3.253
127703.000			-19.519			-3.253
127805.000			-19.519			-3.253
127904.000			-19.518			-3.253
128004.000			-19.518			-3.253
128105.000			-19.518			-3.253
128204.000			-19.518			-3.253
128304.000			-19.517			-3.253
128404.000			-19.517			-3.253
128504.000			-19.517			-3.253
128605.000			-19.515			-3.253
128704.000			-19.514			-3.252
128804.000			-19.515			-3.252
128905.000			-19.514			-3.252
129004.000			-19.515			-3.252
129104.000			-19.514			-3.252
129205.000			-19.514			-3.252
129303.000			-19.514			-3.252
129404.000			-19.513			-3.252
129505.000			-19.512			-3.252
129604.000			-19.511			-3.252
129704.000			-19.511			-3.252
129805.000			-19.512			-3.252
129904.000			-19.512			-3.252
130003.000			-19.511			-3.252
130105.000			-19.510			-3.252
130204.000			-19.509			-3.251
130304.000			-19.510			-3.252
130405.000			-19.510			-3.252
130504.000			-19.509			-3.252
130604.000			-19.509			-3.251
130704.000			-19.507			-3.251
130804.000			-19.507			-3.251
130904.000			-19.507			-3.251
131005.000			-19.507			-3.251
131104.000			-19.508			-3.251
131204.000			-19.507			-3.251
131305.000			-19.506			-3.251
131404.000			-19.506			-3.251
131504.000			-19.504			-3.251
131604.000			-19.505			-3.251
131704.000			-19.505			-3.251
131805.000			-19.504			-3.251
131904.000			-19.505			-3.251
132004.000			-19.504			-3.251
132105.000			-19.503			-3.250
132204.000			-19.501			-3.250
132303.000			-19.502			-3.250
132405.000			-19.501			-3.250
132504.000			-19.501			-3.250
132604.000			-19.501			-3.250
132705.000			-19.500			-3.250
132804.000			-19.500			-3.250
132904.000			-19.499			-3.250
133005.000			-19.499			-3.250
133104.000			-19.500			-3.250
133203.000			-19.498			-3.250
133305.000			-19.498			-3.250
133404.000			-19.498			-3.250
133504.000			-19.498			-3.250
133605.000			-19.497			-3.250
133704.000			-19.498			-3.250
133804.000			-19.498			-3.250
133905.000			-19.497			-3.250
134004.000			-19.497			-3.249
134103.000			-19.497			-3.249
134205.000			-19.495			-3.249
134303.000			-19.495			-3.249
134404.000			-19.495			-3.249
134505.000			-19.495			-3.249
134604.000			-19.494			-3.249
134704.000			-19.494			-3.249
134805.000			-19.494			-3.249
134904.000			-19.494			-3.249
135003.000			-19.492			-3.249
135104.000			-19.493			-3.249
135203.000			-19.493			-3.249
135305.000			-19.493			-3.249
135404.000			-19.492			-3.249
135504.000			-19.493			-3.249
135605.000			-19.492			-3.249
135704.000			-19.492			-3.249
135804.000			-19.491			-3.249
135904.000			-19.490			-3.248
136004.000			-19.489			-3.248
136103.000			-19.490			-3.248
136205.000			-19.490			-3.248
136304.000			-19.489			-3.248
136404.000			-19.488			-3.248
136505.000			-19.488			-3.248
136604.000			-19.488			-3.248
136704.000			-19.487			-3.248
136805.000			-19.487			-3.248
136904.000			-19.486			-3.248
137003.000			-19.485			-3.248
137105.000			-19.486			-3.248
137204.000			-19.487			-3.248
137304.000			-19.485			-3.248
137405.000			-19.485			-3.247
137504.000			-19.484			-3.247
137604.000			-19.484			-3.247
137705.000			-19.484			-3.247
137804.000			-19.483			-3.247
137903.000			-19.483			-3.247
138005.000			-19.483			-3.247
138103.000			-19.482			-3.247
138205.000			-19.481			-3.247
138304.000			-19.481			-3.247
138404.000			-19.482			-3.247
138505.000			-19.481			-3.247
138604.000			-19.481			-3.247
138704.000			-19.480			-3.247
138804.000			-19.480			-3.247
138904.000			-19.480			-3.247
139003.000			-19.479			-3.247
139105.000			-19.480			-3.247
139204.000			-19.479			-3.246
139304.000			-19.478			-3.246
139405.000			-19.477			-3.246
139504.000			-19.477			-3.246
139604.000			-19.477			-3.246
139705.000			-19.477			-3.246
139804.000			-19.477			-3.246
139903.000			-19.477			-3.246
140005.000			-19.476			-3.246
140104.000			-19.475			-3.246
140204.000			-19.475			-3.246
140305.000			-19.475			-3.246
140404.000			-19.475			-3.246
140504.000			-19.474			-3.246
140605.000			-19.474			-3.246
140704.000			-19.474			-3.246
140803.000			-19.473			-3.246
140905.000			-19.472			-3.245
141004.000			-19.472			-3.245
141104.000			-19.473			-3.245
141205.000			-19.472			-3.245
141304.000			-19.470			-3.245
141405.000			-19.471			-3.245
141504.000			-19.470			-3.245
141604.000			-19.470			-3.245
141704.000			-19.470			-3.245
141804.000			-19.470			-3.245
141904.000			-19.469			-3.245
142005.000			-19.469			-3.245
142104.000			-19.468			-3.245
142204.000			-19.467			-3.244
142305.000			-19.467			-3.245
142404.000			-19.466			-3.244
142504.000			-19.466			-3.244
142604.000			-19.466			-3.244
142704.000			-19.465			-3.244
142804.000			-19.465			-3.244
142905.000			-19.465			-3.244
143004.000			-19.466			-3.244
143104.000			-19.465			-3.244
143205.000			-19.463			-3.244
143304.000			-19.463			-3.244
143404.000			-19.463			-3.244
143504.000			-19.462			-3.244
143604.000			-19.462			-3.244
143704.000			-19.461			-3.244
143805.000			-19.461			-3.244
143904.000			-19.461			-3.243
144004.000			-19.461			-3.244
144105.000			-19.459			-3.243
144204.000			-19.458			-3.243
144304.000			-19.458			-3.243
144404.000			-19.458			-3.243
144504.000			-19.458			-3.243
144605.000			-19.458			-3.243
144704.000			-19.457			-3.243
144804.000			-19.456			-3.243
144905.000			-19.456			-3.243
145004.000			-19.456			-3.243
145104.000			-19.456			-3.243
145205.000			-19.455			-3.242
145303.000			-19.454			-3.242
145404.000			-19.454			-3.242
145505.000			-19.454			-3.242
145604.000			-19.453			-3.242
145704.000			-19.453			-3.242
145805.000			-19.453			-3.242
145904.000			-19.452			-3.242
146004.000			-19.453			-3.242
146105.000			-19.452			-3.242
146203.000			-19.451			-3.242
146304.000			-19.451			-3.242
146405.000			-19.451			-3.242
146504.000			-19.450			-3.242
146604.000			-19.449			-3.242
146705.000			-19.449			-3.242
146804.000			-19.449			-3.241
146904.000			-19.449			-3.241
147005.000			-19.448			-3.241
147104.000			-19.447			-3.241
147204.000			-19.448			-3.241
147304.000			-19.447			-3.241
147404.000			-19.447			-3.241
147504.000			-19.446			-3.241
147605.000			-19.445			-3.241
147704.000			-19.445			-3.241
147805.000			-19.444			-3.241
147904.000			-19.445			-3.241
148004.000			-19.445			-3.241
148105.000			-19.444			-3.241
148203.000			-19.444			-3.241
148304.000			-19.443			-3.241
148405.000			-19.442			-3.240
148504.000			-19.443			-3.240
148604.000			-19.443			-3.240
148705.000			-19.443			-3.241
148804.000			-19.443			-3.240
148904.000			-19.442			-3.240
149005.000			-19.442			-3.240
149103.000			-19.442			-3.240
149204.000			-19.442			-3.240
149305.000			-19.441			-3.240
149404.000			-19.440			-3.240
149504.000			-19.439			-3.240
149605.000			-19.439			-3.240
149704.000			-19.439			-3.240
149804.000			-19.439			-3.240
149905.000			-19.439			-3.240
150003.000			-19.438			-3.240
150104.000			-19.439			-3.240
150205.000			-19.438			-3.240
150304.000			-19.436			-3.239
150404.000			-19.436			-3.239
150505.000			-19.436			-3.239
150604.000			-19.435			-3.239
150704.000			-19.436			-3.239
150805.000			-19.436			-3.239
150903.000			-19.436			-3.239
151005.000			-19.435			-3.239
151104.000			-19.435			-3.239
151204.000			-19.435			-3.239
151305.000			-19.434			-3.239
151404.000			-19.434			-3.239
151504.000			-19.433			-3.239
151605.000			-19.432			-3.239
151704.000			-19.433			-3.239
151803.000			-19.432			-3.239
151905.000			-19.433			-3.239
152004.000			-19.432			-3.239
152104.000			-19.431			-3.239
152205.000			-19.432			-3.239
152304.000			-19.432			-3.239
152404.000			-19.431			-3.239
152505.000			-19.430			-3.238
152604.000			-19.430			-3.238
152703.000			-19.430			-3.238
152805.000			-19.430			-3.238
152904.000			-19.429			-3.238
153004.000			-19.430			-3.238
153105.000			-19.428			-3.238
153204.000			-19.429			-3.238
153304.000			-19.429			-3.238
153405.000			-19.429			-3.238
153504.000			-19.428			-3.238
153603.000			-19.428			-3.238
153705.000			-19.429			-3.238
153804.000			-19.428			-3.238
153904.000			-19.428			-3.238
154005.000			-19.427			-3.238
154104.000			-19.427			-3.238
154205.000			-19.428			-3.238
154304.000			-19.427			-3.238
154404.000			-19.427			-3.238
154504.000			-19.427			-3.238
154604.000			-19.426			-3.238
154704.000			-19.426			-3.238
154805.000			-19.427			-3.238
154904.000			-19.426			-3.238
155004.000			-19.425			-3.238
155105.000			-19.424			-3.237
155204.000			-19.425			-3.237
155304.000			-19.426			-3.238
155404.000			-19.423			-3.237
155504.000			-19.424			-3.237
155604.000			-19.423			-3.237
155705.000			-19.423			-3.237
155804.000			-19.422			-3.237
155904.000			-19.422			-3.237
156005.000			-19.423			-3.237
156104.000			-19.422			-3.237
156204.000			-19.421			-3.237
156304.000			-19.420			-3.237
156404.000			-19.421			-3.237
156504.000			-19.420			-3.237
156605.000			-19.420			-3.237
156704.000			-19.420			-3.237
156804.000			-19.419			-3.237
156905.000			-19.420			-3.237
157004.000			-19.419			-3.237
157104.000			-19.418			-3.236
157204.000			-19.418			-3.236
157304.000			-19.418			-3.236
157405.000			-19.419			-3.236
157504.000			-19.417			-3.236
157604.000			-19.417			-3.236
157705.000			-19.417			-3.236
157804.000			-19.416			-3.236
157904.000			-19.417			-3.236
158005.000			-19.417			-3.236
158103.000			-19.414			-3.236
158204.000			-19.414			-3.236
158304.000			-19.415			-3.236
158404.000			-19.415			-3.236
158504.000			-19.415			-3.236
158605.000			-19.415			-3.236
158704.000			-19.415			-3.236
158804.000			-19.414			-3.236
158905.000			-19.414			-3.236
159003.000			-19.413			-3.236
159104.000			-19.413			-3.236
159204.000			-19.413			-3.235
159304.000			-19.413			-3.236
159404.000			-19.413			-3.235
159505.000			-19.412			-3.235
159604.000			-19.412			-3.235
159704.000			-19.412			-3.235
159805.000			-19.413			-3.235
159903.000			-19.412			-3.235
160004.000			-19.411			-3.235
160105.000			-19.412			-3.235
160204.000			-19.412			-3.235
160304.000			-19.411			-3.235
160405.000			-19.410			-3.235
160504.000			-19.410			-3.235
160605.000			-19.411			-3.235
160704.000			-19.410			-3.235
160803.000			-19.409			-3.235
160905.000			-19.409			-3.235
161004.000			-19.409			-3.235
161104.000			-19.408			-3.235
161205.000			-19.409			-3.235
161304.000			-19.409			-3.235
161404.000			-19.407			-3.235
161505.000			-19.406			-3.234
161604.000			-19.407			-3.234
161703.000			-19.407			-3.235
161805.000			-19.407			-3.235
161904.000			-19.405			-3.234
162004.000			-19.405			-3.234
162105.000			-19.405			-3.234
162204.000			-19.405			-3.234
162304.000			-19.405			-3.234
162405.000			-19.405			-3.234
162504.000			-19.405			-3.234
162603.000			-19.405			-3.234
162705.000			-19.404			-3.234
162804.000			-19.404			-3.234
162904.000			-19.404			-3.234
163005.000			-19.404			-3.234
163104.000			-19.403			-3.234
163204.000			-19.402			-3.234
163304.000			-19.402			-3.234
163404.000			-19.401			-3.233
163503.000			-19.401			-3.234
163605.000			-19.401			-3.234
163704.000			-19.401			-3.233
163805.000			-19.400			-3.233
163904.000			-19.400			-3.233
164004.000			-19.401			-3.233
164105.000			-19.400			-3.233
164203.000			-19.400			-3.233
164304.000			-19.400			-3.233
164404.000			-19.398			-3.233
164504.000			-19.397			-3.233
164604.000			-19.397			-3.233
164705.000			-19.396			-3.233
164804.000			-19.397			-3.233
164904.000			-19.397			-3.233
165005.000			-19.396			-3.233
165104.000			-19.396			-3.233
165204.000			-19.396			-3.233
165304.000			-19.395			-3.233
165404.000			-19.395			-3.232
165504.000			-19.395			-3.232
165605.000			-19.394			-3.232
165704.000			-19.393			-3.232
165804.000			-19.393			-3.232
165905.000			-19.394			-3.232
166004.000			-19.393			-3.232
166104.000			-19.393			-3.232
166204.000			-19.392			-3.232
166304.000			-19.391			-3.232
166404.000			-19.391			-3.232
166505.000			-19.391			-3.232
166604.000			-19.390			-3.232
166704.000			-19.389			-3.232
166805.000			-19.389			-3.232
166904.000			-19.389			-3.231
167005.000			-19.388			-3.231
167103.000			-19.388			-3.231
167204.000			-19.387			-3.231
167304.000			-19.387			-3.231
167404.000			-19.387			-3.231
167504.000			-19.386			-3.231
167605.000			-19.385			-3.231
167704.000			-19.385			-3.231
167804.000			-19.386			-3.231
167905.000			-19.386			-3.231
168004.000			-19.385			-3.231
168104.000			-19.386			-3.231
168204.000			-19.385			-3.231
168304.000			-19.385			-3.231
168404.000			-19.383			-3.231
168505.000			-19.384			-3.231
168604.000			-19.384			-3.231
168704.000			-19.383			-3.230
168805.000			-19.383			-3.230
168904.000			-19.384			-3.231
169004.000			-19.384			-3.231
169104.000			-19.383			-3.230
169204.000			-19.383			-3.230
169303.000			-19.382			-3.230
169405.000			-19.382			-3.230
169504.000			-19.382			-3.230
169604.000			-19.382			-3.230
169705.000			-19.381			-3.230
169804.000			-19.381			-3.230
169904.000			-19.380			-3.230
170004.000			-19.380			-3.230
170104.000			-19.381			-3.230
170203.000			-19.381			-3.230
170304.000			-19.380			-3.230
170404.000			-19.380			-3.230
170505.000			-19.379			-3.230
170604.000			-19.378			-3.230
170704.000			-19.378			-3.230
170805.000			-19.377			-3.229
170904.000			-19.377			-3.230
171004.000			-19.377			-3.229
171104.000			-19.376			-3.229
171204.000			-19.376			-3.229
171304.000			-19.377			-3.229
171405.000			-19.375			-3.229
171504.000			-19.375			-3.229
171604.000			-19.375			-3.229
171705.000			-19.375			-3.229
171804.000			-19.374			-3.229
171904.000			-19.374			-3.229
172004.000			-19.374			-3.229
172104.000			-19.373			-3.229
172204.000			-19.372			-3.229
172305.000			-19.372			-3.229
172404.000			-19.371			-3.229
172504.000			-19.371			-3.229
172605.000			-19.371			-3.229
172704.000			-19.371			-3.228
172804.000			-19.372			-3.229
172904.000			-19.371			-3.229
173004.000			-19.372			-3.229
173104.000			-19.370			-3.228
173205.000			-19.368			-3.228
173304.000			-19.369			-3.228
173405.000			-19.369			-3.228
173504.000			-19.369			-3.228
173604.000			-19.370			-3.228
173705.000			-19.369			-3.228
173803.000			-19.368			-3.228
173904.000			-19.367			-3.228
174004.000			-19.368			-3.228
174104.000			-19.368			-3.228
174204.000			-19.367			-3.228
174305.000			-19.367			-3.228
174404.000			-19.367			-3.228
174504.000			-19.367			-3.228
174605.000			-19.367			-3.228
174703.000			-19.367			-3.228
174804.000			-19.366			-3.228
174904.000			-19.366			-3.228
175004.000			-19.366			-3.228
175104.000			-19.366			-3.228
175205.000			-19.365			-3.228
175304.000			-19.366			-3.228
175404.000			-19.366			-3.228
175505.000			-19.366			-3.228
175604.000			-19.366			-3.228
175704.000			-19.365			-3.227
175804.000			-19.365			-3.228
175904.000			-19.366			-3.228
176004.000			-19.365			-3.228
176105.000			-19.365			-3.227
176204.000			-19.365			-3.228
176304.000			-19.365			-3.227
176405.000			-19.364			-3.227
176504.000			-19.364			-3.227
176605.000			-19.363			-3.227
176703.000			-19.364			-3.227
176804.000			-19.364			-3.227
176904.000			-19.363			-3.227
177004.000			-19.362			-3.227
177104.000			-19.362			-3.227
177205.000			-19.362			-3.227
177304.000			-19.361			-3.227
177404.000			-19.360			-3.227
177505.000			-19.360			-3.227
177603.000			-19.361			-3.227
177704.000			-19.360			-3.227
177804.000			-19.359			-3.227
177904.000			-19.360			-3.227
178004.000			-19.359			-3.226
178105.000			-19.358			-3.226
178204.000			-19.357			-3.226
178304.000			-19.356			-3.226
178405.000			-19.356			-3.226
178504.000			-19.355			-3.226
178604.000			-19.355			-3.226
178704.000			-19.356			-3.226
178804.000			-19.355			-3.226
178904.000			-19.355			-3.226
179005.000			-19.355			-3.226
179104.000			-19.355			-3.226
179204.000			-19.354			-3.226
179305.000			-19.353			-3.225
179404.000			-19.353			-3.226
179504.000			-19.353			-3.226
179604.000			-19.353			-3.226
179704.000			-19.354			-3.226
179803.000			-19.354			-3.226
179904.000			-19.352			-3.225
180004.000			-19.352			-3.225
180105.000			-19.352			-3.225
180204.000			-19.351			-3.225
180304.000			-19.350			-3.225
180405.000			-19.350			-3.225
180503.000			-19.350			-3.225
180604.000			-19.350			-3.225
180704.000			-19.350			-3.225
180804.000			-19.351			-3.225
180904.000			-19.351			-3.225
181005.000			-19.350			-3.225
181104.000			-19.350			-3.225
181204.000			-19.350			-3.225
181305.000			-19.349			-3.225
181403.000			-19.350			-3.225
181504.000			-19.350			-3.225
181604.000			-19.349			-3.225
181704.000			-19.350			-3.225
181804.000			-19.349			-3.225
181905.000			-19.350			-3.225
182004.000			-19.349			-3.225
182104.000			-19.349			-3.225
182205.000			-19.349			-3.225
182303.000			-19.348			-3.225
182404.000			-19.347			-3.225
182504.000			-19.347			-3.224
182604.000			-19.347			-3.225
182704.000			-19.348			-3.225
182805.000			-19.348			-3.225
182904.000			-19.348			-3.225
183005.000			-19.348			-3.225
183104.000			-19.347			-3.225
183203.000			-19.347			-3.225
183305.000			-19.347			-3.225
183403.000			-19.347			-3.225
183504.000			-19.346			-3.224
183605.000			-19.346			-3.224
183704.000			-19.346			-3.224
183804.000			-19.345			-3.224
183905.000			-19.346			-3.224
184004.000			-19.345			-3.224
184103.000			-19.346			-3.224
184205.000			-19.346			-3.224
184303.000			-19.344			-3.224
184404.000			-19.344			-3.224
184505.000			-19.345			-3.224
184604.000			-19.343			-3.224
184704.000			-19.343			-3.224
184805.000			-19.343			-3.224
184904.000			-19.342			-3.224
185004.000			-19.343			-3.224
185105.000			-19.342			-3.224
185203.000			-19.343			-3.224
185304.000			-19.343			-3.224
185405.000			-19.343			-3.224
185504.000			-19.342			-3.224
185604.000			-19.342			-3.224
185705.000			-19.342			-3.224
185804.000			-19.342			-3.224
185904.000			-19.342			-3.224
186005.000			-19.340			-3.223
186103.000			-19.340			-3.223
186205.000			-19.340			-3.223
186304.000			-19.340			-3.223
186404.000			-19.340			-3.223
186505.000			-19.339			-3.223
186604.000			-19.339			-3.223
186704.000			-19.338			-3.223
186805.000			-19.338			-3.223
186904.000			-19.338			-3.223
187003.000			-19.337			-3.223
187105.000			-19.337			-3.223
187204.000			-19.337			-3.223
187304.000			-19.337			-3.223
187405.000			-19.336			-3.223
187504.000			-19.337			-3.223
187604.000			-19.337			-3.223
187705.000			-19.335			-3.223
187804.000			-19.335			-3.223
187903.000			-19.335			-3.222
188005.000			-19.334			-3.222
188103.000			-19.335			-3.223
188204.000			-19.335			-3.222
188305.000			-19.334			-3.222
188404.000			-19.334			-3.222
188504.000			-19.333			-3.222
188605.000			-19.334			-3.222
188704.000			-19.334			-3.222
188803.000			-19.333			-3.222
188905.000			-19.333			-3.222
189003.000			-19.333			-3.222
189104.000			-19.332			-3.222
189205.000			-19.332			-3.222
189304.000			-19.332			-3.222
189405.000			-19.332			-3.222
189504.000			-19.332			-3.222
189604.000			-19.333			-3.222
189705.000			-19.333			-3.222
189804.000			-19.332			-3.222
189903.000			-19.332			-3.222
190005.000			-19.332			-3.222
190104.000			-19.331			-3.222
190204.000			-19.331			-3.222
190305.000			-19.330			-3.222
190404.000			-19.330			-3.222
190504.000			-19.330			-3.222
190605.000			-19.331			-3.222
190704.000			-19.330			-3.222
190803.000			-19.330			-3.222
190905.000			-19.329			-3.222
191003.000			-19.329			-3.222
191104.000			-19.327			-3.221
191205.000			-19.328			-3.221
191304.000			-19.328			-3.221
191404.000			-19.328			-3.221
191505.000			-19.328			-3.221
191604.000			-19.327			-3.221
191703.000			-19.327			-3.221
191805.000			-19.328			-3.221
191903.000			-19.327			-3.221
192004.000			-19.326			-3.221
192105.000			-19.325			-3.221
192204.000			-19.326			-3.221
192304.000			-19.326			-3.221
192405.000			-19.326			-3.221
192504.000			-19.326			-3.221
192603.000			-19.325			-3.221
192704.000			-19.324			-3.221
192803.000			-19.324			-3.221
192905.000			-19.325			-3.221
193004.000			-19.325			-3.221
193104.000			-19.324			-3.221
193205.000			-19.323			-3.220
193304.000			-19.324			-3.221
193404.000			-19.322			-3.220
193504.000			-19.321			-3.220
193604.000			-19.322			-3.220
193703.000			-19.322			-3.220
193805.000			-19.322			-3.220
193904.000			-19.322			-3.220
194004.000			-19.321			-3.220
194105.000			-19.321			-3.220
194204.000			-19.322			-3.220
194304.000			-19.322			-3.220
194404.000			-19.321			-3.220
194504.000			-19.320			-3.220
194604.000			-19.321			-3.220
194705.000			-19.319			-3.220
194804.000			-19.319			-3.220
194904.000			-19.319			-3.220
195005.000			-19.319			-3.220
195104.000			-19.319			-3.220
195204.000			-19.319			-3.220
195304.000			-19.319			-3.220
195404.000			-19.319			-3.220
195503.000			-19.317			-3.220
195605.000			-19.318			-3.220
195704.000			-19.319			-3.220
195805.000			-19.318			-3.220
195904.000			-19.317			-3.219
196004.000			-19.317			-3.220
196105.000			-19.317			-3.219
196204.000			-19.317			-3.219
196304.000			-19.316			-3.219
196404.000			-19.316			-3.219
196504.000			-19.316			-3.219
196604.000			-19.316			-3.219
196705.000			-19.316			-3.219
196804.000			-19.315			-3.219
196904.000			-19.315			-3.219
197005.000			-19.314			-3.219
197104.000			-19.313			-3.219
197204.000			-19.314			-3.219
197304.000			-19.313			-3.219
197404.000			-19.314			-3.219
197504.000			-19.314			-3.219
197605.000			-19.312			-3.219
197704.000			-19.313			-3.219
197804.000			-19.314			-3.219
197905.000			-19.313			-3.219
198004.000			-19.312			-3.219
198104.000			-19.311			-3.219
198204.000			-19.311			-3.219
198304.000			-19.311			-3.219
198403.000			-19.312			-3.219
198505.000			-19.311			-3.219
198604.000			-19.311			-3.219
198704.000			-19.311			-3.218
198805.000			-19.310			-3.218
198904.000			-19.310			-3.218
199005.000			-19.310			-3.218
199104.000			-19.309			-3.218
199204.000			-19.309			-3.218
199304.000			-19.309			-3.218
199404.000			-19.309			-3.218
199504.000			-19.309			-3.218
199605.000			-19.308			-3.218
199704.000			-19.308			-3.218
199804.000			-19.308			-3.218
199905.000			-19.307			-3.218
200004.000			-19.307			-3.218
200104.000			-19.307			-3.218
200204.000			-19.307			-3.218
200304.000			-19.306			-3.218
200404.000			-19.307			-3.218
200505.000			-19.306			-3.218
200604.000			-19.305			-3.217
200704.000			-19.305			-3.217
200805.000			-19.305			-3.218
200904.000			-19.305			-3.217
201004.000			-19.304			-3.217
201104.000			-19.304			-3.217
201204.000			-19.304			-3.217
201304.000			-19.305			-3.217
201405.000			-19.303			-3.217
201504.000			-19.304			-3.217
201604.000			-19.304			-3.217
201705.000			-19.302			-3.217
201804.000			-19.302			-3.217
201904.000			-19.303			-3.217
202004.000			-19.302			-3.217
202104.000			-19.301			-3.217
202205.000			-19.301			-3.217
202304.000			-19.301			-3.217
202404.000			-19.302			-3.217
202505.000			-19.301			-3.217
202604.000			-19.301			-3.217
202703.000			-19.299			-3.216
202805.000			-19.299			-3.216
202904.000			-19.298			-3.216
203004.000			-19.299			-3.216
203105.000			-19.299			-3.216
203204.000			-19.299			-3.216
203304.000			-19.299			-3.216
203405.000			-19.298			-3.216
203504.000			-19.299			-3.216
203603.000			-19.298			-3.216
203705.000			-19.298			-3.216
203804.000			-19.298			-3.216
203904.000			-19.297			-3.216
204005.000			-19.297			-3.216
204104.000			-19.297			-3.216
204204.000			-19.296			-3.216
204305.000			-19.296			-3.216
204404.000			-19.295			-3.216
204503.000			-19.295			-3.216
204605.000			-19.294			-3.216
204703.000			-19.294			-3.216
204804.000			-19.295			-3.216
204905.000			-19.294			-3.216
205004.000			-19.294			-3.216
205104.000			-19.294			-3.216
205205.000			-19.293			-3.216
205304.000			-19.293			-3.216
205403.000			-19.293			-3.216
205504.000			-19.293			-3.216
205603.000			-19.293			-3.216
205705.000			-19.291			-3.215
205804.000			-19.292			-3.215
205904.000			-19.292			-3.215
206005.000			-19.292			-3.215
206104.000			-19.291			-3.215
206204.000			-19.291			-3.215
206304.000			-19.291			-3.215
206404.000			-19.291			-3.215
206504.000			-19.290			-3.215
206605.000			-19.290			-3.215
206704.000			-19.290			-3.215
206804.000			-19.291			-3.215
206905.000			-19.290			-3.215
207004.000			-19.289			-3.215
207104.000			-19.289			-3.215
207204.000			-19.289			-3.215
207304.000			-19.289			-3.215
207403.000			-19.288			-3.215
207505.000			-19.288			-3.215
207604.000			-19.288			-3.215
207704.000			-19.287			-3.215
207805.000			-19.287			-3.214
207904.000			-19.286			-3.214
208004.000			-19.287			-3.215
208104.000			-19.287			-3.214
208204.000			-19.287			-3.214
208303.000			-19.286			-3.214
208405.000			-19.286			-3.214
208504.000			-19.286			-3.214
208605.000			-19.285			-3.214
208704.000			-19.285			-3.214
208804.000			-19.285			-3.214
208905.000			-19.284			-3.214
209004.000			-19.284			-3.214
209104.000			-19.285			-3.214
209204.000			-19.284			-3.214
209304.000			-19.284			-3.214
209404.000			-19.283			-3.214
209505.000			-19.283			-3.214
209604.000			-19.284			-3.214
209704.000			-19.284			-3.214
209805.000			-19.284			-3.214
209904.000			-19.284			-3.214
210004.000			-19.283			-3.214
210104.000			-19.282			-3.214
210204.000			-19.281			-3.214
210304.000			-19.282			-3.214
210405.000			-19.281			-3.214
210504.000			-19.281			-3.213
210604.000			-19.280			-3.213
210705.000			-19.280			-3.213
210803.000			-19.281			-3.213
210904.000			-19.280			-3.213
211004.000			-19.280			-3.213
211104.000			-19.280			-3.213
211204.000			-19.280			-3.213
211305.000			-19.280			-3.213
211404.000			-19.280			-3.213
211504.000			-19.280			-3.213
211605.000			-19.279			-3.213
211703.000			-19.279			-3.213
211805.000			-19.279			-3.213
211903.000			-19.278			-3.213
212004.000			-19.278			-3.213
212105.000			-19.278			-3.213
212204.000			-19.278			-3.213
212304.000			-19.277			-3.213
212405.000			-19.277			-3.213
212504.000			-19.276			-3.213
212603.000			-19.276			-3.213
212705.000			-19.277			-3.213
212804.000			-19.276			-3.213
212904.000			-19.276			-3.213
213005.000			-19.276			-3.213
213104.000			-19.276			-3.213
213204.000			-19.276			-3.213
213305.000			-19.275			-3.213
213404.000			-19.276			-3.213
213503.000			-19.276			-3.213
213605.000			-19.275			-3.212
213704.000			-19.275			-3.212
213804.000			-19.274			-3.212
213905.000			-19.274			-3.212
214004.000			-19.275			-3.212
214104.000			-19.275			-3.212
214205.000			-19.274			-3.212
214304.000			-19.273			-3.212
214403.000			-19.273			-3.212
214505.000			-19.272			-3.212
214604.000			-19.272			-3.212
214704.000			-19.272			-3.212
214805.000			-19.273			-3.212
214904.000			-19.273			-3.212
215005.000			-19.273			-3.212
215104.000			-19.272			-3.212
215204.000			-19.271			-3.212
215304.000			-19.271			-3.212
215404.000			-19.272			-3.212
215504.000			-19.272			-3.212
215605.000			-19.271			-3.212
215704.000			-19.270			-3.212
215804.000			-19.270			-3.212
215905.000			-19.270			-3.212
216004.000			-19.270			-3.212
216104.000			-19.269			-3.212
216204.000			-19.269			-3.212
216304.000			-19.270			-3.212
216404.000			-19.269			-3.212
216505.000			-19.269			-3.212
216604.000			-19.267			-3.211
216704.000			-19.267			-3.211
216805.000			-19.267			-3.211
216904.000			-19.268			-3.211
217004.000			-19.267			-3.211
217104.000			-19.267			-3.211
217204.000			-19.267			-3.211
217304.000			-19.266			-3.211
217405.000			-19.266			-3.211
217504.000			-19.266			-3.211
217604.000			-19.265			-3.211
217705.000			-19.266			-3.211
217804.000			-19.266			-3.211
217904.000			-19.265			-3.211
218004.000			-19.265			-3.211
218104.000			-19.264			-3.211
218205.000			-19.263			-3.211
218304.000			-19.264			-3.211
218404.000			-19.264			-3.211
218505.000			-19.264			-3.211
218604.000			-19.264			-3.211
218703.000			-19.264			-3.211
218805.000			-19.262			-3.210
218903.000			-19.261			-3.210
219004.000			-19.263			-3.210
219105.000			-19.263			-3.211
219204.000			-19.263			-3.210
219304.000			-19.262			-3.210
219405.000			-19.262			-3.210
219504.000			-19.261			-3.210
219603.000			-19.262			-3.210
219705.000			-19.262			-3.210
219803.000			-19.262			-3.210
219904.000			-19.261			-3.210
220005.000			-19.260			-3.210
220104.000			-19.260			-3.210
220204.000			-19.260			-3.210
220305.000			-19.259			-3.210
220404.000			-19.259			-3.210
220503.000			-19.260			-3.210
220605.000			-19.259			-3.210
220704.000			-19.261			-3.210
220804.000			-19.261			-3.210
220905.000			-19.260			-3.210
221004.000			-19.259			-3.210
221104.000			-19.258			-3.210
221205.000			-19.258			-3.210
221304.000			-19.257			-3.210
221403.000			-19.257			-3.210
221504.000			-19.257			-3.209
221603.000			-19.257			-3.209
221705.000			-19.257			-3.210
221804.000			-19.257			-3.210
221904.000			-19.256			-3.209
222005.000			-19.256			-3.209
222104.000			-19.257			-3.209
222204.000			-19.256			-3.209
222304.000			-19.255			-3.209
222404.000			-19.256			-3.209
222504.000			-19.255			-3.209
222605.000			-19.256			-3.209
222704.000			-19.256			-3.209
222804.000			-19.254			-3.209
222905.000			-19.255			-3.209
223004.000			-19.255			-3.209
223104.000			-19.254			-3.209
223204.000			-19.253			-3.209
223304.000			-19.253			-3.209
223404.000			-19.253			-3.209
223505.000			-19.253			-3.209
223604.000			-19.253			-3.209
223704.000			-19.252			-3.209
223805.000			-19.253			-3.209
223904.000			-19.252			-3.209
224004.000			-19.252			-3.209
224104.000			-19.252			-3.209
224204.000			-19.250			-3.208
224304.000			-19.251			-3.208
224405.000			-19.252			-3.209
224504.000			-19.252			-3.209
224605.000			-19.251			-3.209
224704.000			-19.251			-3.208
224803.000			-19.250			-3.208
224905.000			-19.250			-3.208
225003.000			-19.251			-3.209
225104.000			-19.250			-3.208
225205.000			-19.249			-3.208
225304.000			-19.249			-3.208
225404.000			-19.249			-3.208
225505.000			-19.249			-3.208
225604.000			-19.248			-3.208
225703.000			-19.247			-3.208
225805.000			-19.248			-3.208
225904.000			-19.248			-3.208
226004.000			-19.247			-3.208
226105.000			-19.247			-3.208
226204.000			-19.247			-3.208
226304.000			-19.247			-3.208
226405.000			-19.247			-3.208
226504.000			-19.246			-3.208
226603.000			-19.246			-3.208
226705.000			-19.245			-3.208
226804.000			-19.247			-3.208
226904.000			-19.247			-3.208
227005.000			-19.245			-3.208
227104.000			-19.245			-3.207
227204.000			-19.245			-3.208
227305.000			-19.244			-3.207
227404.000			-19.245			-3.207
227503.000			-19.244			-3.207
227605.000			-19.244			-3.207
227704.000			-19.244			-3.207
227805.000			-19.244			-3.207
227904.000			-19.244			-3.207
228004.000			-19.243			-3.207
228105.000			-19.242			-3.207
228204.000			-19.242			-3.207
228304.000			-19.243			-3.207
228404.000			-19.243			-3.207
228504.000			-19.243			-3.207
228604.000			-19.242			-3.207
228705.000			-19.242			-3.207
228804.000			-19.242			-3.207
228904.000			-19.242			-3.207
229005.000			-19.241			-3.207
229104.000			-19.241			-3.207
229204.000			-19.241			-3.207
229304.000			-19.241			-3.207
229404.000			-19.240			-3.207
229504.000			-19.240			-3.207
229605.000			-19.240			-3.207
229704.000			-19.239			-3.207
229804.000			-19.240			-3.207
229905.000			-19.240			-3.207
230004.000			-19.239			-3.207
230104.000			-19.239			-3.207
230204.000			-19.239			-3.207
230304.000			-19.239			-3.206
230404.000			-19.239			-3.206
230505.000			-19.238			-3.206
230604.000			-19.238			-3.206
230704.000			-19.238			-3.206
230805.000			-19.237			-3.206
230904.000			-19.238			-3.206
231005.000			-19.238			-3.206
231103.000			-19.238			-3.206
231204.000			-19.237			-3.206
231305.000			-19.237			-3.206
231404.000			-19.237			-3.206
231504.000			-19.236			-3.206
231605.000			-19.236			-3.206
231704.000			-19.236			-3.206
231803.000			-19.236			-3.206
231905.000			-19.235			-3.206
232003.000			-19.235			-3.206
232104.000			-19.235			-3.206
232205.000			-19.235			-3.206
232304.000			-19.234			-3.206
232404.000			-19.234			-3.206
232505.000			-19.234			-3.206
232604.000			-19.234			-3.206
232703.000			-19.233			-3.206
232805.000			-19.234			-3.206
232904.000			-19.234			-3.206
233004.000			-19.233			-3.205
233105.000			-19.234			-3.206
233204.000			-19.233			-3.206
233304.000			-19.232			-3.205
233405.000			-19.232			-3.205
233504.000			-19.232			-3.205
233603.000			-19.232			-3.205
233705.000			-19.232			-3.205
233804.000			-19.232			-3.205
233904.000			-19.232			-3.205
234005.000			-19.231			-3.205
234104.000			-19.231			-3.205
234205.000			-19.231			-3.205
234304.000			-19.230			-3.205
234404.000			-19.231			-3.205
234504.000			-19.231			-3.205
234604.000			-19.230			-3.205
234704.000			-19.229			-3.205
234805.000			-19.229			-3.205
234904.000			-19.229			-3.205
235004.000			-19.230			-3.205
235105.000			-19.229			-3.205
235204.000			-19.228			-3.205
235304.000			-19.228			-3.205
235404.000			-19.228			-3.205
235504.000			-19.228			-3.205
235604.000			-19.228			-3.205
235705.000			-19.228			-3.205
235804.000			-19.227			-3.204
235904.000			-19.227			-3.204
236005.000			-19.228			-3.205
236104.000			-19.227			-3.205
236204.000			-19.227			-3.205
236304.000			-19.225			-3.204
236404.000			-19.226			-3.204
236504.000			-19.227			-3.204
236605.000			-19.227			-3.204
236704.000			-19.225			-3.204
236804.000			-19.225			-3.204
236905.000			-19.225			-3.204
237004.000			-19.224			-3.204
237104.000			-19.224			-3.204
237204.000			-19.224			-3.204
237304.000			-19.224			-3.204
237405.000			-19.224			-3.204
237504.000			-19.224			-3.204
237604.000			-19.223			-3.204
237705.000			-19.224			-3.204
237804.000			-19.223			-3.204
237904.000			-19.223			-3.204
238005.000			-19.222			-3.204
238103.000			-19.222			-3.204
238204.000			-19.223			-3.204
238305.000			-19.222			-3.204
238404.000			-19.221			-3.204
238504.000			-19.222			-3.204
238605.000			-19.221			-3.204
238704.000			-19.221			-3.203
238803.000			-19.221			-3.203
238905.000			-19.221			-3.204
239004.000			-19.221			-3.204
239104.000			-19.220			-3.203
239205.000			-19.220			-3.203
239304.000			-19.220			-3.203
239404.000			-19.219			-3.203
239505.000			-19.218			-3.203
239604.000			-19.219			-3.203
239703.000			-19.219			-3.203
239805.000			-19.219			-3.203
239904.000			-19.219			-3.203
240004.000			-19.218			-3.203
240105.000			-19.218			-3.203
240204.000			-19.218			-3.203
240304.000			-19.218			-3.203
240405.000			-19.218			-3.203
240504.000			-19.218			-3.203
240603.000			-19.218			-3.203
240704.000			-19.217			-3.203
240804.000			-19.217			-3.203
240905.000			-19.217			-3.203
241004.000			-19.216			-3.203
241104.000			-19.215			-3.203
241205.000			-19.216			-3.203
241304.000			-19.216			-3.203
241404.000			-19.216			-3.203
241504.000			-19.215			-3.203
241604.000			-19.214			-3.202
241704.000			-19.215			-3.202
241805.000			-19.216			-3.203
241904.000			-19.215			-3.202
242004.000			-19.214			-3.202
242105.000			-19.215			-3.202
242204.000			-19.215			-3.202
242304.000			-19.214			-3.202
242404.000			-19.214			-3.202
242504.000			-19.214			-3.202
242604.000			-19.215			-3.202
242705.000			-19.214			-3.202
242804.000			-19.214			-3.202
242904.000			-19.213			-3.202
243005.000			-19.212			-3.202
243103.000			-19.213			-3.202
243204.000			-19.213			-3.202
243305.000			-19.213			-3.202
243404.000			-19.212			-3.202
243504.000			-19.212			-3.202
243605.000			-19.212			-3.202
243704.000			-19.211			-3.202
243805.000			-19.211			-3.202
243904.000			-19.212			-3.202
244003.000			-19.212			-3.202
244105.000			-19.212			-3.202
244204.000			-19.211			-3.202
244304.000			-19.210			-3.202
244405.000			-19.210			-3.202
244504.000			-19.209			-3.202
244604.000			-19.209			-3.201
244704.000			-19.209			-3.202
244804.000			-19.209			-3.201
244903.000			-19.208			-3.201
245005.000			-19.209			-3.201
245104.000			-19.210			-3.202
245204.000			-19.209			-3.201
245305.000			-19.208			-3.201
245404.000			-19.208			-3.201
245504.000			-19.208			-3.201
245604.000			-19.207			-3.201
245704.000			-19.209			-3.201
245803.000			-19.208			-3.201
245905.000			-19.207			-3.201
246004.000			-19.207			-3.201
246104.000			-19.208			-3.201
246205.000			-19.207			-3.201
246304.000			-19.206			-3.201
246404.000			-19.207			-3.201
246504.000			-19.207			-3.201
246604.000			-19.206			-3.201
246703.000			-19.205			-3.201
246805.000			-19.205			-3.201
246904.000			-19.205			-3.201
247005.000			-19.204			-3.201
247104.000			-19.204			-3.201
247204.000			-19.205			-3.201
247305.000			-19.203			-3.201
247403.000			-19.203			-3.201
247504.000			-19.204			-3.201
247605.000			-19.204			-3.201
247704.000			-19.202			-3.200
247804.000			-19.203			-3.200
247905.000			-19.202			-3.200
248004.000			-19.202			-3.200
248104.000			-19.203			-3.201
248205.000			-19.202			-3.200
248303.000			-19.202			-3.200
248404.000			-19.202			-3.200
248505.000			-19.202			-3.200
248604.000			-19.201			-3.200
248704.000			-19.201			-3.200
248805.000			-19.200			-3.200
248904.000			-19.201			-3.200
249004.000			-19.201			-3.200
249105.000			-19.200			-3.200
249203.000			-19.201			-3.200
249304.000			-19.201			-3.200
249405.000			-19.201			-3.200
249504.000			-19.201			-3.200
249604.000			-19.201			-3.200
249705.000			-19.199			-3.200
249804.000			-19.199			-3.200
249904.000			-19.200			-3.200
250005.000			-19.200			-3.200
250103.000			-19.200			-3.200
250205.000			-19.198			-3.200
250304.000			-19.198			-3.200
250404.000			-19.198			-3.200
250505.000			-19.197			-3.200
250604.000			-19.197			-3.199
250704.000			-19.197			-3.199
250805.000			-19.198			-3.200
250904.000			-19.196			-3.199
251003.000			-19.196			-3.199
251105.000			-19.196			-3.199
251204.000			-19.197			-3.199
251304.000			-19.196			-3.199
251405.000			-19.196			-3.199
251504.000			-19.195			-3.199
251604.000			-19.195			-3.199
251705.000			-19.196			-3.199
251804.000			-19.196			-3.199
251903.000			-19.195			-3.199
252005.000			-19.195			-3.199
252104.000			-19.195			-3.199
252204.000			-19.195			-3.199
252305.000			-19.195			-3.199
252404.000			-19.194			-3.199
252504.000			-19.194			-3.199
252605.000			-19.194			-3.199
252704.000			-19.194			-3.199
252803.000			-19.193			-3.199
252905.000			-19.193			-3.199
253003.000			-19.193			-3.199
253104.000			-19.192			-3.199
253205.000			-19.192			-3.199
253304.000			-19.192			-3.199
253405.000			-19.192			-3.199
253504.000			-19.191			-3.198
253604.000			-19.191			-3.199
253704.000			-19.191			-3.199
253804.000			-19.191			-3.198
253903.000			-19.190			-3.198
254005.000			-19.190			-3.198
254104.000			-19.189			-3.198
254204.000			-19.189			-3.198
254305.000			-19.189			-3.198
254404.000			-19.189			-3.198
254504.000			-19.189			-3.198
254604.000			-19.188			-3.198
254704.000			-19.188			-3.198
254803.000			-19.188			-3.198
254905.000			-19.188			-3.198
255004.000			-19.187			-3.198
255104.000			-19.187			-3.198
255205.000			-19.187			-3.198
255304.000			-19.187			-3.198
255404.000			-19.187			-3.198
255504.000			-19.187			-3.198
255604.000			-19.185			-3.198
255703.000			-19.185			-3.198
255805.000			-19.186			-3.198
255904.000			-19.186			-3.198
256004.000			-19.185			-3.198
256105.000			-19.185			-3.198
256204.000			-19.185			-3.197
256304.000			-19.184			-3.197
256404.000			-19.185			-3.197
256504.000			-19.184			-3.197
256603.000			-19.184			-3.197
256704.000			-19.184			-3.197
256804.000			-19.184			-3.197
256905.000			-19.184			-3.197
257004.000			-19.183			-3.197
257104.000			-19.183			-3.197
257205.000			-19.183			-3.197
257304.000			-19.183			-3.197
257404.000			-19.184			-3.197
257504.000			-19.183			-3.197
257604.000			-19.183			-3.197
257704.000			-19.183			-3.197
257805.000			-19.183			-3.197
257904.000			-19.182			-3.197
258004.000			-19.182			-3.197
258105.000			-19.181			-3.197
258204.000			-19.181			-3.197
258304.000			-19.181			-3.197
258404.000			-19.180			-3.197
258504.000			-19.181			-3.197
258604.000			-19.180			-3.197
258705.000			-19.181			-3.197
258804.000			-19.181			-3.197
258904.000			-19.180			-3.197
259005.000			-19.181			-3.197
259104.000			-19.181			-3.197
259204.000			-19.180			-3.197
259304.000			-19.180			-3.197
259404.000			-19.179			-3.197
259504.000			-19.180			-3.197
259605.000			-19.180			-3.197
259704.000			-19.180			-3.197
259805.000			-19.179			-3.196
259904.000			-19.178			-3.196
260004.000			-19.177			-3.196
260105.000			-19.177			-3.196
260203.000			-19.178			-3.196
260304.000			-19.177			-3.196
260404.000			-19.178			-3.196
260504.000			-19.178			-3.196
260604.000			-19.178			-3.196
260705.000			-19.177			-3.196
260804.000			-19.177			-3.196
260904.000			-19.177			-3.196
261005.000			-19.177			-3.196
261103.000			-19.176			-3.196
261204.000			-19.176			-3.196
261305.000			-19.177			-3.196
261404.000			-19.176			-3.196
261504.000			-19.176			-3.196
261605.000			-19.175			-3.196
261704.000			-19.175			-3.196
261804.000			-19.175			-3.196
261905.000			-19.175			-3.196
262003.000			-19.175			-3.196
262104.000			-19.175			-3.196
262205.000			-19.175			-3.196
262304.000			-19.175			-3.196
262404.000			-19.174			-3.196
262505.000			-19.174			-3.196
262604.000			-19.173			-3.196
262704.000			-19.172			-3.195
262805.000			-19.173			-3.195
262903.000			-19.172			-3.195
263005.000			-19.172			-3.195
263104.000			-19.172			-3.195
263204.000			-19.172			-3.195
263305.000			-19.172			-3.195
263404.000			-19.171			-3.195
263504.000			-19.172			-3.195
263605.000			-19.172			-3.195
263704.000			-19.171			-3.195
263803.000			-19.171			-3.195
263905.000			-19.171			-3.195
264004.000			-19.172			-3.195
264104.000			-19.171			-3.195
264205.000			-19.170			-3.195
264304.000			-19.171			-3.195
264404.000			-19.170			-3.195
264504.000			-19.170			-3.195
264604.000			-19.170			-3.195
264703.000			-19.170			-3.195
264805.000			-19.170			-3.195
264904.000			-19.170			-3.195
265004.000			-19.168			-3.195
265105.000			-19.169			-3.195
265204.000			-19.169			-3.195
265304.000			-19.169			-3.195
265404.000			-19.170			-3.195
265504.000			-19.169			-3.195
265603.000			-19.168			-3.195
265705.000			-19.168			-3.195
265804.000			-19.167			-3.195
265904.000			-19.167			-3.195
266005.000			-19.168			-3.195
266104.000			-19.168			-3.195
266205.000			-19.167			-3.195
266304.000			-19.168			-3.195
266404.000			-19.167			-3.195
266504.000			-19.166			-3.194
266604.000			-19.166			-3.194
266704.000			-19.166			-3.194
266805.000			-19.166			-3.194
266904.000			-19.166			-3.194
267004.000			-19.167			-3.195
267105.000			-19.167			-3.194
267204.000			-19.165			-3.194
267304.000			-19.165			-3.194
267404.000			-19.165			-3.194
267504.000			-19.166			-3.194
267604.000			-19.166			-3.194
267705.000			-19.164			-3.194
267804.000			-19.164			-3.194
267904.000			-19.165			-3.194
268005.000			-19.164			-3.194
268104.000			-19.164			-3.194
268204.000			-19.164			-3.194
268304.000			-19.164			-3.194
268404.000			-19.164			-3.194
268504.000			-19.164			-3.194
268605.000			-19.164			-3.194
268704.000			-19.163			-3.194
268804.000			-19.163			-3.194
268905.000			-19.162			-3.194
269004.000			-19.162			-3.194
269104.000			-19.163			-3.194
269204.000			-19.162			-3.194
269304.000			-19.162			-3.194
269405.000			-19.162			-3.194
269504.000			-19.162			-3.194
269604.000			-19.162			-3.194
269705.000			-19.162			-3.194
269804.000			-19.161			-3.193
269904.000			-19.162			-3.194
270005.000			-19.161			-3.194
270103.000			-19.161			-3.194
270204.000			-19.160			-3.193
270305.000			-19.160			-3.193
270404.000			-19.160			-3.193
270504.000			-19.161			-3.194
270605.000			-19.161			-3.193
270704.000			-19.161			-3.193
270804.000			-19.161			-3.193
270905.000			-19.160			-3.193
271003.000			-19.160			-3.193
271104.000			-19.160			-3.193
271205.000			-19.159			-3.193
271304.000			-19.159			-3.193
271404.000			-19.158			-3.193
271505.000			-19.157			-3.193
271604.000			-19.158			-3.193
271704.000			-19.158			-3.193
271805.000			-19.157			-3.193
271903.000			-19.158			-3.193
272004.000			-19.159			-3.193
272105.000			-19.157			-3.193
272204.000			-19.158			-3.193
272304.000			-19.158			-3.193
272405.000			-19.156			-3.193
272504.000			-19.157			-3.193
272605.000			-19.156			-3.193
272704.000			-19.157			-3.193
272803.000			-19.158			-3.193
272905.000			-19.157			-3.193
273004.000			-19.157			-3.193
273104.000			-19.157			-3.193
273205.000			-19.157			-3.193
273304.000			-19.156			-3.193
273404.000			-19.155			-3.192
273505.000			-19.155			-3.193
273604.000			-19.154			-3.192
273703.000			-19.155			-3.192
273805.000			-19.155			-3.193
273904.000			-19.155			-3.192
274004.000			-19.154			-3.192
274105.000			-19.153			-3.192
274204.000			-19.155			-3.192
274304.000			-19.155			-3.192
274405.000			-19.155			-3.192
274504.000			-19.154			-3.192
274603.000			-19.153			-3.192
274705.000			-19.153			-3.192
274804.000			-19.153			-3.192
274904.000			-19.153			-3.192
275005.000			-19.152			-3.192
275104.000			-19.152			-3.192
275204.000			-19.153			-3.192
275305.000			-19.152			-3.192
275404.000			-19.152			-3.192
275503.000			-19.152			-3.192
275605.000			-19.152			-3.192
275704.000			-19.151			-3.192
275805.000			-19.150			-3.192
275904.000			-19.150			-3.192
276004.000			-19.151			-3.192
276105.000			-19.151			-3.192
276203.000			-19.150			-3.192
276304.000			-19.150			-3.192
276404.000			-19.151			-3.192
276504.000			-19.150			-3.192
276604.000			-19.149			-3.192
276705.000			-19.149			-3.192
276804.000			-19.149			-3.191
276904.000			-19.148			-3.191
277005.000			-19.149			-3.192
277104.000			-19.150			-3.192
277204.000			-19.148			-3.191
277304.000			-19.149			-3.191
277404.000			-19.148			-3.191
277504.000			-19.148			-3.191
277605.000			-19.148			-3.191
277704.000			-19.148			-3.191
277804.000			-19.148			-3.191
277905.000			-19.148			-3.191
278004.000			-19.148			-3.191
278104.000			-19.148			-3.191
278204.000			-19.147			-3.191
278304.000			-19.147			-3.191
278404.000			-19.147			-3.191
278505.000			-19.147			-3.191
278604.000			-19.147			-3.191
278704.000			-19.147			-3.191
278805.000			-19.146			-3.191
278904.000			-19.145			-3.191
279005.000			-19.145			-3.191
279103.000			-19.146			-3.191
279204.000			-19.146			-3.191
279304.000			-19.147			-3.191
279404.000			-19.147			-3.191
279504.000			-19.145			-3.191
279605.000			-19.144			-3.191
279704.000			-19.144			-3.191
279804.000			-19.143			-3.191
279905.000			-19.144			-3.191
280003.000			-19.144			-3.191
280104.000			-19.145			-3.191
280205.000			-19.145			-3.191
280304.000			-19.144			-3.191
280404.000			-19.144			-3.191
280505.000			-19.144			-3.191
280604.000			-19.143			-3.191
280704.000			-19.143			-3.190
280805.000			-19.142			-3.190
280903.000			-19.143			-3.190
281004.000			-19.143			-3.190
281105.000			-19.142			-3.190
281204.000			-19.143			-3.190
281304.000			-19.142			-3.190
281405.000			-19.142			-3.190
281504.000			-19.142			-3.190
281604.000			-19.141			-3.190
281705.000			-19.141			-3.190
281803.000			-19.142			-3.190
281904.000			-19.142			-3.190
282005.000			-19.142			-3.190
282104.000			-19.141			-3.190
282205.000			-19.141			-3.190
282304.000			-19.139			-3.190
282404.000			-19.139			-3.190
282504.000			-19.140			-3.190
282604.000			-19.141			-3.190
282703.000			-19.139			-3.190
282805.000			-19.139			-3.190
282904.000			-19.140			-3.190
283004.000			-19.139			-3.190
283105.000			-19.139			-3.190
283204.000			-19.138			-3.190
283304.000			-19.138			-3.190
283404.000			-19.139			-3.190
283504.000			-19.139			-3.190
283603.000			-19.139			-3.190
283705.000			-19.138			-3.190
283804.000			-19.138			-3.190
283904.000			-19.137			-3.190
284005.000			-19.138			-3.190
284104.000			-19.138			-3.190
284204.000			-19.138			-3.190
284304.000			-19.137			-3.189
284404.000			-19.137			-3.189
284503.000			-19.137			-3.189
284605.000			-19.137			-3.189
284704.000			-19.136			-3.189
284804.000			-19.137			-3.189
284905.000			-19.136			-3.189
285004.000			-19.136			-3.189
285104.000			-19.135			-3.189
285204.000			-19.136			-3.189
285304.000			-19.136			-3.189
285403.000			-19.135			-3.189
285504.000			-19.135			-3.189
285604.000			-19.135			-3.189
285705.000			-19.135			-3.189
285804.000			-19.135			-3.189
285904.000			-19.134			-3.189
286005.000			-19.134			-3.189
286104.000			-19.134			-3.189
286204.000			-19.134			-3.189
286304.000			-19.134			-3.189
286404.000			-19.134			-3.189
286504.000			-19.132			-3.189
286605.000			-19.134			-3.189
286704.000			-19.135			-3.189
286804.000			-19.134			-3.189
286905.000			-19.132			-3.189
287004.000			-19.132			-3.189
287104.000			-19.132			-3.189
287204.000			-19.132			-3.189
287304.000			-19.131			-3.188
287404.000			-19.131			-3.189
287505.000			-19.132			-3.189
287604.000			-19.132			-3.189
287704.000			-19.132			-3.189
287805.000			-19.131			-3.188
287904.000			-19.131			-3.188
288004.000			-19.131			-3.188
288104.000			-19.131			-3.188
288204.000			-19.130			-3.188
288304.000			-19.131			-3.188
288405.000			-19.131			-3.188
288504.000			-19.130			-3.188
288605.000			-19.130			-3.188
288704.000			-19.129			-3.188
288804.000			-19.130			-3.188
288905.000			-19.129			-3.188
289003.000			-19.129			-3.188
289104.000			-19.128			-3.188
289205.000			-19.128			-3.188
289304.000			-19.129			-3.188
289404.000			-19.129			-3.188
289505.000			-19.127			-3.188
289604.000			-19.129			-3.188
289704.000			-19.128			-3.188
289805.000			-19.128			-3.188
289903.000			-19.127			-3.188
290004.000			-19.127			-3.188
290104.000			-19.128			-3.188
290204.000			-19.128			-3.188
290304.000			-19.128			-3.188
290405.000			-19.127			-3.188
290504.000			-19.126			-3.188
290604.000			-19.126			-3.188
290705.000			-19.126			-3.188
290803.000			-19.126			-3.188
290904.000			-19.126			-3.188
291004.000			-19.125			-3.188
291104.000			-19.126			-3.188
291204.000			-19.126			-3.188
291305.000			-19.127			-3.188
291404.000			-19.126			-3.188
291504.000			-19.126			-3.188
291605.000			-19.124			-3.187
291703.000			-19.125			-3.187
291805.000			-19.124			-3.187
291904.000			-19.124			-3.187
292004.000			-19.123			-3.187
292105.000			-19.123			-3.187
292204.000			-19.123			-3.187
292304.000			-19.124			-3.187
292405.000			-19.124			-3.187
292504.000			-19.124			-3.187
292603.000			-19.123			-3.187
292705.000			-19.122			-3.187
292804.000			-19.122			-3.187
292904.000			-19.122			-3.187
293005.000			-19.121			-3.187
293104.000			-19.121			-3.187
293204.000			-19.121			-3.187
293304.000			-19.122			-3.187
293404.000			-19.121			-3.187
293503.000			-19.121			-3.187
293605.000			-19.121			-3.187
293704.000			-19.121			-3.187
293804.000			-19.120			-3.187
293905.000			-19.120			-3.187
294004.000			-19.120			-3.187
294104.000			-19.121			-3.187
294204.000			-19.120			-3.187
294304.000			-19.120			-3.187
294403.000			-19.121			-3.187
294505.000			-19.120			-3.187
294604.000			-19.119			-3.187
294704.000			-19.119			-3.186
294805.000			-19.118			-3.186
294904.000			-19.119			-3.186
295005.000			-19.119			-3.187
295104.000			-19.119			-3.186
295204.000			-19.118			-3.186
295304.000			-19.119			-3.186
295404.000			-19.118			-3.186
295504.000			-19.118			-3.186
295605.000			-19.117			-3.186
295704.000			-19.118			-3.186
295804.000			-19.119			-3.186
295905.000			-19.119			-3.186
296004.000			-19.118			-3.186
296104.000			-19.117			-3.186
296204.000			-19.117			-3.186
296304.000			-19.117			-3.186
296404.000			-19.117			-3.186
296505.000			-19.117			-3.186
296604.000			-19.116			-3.186
296704.000			-19.116			-3.186
296805.000			-19.116			-3.186
296904.000			-19.116			-3.186
297004.000			-19.116			-3.186
297104.000			-19.115			-3.186
297204.000			-19.115			-3.186
297304.000			-19.115			-3.186
297405.000			-19.115			-3.186
297504.000			-19.114			-3.186
297604.000			-19.113			-3.186
297705.000			-19.114			-3.186
297804.000			-19.114			-3.186
297904.000			-19.114			-3.186
298004.000			-19.115			-3.186
298104.000			-19.114			-3.186
298203.000			-19.113			-3.186
298304.000			-19.114			-3.186
298404.000			-19.114			-3.186
298505.000			-19.113			-3.185
298604.000			-19.113			-3.185
298704.000			-19.113			-3.185
298805.000			-19.112			-3.185
298903.000			-19.113			-3.186
299004.000			-19.113			-3.186
299105.000			-19.112			-3.185
299204.000			-19.113			-3.185
299304.000			-19.112			-3.185
299405.000			-19.112			-3.185
299504.000			-19.112			-3.185
299604.000			-19.111			-3.185
299705.000			-19.110			-3.185
299803.000			-19.110			-3.185
299904.000			-19.110			-3.185
