# Acquired on 08/01/2024 11:58:28 
# SPIDER: Creep_2mm_07714532C-2
# CREEP MEASUREMENT

# time [ms]		force [N]		stiffness [N/mm]
1.000			-2.662			-1.331
101.000			-3.122			-1.561
202.000			-3.297			-1.648
300.000			-3.311			-1.656
400.000			-3.297			-1.649
501.000			-3.286			-1.643
600.000			-3.277			-1.639
700.000			-3.263			-1.632
802.000			-3.256			-1.628
900.000			-3.251			-1.626
1000.000			-3.247			-1.624
1101.000			-3.243			-1.622
1200.000			-3.240			-1.620
1300.000			-3.236			-1.618
1401.000			-3.229			-1.615
1501.000			-3.226			-1.613
1601.000			-3.223			-1.612
1701.000			-3.220			-1.610
1800.000			-3.217			-1.609
1900.000			-3.215			-1.608
2001.000			-3.213			-1.606
2100.000			-3.210			-1.605
2201.000			-3.206			-1.603
2302.000			-3.205			-1.602
2400.000			-3.202			-1.601
2500.000			-3.200			-1.600
2601.000			-3.198			-1.599
2700.000			-3.196			-1.598
2800.000			-3.195			-1.597
2901.000			-3.192			-1.596
3001.000			-3.190			-1.595
3102.000			-3.189			-1.594
3200.000			-3.187			-1.594
3300.000			-3.186			-1.593
3401.000			-3.184			-1.592
3500.000			-3.182			-1.591
3600.000			-3.180			-1.590
3702.000			-3.179			-1.589
3801.000			-3.177			-1.589
3900.000			-3.176			-1.588
4001.000			-3.174			-1.587
4100.000			-3.173			-1.587
4200.000			-3.173			-1.586
4301.000			-3.170			-1.585
4401.000			-3.169			-1.585
4501.000			-3.169			-1.584
4602.000			-3.168			-1.584
4700.000			-3.166			-1.583
4800.000			-3.165			-1.583
4901.000			-3.165			-1.583
5000.000			-3.164			-1.582
5100.000			-3.161			-1.581
5202.000			-3.161			-1.581
5301.000			-3.159			-1.580
5400.000			-3.158			-1.579
5501.000			-3.158			-1.579
5600.000			-3.158			-1.579
5700.000			-3.158			-1.579
5801.000			-3.154			-1.577
5900.000			-3.154			-1.577
6001.000			-3.152			-1.576
6101.000			-3.151			-1.576
6200.000			-3.151			-1.575
6300.000			-3.150			-1.575
6400.000			-3.150			-1.575
6500.000			-3.148			-1.574
6601.000			-3.147			-1.574
6701.000			-3.146			-1.573
6801.000			-3.146			-1.573
6901.000			-3.144			-1.572
7000.000			-3.144			-1.572
7100.000			-3.145			-1.572
7201.000			-3.143			-1.572
7300.000			-3.143			-1.571
7400.000			-3.141			-1.570
7502.000			-3.140			-1.570
7600.000			-3.140			-1.570
7700.000			-3.138			-1.569
7801.000			-3.137			-1.569
7900.000			-3.138			-1.569
8000.000			-3.136			-1.568
8101.000			-3.135			-1.567
8201.000			-3.135			-1.568
8301.000			-3.134			-1.567
8401.000			-3.133			-1.567
8500.000			-3.133			-1.567
8600.000			-3.132			-1.566
8701.000			-3.131			-1.566
8800.000			-3.131			-1.566
8901.000			-3.130			-1.565
9002.000			-3.130			-1.565
9100.000			-3.129			-1.565
9200.000			-3.129			-1.564
9301.000			-3.128			-1.564
9400.000			-3.127			-1.564
9500.000			-3.126			-1.563
9602.000			-3.126			-1.563
9701.000			-3.126			-1.563
9801.000			-3.126			-1.563
9900.000			-3.126			-1.563
10000.000			-3.124			-1.562
10101.000			-3.123			-1.562
10200.000			-3.122			-1.561
10300.000			-3.122			-1.561
10402.000			-3.122			-1.561
10501.000			-3.120			-1.560
10600.000			-3.120			-1.560
10701.000			-3.120			-1.560
10800.000			-3.120			-1.560
10900.000			-3.119			-1.560
11001.000			-3.119			-1.560
11101.000			-3.119			-1.559
11201.000			-3.117			-1.558
11301.000			-3.116			-1.558
11400.000			-3.116			-1.558
11500.000			-3.115			-1.558
11601.000			-3.115			-1.558
11700.000			-3.115			-1.557
11800.000			-3.114			-1.557
11902.000			-3.114			-1.557
12001.000			-3.114			-1.557
12100.000			-3.113			-1.556
12201.000			-3.112			-1.556
12300.000			-3.111			-1.556
12400.000			-3.111			-1.555
12501.000			-3.110			-1.555
12601.000			-3.111			-1.556
12702.000			-3.110			-1.555
12800.000			-3.109			-1.555
12900.000			-3.108			-1.554
13001.000			-3.108			-1.554
13100.000			-3.108			-1.554
13200.000			-3.107			-1.554
13301.000			-3.106			-1.553
13401.000			-3.105			-1.553
13501.000			-3.106			-1.553
13601.000			-3.106			-1.553
13700.000			-3.106			-1.553
13800.000			-3.105			-1.553
13901.000			-3.104			-1.552
14000.000			-3.103			-1.552
14100.000			-3.104			-1.552
14202.000			-3.103			-1.552
14301.000			-3.103			-1.551
14400.000			-3.103			-1.551
14501.000			-3.101			-1.551
14600.000			-3.102			-1.551
14700.000			-3.100			-1.550
14801.000			-3.100			-1.550
14901.000			-3.101			-1.550
15001.000			-3.100			-1.550
15101.000			-3.099			-1.550
15200.000			-3.099			-1.550
15300.000			-3.098			-1.549
15401.000			-3.099			-1.549
15500.000			-3.099			-1.549
15600.000			-3.098			-1.549
15702.000			-3.098			-1.549
15801.000			-3.098			-1.549
15900.000			-3.097			-1.548
16000.000			-3.096			-1.548
16100.000			-3.096			-1.548
16201.000			-3.096			-1.548
16300.000			-3.095			-1.547
16400.000			-3.096			-1.548
16502.000			-3.096			-1.548
16601.000			-3.095			-1.548
16700.000			-3.095			-1.547
16801.000			-3.093			-1.547
16900.000			-3.092			-1.546
17000.000			-3.092			-1.546
17101.000			-3.092			-1.546
17200.000			-3.092			-1.546
17301.000			-3.092			-1.546
17402.000			-3.091			-1.546
17500.000			-3.091			-1.545
17600.000			-3.090			-1.545
17701.000			-3.090			-1.545
17800.000			-3.090			-1.545
17900.000			-3.089			-1.545
18001.000			-3.089			-1.544
18101.000			-3.089			-1.544
18201.000			-3.087			-1.544
18301.000			-3.087			-1.544
18400.000			-3.087			-1.544
18500.000			-3.087			-1.544
18601.000			-3.087			-1.544
18700.000			-3.088			-1.544
18800.000			-3.087			-1.543
18902.000			-3.086			-1.543
19001.000			-3.087			-1.543
19100.000			-3.086			-1.543
19200.000			-3.085			-1.542
19300.000			-3.084			-1.542
19401.000			-3.084			-1.542
19500.000			-3.084			-1.542
19600.000			-3.083			-1.542
19702.000			-3.082			-1.541
19801.000			-3.083			-1.541
19900.000			-3.083			-1.541
20001.000			-3.082			-1.541
20100.000			-3.083			-1.542
20200.000			-3.082			-1.541
20301.000			-3.082			-1.541
20401.000			-3.082			-1.541
20501.000			-3.082			-1.541
20601.000			-3.081			-1.540
20700.000			-3.080			-1.540
20800.000			-3.079			-1.540
20901.000			-3.079			-1.540
21000.000			-3.079			-1.540
21100.000			-3.079			-1.539
21202.000			-3.079			-1.540
21301.000			-3.079			-1.540
21400.000			-3.078			-1.539
21501.000			-3.078			-1.539
21600.000			-3.078			-1.539
21700.000			-3.078			-1.539
21801.000			-3.077			-1.539
21900.000			-3.076			-1.538
22001.000			-3.076			-1.538
22102.000			-3.077			-1.538
22200.000			-3.076			-1.538
22300.000			-3.075			-1.538
22400.000			-3.075			-1.538
22500.000			-3.075			-1.538
22601.000			-3.075			-1.538
22700.000			-3.075			-1.537
22801.000			-3.074			-1.537
22902.000			-3.074			-1.537
23000.000			-3.074			-1.537
23100.000			-3.073			-1.537
23201.000			-3.073			-1.536
23300.000			-3.073			-1.537
23400.000			-3.074			-1.537
23502.000			-3.073			-1.537
23601.000			-3.072			-1.536
23700.000			-3.073			-1.537
23801.000			-3.073			-1.536
23900.000			-3.073			-1.536
24000.000			-3.072			-1.536
24101.000			-3.072			-1.536
24200.000			-3.071			-1.536
24301.000			-3.071			-1.535
24402.000			-3.070			-1.535
24500.000			-3.070			-1.535
24600.000			-3.072			-1.536
24701.000			-3.071			-1.535
24800.000			-3.069			-1.534
24900.000			-3.068			-1.534
25002.000			-3.068			-1.534
25101.000			-3.069			-1.534
25201.000			-3.069			-1.534
25301.000			-3.068			-1.534
25400.000			-3.067			-1.533
25500.000			-3.068			-1.534
25600.000			-3.068			-1.534
25700.000			-3.066			-1.533
25802.000			-3.066			-1.533
25901.000			-3.065			-1.533
26001.000			-3.066			-1.533
26101.000			-3.067			-1.533
26200.000			-3.066			-1.533
26300.000			-3.066			-1.533
26401.000			-3.066			-1.533
26500.000			-3.065			-1.532
26601.000			-3.064			-1.532
26702.000			-3.064			-1.532
26800.000			-3.064			-1.532
26900.000			-3.064			-1.532
27001.000			-3.063			-1.532
27100.000			-3.063			-1.532
27200.000			-3.063			-1.532
27301.000			-3.063			-1.531
27401.000			-3.063			-1.532
27501.000			-3.064			-1.532
27601.000			-3.064			-1.532
27700.000			-3.061			-1.531
27800.000			-3.061			-1.531
27901.000			-3.062			-1.531
28000.000			-3.061			-1.530
28100.000			-3.062			-1.531
28202.000			-3.062			-1.531
28301.000			-3.061			-1.530
28400.000			-3.061			-1.531
28501.000			-3.060			-1.530
28600.000			-3.060			-1.530
28700.000			-3.060			-1.530
28800.000			-3.060			-1.530
28900.000			-3.059			-1.530
29002.000			-3.058			-1.529
29101.000			-3.059			-1.529
29200.000			-3.060			-1.530
29301.000			-3.060			-1.530
29400.000			-3.059			-1.529
29500.000			-3.058			-1.529
29601.000			-3.058			-1.529
29701.000			-3.059			-1.529
29801.000			-3.057			-1.529
29902.000			-3.057			-1.529
30000.000			-3.057			-1.528
30100.000			-3.057			-1.528
30201.000			-3.056			-1.528
30300.000			-3.056			-1.528
30400.000			-3.057			-1.528
30502.000			-3.057			-1.528
30601.000			-3.055			-1.528
30700.000			-3.056			-1.528
30801.000			-3.055			-1.527
30900.000			-3.056			-1.528
31000.000			-3.056			-1.528
31101.000			-3.055			-1.528
31200.000			-3.056			-1.528
31301.000			-3.056			-1.528
31402.000			-3.053			-1.526
31500.000			-3.053			-1.527
31600.000			-3.053			-1.526
31701.000			-3.053			-1.526
31800.000			-3.054			-1.527
31900.000			-3.053			-1.526
32000.000			-3.052			-1.526
32101.000			-3.052			-1.526
32202.000			-3.052			-1.526
32300.000			-3.052			-1.526
32400.000			-3.051			-1.526
32501.000			-3.051			-1.526
32600.000			-3.052			-1.526
32700.000			-3.051			-1.525
32802.000			-3.051			-1.525
32901.000			-3.051			-1.526
33000.000			-3.051			-1.525
33101.000			-3.050			-1.525
33200.000			-3.051			-1.525
33300.000			-3.050			-1.525
33401.000			-3.050			-1.525
33500.000			-3.051			-1.525
33601.000			-3.050			-1.525
33702.000			-3.050			-1.525
33800.000			-3.050			-1.525
33900.000			-3.050			-1.525
34001.000			-3.051			-1.525
34100.000			-3.049			-1.525
34200.000			-3.049			-1.524
34302.000			-3.048			-1.524
34401.000			-3.048			-1.524
34500.000			-3.049			-1.524
34601.000			-3.048			-1.524
34700.000			-3.048			-1.524
34800.000			-3.049			-1.524
34901.000			-3.048			-1.524
35000.000			-3.048			-1.524
35102.000			-3.047			-1.524
35201.000			-3.046			-1.523
35300.000			-3.046			-1.523
35401.000			-3.047			-1.523
35500.000			-3.046			-1.523
35600.000			-3.046			-1.523
35701.000			-3.046			-1.523
35800.000			-3.045			-1.523
35901.000			-3.045			-1.522
36002.000			-3.045			-1.523
36100.000			-3.046			-1.523
36200.000			-3.045			-1.522
36301.000			-3.045			-1.523
36400.000			-3.045			-1.522
36500.000			-3.045			-1.522
36601.000			-3.045			-1.522
36701.000			-3.045			-1.523
36801.000			-3.044			-1.522
36901.000			-3.044			-1.522
37000.000			-3.043			-1.521
37100.000			-3.043			-1.522
37201.000			-3.043			-1.522
37300.000			-3.043			-1.521
37400.000			-3.043			-1.522
37502.000			-3.043			-1.522
37601.000			-3.042			-1.521
37700.000			-3.042			-1.521
37801.000			-3.041			-1.521
37900.000			-3.041			-1.520
38000.000			-3.041			-1.521
38101.000			-3.042			-1.521
38201.000			-3.041			-1.521
38302.000			-3.040			-1.520
38400.000			-3.041			-1.520
38500.000			-3.042			-1.521
38601.000			-3.041			-1.521
38700.000			-3.040			-1.520
38800.000			-3.041			-1.520
38901.000			-3.041			-1.521
39001.000			-3.040			-1.520
39101.000			-3.040			-1.520
39201.000			-3.040			-1.520
39300.000			-3.040			-1.520
39400.000			-3.040			-1.520
39501.000			-3.040			-1.520
39600.000			-3.039			-1.519
39700.000			-3.039			-1.520
39802.000			-3.039			-1.520
39901.000			-3.038			-1.519
40000.000			-3.039			-1.519
40101.000			-3.038			-1.519
40200.000			-3.038			-1.519
40300.000			-3.038			-1.519
40401.000			-3.037			-1.518
40500.000			-3.037			-1.519
40601.000			-3.038			-1.519
40702.000			-3.037			-1.518
40800.000			-3.037			-1.519
40900.000			-3.037			-1.518
41001.000			-3.037			-1.518
41100.000			-3.037			-1.518
41200.000			-3.036			-1.518
41302.000			-3.036			-1.518
41401.000			-3.036			-1.518
41500.000			-3.036			-1.518
41600.000			-3.035			-1.518
41700.000			-3.035			-1.517
41801.000			-3.035			-1.518
41900.000			-3.035			-1.518
42000.000			-3.034			-1.517
42102.000			-3.034			-1.517
42201.000			-3.035			-1.518
42300.000			-3.034			-1.517
42401.000			-3.034			-1.517
42500.000			-3.035			-1.517
42600.000			-3.034			-1.517
42701.000			-3.034			-1.517
42800.000			-3.034			-1.517
42901.000			-3.033			-1.517
43002.000			-3.033			-1.517
43100.000			-3.032			-1.516
43200.000			-3.033			-1.517
43301.000			-3.033			-1.517
43400.000			-3.033			-1.516
43500.000			-3.034			-1.517
43602.000			-3.033			-1.516
43701.000			-3.033			-1.516
43800.000			-3.033			-1.516
43901.000			-3.032			-1.516
44000.000			-3.032			-1.516
44100.000			-3.033			-1.516
44201.000			-3.032			-1.516
44300.000			-3.032			-1.516
44401.000			-3.031			-1.516
44502.000			-3.033			-1.516
44600.000			-3.033			-1.516
44700.000			-3.031			-1.516
44800.000			-3.031			-1.515
44900.000			-3.031			-1.516
45001.000			-3.031			-1.516
45101.000			-3.031			-1.516
45201.000			-3.031			-1.516
45301.000			-3.030			-1.515
45400.000			-3.029			-1.515
45500.000			-3.029			-1.514
45601.000			-3.029			-1.515
45700.000			-3.031			-1.515
45800.000			-3.029			-1.515
45902.000			-3.030			-1.515
46001.000			-3.029			-1.515
46100.000			-3.030			-1.515
46201.000			-3.029			-1.514
46300.000			-3.028			-1.514
46400.000			-3.028			-1.514
46501.000			-3.029			-1.514
46600.000			-3.028			-1.514
46701.000			-3.029			-1.514
46802.000			-3.028			-1.514
46900.000			-3.028			-1.514
47000.000			-3.028			-1.514
47101.000			-3.028			-1.514
47200.000			-3.027			-1.513
47300.000			-3.027			-1.514
47401.000			-3.027			-1.514
47501.000			-3.026			-1.513
47601.000			-3.028			-1.514
47701.000			-3.028			-1.514
47800.000			-3.027			-1.514
47900.000			-3.028			-1.514
48000.000			-3.028			-1.514
48100.000			-3.027			-1.513
48201.000			-3.026			-1.513
48301.000			-3.026			-1.513
48401.000			-3.026			-1.513
48501.000			-3.026			-1.513
48600.000			-3.025			-1.512
48700.000			-3.025			-1.513
48801.000			-3.026			-1.513
48900.000			-3.025			-1.513
49000.000			-3.025			-1.512
49102.000			-3.026			-1.513
49201.000			-3.025			-1.513
49300.000			-3.024			-1.512
49401.000			-3.024			-1.512
49500.000			-3.025			-1.512
49600.000			-3.025			-1.513
49701.000			-3.024			-1.512
49801.000			-3.024			-1.512
49901.000			-3.024			-1.512
50001.000			-3.023			-1.512
50100.000			-3.024			-1.512
50200.000			-3.024			-1.512
50301.000			-3.024			-1.512
50400.000			-3.024			-1.512
50500.000			-3.023			-1.511
50602.000			-3.023			-1.512
50701.000			-3.022			-1.511
50800.000			-3.022			-1.511
50901.000			-3.022			-1.511
51000.000			-3.022			-1.511
51100.000			-3.021			-1.511
51200.000			-3.021			-1.511
51300.000			-3.022			-1.511
51402.000			-3.022			-1.511
51501.000			-3.021			-1.511
51600.000			-3.021			-1.511
51701.000			-3.022			-1.511
51800.000			-3.022			-1.511
51900.000			-3.022			-1.511
52001.000			-3.021			-1.510
52101.000			-3.022			-1.511
52201.000			-3.022			-1.511
52301.000			-3.022			-1.511
52400.000			-3.020			-1.510
52500.000			-3.020			-1.510
52601.000			-3.019			-1.509
52700.000			-3.019			-1.510
52800.000			-3.019			-1.510
52902.000			-3.019			-1.510
53001.000			-3.019			-1.510
53100.000			-3.020			-1.510
53201.000			-3.020			-1.510
53300.000			-3.019			-1.510
53400.000			-3.019			-1.510
53501.000			-3.019			-1.510
53601.000			-3.019			-1.510
53701.000			-3.019			-1.509
53801.000			-3.018			-1.509
53900.000			-3.019			-1.510
54000.000			-3.019			-1.510
54101.000			-3.019			-1.510
54200.000			-3.020			-1.510
54300.000			-3.019			-1.510
54402.000			-3.018			-1.509
54501.000			-3.019			-1.509
54601.000			-3.018			-1.509
54700.000			-3.019			-1.509
54800.000			-3.018			-1.509
54901.000			-3.018			-1.509
55000.000			-3.018			-1.509
55100.000			-3.017			-1.509
55202.000			-3.017			-1.508
55301.000			-3.017			-1.508
55400.000			-3.016			-1.508
55501.000			-3.016			-1.508
55600.000			-3.017			-1.508
55700.000			-3.016			-1.508
55801.000			-3.016			-1.508
55901.000			-3.015			-1.508
56001.000			-3.015			-1.508
56101.000			-3.016			-1.508
56200.000			-3.017			-1.508
56300.000			-3.018			-1.509
56401.000			-3.016			-1.508
56500.000			-3.016			-1.508
56600.000			-3.016			-1.508
56702.000			-3.016			-1.508
56801.000			-3.015			-1.508
56900.000			-3.015			-1.508
57001.000			-3.015			-1.508
57100.000			-3.015			-1.507
57200.000			-3.015			-1.507
57301.000			-3.015			-1.507
57400.000			-3.015			-1.508
57502.000			-3.015			-1.508
57601.000			-3.015			-1.507
57700.000			-3.014			-1.507
57801.000			-3.014			-1.507
57900.000			-3.014			-1.507
58000.000			-3.014			-1.507
58101.000			-3.013			-1.507
58200.000			-3.014			-1.507
58301.000			-3.014			-1.507
58402.000			-3.013			-1.507
58500.000			-3.014			-1.507
58600.000			-3.014			-1.507
58701.000			-3.013			-1.507
58800.000			-3.013			-1.506
58900.000			-3.012			-1.506
59002.000			-3.013			-1.506
59101.000			-3.012			-1.506
59200.000			-3.014			-1.507
59301.000			-3.013			-1.507
59400.000			-3.013			-1.506
59500.000			-3.012			-1.506
59601.000			-3.013			-1.506
59700.000			-3.012			-1.506
59801.000			-3.011			-1.506
59902.000			-3.010			-1.505
60000.000			-3.011			-1.505
60100.000			-3.012			-1.506
60201.000			-3.012			-1.506
60300.000			-3.012			-1.506
60400.000			-3.012			-1.506
60502.000			-3.011			-1.506
60601.000			-3.011			-1.506
60700.000			-3.011			-1.505
60800.000			-3.010			-1.505
60900.000			-3.010			-1.505
61001.000			-3.011			-1.506
61100.000			-3.011			-1.506
61200.000			-3.011			-1.505
61302.000			-3.011			-1.505
61401.000			-3.010			-1.505
61500.000			-3.010			-1.505
61601.000			-3.010			-1.505
61700.000			-3.010			-1.505
61800.000			-3.010			-1.505
61901.000			-3.010			-1.505
62001.000			-3.010			-1.505
62101.000			-3.009			-1.505
62201.000			-3.008			-1.504
62300.000			-3.009			-1.504
62400.000			-3.009			-1.504
62501.000			-3.009			-1.504
62600.000			-3.009			-1.505
62700.000			-3.010			-1.505
62802.000			-3.008			-1.504
62901.000			-3.008			-1.504
63000.000			-3.009			-1.504
63101.000			-3.009			-1.505
63200.000			-3.008			-1.504
63300.000			-3.008			-1.504
63401.000			-3.008			-1.504
63501.000			-3.008			-1.504
63601.000			-3.007			-1.504
63701.000			-3.008			-1.504
63800.000			-3.008			-1.504
63900.000			-3.007			-1.504
64000.000			-3.006			-1.503
64100.000			-3.006			-1.503
64201.000			-3.007			-1.504
64301.000			-3.008			-1.504
64401.000			-3.008			-1.504
64501.000			-3.007			-1.504
64600.000			-3.007			-1.503
64700.000			-3.007			-1.504
64801.000			-3.007			-1.504
64900.000			-3.006			-1.503
65000.000			-3.007			-1.503
65102.000			-3.007			-1.503
65201.000			-3.006			-1.503
65300.000			-3.006			-1.503
65401.000			-3.007			-1.503
65500.000			-3.006			-1.503
65600.000			-3.005			-1.503
65701.000			-3.006			-1.503
65801.000			-3.006			-1.503
65901.000			-3.005			-1.502
66001.000			-3.005			-1.503
66100.000			-3.005			-1.502
66200.000			-3.005			-1.502
66301.000			-3.005			-1.503
66400.000			-3.005			-1.502
66500.000			-3.004			-1.502
66602.000			-3.004			-1.502
66701.000			-3.005			-1.503
66800.000			-3.004			-1.502
66901.000			-3.005			-1.502
67000.000			-3.005			-1.503
67100.000			-3.004			-1.502
67200.000			-3.005			-1.503
67300.000			-3.005			-1.503
67402.000			-3.004			-1.502
67501.000			-3.003			-1.502
67600.000			-3.004			-1.502
67701.000			-3.004			-1.502
67800.000			-3.003			-1.501
67900.000			-3.004			-1.502
68001.000			-3.004			-1.502
68100.000			-3.003			-1.502
68201.000			-3.003			-1.502
68302.000			-3.003			-1.502
68400.000			-3.003			-1.502
68500.000			-3.003			-1.502
68601.000			-3.003			-1.502
68700.000			-3.002			-1.501
68800.000			-3.002			-1.501
68901.000			-3.002			-1.501
69001.000			-3.002			-1.501
69101.000			-3.003			-1.501
69201.000			-3.002			-1.501
69300.000			-3.002			-1.501
69400.000			-3.001			-1.500
69501.000			-3.001			-1.501
69600.000			-3.002			-1.501
69700.000			-3.002			-1.501
69802.000			-3.003			-1.501
69901.000			-3.001			-1.501
70000.000			-3.001			-1.500
70101.000			-3.001			-1.501
70200.000			-3.001			-1.501
70300.000			-3.000			-1.500
70400.000			-3.000			-1.500
70501.000			-3.001			-1.501
70602.000			-3.001			-1.501
70700.000			-3.001			-1.500
70800.000			-3.000			-1.500
70901.000			-3.000			-1.500
71000.000			-3.001			-1.500
71100.000			-3.000			-1.500
71201.000			-2.999			-1.500
71301.000			-3.000			-1.500
71401.000			-3.000			-1.500
71501.000			-3.001			-1.500
71600.000			-3.000			-1.500
71700.000			-3.000			-1.500
71801.000			-2.999			-1.500
71900.000			-2.999			-1.500
72000.000			-2.999			-1.500
72102.000			-2.998			-1.499
72201.000			-2.999			-1.499
72300.000			-2.998			-1.499
72401.000			-2.998			-1.499
72500.000			-2.999			-1.499
72600.000			-2.999			-1.500
72701.000			-3.000			-1.500
72800.000			-2.999			-1.500
72901.000			-2.999			-1.500
73002.000			-3.000			-1.500
73100.000			-2.998			-1.499
73200.000			-2.998			-1.499
73301.000			-2.998			-1.499
73400.000			-2.998			-1.499
73500.000			-2.998			-1.499
73600.000			-2.998			-1.499
73700.000			-2.999			-1.499
73802.000			-2.997			-1.498
73901.000			-2.997			-1.499
74000.000			-2.998			-1.499
74101.000			-2.997			-1.498
74200.000			-2.997			-1.498
74300.000			-2.997			-1.499
74401.000			-2.997			-1.499
74500.000			-2.997			-1.498
74601.000			-2.997			-1.498
74702.000			-2.997			-1.498
74801.000			-2.996			-1.498
74900.000			-2.997			-1.499
75001.000			-2.997			-1.498
75100.000			-2.997			-1.499
75200.000			-2.998			-1.499
75301.000			-2.996			-1.498
75400.000			-2.996			-1.498
75501.000			-2.997			-1.498
75602.000			-2.997			-1.498
75700.000			-2.997			-1.499
75800.000			-2.997			-1.499
75901.000			-2.996			-1.498
76000.000			-2.995			-1.497
76100.000			-2.995			-1.498
76201.000			-2.996			-1.498
76301.000			-2.996			-1.498
76401.000			-2.996			-1.498
76501.000			-2.995			-1.498
76600.000			-2.995			-1.498
76700.000			-2.994			-1.497
76800.000			-2.995			-1.497
76900.000			-2.995			-1.498
77001.000			-2.995			-1.497
77100.000			-2.995			-1.497
77201.000			-2.994			-1.497
77302.000			-2.995			-1.497
77400.000			-2.996			-1.498
77500.000			-2.994			-1.497
77601.000			-2.995			-1.497
77700.000			-2.995			-1.497
77800.000			-2.995			-1.497
77901.000			-2.994			-1.497
78001.000			-2.994			-1.497
78101.000			-2.994			-1.497
78201.000			-2.995			-1.498
78300.000			-2.994			-1.497
78400.000			-2.994			-1.497
78501.000			-2.994			-1.497
78600.000			-2.993			-1.496
78700.000			-2.994			-1.497
78801.000			-2.994			-1.497
78901.000			-2.994			-1.497
79001.000			-2.993			-1.497
79101.000			-2.992			-1.496
79200.000			-2.992			-1.496
79300.000			-2.994			-1.497
79401.000			-2.994			-1.497
79500.000			-2.993			-1.496
79600.000			-2.992			-1.496
79702.000			-2.993			-1.496
79801.000			-2.993			-1.497
79902.000			-2.993			-1.497
80000.000			-2.992			-1.496
80100.000			-2.992			-1.496
80201.000			-2.993			-1.496
80300.000			-2.994			-1.497
80400.000			-2.992			-1.496
80501.000			-2.991			-1.496
80601.000			-2.991			-1.496
80701.000			-2.991			-1.496
80801.000			-2.992			-1.496
80900.000			-2.992			-1.496
81000.000			-2.991			-1.496
81101.000			-2.992			-1.496
81200.000			-2.992			-1.496
81300.000			-2.992			-1.496
81402.000			-2.992			-1.496
81501.000			-2.991			-1.496
81600.000			-2.991			-1.496
81701.000			-2.991			-1.496
81800.000			-2.991			-1.495
81900.000			-2.991			-1.496
82001.000			-2.991			-1.496
82100.000			-2.990			-1.495
82201.000			-2.990			-1.495
82302.000			-2.990			-1.495
82400.000			-2.990			-1.495
82500.000			-2.991			-1.495
82601.000			-2.990			-1.495
82700.000			-2.990			-1.495
82800.000			-2.991			-1.496
82901.000			-2.991			-1.496
83001.000			-2.992			-1.496
83102.000			-2.991			-1.495
83200.000			-2.990			-1.495
83300.000			-2.990			-1.495
83401.000			-2.991			-1.495
83500.000			-2.990			-1.495
83600.000			-2.989			-1.495
83701.000			-2.990			-1.495
83801.000			-2.990			-1.495
83901.000			-2.990			-1.495
84002.000			-2.989			-1.495
84100.000			-2.989			-1.495
84200.000			-2.989			-1.494
84301.000			-2.989			-1.494
84400.000			-2.989			-1.495
84500.000			-2.989			-1.494
84601.000			-2.989			-1.495
84701.000			-2.989			-1.495
84801.000			-2.988			-1.494
84901.000			-2.989			-1.494
85000.000			-2.989			-1.494
85100.000			-2.988			-1.494
85201.000			-2.989			-1.494
85300.000			-2.988			-1.494
85400.000			-2.987			-1.494
85502.000			-2.988			-1.494
85601.000			-2.987			-1.494
85701.000			-2.987			-1.494
85801.000			-2.988			-1.494
85900.000			-2.988			-1.494
86000.000			-2.988			-1.494
86101.000			-2.988			-1.494
86200.000			-2.987			-1.494
86300.000			-2.987			-1.494
86402.000			-2.987			-1.494
86501.000			-2.986			-1.493
86601.000			-2.987			-1.493
86700.000			-2.987			-1.494
86800.000			-2.988			-1.494
86901.000			-2.987			-1.494
87000.000			-2.987			-1.493
87100.000			-2.988			-1.494
87201.000			-2.987			-1.493
87301.000			-2.986			-1.493
87401.000			-2.987			-1.494
87501.000			-2.986			-1.493
87600.000			-2.986			-1.493
87700.000			-2.986			-1.493
87801.000			-2.986			-1.493
87900.000			-2.987			-1.493
88000.000			-2.986			-1.493
88101.000			-2.987			-1.494
88201.000			-2.987			-1.493
88301.000			-2.986			-1.493
88401.000			-2.986			-1.493
88500.000			-2.985			-1.493
88600.000			-2.986			-1.493
88701.000			-2.985			-1.493
88800.000			-2.986			-1.493
88900.000			-2.986			-1.493
89002.000			-2.986			-1.493
89101.000			-2.986			-1.493
89201.000			-2.986			-1.493
89301.000			-2.986			-1.493
89400.000			-2.985			-1.492
89500.000			-2.985			-1.492
89600.000			-2.986			-1.493
89700.000			-2.985			-1.492
89801.000			-2.985			-1.492
89901.000			-2.985			-1.493
90001.000			-2.985			-1.492
90101.000			-2.984			-1.492
90200.000			-2.984			-1.492
90300.000			-2.985			-1.492
90401.000			-2.984			-1.492
90500.000			-2.984			-1.492
90600.000			-2.985			-1.492
90702.000			-2.984			-1.492
90801.000			-2.983			-1.492
90900.000			-2.983			-1.491
91001.000			-2.984			-1.492
91100.000			-2.985			-1.492
91200.000			-2.983			-1.492
91301.000			-2.984			-1.492
91400.000			-2.984			-1.492
91500.000			-2.984			-1.492
91602.000			-2.984			-1.492
91701.000			-2.983			-1.492
91800.000			-2.983			-1.491
91901.000			-2.983			-1.492
92000.000			-2.983			-1.491
92100.000			-2.984			-1.492
92201.000			-2.983			-1.491
92300.000			-2.982			-1.491
92401.000			-2.982			-1.491
92502.000			-2.983			-1.491
92600.000			-2.983			-1.492
92700.000			-2.983			-1.491
92800.000			-2.982			-1.491
92900.000			-2.983			-1.491
93001.000			-2.983			-1.492
93100.000			-2.983			-1.492
93201.000			-2.983			-1.491
93302.000			-2.983			-1.491
93400.000			-2.981			-1.491
93500.000			-2.982			-1.491
93601.000			-2.983			-1.491
93700.000			-2.982			-1.491
93800.000			-2.981			-1.491
93901.000			-2.982			-1.491
94001.000			-2.983			-1.491
94101.000			-2.982			-1.491
94202.000			-2.982			-1.491
94300.000			-2.981			-1.490
94400.000			-2.981			-1.491
94501.000			-2.982			-1.491
94600.000			-2.982			-1.491
94700.000			-2.982			-1.491
94801.000			-2.981			-1.490
94901.000			-2.981			-1.491
95001.000			-2.982			-1.491
95101.000			-2.981			-1.491
95200.000			-2.981			-1.490
95300.000			-2.980			-1.490
95401.000			-2.981			-1.490
95500.000			-2.981			-1.491
95600.000			-2.980			-1.490
95702.000			-2.981			-1.490
95801.000			-2.980			-1.490
95900.000			-2.979			-1.490
96000.000			-2.980			-1.490
96100.000			-2.980			-1.490
96201.000			-2.980			-1.490
96300.000			-2.980			-1.490
96400.000			-2.979			-1.490
96501.000			-2.979			-1.490
96601.000			-2.980			-1.490
96701.000			-2.979			-1.490
96801.000			-2.979			-1.490
96900.000			-2.979			-1.490
97000.000			-2.979			-1.490
97101.000			-2.980			-1.490
97200.000			-2.980			-1.490
97300.000			-2.979			-1.490
97402.000			-2.979			-1.490
97501.000			-2.978			-1.489
97601.000			-2.979			-1.489
97701.000			-2.979			-1.489
97800.000			-2.979			-1.489
97900.000			-2.979			-1.490
98001.000			-2.979			-1.490
98100.000			-2.979			-1.490
98200.000			-2.979			-1.490
98302.000			-2.979			-1.490
98401.000			-2.978			-1.489
98500.000			-2.978			-1.489
98601.000			-2.978			-1.489
98700.000			-2.978			-1.489
98800.000			-2.979			-1.489
98901.000			-2.978			-1.489
99000.000			-2.978			-1.489
99100.000			-2.977			-1.489
99202.000			-2.977			-1.488
99301.000			-2.977			-1.488
99401.000			-2.978			-1.489
99500.000			-2.977			-1.489
99600.000			-2.978			-1.489
99701.000			-2.978			-1.489
99800.000			-2.978			-1.489
99900.000			-2.978			-1.489
100002.000			-2.978			-1.489
100101.000			-2.977			-1.488
100201.000			-2.977			-1.488
100301.000			-2.976			-1.488
100400.000			-2.977			-1.489
100500.000			-2.978			-1.489
100601.000			-2.977			-1.489
100700.000			-2.977			-1.489
100800.000			-2.977			-1.489
100902.000			-2.977			-1.489
101001.000			-2.977			-1.489
101100.000			-2.977			-1.488
101201.000			-2.976			-1.488
101300.000			-2.977			-1.488
101400.000			-2.976			-1.488
101501.000			-2.975			-1.488
101600.000			-2.975			-1.488
101701.000			-2.976			-1.488
101802.000			-2.977			-1.489
101901.000			-2.977			-1.488
102000.000			-2.976			-1.488
102101.000			-2.975			-1.488
102200.000			-2.976			-1.488
102300.000			-2.976			-1.488
102400.000			-2.975			-1.487
102500.000			-2.975			-1.488
102602.000			-2.974			-1.487
102701.000			-2.974			-1.487
102800.000			-2.974			-1.487
102901.000			-2.974			-1.487
103000.000			-2.975			-1.487
103100.000			-2.975			-1.487
103201.000			-2.975			-1.488
103300.000			-2.975			-1.488
103401.000			-2.975			-1.487
103502.000			-2.975			-1.487
103600.000			-2.975			-1.488
103700.000			-2.975			-1.487
103801.000			-2.975			-1.487
103900.000			-2.975			-1.488
104000.000			-2.974			-1.487
104101.000			-2.974			-1.487
104200.000			-2.974			-1.487
104301.000			-2.974			-1.487
104402.000			-2.974			-1.487
104500.000			-2.974			-1.487
104600.000			-2.973			-1.487
104701.000			-2.973			-1.487
104800.000			-2.973			-1.487
104900.000			-2.974			-1.487
105001.000			-2.974			-1.487
105101.000			-2.973			-1.487
105201.000			-2.974			-1.487
105301.000			-2.974			-1.487
105400.000			-2.975			-1.487
105500.000			-2.973			-1.487
105600.000			-2.973			-1.487
105700.000			-2.973			-1.486
105801.000			-2.972			-1.486
105901.000			-2.974			-1.487
106001.000			-2.974			-1.487
106102.000			-2.973			-1.486
106200.000			-2.972			-1.486
106300.000			-2.972			-1.486
106401.000			-2.972			-1.486
106500.000			-2.973			-1.486
106600.000			-2.972			-1.486
106701.000			-2.973			-1.486
106801.000			-2.972			-1.486
106901.000			-2.972			-1.486
107001.000			-2.971			-1.486
107100.000			-2.971			-1.485
107200.000			-2.971			-1.485
107301.000			-2.973			-1.486
107400.000			-2.973			-1.486
107500.000			-2.972			-1.486
107602.000			-2.971			-1.486
107701.000			-2.972			-1.486
107801.000			-2.972			-1.486
107901.000			-2.971			-1.486
108000.000			-2.972			-1.486
108100.000			-2.973			-1.486
108201.000			-2.971			-1.486
108300.000			-2.971			-1.485
108400.000			-2.971			-1.485
108502.000			-2.971			-1.485
108601.000			-2.971			-1.486
108700.000			-2.971			-1.485
108800.000			-2.971			-1.486
108900.000			-2.971			-1.486
109001.000			-2.970			-1.485
109100.000			-2.970			-1.485
109200.000			-2.971			-1.485
109302.000			-2.972			-1.486
109401.000			-2.971			-1.485
109501.000			-2.970			-1.485
109601.000			-2.969			-1.484
109700.000			-2.969			-1.484
109800.000			-2.970			-1.485
109901.000			-2.969			-1.485
110000.000			-2.970			-1.485
110100.000			-2.970			-1.485
110202.000			-2.971			-1.485
110301.000			-2.970			-1.485
110400.000			-2.970			-1.485
110501.000			-2.970			-1.485
110600.000			-2.970			-1.485
110700.000			-2.970			-1.485
110801.000			-2.970			-1.485
110900.000			-2.969			-1.485
111000.000			-2.969			-1.485
111102.000			-2.969			-1.485
111201.000			-2.968			-1.484
111300.000			-2.968			-1.484
111401.000			-2.969			-1.484
111500.000			-2.969			-1.485
111600.000			-2.969			-1.484
111701.000			-2.969			-1.484
111800.000			-2.968			-1.484
111902.000			-2.968			-1.484
112001.000			-2.968			-1.484
112101.000			-2.968			-1.484
112201.000			-2.967			-1.484
112300.000			-2.969			-1.484
112400.000			-2.969			-1.485
112501.000			-2.968			-1.484
112600.000			-2.968			-1.484
112700.000			-2.969			-1.484
112802.000			-2.968			-1.484
112901.000			-2.968			-1.484
113000.000			-2.969			-1.484
113101.000			-2.968			-1.484
113200.000			-2.968			-1.484
113300.000			-2.967			-1.483
113401.000			-2.967			-1.483
113500.000			-2.967			-1.483
113600.000			-2.967			-1.484
113702.000			-2.967			-1.484
113801.000			-2.968			-1.484
113900.000			-2.968			-1.484
114001.000			-2.967			-1.483
114100.000			-2.967			-1.484
114200.000			-2.968			-1.484
114301.000			-2.968			-1.484
114400.000			-2.968			-1.484
114501.000			-2.968			-1.484
114602.000			-2.967			-1.484
114700.000			-2.966			-1.483
114800.000			-2.967			-1.484
114901.000			-2.966			-1.483
115000.000			-2.966			-1.483
115100.000			-2.966			-1.483
115200.000			-2.966			-1.483
115300.000			-2.966			-1.483
115402.000			-2.966			-1.483
115501.000			-2.966			-1.483
115600.000			-2.966			-1.483
115701.000			-2.967			-1.483
115800.000			-2.966			-1.483
115900.000			-2.966			-1.483
116001.000			-2.966			-1.483
116100.000			-2.966			-1.483
116201.000			-2.966			-1.483
116302.000			-2.966			-1.483
116401.000			-2.966			-1.483
116500.000			-2.966			-1.483
116601.000			-2.966			-1.483
116700.000			-2.966			-1.483
116800.000			-2.965			-1.483
116901.000			-2.966			-1.483
117000.000			-2.966			-1.483
117101.000			-2.965			-1.483
117202.000			-2.966			-1.483
117300.000			-2.966			-1.483
117400.000			-2.966			-1.483
117501.000			-2.965			-1.482
117600.000			-2.965			-1.482
117700.000			-2.965			-1.483
117801.000			-2.965			-1.483
117900.000			-2.964			-1.482
118001.000			-2.964			-1.482
118102.000			-2.965			-1.482
118200.000			-2.965			-1.482
118300.000			-2.964			-1.482
118400.000			-2.964			-1.482
118500.000			-2.965			-1.482
118601.000			-2.965			-1.482
118700.000			-2.966			-1.483
118800.000			-2.965			-1.482
118902.000			-2.965			-1.482
119001.000			-2.964			-1.482
119100.000			-2.964			-1.482
119201.000			-2.964			-1.482
119300.000			-2.963			-1.482
119400.000			-2.963			-1.481
119501.000			-2.964			-1.482
119600.000			-2.964			-1.482
119701.000			-2.963			-1.482
119802.000			-2.964			-1.482
119901.000			-2.964			-1.482
120000.000			-2.964			-1.482
120101.000			-2.964			-1.482
120200.000			-2.964			-1.482
120300.000			-2.965			-1.482
120401.000			-2.965			-1.482
120500.000			-2.962			-1.481
120601.000			-2.963			-1.482
120702.000			-2.963			-1.482
120800.000			-2.962			-1.481
120900.000			-2.963			-1.481
121001.000			-2.963			-1.481
121100.000			-2.963			-1.481
121200.000			-2.963			-1.481
121301.000			-2.963			-1.482
121401.000			-2.964			-1.482
121502.000			-2.964			-1.482
121601.000			-2.964			-1.482
121700.000			-2.963			-1.482
121801.000			-2.963			-1.481
121900.000			-2.963			-1.482
122000.000			-2.962			-1.481
122101.000			-2.963			-1.481
122200.000			-2.963			-1.482
122301.000			-2.963			-1.482
122402.000			-2.964			-1.482
122500.000			-2.964			-1.482
122600.000			-2.964			-1.482
122701.000			-2.963			-1.481
122800.000			-2.962			-1.481
122900.000			-2.961			-1.480
123001.000			-2.962			-1.481
123101.000			-2.962			-1.481
123201.000			-2.962			-1.481
123301.000			-2.961			-1.481
123400.000			-2.962			-1.481
123500.000			-2.962			-1.481
123601.000			-2.961			-1.481
123700.000			-2.961			-1.480
123800.000			-2.962			-1.481
123902.000			-2.962			-1.481
124001.000			-2.962			-1.481
124100.000			-2.962			-1.481
124201.000			-2.962			-1.481
124300.000			-2.961			-1.481
124400.000			-2.961			-1.480
124501.000			-2.961			-1.480
124600.000			-2.961			-1.481
124700.000			-2.962			-1.481
124802.000			-2.961			-1.481
124901.000			-2.961			-1.480
125001.000			-2.960			-1.480
125100.000			-2.961			-1.480
125200.000			-2.961			-1.480
125301.000			-2.962			-1.481
125400.000			-2.961			-1.480
125500.000			-2.961			-1.480
125602.000			-2.961			-1.480
125701.000			-2.960			-1.480
125800.000			-2.960			-1.480
125901.000			-2.960			-1.480
126000.000			-2.959			-1.480
126100.000			-2.960			-1.480
126201.000			-2.960			-1.480
126300.000			-2.961			-1.480
126400.000			-2.961			-1.481
126502.000			-2.960			-1.480
126601.000			-2.960			-1.480
126700.000			-2.960			-1.480
126801.000			-2.960			-1.480
126900.000			-2.960			-1.480
127000.000			-2.959			-1.480
127101.000			-2.960			-1.480
127200.000			-2.959			-1.479
127301.000			-2.959			-1.479
127402.000			-2.959			-1.480
127501.000			-2.959			-1.479
127600.000			-2.959			-1.480
127701.000			-2.960			-1.480
127800.000			-2.960			-1.480
127900.000			-2.960			-1.480
128000.000			-2.960			-1.480
128100.000			-2.960			-1.480
128202.000			-2.960			-1.480
128301.000			-2.960			-1.480
128400.000			-2.959			-1.479
128501.000			-2.959			-1.479
128600.000			-2.959			-1.480
128700.000			-2.959			-1.480
128801.000			-2.960			-1.480
128900.000			-2.959			-1.480
129000.000			-2.959			-1.479
129102.000			-2.959			-1.480
129201.000			-2.958			-1.479
129300.000			-2.958			-1.479
129401.000			-2.958			-1.479
129500.000			-2.959			-1.479
129600.000			-2.958			-1.479
129701.000			-2.958			-1.479
129800.000			-2.958			-1.479
129900.000			-2.957			-1.479
130002.000			-2.958			-1.479
130101.000			-2.958			-1.479
130200.000			-2.959			-1.480
130301.000			-2.959			-1.479
130400.000			-2.957			-1.478
130500.000			-2.957			-1.479
130601.000			-2.958			-1.479
130700.000			-2.958			-1.479
130800.000			-2.958			-1.479
130902.000			-2.958			-1.479
131001.000			-2.958			-1.479
131100.000			-2.957			-1.479
131200.000			-2.958			-1.479
131300.000			-2.957			-1.479
131401.000			-2.957			-1.478
131500.000			-2.958			-1.479
131600.000			-2.957			-1.479
131701.000			-2.957			-1.478
131801.000			-2.957			-1.478
131901.000			-2.957			-1.478
132001.000			-2.957			-1.478
132100.000			-2.957			-1.479
132200.000			-2.957			-1.479
132301.000			-2.957			-1.479
132400.000			-2.957			-1.478
132500.000			-2.956			-1.478
132601.000			-2.956			-1.478
132701.000			-2.956			-1.478
132801.000			-2.957			-1.479
132902.000			-2.957			-1.479
133000.000			-2.957			-1.479
133100.000			-2.957			-1.478
133201.000			-2.956			-1.478
133300.000			-2.957			-1.478
133400.000			-2.957			-1.479
133501.000			-2.957			-1.479
133601.000			-2.957			-1.478
133701.000			-2.956			-1.478
133802.000			-2.956			-1.478
133900.000			-2.955			-1.478
134000.000			-2.957			-1.478
134101.000			-2.957			-1.479
134200.000			-2.957			-1.478
134300.000			-2.957			-1.479
134400.000			-2.956			-1.478
134500.000			-2.957			-1.478
134602.000			-2.956			-1.478
134701.000			-2.955			-1.478
134800.000			-2.955			-1.478
134901.000			-2.955			-1.477
135000.000			-2.954			-1.477
135100.000			-2.954			-1.477
135201.000			-2.956			-1.478
135300.000			-2.955			-1.478
135400.000			-2.956			-1.478
135502.000			-2.955			-1.478
135601.000			-2.956			-1.478
135701.000			-2.956			-1.478
135801.000			-2.955			-1.478
135900.000			-2.956			-1.478
136000.000			-2.955			-1.478
136101.000			-2.956			-1.478
136200.000			-2.955			-1.478
136300.000			-2.955			-1.478
136401.000			-2.956			-1.478
136501.000			-2.956			-1.478
136601.000			-2.955			-1.477
136701.000			-2.953			-1.477
136800.000			-2.953			-1.477
136900.000			-2.955			-1.477
137001.000			-2.955			-1.477
137100.000			-2.954			-1.477
137200.000			-2.955			-1.477
137301.000			-2.955			-1.477
137401.000			-2.954			-1.477
137502.000			-2.954			-1.477
137601.000			-2.954			-1.477
137700.000			-2.954			-1.477
137801.000			-2.954			-1.477
137900.000			-2.954			-1.477
138000.000			-2.954			-1.477
138101.000			-2.954			-1.477
138200.000			-2.954			-1.477
138300.000			-2.954			-1.477
138402.000			-2.954			-1.477
138501.000			-2.954			-1.477
138600.000			-2.954			-1.477
138701.000			-2.954			-1.477
138800.000			-2.954			-1.477
138900.000			-2.953			-1.476
139001.000			-2.952			-1.476
139100.000			-2.954			-1.477
139200.000			-2.954			-1.477
139302.000			-2.954			-1.477
139401.000			-2.954			-1.477
139501.000			-2.953			-1.476
139601.000			-2.954			-1.477
139700.000			-2.954			-1.477
139800.000			-2.955			-1.477
139901.000			-2.954			-1.477
140000.000			-2.953			-1.476
140100.000			-2.953			-1.476
140201.000			-2.953			-1.476
140301.000			-2.953			-1.476
140401.000			-2.953			-1.477
140501.000			-2.954			-1.477
140600.000			-2.953			-1.477
140700.000			-2.953			-1.476
140800.000			-2.953			-1.476
140900.000			-2.953			-1.476
141001.000			-2.953			-1.476
141100.000			-2.951			-1.476
141201.000			-2.951			-1.476
141302.000			-2.952			-1.476
141400.000			-2.953			-1.476
141500.000			-2.953			-1.476
141601.000			-2.952			-1.476
141700.000			-2.952			-1.476
141800.000			-2.952			-1.476
141901.000			-2.952			-1.476
142000.000			-2.952			-1.476
142101.000			-2.952			-1.476
142202.000			-2.951			-1.475
142300.000			-2.951			-1.476
142400.000			-2.951			-1.476
142501.000			-2.952			-1.476
142600.000			-2.952			-1.476
142700.000			-2.952			-1.476
142801.000			-2.952			-1.476
142900.000			-2.952			-1.476
143001.000			-2.952			-1.476
143102.000			-2.951			-1.476
143200.000			-2.951			-1.476
143300.000			-2.952			-1.476
143401.000			-2.952			-1.476
143500.000			-2.952			-1.476
143600.000			-2.951			-1.476
143701.000			-2.952			-1.476
143800.000			-2.952			-1.476
143902.000			-2.952			-1.476
144001.000			-2.951			-1.476
144100.000			-2.952			-1.476
144201.000			-2.951			-1.476
144300.000			-2.951			-1.476
144400.000			-2.952			-1.476
144501.000			-2.951			-1.475
144600.000			-2.951			-1.475
144700.000			17.384			8.692
144802.000			-100.987			-50.494
144901.000			-2.950			-1.475
145001.000			-2.950			-1.475
145101.000			-2.951			-1.475
145200.000			-2.951			-1.475
145300.000			-2.950			-1.475
145401.000			-2.950			-1.475
145500.000			-2.952			-1.476
145600.000			-2.952			-1.476
145702.000			-2.951			-1.475
145801.000			-2.950			-1.475
145901.000			-2.950			-1.475
146001.000			-2.950			-1.475
146100.000			-2.950			-1.475
146200.000			-2.951			-1.475
146301.000			-2.951			-1.476
146400.000			-2.950			-1.475
146500.000			-2.950			-1.475
146601.000			-2.950			-1.475
146701.000			-2.950			-1.475
146801.000			-2.950			-1.475
146901.000			-2.950			-1.475
147000.000			-2.950			-1.475
147100.000			-2.949			-1.475
147200.000			-2.950			-1.475
147300.000			-2.950			-1.475
147401.000			-2.950			-1.475
147500.000			-2.949			-1.475
147601.000			-2.949			-1.474
147702.000			-2.949			-1.474
147801.000			-2.949			-1.475
147900.000			-2.950			-1.475
148001.000			-2.950			-1.475
148100.000			-2.949			-1.475
148200.000			-2.949			-1.475
148301.000			-2.949			-1.474
148400.000			-2.949			-1.474
148500.000			-2.949			-1.475
148602.000			-2.949			-1.475
148701.000			-2.949			-1.475
148800.000			-2.949			-1.474
148901.000			-2.948			-1.474
149000.000			-2.948			-1.474
149100.000			-2.948			-1.474
149201.000			-2.949			-1.475
149300.000			-2.949			-1.474
149400.000			-2.949			-1.474
149501.000			-2.948			-1.474
149601.000			-2.948			-1.474
149701.000			-2.948			-1.474
149801.000			-2.949			-1.475
149900.000			-2.949			-1.475
150000.000			-2.948			-1.474
150101.000			-2.948			-1.474
150200.000			-2.949			-1.474
150300.000			-2.949			-1.474
150400.000			-2.948			-1.474
150501.000			-2.947			-1.474
150602.000			-2.948			-1.474
150701.000			-2.947			-1.474
150800.000			-2.948			-1.474
150901.000			-2.947			-1.473
151000.000			-2.946			-1.473
151100.000			-2.947			-1.473
151201.000			-2.947			-1.474
151300.000			-2.948			-1.474
151400.000			-2.948			-1.474
151502.000			-2.947			-1.474
151601.000			-2.947			-1.473
151700.000			-2.948			-1.474
151801.000			-2.949			-1.474
151900.000			-2.948			-1.474
152000.000			-2.947			-1.473
152101.000			-2.948			-1.474
152200.000			-2.948			-1.474
152300.000			-2.946			-1.473
152402.000			-2.947			-1.473
152501.000			-2.946			-1.473
152601.000			-2.947			-1.473
152701.000			-2.947			-1.473
152800.000			-2.946			-1.473
152900.000			-2.946			-1.473
153001.000			-2.946			-1.473
153100.000			-2.947			-1.474
153200.000			-2.946			-1.473
153301.000			-2.946			-1.473
153401.000			-2.946			-1.473
153502.000			-2.947			-1.473
153600.000			-2.947			-1.473
153700.000			-2.947			-1.473
153801.000			-2.947			-1.473
153900.000			-2.947			-1.473
154000.000			-2.947			-1.474
154101.000			-2.947			-1.474
154200.000			-2.947			-1.474
154301.000			-2.947			-1.473
154402.000			-2.946			-1.473
154501.000			-2.947			-1.473
154600.000			-2.947			-1.474
154701.000			-2.946			-1.473
154800.000			-2.947			-1.473
154900.000			-2.947			-1.474
155001.000			-2.946			-1.473
155100.000			-2.945			-1.472
155200.000			-2.945			-1.472
155302.000			-2.945			-1.473
155401.000			-2.946			-1.473
155500.000			-2.946			-1.473
155601.000			-2.946			-1.473
155700.000			-2.945			-1.473
155800.000			-2.947			-1.473
155901.000			-2.947			-1.473
156000.000			-2.946			-1.473
156100.000			-2.947			-1.473
156202.000			-2.945			-1.473
156301.000			-2.946			-1.473
156401.000			-2.947			-1.474
156501.000			-2.946			-1.473
156600.000			-2.945			-1.473
156700.000			-2.945			-1.473
156800.000			-2.945			-1.473
156900.000			-2.947			-1.473
157001.000			-2.947			-1.474
157100.000			-2.947			-1.473
157201.000			-2.946			-1.473
157302.000			-2.945			-1.472
157400.000			-2.946			-1.473
157500.000			-2.946			-1.473
157601.000			-2.945			-1.472
157700.000			-2.945			-1.473
157800.000			-2.945			-1.472
157901.000			-2.945			-1.473
158000.000			-2.945			-1.473
158101.000			-2.945			-1.473
158202.000			-2.945			-1.472
158301.000			-2.944			-1.472
158400.000			-2.945			-1.472
158501.000			-2.945			-1.472
158600.000			-2.945			-1.472
158700.000			-2.945			-1.473
158801.000			-2.945			-1.472
158900.000			-2.944			-1.472
159000.000			-2.945			-1.473
159102.000			-2.945			-1.473
159201.000			-2.945			-1.472
159300.000			-2.945			-1.472
159401.000			-2.944			-1.472
159500.000			-2.944			-1.472
159600.000			-2.945			-1.472
159701.000			-2.944			-1.472
159800.000			-2.945			-1.472
159900.000			-2.945			-1.472
160002.000			-2.944			-1.472
160101.000			-2.944			-1.472
160202.000			-2.944			-1.472
160300.000			-2.944			-1.472
160400.000			-2.944			-1.472
160501.000			-2.944			-1.472
160600.000			-2.945			-1.472
160700.000			-2.944			-1.472
160801.000			-2.944			-1.472
160901.000			-2.944			-1.472
161001.000			-2.944			-1.472
161102.000			-2.943			-1.472
161200.000			-2.944			-1.472
161300.000			-2.944			-1.472
161401.000			-2.944			-1.472
161500.000			-2.944			-1.472
161600.000			-2.944			-1.472
161701.000			-2.943			-1.472
161801.000			-2.943			-1.471
161901.000			-2.944			-1.472
162002.000			-2.942			-1.471
162100.000			-2.943			-1.471
162200.000			-2.944			-1.472
162301.000			-2.944			-1.472
162400.000			-2.943			-1.472
162500.000			-2.942			-1.471
162601.000			-2.942			-1.471
162700.000			-2.942			-1.471
162801.000			-2.943			-1.471
162902.000			-2.943			-1.471
163000.000			-2.944			-1.472
163100.000			-2.942			-1.471
163200.000			-2.943			-1.471
163300.000			-2.943			-1.471
163401.000			-2.943			-1.472
163500.000			-2.943			-1.471
163600.000			-2.943			-1.471
163702.000			-2.943			-1.472
163801.000			-2.944			-1.472
163901.000			-2.943			-1.471
164001.000			-2.943			-1.471
164100.000			-2.943			-1.471
164200.000			-2.943			-1.471
164301.000			-2.943			-1.471
164400.000			-2.943			-1.471
164500.000			-2.941			-1.471
164601.000			-2.941			-1.471
164701.000			-2.942			-1.471
164801.000			-2.942			-1.471
164901.000			-2.942			-1.471
165000.000			-2.942			-1.471
165100.000			-2.942			-1.471
165201.000			-2.943			-1.471
165300.000			-2.943			-1.471
165400.000			-2.943			-1.471
165501.000			-2.943			-1.471
165601.000			-2.942			-1.471
165701.000			-2.943			-1.471
165801.000			-2.942			-1.471
165900.000			-2.943			-1.471
166000.000			-2.942			-1.471
166101.000			-2.942			-1.471
166200.000			-2.942			-1.471
166300.000			-2.942			-1.471
166400.000			-2.941			-1.471
166501.000			-2.942			-1.471
166602.000			-2.942			-1.471
166701.000			-2.942			-1.471
166800.000			-2.941			-1.471
166901.000			-2.941			-1.471
167000.000			-2.942			-1.471
167100.000			-2.942			-1.471
167201.000			-2.942			-1.471
167300.000			-2.942			-1.471
167400.000			-2.941			-1.471
167502.000			-2.941			-1.471
167601.000			-2.941			-1.470
167700.000			-2.941			-1.470
167801.000			-2.941			-1.471
167900.000			-2.941			-1.471
168000.000			-2.942			-1.471
168101.000			-2.942			-1.471
168200.000			-2.941			-1.471
168300.000			-2.941			-1.470
168402.000			-2.941			-1.470
168501.000			-2.941			-1.471
168601.000			-2.942			-1.471
168701.000			-2.942			-1.471
168800.000			-2.942			-1.471
168900.000			-2.941			-1.470
169001.000			-2.941			-1.470
169100.000			-2.940			-1.470
169200.000			-2.940			-1.470
169301.000			-2.940			-1.470
169401.000			-2.940			-1.470
169502.000			-2.940			-1.470
169601.000			-2.940			-1.470
169700.000			-2.941			-1.470
169801.000			-2.940			-1.470
169900.000			-2.940			-1.470
170000.000			-2.940			-1.470
170101.000			-2.941			-1.470
170200.000			-2.941			-1.470
170300.000			-2.941			-1.470
170402.000			-2.941			-1.470
170501.000			-2.939			-1.470
170600.000			-2.940			-1.470
170701.000			-2.940			-1.470
170800.000			-2.941			-1.470
170900.000			-2.940			-1.470
171001.000			-2.940			-1.470
171100.000			-2.940			-1.470
171200.000			-2.940			-1.470
171302.000			-2.940			-1.470
171401.000			-2.939			-1.470
171501.000			-2.939			-1.470
171601.000			-2.940			-1.470
171700.000			-2.940			-1.470
171800.000			-2.940			-1.470
171901.000			-2.940			-1.470
172000.000			-2.939			-1.470
172100.000			-2.939			-1.469
172201.000			-2.940			-1.470
172301.000			-2.939			-1.470
172401.000			-2.938			-1.469
172501.000			-2.940			-1.470
172600.000			-2.940			-1.470
172700.000			-2.939			-1.470
172800.000			-2.939			-1.469
172900.000			-2.939			-1.470
173001.000			-2.939			-1.469
173100.000			-2.938			-1.469
173201.000			-2.938			-1.469
173302.000			-2.940			-1.470
173401.000			-2.939			-1.470
173500.000			-2.939			-1.470
173601.000			-2.939			-1.469
173700.000			-2.939			-1.469
173800.000			-2.939			-1.469
173901.000			-2.938			-1.469
174000.000			-2.939			-1.470
174100.000			-2.939			-1.469
174202.000			-2.937			-1.469
174301.000			-2.938			-1.469
174400.000			-2.939			-1.469
174501.000			-2.938			-1.469
174600.000			-2.938			-1.469
174700.000			-2.939			-1.469
174801.000			-2.939			-1.469
174900.000			-2.939			-1.469
175000.000			-2.939			-1.470
175102.000			-2.939			-1.470
175201.000			-2.939			-1.469
175301.000			-2.939			-1.469
175401.000			-2.938			-1.469
175500.000			-2.938			-1.469
175600.000			-2.938			-1.469
175701.000			-2.939			-1.470
175800.000			-2.938			-1.469
175900.000			-2.937			-1.468
176000.000			-2.938			-1.469
176101.000			-2.939			-1.469
176202.000			-2.938			-1.469
176301.000			-2.937			-1.468
176400.000			-2.937			-1.468
176501.000			-2.937			-1.469
176600.000			-2.938			-1.469
176700.000			-2.938			-1.469
176801.000			-2.937			-1.469
176900.000			-2.938			-1.469
177000.000			-2.939			-1.469
177102.000			-2.938			-1.469
177201.000			-2.936			-1.468
177300.000			-2.937			-1.469
177401.000			-2.938			-1.469
177500.000			-2.938			-1.469
177600.000			-2.938			-1.469
177701.000			-2.938			-1.469
177800.000			-2.938			-1.469
177900.000			-2.937			-1.468
178002.000			-2.936			-1.468
178101.000			-2.937			-1.468
178201.000			-2.937			-1.469
178301.000			-2.938			-1.469
178400.000			-2.936			-1.468
178500.000			-2.936			-1.468
178601.000			-2.936			-1.468
178700.000			-2.936			-1.468
178800.000			-2.936			-1.468
178901.000			-2.936			-1.468
179001.000			-2.937			-1.468
179102.000			-2.936			-1.468
179201.000			-2.935			-1.468
179300.000			-2.936			-1.468
179401.000			-2.936			-1.468
179500.000			-2.936			-1.468
179600.000			-2.935			-1.468
179701.000			-2.936			-1.468
179800.000			-2.936			-1.468
179900.000			-2.935			-1.468
180002.000			-2.935			-1.467
180101.000			-2.935			-1.467
180200.000			-2.935			-1.468
180301.000			-2.935			-1.468
180400.000			-2.935			-1.468
180500.000			-2.935			-1.468
180601.000			-2.935			-1.467
180700.000			-2.935			-1.468
180800.000			-2.936			-1.468
180902.000			-2.936			-1.468
181001.000			-2.935			-1.467
181101.000			-2.935			-1.467
181201.000			-2.936			-1.468
181300.000			-2.936			-1.468
181400.000			-2.936			-1.468
181501.000			-2.936			-1.468
181600.000			-2.936			-1.468
181700.000			-2.935			-1.468
181802.000			-2.935			-1.468
181901.000			-2.936			-1.468
182001.000			-2.935			-1.468
182101.000			-2.935			-1.467
182200.000			-2.935			-1.467
182300.000			-2.935			-1.468
182400.000			-2.935			-1.468
182500.000			-2.935			-1.468
182601.000			-2.935			-1.468
182700.000			-2.935			-1.468
182801.000			-2.935			-1.467
182902.000			-2.935			-1.467
183000.000			-2.934			-1.467
183100.000			-2.935			-1.467
183201.000			-2.935			-1.467
183300.000			-2.935			-1.468
183400.000			-2.935			-1.468
183501.000			-2.934			-1.467
183600.000			-2.934			-1.467
183701.000			-2.933			-1.467
183802.000			-2.934			-1.467
183901.000			-2.933			-1.467
184000.000			-2.933			-1.467
184101.000			-2.934			-1.467
184200.000			-2.935			-1.467
184300.000			-2.934			-1.467
184401.000			-2.934			-1.467
184500.000			-2.935			-1.467
184600.000			-2.934			-1.467
184702.000			-2.935			-1.467
184801.000			-2.934			-1.467
184900.000			-2.933			-1.467
185001.000			-2.933			-1.467
185100.000			-2.934			-1.467
185200.000			-2.933			-1.466
185301.000			-2.932			-1.466
185400.000			-2.932			-1.466
185500.000			-2.932			-1.466
185602.000			-2.932			-1.466
185701.000			-2.932			-1.466
185801.000			-2.932			-1.466
185900.000			-2.934			-1.467
186000.000			-2.933			-1.467
186101.000			-2.932			-1.466
186200.000			-2.932			-1.466
186300.000			-2.932			-1.466
186401.000			-2.934			-1.467
186501.000			-2.933			-1.466
186601.000			-2.933			-1.466
186702.000			-2.933			-1.467
186800.000			-2.933			-1.466
186900.000			-2.933			-1.467
187001.000			-2.933			-1.467
187100.000			-2.932			-1.466
187200.000			-2.933			-1.466
187301.000			-2.933			-1.466
187400.000			-2.933			-1.466
187501.000			-2.933			-1.466
187602.000			-2.932			-1.466
187701.000			-2.933			-1.467
187800.000			-2.934			-1.467
187901.000			-2.933			-1.467
188000.000			-2.933			-1.466
188100.000			-2.932			-1.466
188201.000			-2.932			-1.466
188300.000			-2.931			-1.466
188400.000			-2.932			-1.466
188502.000			-2.932			-1.466
188601.000			-2.933			-1.466
188700.000			-2.932			-1.466
188800.000			-2.933			-1.466
188900.000			-2.933			-1.466
189001.000			-2.933			-1.466
189100.000			-2.932			-1.466
189200.000			-2.933			-1.466
189301.000			-2.932			-1.466
189401.000			-2.933			-1.466
189501.000			-2.932			-1.466
189602.000			-2.932			-1.466
189700.000			-2.933			-1.467
189800.000			-2.933			-1.466
189901.000			-2.933			-1.466
190000.000			-2.933			-1.466
190100.000			-2.932			-1.466
190201.000			-2.932			-1.466
190300.000			-2.932			-1.466
190401.000			-2.931			-1.466
190502.000			-2.931			-1.466
190600.000			-2.932			-1.466
190700.000			-2.932			-1.466
190801.000			-2.932			-1.466
190900.000			-2.932			-1.466
191000.000			-2.932			-1.466
191101.000			-2.932			-1.466
191200.000			-2.931			-1.466
191301.000			-2.932			-1.466
191402.000			-2.932			-1.466
191500.000			-2.932			-1.466
191600.000			-2.931			-1.466
191701.000			-2.931			-1.466
191800.000			-2.931			-1.466
191900.000			-2.931			-1.466
192000.000			-2.932			-1.466
192100.000			-2.931			-1.466
192202.000			-2.931			-1.465
192301.000			-2.931			-1.465
192401.000			-2.931			-1.465
192501.000			-2.932			-1.466
192600.000			-2.932			-1.466
192700.000			-2.931			-1.465
192801.000			-2.932			-1.466
192900.000			-2.932			-1.466
193000.000			-2.931			-1.466
193102.000			-2.931			-1.465
193201.000			-2.931			-1.465
193301.000			-2.931			-1.465
193401.000			-2.931			-1.465
193500.000			-2.931			-1.465
193600.000			-2.931			-1.466
193701.000			-2.931			-1.466
193800.000			-2.931			-1.465
193900.000			-2.930			-1.465
194001.000			-2.931			-1.465
194101.000			-2.931			-1.465
194201.000			-2.930			-1.465
194301.000			-2.930			-1.465
194400.000			-2.930			-1.465
194500.000			-2.931			-1.465
194601.000			-2.930			-1.465
194700.000			-2.931			-1.465
194800.000			-2.930			-1.465
194901.000			-2.930			-1.465
195001.000			-2.930			-1.465
195102.000			-2.930			-1.465
195201.000			-2.931			-1.465
195300.000			-2.930			-1.465
195401.000			-2.930			-1.465
195500.000			-2.930			-1.465
195600.000			-2.929			-1.465
195701.000			-2.929			-1.465
195800.000			-2.930			-1.465
195900.000			-2.929			-1.464
196002.000			-2.930			-1.465
196101.000			-2.930			-1.465
196200.000			-2.929			-1.465
196301.000			-2.930			-1.465
196400.000			-2.930			-1.465
196500.000			-2.930			-1.465
196601.000			-2.930			-1.465
196700.000			-2.930			-1.465
196800.000			-2.931			-1.466
196902.000			-2.931			-1.465
197001.000			-2.929			-1.464
197101.000			-2.929			-1.465
197201.000			-2.929			-1.465
197300.000			-2.929			-1.464
197400.000			-2.929			-1.464
197501.000			-2.930			-1.465
197600.000			-2.930			-1.465
197700.000			-2.930			-1.465
197801.000			-2.930			-1.465
197901.000			-2.929			-1.465
198001.000			-2.929			-1.464
198101.000			-2.930			-1.465
198200.000			-2.930			-1.465
198300.000			-2.929			-1.465
198400.000			-2.930			-1.465
198500.000			-2.930			-1.465
198601.000			-2.931			-1.465
198700.000			-2.929			-1.465
198800.000			-2.929			-1.465
198902.000			-2.928			-1.464
199001.000			-2.928			-1.464
199101.000			-2.929			-1.464
199201.000			-2.928			-1.464
199300.000			-2.929			-1.464
199400.000			-2.929			-1.465
199501.000			-2.928			-1.464
199600.000			-2.930			-1.465
199700.000			-2.929			-1.465
199801.000			-2.928			-1.464
199901.000			-2.928			-1.464
200001.000			-2.928			-1.464
200101.000			-2.928			-1.464
200200.000			-2.929			-1.464
200300.000			-2.928			-1.464
200401.000			-2.928			-1.464
200500.000			-2.928			-1.464
200600.000			-2.928			-1.464
200701.000			-2.928			-1.464
200801.000			-2.928			-1.464
200901.000			-2.927			-1.464
201001.000			-2.928			-1.464
201100.000			-2.929			-1.464
201200.000			-2.929			-1.464
201301.000			-2.928			-1.464
201400.000			-2.929			-1.464
201500.000			-2.929			-1.464
201600.000			-2.928			-1.464
201701.000			-2.928			-1.464
201802.000			-2.927			-1.464
201901.000			-2.928			-1.464
202000.000			-2.928			-1.464
202101.000			-2.928			-1.464
202200.000			-2.928			-1.464
202300.000			-2.928			-1.464
202401.000			-2.928			-1.464
202500.000			-2.929			-1.464
202601.000			-2.929			-1.464
202702.000			-2.928			-1.464
202801.000			-2.927			-1.464
202900.000			-2.927			-1.464
203001.000			-2.927			-1.464
203100.000			-2.927			-1.463
203200.000			-2.928			-1.464
203301.000			-2.928			-1.464
203400.000			-2.928			-1.464
203501.000			-2.927			-1.464
203602.000			-2.928			-1.464
203701.000			-2.928			-1.464
203800.000			-2.928			-1.464
203901.000			-2.927			-1.464
204000.000			-2.927			-1.463
204100.000			-2.927			-1.463
204201.000			-2.926			-1.463
204300.000			-2.927			-1.463
204401.000			-2.927			-1.463
204502.000			-2.926			-1.463
204601.000			-2.926			-1.463
204700.000			-2.927			-1.463
204800.000			-2.926			-1.463
204900.000			-2.927			-1.463
205001.000			-2.928			-1.464
205100.000			-2.927			-1.464
205200.000			-2.926			-1.463
205301.000			-2.926			-1.463
205401.000			-2.927			-1.463
205501.000			-2.927			-1.464
205601.000			-2.927			-1.463
205700.000			-2.927			-1.464
205800.000			-2.927			-1.464
205901.000			-2.926			-1.463
206000.000			-2.927			-1.463
206100.000			-2.926			-1.463
206201.000			-2.925			-1.462
206301.000			-2.925			-1.463
206401.000			-2.926			-1.463
206501.000			-2.926			-1.463
206600.000			-2.926			-1.463
206700.000			-2.926			-1.463
206801.000			-2.926			-1.463
206900.000			-2.926			-1.463
207000.000			-2.926			-1.463
207101.000			-2.926			-1.463
207201.000			-2.925			-1.463
207301.000			-2.926			-1.463
207401.000			-2.927			-1.463
207500.000			-2.926			-1.463
207600.000			-2.927			-1.463
207701.000			-2.926			-1.463
207800.000			-2.925			-1.463
207900.000			-2.926			-1.463
208000.000			-2.926			-1.463
208101.000			-2.926			-1.463
208202.000			-2.926			-1.463
208301.000			-2.926			-1.463
208400.000			-2.925			-1.463
208501.000			-2.926			-1.463
208600.000			-2.926			-1.463
208700.000			-2.927			-1.463
208801.000			-2.926			-1.463
208900.000			-2.925			-1.463
209000.000			-2.925			-1.462
209102.000			-2.926			-1.463
209201.000			-2.925			-1.462
209300.000			-2.924			-1.462
209401.000			-2.925			-1.462
209500.000			-2.924			-1.462
209600.000			-2.924			-1.462
209701.000			-2.926			-1.463
209800.000			-2.926			-1.463
209900.000			-2.925			-1.463
210002.000			-2.925			-1.462
210101.000			-2.926			-1.463
210200.000			-2.926			-1.463
210301.000			-2.925			-1.463
210400.000			-2.925			-1.463
210500.000			-2.926			-1.463
210601.000			-2.926			-1.463
210700.000			-2.925			-1.463
210800.000			-2.924			-1.462
210902.000			-2.924			-1.462
211001.000			-2.924			-1.462
211100.000			-2.924			-1.462
211200.000			-2.925			-1.462
211300.000			-2.925			-1.462
211401.000			-2.925			-1.462
211500.000			-2.924			-1.462
211600.000			-2.924			-1.462
211702.000			-2.924			-1.462
211801.000			-2.924			-1.462
211901.000			-2.925			-1.462
212001.000			-2.925			-1.463
212100.000			-2.925			-1.462
212200.000			-2.925			-1.462
212301.000			-2.924			-1.462
212400.000			-2.924			-1.462
212500.000			-2.923			-1.462
212602.000			-2.924			-1.462
212701.000			-2.924			-1.462
212801.000			-2.924			-1.462
212901.000			-2.923			-1.462
213000.000			-2.923			-1.462
213100.000			-2.924			-1.462
213201.000			-2.923			-1.462
213300.000			-2.923			-1.462
213400.000			-2.924			-1.462
213502.000			-2.923			-1.461
213601.000			-2.924			-1.462
213701.000			-2.924			-1.462
213801.000			-2.923			-1.462
213900.000			-2.922			-1.461
214000.000			-2.923			-1.461
214101.000			-2.923			-1.461
214200.000			-2.922			-1.461
214300.000			-2.923			-1.462
214402.000			-2.923			-1.461
214501.000			-2.923			-1.462
214602.000			-2.923			-1.461
214700.000			-2.923			-1.462
214800.000			-2.924			-1.462
214901.000			-2.923			-1.461
215000.000			-2.923			-1.462
215100.000			-2.923			-1.461
215201.000			-2.923			-1.461
215301.000			-2.923			-1.461
215401.000			-2.923			-1.461
215502.000			-2.922			-1.461
215600.000			-2.922			-1.461
215700.000			-2.923			-1.461
215801.000			-2.923			-1.462
215900.000			-2.923			-1.461
216000.000			-2.922			-1.461
216101.000			-2.923			-1.461
216201.000			-2.923			-1.461
216301.000			-2.923			-1.462
216402.000			-2.922			-1.461
216500.000			-2.922			-1.461
216600.000			-2.923			-1.461
216701.000			-2.922			-1.461
216800.000			-2.922			-1.461
216900.000			-2.922			-1.461
217001.000			-2.922			-1.461
217101.000			-2.921			-1.460
217201.000			-2.922			-1.461
217302.000			-2.922			-1.461
217400.000			-2.922			-1.461
217500.000			-2.922			-1.461
217600.000			-2.922			-1.461
217700.000			-2.921			-1.461
217801.000			-2.922			-1.461
217900.000			-2.921			-1.461
218000.000			-2.921			-1.461
218102.000			-2.921			-1.461
218201.000			-2.922			-1.461
218300.000			-2.922			-1.461
218401.000			-2.922			-1.461
218500.000			-2.921			-1.461
218600.000			-2.921			-1.461
218701.000			-2.921			-1.461
218800.000			-2.921			-1.461
218900.000			-2.922			-1.461
219002.000			-2.922			-1.461
219101.000			-2.921			-1.461
219200.000			-2.921			-1.460
219301.000			-2.921			-1.460
219400.000			-2.922			-1.461
219500.000			-2.921			-1.460
219601.000			-2.921			-1.460
219700.000			-2.922			-1.461
219800.000			-2.922			-1.461
219902.000			-2.921			-1.460
220001.000			-2.921			-1.461
220100.000			-2.921			-1.460
220201.000			-2.921			-1.461
220300.000			-2.921			-1.460
220400.000			-2.921			-1.461
220501.000			-2.921			-1.460
220600.000			-2.921			-1.460
220700.000			-2.921			-1.461
220802.000			-2.921			-1.460
220901.000			-2.921			-1.460
221001.000			-2.921			-1.460
221100.000			-2.921			-1.461
221200.000			-2.921			-1.460
221301.000			-2.920			-1.460
221400.000			-2.921			-1.460
221500.000			-2.921			-1.461
221601.000			-2.921			-1.460
221701.000			-2.921			-1.460
221801.000			-2.921			-1.460
221901.000			-2.921			-1.461
222000.000			-2.921			-1.461
222100.000			-2.921			-1.461
222201.000			-2.920			-1.460
222300.000			-2.921			-1.460
222400.000			-2.921			-1.460
222501.000			-2.920			-1.460
222601.000			-2.921			-1.460
222701.000			-2.921			-1.460
222801.000			-2.921			-1.460
222900.000			-2.921			-1.460
223000.000			-2.921			-1.460
223101.000			-2.920			-1.460
223200.000			-2.921			-1.460
223300.000			-2.921			-1.460
223401.000			-2.920			-1.460
223501.000			-2.920			-1.460
223601.000			-2.920			-1.460
223701.000			-2.919			-1.459
223800.000			-2.919			-1.460
223900.000			-2.919			-1.460
224000.000			-2.920			-1.460
224100.000			-2.920			-1.460
224201.000			-2.919			-1.460
224300.000			-2.920			-1.460
224401.000			-2.919			-1.460
224502.000			-2.919			-1.459
224601.000			-2.919			-1.460
224700.000			-2.919			-1.460
224801.000			-2.920			-1.460
224900.000			-2.921			-1.460
225000.000			-2.919			-1.460
225101.000			-2.920			-1.460
225200.000			-2.919			-1.460
225301.000			-2.919			-1.460
225402.000			-2.919			-1.460
225501.000			-2.919			-1.459
225600.000			-2.918			-1.459
225701.000			-2.919			-1.459
225800.000			-2.918			-1.459
225900.000			-2.919			-1.460
226001.000			-2.919			-1.460
226100.000			-2.919			-1.460
226200.000			-2.919			-1.460
226302.000			-2.919			-1.459
226401.000			-2.919			-1.460
226500.000			-2.919			-1.460
226601.000			-2.918			-1.459
226700.000			-2.918			-1.459
226800.000			-2.919			-1.459
226901.000			-2.918			-1.459
227000.000			-2.919			-1.460
227100.000			-2.919			-1.459
227202.000			-2.919			-1.459
227301.000			-2.919			-1.459
227401.000			-2.918			-1.459
227500.000			-2.919			-1.459
227600.000			-2.919			-1.460
227701.000			-2.918			-1.459
227800.000			-2.918			-1.459
227900.000			-2.917			-1.459
228001.000			-2.917			-1.459
228101.000			-2.918			-1.459
228201.000			-2.918			-1.459
228301.000			-2.918			-1.459
228400.000			-2.918			-1.459
228500.000			-2.917			-1.459
228601.000			-2.918			-1.459
228700.000			-2.918			-1.459
228800.000			-2.918			-1.459
228901.000			-2.918			-1.459
229001.000			-2.918			-1.459
229101.000			-2.918			-1.459
229202.000			-2.918			-1.459
229300.000			-2.917			-1.459
229400.000			-2.917			-1.459
229501.000			-2.918			-1.459
229600.000			-2.919			-1.460
229700.000			-2.919			-1.460
229801.000			-2.919			-1.459
229900.000			-2.919			-1.459
230001.000			-2.918			-1.459
230102.000			-2.917			-1.459
230200.000			-2.917			-1.459
230300.000			-2.917			-1.459
230400.000			-2.917			-1.458
230500.000			-2.917			-1.459
230601.000			-2.917			-1.459
230700.000			-2.918			-1.459
230800.000			-2.918			-1.459
230902.000			-2.918			-1.459
231001.000			-2.917			-1.459
231100.000			-2.917			-1.459
231201.000			-2.917			-1.458
231300.000			-2.918			-1.459
231400.000			-2.917			-1.459
231501.000			-2.916			-1.458
231600.000			-2.916			-1.458
231700.000			-2.918			-1.459
231802.000			-2.917			-1.459
231901.000			-2.917			-1.458
232001.000			-2.917			-1.458
232101.000			-2.918			-1.459
232200.000			-2.918			-1.459
232300.000			-2.917			-1.459
232401.000			-2.917			-1.458
232500.000			-2.917			-1.459
232600.000			-2.919			-1.459
232702.000			-2.918			-1.459
232801.000			-2.916			-1.458
232901.000			-2.916			-1.458
233001.000			-2.917			-1.458
233100.000			-2.917			-1.458
233200.000			-2.915			-1.458
233301.000			-2.917			-1.458
233400.000			-2.918			-1.459
233500.000			-2.917			-1.458
233602.000			-2.917			-1.458
233701.000			-2.917			-1.458
233802.000			-2.916			-1.458
233900.000			-2.916			-1.458
234000.000			-2.917			-1.458
234101.000			-2.917			-1.458
234200.000			-2.917			-1.458
234300.000			-2.917			-1.458
234401.000			-2.916			-1.458
234500.000			-2.915			-1.458
234601.000			-2.916			-1.458
234702.000			-2.916			-1.458
234800.000			-2.917			-1.458
234900.000			-2.917			-1.458
235001.000			-2.916			-1.458
235100.000			-2.916			-1.458
235200.000			-2.916			-1.458
235301.000			-2.916			-1.458
235400.000			-2.916			-1.458
235501.000			-2.917			-1.458
235602.000			-2.916			-1.458
235700.000			-2.916			-1.458
235800.000			-2.915			-1.458
235901.000			-2.916			-1.458
236000.000			-2.916			-1.458
236100.000			-2.916			-1.458
236201.000			-2.917			-1.458
236300.000			-2.915			-1.458
236401.000			-2.915			-1.458
236502.000			-2.915			-1.458
236601.000			-2.915			-1.458
236700.000			-2.916			-1.458
236800.000			-2.915			-1.458
236900.000			-2.916			-1.458
237001.000			-2.915			-1.457
237100.000			-2.915			-1.458
237200.000			-2.915			-1.457
237301.000			-2.915			-1.458
237401.000			-2.915			-1.458
237501.000			-2.916			-1.458
237601.000			-2.916			-1.458
237700.000			-2.916			-1.458
237800.000			-2.915			-1.458
237901.000			-2.915			-1.458
238000.000			-2.916			-1.458
238100.000			-2.916			-1.458
238201.000			-2.915			-1.457
238301.000			-2.915			-1.457
238401.000			-2.915			-1.458
238501.000			-2.916			-1.458
238600.000			-2.916			-1.458
238700.000			-2.915			-1.458
238801.000			-2.916			-1.458
238900.000			-2.916			-1.458
239000.000			-2.914			-1.457
239101.000			-2.914			-1.457
239201.000			-2.916			-1.458
239301.000			-2.915			-1.458
239401.000			-2.915			-1.457
239500.000			-2.914			-1.457
239600.000			-2.914			-1.457
239701.000			-2.914			-1.457
239800.000			-2.914			-1.457
239900.000			-2.914			-1.457
240000.000			-2.915			-1.457
240101.000			-2.915			-1.457
240202.000			-2.915			-1.457
240301.000			-2.914			-1.457
240400.000			-2.915			-1.457
240501.000			-2.914			-1.457
240600.000			-2.915			-1.457
240700.000			-2.915			-1.458
240801.000			-2.914			-1.457
240900.000			-2.914			-1.457
241001.000			-2.914			-1.457
241102.000			-2.915			-1.457
241201.000			-2.914			-1.457
241300.000			-2.915			-1.457
241401.000			-2.914			-1.457
241500.000			-2.913			-1.457
241600.000			-2.914			-1.457
241701.000			-2.914			-1.457
241800.000			-2.914			-1.457
241901.000			-2.914			-1.457
242002.000			-2.913			-1.457
242101.000			-2.913			-1.457
242200.000			-2.914			-1.457
242301.000			-2.914			-1.457
242400.000			-2.914			-1.457
242500.000			-2.914			-1.457
242601.000			-2.914			-1.457
242700.000			-2.914			-1.457
242801.000			-2.914			-1.457
242902.000			-2.914			-1.457
243001.000			-2.914			-1.457
243100.000			-2.915			-1.457
243200.000			-2.914			-1.457
243300.000			-2.913			-1.456
243401.000			-2.913			-1.457
243500.000			-2.913			-1.456
243600.000			-2.914			-1.457
243701.000			-2.915			-1.457
243801.000			-2.913			-1.457
243901.000			-2.913			-1.457
244001.000			-2.914			-1.457
244100.000			-2.915			-1.457
244200.000			-2.914			-1.457
244301.000			-2.913			-1.457
244400.000			-2.913			-1.457
244500.000			-2.913			-1.457
244601.000			-2.913			-1.457
244701.000			-2.913			-1.456
244801.000			-2.913			-1.456
244901.000			-2.913			-1.457
245000.000			-2.913			-1.457
245100.000			-2.913			-1.457
245201.000			-2.913			-1.457
245300.000			-2.913			-1.457
245400.000			-2.913			-1.456
245501.000			-2.913			-1.456
245601.000			-2.913			-1.456
245701.000			-2.912			-1.456
245801.000			-2.912			-1.456
245900.000			-2.913			-1.456
246000.000			-2.912			-1.456
246101.000			-2.912			-1.456
246200.000			-2.913			-1.456
246300.000			-2.913			-1.456
246400.000			-2.913			-1.456
246501.000			-2.912			-1.456
246602.000			-2.913			-1.456
246701.000			-2.913			-1.457
246800.000			-2.913			-1.456
246901.000			-2.912			-1.456
247000.000			-2.911			-1.456
247100.000			-2.912			-1.456
247201.000			-2.912			-1.456
247300.000			-2.912			-1.456
247400.000			-2.911			-1.456
247502.000			-2.912			-1.456
247601.000			-2.912			-1.456
247700.000			-2.911			-1.456
247801.000			-2.911			-1.456
247900.000			-2.912			-1.456
248000.000			-2.912			-1.456
248101.000			-2.913			-1.456
248200.000			-2.913			-1.456
248300.000			-2.912			-1.456
248402.000			-2.912			-1.456
248501.000			-2.912			-1.456
248600.000			-2.912			-1.456
248701.000			-2.911			-1.456
248800.000			-2.912			-1.456
248900.000			-2.913			-1.457
249001.000			-2.912			-1.456
249100.000			-2.912			-1.456
249200.000			-2.911			-1.456
249302.000			-2.912			-1.456
249401.000			-2.912			-1.456
249502.000			-2.912			-1.456
249600.000			-2.912			-1.456
249700.000			-2.912			-1.456
249801.000			-2.911			-1.456
249900.000			-2.912			-1.456
250000.000			-2.912			-1.456
250101.000			-2.912			-1.456
250201.000			-2.912			-1.456
250301.000			-2.912			-1.456
250402.000			-2.912			-1.456
250500.000			-2.911			-1.456
250600.000			-2.911			-1.455
250701.000			-2.912			-1.456
250800.000			-2.912			-1.456
250900.000			-2.912			-1.456
251001.000			-2.911			-1.456
251100.000			-2.911			-1.456
251201.000			-2.912			-1.456
251302.000			-2.911			-1.455
251400.000			-2.912			-1.456
251500.000			-2.910			-1.455
251601.000			-2.911			-1.455
251700.000			-2.912			-1.456
251800.000			-2.910			-1.455
251901.000			-2.910			-1.455
252000.000			-2.910			-1.455
252101.000			-2.910			-1.455
252202.000			-2.911			-1.455
252300.000			-2.910			-1.455
252400.000			-2.910			-1.455
252501.000			-2.911			-1.455
252600.000			-2.910			-1.455
252700.000			-2.911			-1.455
252800.000			-2.911			-1.455
252900.000			-2.911			-1.456
253002.000			-2.911			-1.455
253101.000			-2.911			-1.455
253200.000			-2.911			-1.456
253301.000			-2.911			-1.456
253400.000			-2.911			-1.456
253500.000			-2.911			-1.455
253601.000			-2.910			-1.455
253700.000			-2.911			-1.455
253800.000			-2.910			-1.455
253902.000			-2.909			-1.455
254001.000			-2.909			-1.455
254100.000			-2.910			-1.455
254201.000			-2.910			-1.455
254300.000			-2.910			-1.455
254400.000			-2.910			-1.455
254501.000			-2.911			-1.455
254600.000			-2.911			-1.455
254700.000			-2.910			-1.455
254802.000			-2.910			-1.455
254901.000			-2.910			-1.455
255000.000			-2.910			-1.455
255101.000			-2.910			-1.455
255200.000			-2.911			-1.455
255300.000			-2.910			-1.455
255401.000			-2.910			-1.455
255500.000			-2.909			-1.455
255600.000			-2.909			-1.455
255702.000			-2.910			-1.455
255801.000			-2.909			-1.454
255902.000			-2.909			-1.454
256000.000			-2.909			-1.454
256100.000			-2.910			-1.455
256201.000			-2.910			-1.455
256300.000			-2.909			-1.455
256400.000			-2.910			-1.455
256501.000			-2.909			-1.455
256600.000			-2.910			-1.455
256701.000			-2.909			-1.455
256802.000			-2.910			-1.455
256900.000			-2.910			-1.455
257000.000			-2.909			-1.455
257101.000			-2.909			-1.455
257200.000			-2.909			-1.454
257300.000			-2.910			-1.455
257401.000			-2.910			-1.455
257500.000			-2.910			-1.455
257601.000			-2.910			-1.455
257702.000			-2.909			-1.455
257801.000			-2.909			-1.455
257900.000			-2.910			-1.455
258001.000			-2.910			-1.455
258100.000			-2.910			-1.455
258200.000			-2.910			-1.455
258301.000			-2.911			-1.455
258400.000			-2.910			-1.455
258500.000			-2.910			-1.455
258602.000			-2.910			-1.455
258701.000			-2.910			-1.455
258800.000			-2.909			-1.454
258901.000			-2.909			-1.455
259000.000			-2.909			-1.454
259100.000			-2.908			-1.454
259200.000			-2.909			-1.454
259300.000			-2.909			-1.455
259401.000			-2.909			-1.455
259501.000			-2.909			-1.455
259601.000			-2.909			-1.455
259702.000			-2.910			-1.455
259800.000			-2.910			-1.455
259900.000			-2.909			-1.454
260001.000			-2.910			-1.455
260100.000			-2.909			-1.454
260200.000			-2.909			-1.454
260301.000			-2.909			-1.455
260400.000			-2.909			-1.454
260501.000			-2.909			-1.455
260602.000			-2.910			-1.455
260700.000			-2.909			-1.455
260800.000			-2.908			-1.454
260901.000			-2.908			-1.454
261000.000			-2.908			-1.454
261100.000			-2.909			-1.455
261201.000			-2.910			-1.455
261300.000			-2.910			-1.455
261401.000			-2.909			-1.455
261502.000			-2.909			-1.455
261601.000			-2.908			-1.454
261700.000			-2.908			-1.454
261801.000			-2.909			-1.455
261900.000			-2.909			-1.454
262000.000			-2.907			-1.454
262101.000			-2.909			-1.454
262200.000			-2.909			-1.455
262302.000			-2.910			-1.455
262401.000			-2.909			-1.455
262501.000			-2.908			-1.454
262601.000			-2.908			-1.454
262700.000			-2.908			-1.454
262800.000			-2.907			-1.454
262901.000			-2.907			-1.454
263000.000			-2.909			-1.454
263100.000			-2.908			-1.454
263201.000			-2.908			-1.454
263301.000			-2.909			-1.454
263401.000			-2.909			-1.454
263501.000			-2.909			-1.454
263600.000			-2.908			-1.454
263700.000			-2.909			-1.455
263801.000			-2.909			-1.455
263900.000			-2.908			-1.454
264000.000			-2.907			-1.454
264101.000			-2.908			-1.454
264201.000			-2.908			-1.454
264301.000			-2.908			-1.454
264401.000			-2.908			-1.454
264500.000			-2.908			-1.454
264600.000			-2.908			-1.454
264701.000			-2.908			-1.454
264800.000			-2.908			-1.454
264900.000			-2.908			-1.454
265001.000			-2.907			-1.454
265101.000			-2.908			-1.454
265201.000			-2.908			-1.454
265302.000			-2.907			-1.454
265400.000			-2.908			-1.454
265500.000			-2.909			-1.454
265600.000			-2.908			-1.454
265700.000			-2.908			-1.454
265801.000			-2.907			-1.453
265900.000			-2.907			-1.453
266000.000			-2.907			-1.454
266102.000			-2.907			-1.453
266201.000			-2.907			-1.453
266300.000			-2.907			-1.453
266401.000			-2.908			-1.454
266500.000			-2.908			-1.454
266600.000			-2.907			-1.454
266701.000			-2.908			-1.454
266800.000			-2.908			-1.454
266900.000			-2.907			-1.453
267002.000			-2.906			-1.453
267101.000			-2.906			-1.453
267201.000			-2.907			-1.453
267301.000			-2.907			-1.453
267400.000			-2.908			-1.454
267500.000			-2.907			-1.454
267601.000			-2.907			-1.454
267700.000			-2.908			-1.454
267800.000			-2.907			-1.454
267901.000			-2.906			-1.453
268001.000			-2.907			-1.453
268101.000			-2.907			-1.453
268201.000			-2.908			-1.454
268300.000			-2.908			-1.454
268400.000			-2.907			-1.453
268501.000			-2.907			-1.454
268600.000			-2.906			-1.453
268700.000			-2.907			-1.453
268800.000			-2.907			-1.454
268901.000			-2.907			-1.454
269002.000			-2.907			-1.453
269101.000			-2.907			-1.454
269200.000			-2.907			-1.453
269301.000			-2.906			-1.453
269400.000			-2.907			-1.453
269500.000			-2.907			-1.453
269601.000			-2.906			-1.453
269700.000			-2.907			-1.453
269800.000			-2.906			-1.453
269902.000			-2.906			-1.453
270001.000			-2.906			-1.453
270100.000			-2.905			-1.453
270201.000			-2.907			-1.453
270300.000			-2.907			-1.453
270400.000			-2.907			-1.453
270501.000			-2.906			-1.453
270600.000			-2.907			-1.453
270700.000			-2.906			-1.453
270802.000			-2.906			-1.453
270901.000			-2.907			-1.453
271000.000			-2.906			-1.453
271101.000			-2.906			-1.453
271200.000			-2.906			-1.453
271300.000			-2.905			-1.453
271401.000			-2.906			-1.453
271500.000			-2.905			-1.453
271600.000			-2.905			-1.452
271702.000			-2.905			-1.452
271801.000			-2.905			-1.453
271900.000			-2.905			-1.453
272000.000			-2.906			-1.453
272100.000			-2.906			-1.453
272201.000			-2.906			-1.453
272300.000			-2.905			-1.453
272400.000			-2.905			-1.453
272501.000			-2.906			-1.453
272601.000			-2.906			-1.453
272701.000			-2.906			-1.453
272801.000			-2.906			-1.453
272900.000			-2.906			-1.453
273000.000			-2.905			-1.453
273101.000			-2.905			-1.452
273200.000			-2.905			-1.453
273300.000			-2.906			-1.453
273401.000			-2.906			-1.453
273501.000			-2.905			-1.453
273601.000			-2.905			-1.453
273702.000			-2.905			-1.453
273800.000			-2.905			-1.452
273900.000			-2.905			-1.452
274001.000			-2.905			-1.452
274100.000			-2.905			-1.453
274200.000			-2.905			-1.453
274301.000			-2.905			-1.452
274400.000			-2.905			-1.452
274501.000			-2.905			-1.452
274602.000			-2.905			-1.453
274700.000			-2.905			-1.453
274800.000			-2.905			-1.453
274901.000			-2.905			-1.452
275000.000			-2.905			-1.453
275100.000			-2.905			-1.453
275200.000			-2.905			-1.453
275300.000			-2.906			-1.453
275402.000			-2.905			-1.453
275501.000			-2.905			-1.453
275600.000			-2.906			-1.453
275701.000			-2.905			-1.453
275800.000			-2.904			-1.452
275900.000			-2.903			-1.452
276001.000			-2.904			-1.452
276100.000			-2.906			-1.453
276200.000			-2.906			-1.453
276302.000			-2.905			-1.453
276401.000			-2.906			-1.453
276501.000			-2.906			-1.453
276601.000			-2.904			-1.452
276700.000			-2.904			-1.452
276800.000			-2.905			-1.452
276901.000			-2.906			-1.453
277000.000			-2.905			-1.453
277100.000			-2.906			-1.453
277202.000			-2.904			-1.452
277301.000			-2.905			-1.452
277401.000			-2.905			-1.453
277501.000			-2.905			-1.452
277600.000			-2.904			-1.452
277700.000			-2.905			-1.453
277801.000			-2.905			-1.453
277900.000			-2.905			-1.452
278000.000			-2.905			-1.452
278101.000			-2.904			-1.452
278201.000			-2.904			-1.452
278302.000			-2.905			-1.453
278400.000			-2.904			-1.452
278500.000			-2.905			-1.453
278601.000			-2.905			-1.453
278700.000			-2.905			-1.453
278800.000			-2.905			-1.452
278901.000			-2.905			-1.453
279000.000			-2.905			-1.452
279101.000			-2.904			-1.452
279202.000			-2.905			-1.452
279301.000			-2.904			-1.452
279400.000			-2.904			-1.452
279501.000			-2.904			-1.452
279600.000			-2.904			-1.452
279700.000			-2.903			-1.452
279801.000			-2.904			-1.452
279900.000			-2.904			-1.452
280000.000			-2.904			-1.452
280102.000			-2.905			-1.453
280201.000			-2.906			-1.453
280300.000			-2.905			-1.453
280401.000			-2.905			-1.453
280500.000			-2.905			-1.453
280600.000			-2.906			-1.453
280701.000			-2.905			-1.452
280800.000			-2.905			-1.453
280900.000			-2.905			-1.452
281002.000			-2.904			-1.452
281101.000			-2.904			-1.452
281200.000			-2.905			-1.452
281301.000			-2.904			-1.452
281400.000			-2.903			-1.452
281500.000			-2.904			-1.452
281600.000			-2.905			-1.452
281700.000			-2.905			-1.452
281801.000			-2.904			-1.452
281901.000			-2.904			-1.452
282001.000			-2.903			-1.452
282101.000			-2.902			-1.451
282200.000			-2.903			-1.451
282300.000			-2.903			-1.452
282401.000			-2.903			-1.451
282500.000			-2.903			-1.451
282600.000			-2.903			-1.452
282701.000			-2.904			-1.452
282801.000			-2.904			-1.452
282901.000			-2.902			-1.451
283001.000			-2.903			-1.452
283100.000			-2.903			-1.452
283200.000			-2.903			-1.451
283301.000			-2.902			-1.451
283400.000			-2.903			-1.452
283500.000			-2.904			-1.452
283601.000			-2.904			-1.452
283701.000			-2.904			-1.452
283801.000			-2.905			-1.452
283901.000			-2.904			-1.452
284000.000			-2.903			-1.451
284100.000			-2.903			-1.452
284201.000			-2.903			-1.452
284300.000			-2.903			-1.452
284400.000			-2.905			-1.452
284501.000			-2.904			-1.452
284601.000			-2.903			-1.452
284702.000			-2.904			-1.452
284800.000			-2.903			-1.452
284900.000			-2.903			-1.452
285001.000			-2.903			-1.452
285100.000			-2.905			-1.452
285200.000			-2.904			-1.452
285301.000			-2.903			-1.451
285400.000			-2.903			-1.452
285501.000			-2.903			-1.452
285602.000			-2.903			-1.452
285701.000			-2.903			-1.451
285800.000			-2.903			-1.451
285901.000			-2.904			-1.452
286000.000			-2.902			-1.451
286100.000			-2.903			-1.451
286201.000			-2.903			-1.451
286300.000			-2.903			-1.451
286401.000			-2.902			-1.451
286502.000			-2.903			-1.451
286601.000			-2.903			-1.451
286700.000			-2.902			-1.451
286801.000			-2.902			-1.451
286900.000			-2.903			-1.451
287000.000			-2.903			-1.451
287101.000			-2.902			-1.451
287200.000			-2.903			-1.451
287300.000			-2.902			-1.451
287402.000			-2.903			-1.451
287501.000			-2.902			-1.451
287600.000			-2.902			-1.451
287701.000			-2.903			-1.451
287800.000			-2.904			-1.452
287900.000			-2.904			-1.452
288000.000			-2.903			-1.451
288100.000			-2.902			-1.451
288201.000			-2.902			-1.451
288301.000			-2.902			-1.451
288401.000			-2.902			-1.451
288502.000			-2.902			-1.451
288600.000			-2.902			-1.451
288700.000			-2.901			-1.450
288801.000			-2.901			-1.451
288900.000			-2.901			-1.451
289000.000			-2.902			-1.451
289101.000			-2.902			-1.451
289200.000			-2.902			-1.451
289301.000			-2.902			-1.451
289402.000			-2.901			-1.451
289500.000			-2.903			-1.451
289600.000			-2.902			-1.451
289701.000			-2.901			-1.451
289800.000			-2.902			-1.451
289900.000			-2.902			-1.451
290001.000			-2.902			-1.451
290100.000			-2.902			-1.451
290201.000			-2.902			-1.451
290302.000			-2.902			-1.451
290401.000			-2.902			-1.451
290500.000			-2.902			-1.451
290601.000			-2.902			-1.451
290700.000			-2.901			-1.451
290800.000			-2.901			-1.450
290901.000			-2.900			-1.450
291000.000			-2.901			-1.451
291102.000			-2.901			-1.451
291201.000			-2.902			-1.451
291301.000			-2.902			-1.451
291401.000			-2.901			-1.451
291500.000			-2.901			-1.451
291600.000			-2.902			-1.451
291701.000			-2.903			-1.451
291800.000			-2.902			-1.451
291900.000			-2.901			-1.450
292002.000			-2.900			-1.450
292101.000			-2.901			-1.451
292201.000			-2.902			-1.451
292301.000			-2.901			-1.451
292400.000			-2.902			-1.451
292500.000			-2.901			-1.450
292601.000			-2.901			-1.451
292700.000			-2.901			-1.451
292800.000			-2.902			-1.451
292902.000			-2.901			-1.451
293001.000			-2.901			-1.451
293101.000			-2.900			-1.450
293201.000			-2.901			-1.451
293300.000			-2.901			-1.451
293400.000			-2.901			-1.450
293501.000			-2.901			-1.450
293600.000			-2.901			-1.451
293700.000			-2.901			-1.450
293801.000			-2.901			-1.450
293901.000			-2.901			-1.451
294001.000			-2.901			-1.450
294101.000			-2.901			-1.450
294200.000			-2.900			-1.450
294300.000			-2.900			-1.450
294400.000			-2.900			-1.450
294500.000			-2.900			-1.450
294601.000			-2.900			-1.450
294700.000			-2.901			-1.450
294801.000			-2.900			-1.450
294902.000			-2.901			-1.450
295000.000			-2.901			-1.451
295100.000			-2.901			-1.451
295201.000			-2.901			-1.450
295300.000			-2.901			-1.450
295400.000			-2.900			-1.450
295501.000			-2.900			-1.450
295600.000			-2.900			-1.450
295701.000			-2.900			-1.450
295802.000			-2.900			-1.450
295901.000			-2.900			-1.450
296000.000			-2.900			-1.450
296101.000			-2.901			-1.450
296200.000			-2.900			-1.450
296300.000			-2.900			-1.450
296401.000			-2.899			-1.450
296500.000			-2.899			-1.450
296600.000			-2.900			-1.450
296702.000			-2.901			-1.450
296801.000			-2.900			-1.450
296900.000			-2.900			-1.450
297001.000			-2.900			-1.450
297100.000			-2.900			-1.450
297200.000			-2.900			-1.450
297301.000			-2.899			-1.450
297400.000			-2.899			-1.450
297500.000			-2.899			-1.449
297602.000			-2.899			-1.450
297701.000			-2.899			-1.449
297802.000			-2.899			-1.450
297900.000			-2.900			-1.450
298000.000			-2.900			-1.450
298101.000			-2.901			-1.450
298200.000			-2.900			-1.450
298300.000			-2.900			-1.450
298401.000			-2.900			-1.450
298500.000			-2.900			-1.450
298600.000			-2.899			-1.450
298702.000			-2.898			-1.449
298801.000			-2.900			-1.450
298900.000			-2.900			-1.450
299001.000			-2.899			-1.450
299100.000			-2.900			-1.450
299200.000			-2.900			-1.450
299301.000			-2.900			-1.450
299400.000			-2.899			-1.450
299500.000			-2.900			-1.450
299602.000			-2.900			-1.450
299701.000			-2.899			-1.449
299801.000			-2.899			-1.449
299901.000			-2.900			-1.450
