# Acquired on 10/01/2024 14:49:50 
# SPIDER: Creep_-5mm_07714532C-2
# CREEP MEASUREMENT

# time [ms]		force [N]		stiffness [N/mm]
0.000			7.703			-1.541
101.000			8.329			-1.666
202.000			8.611			-1.722
300.000			8.659			-1.732
400.000			8.601			-1.720
501.000			8.578			-1.716
600.000			8.560			-1.712
700.000			8.544			-1.709
802.000			8.530			-1.706
901.000			8.517			-1.703
1000.000			8.504			-1.701
1101.000			8.484			-1.697
1200.000			8.474			-1.695
1300.000			8.465			-1.693
1401.000			8.457			-1.691
1500.000			8.449			-1.690
1601.000			8.441			-1.688
1702.000			8.435			-1.687
1800.000			8.422			-1.684
1900.000			8.416			-1.683
2001.000			8.410			-1.682
2100.000			8.404			-1.681
2200.000			8.399			-1.680
2302.000			8.394			-1.679
2401.000			8.389			-1.678
2500.000			8.379			-1.676
2601.000			8.373			-1.675
2700.000			8.369			-1.674
2800.000			8.366			-1.673
2900.000			8.363			-1.673
3000.000			8.359			-1.672
3102.000			8.354			-1.671
3201.000			8.350			-1.670
3300.000			8.344			-1.669
3401.000			8.340			-1.668
3500.000			8.336			-1.667
3600.000			8.333			-1.667
3701.000			8.329			-1.666
3800.000			8.326			-1.665
3901.000			8.323			-1.665
4002.000			8.318			-1.664
4100.000			8.315			-1.663
4200.000			8.312			-1.662
4301.000			8.309			-1.662
4400.000			8.307			-1.661
4500.000			8.304			-1.661
4602.000			8.301			-1.660
4701.000			8.295			-1.659
4800.000			8.294			-1.659
4901.000			8.291			-1.658
5000.000			8.289			-1.658
5100.000			8.285			-1.657
5201.000			8.283			-1.657
5300.000			8.281			-1.656
5401.000			8.276			-1.655
5502.000			8.274			-1.655
5600.000			8.272			-1.654
5700.000			8.270			-1.654
5801.000			8.268			-1.654
5900.000			8.266			-1.653
6000.000			8.264			-1.653
6100.000			8.262			-1.652
6201.000			8.258			-1.652
6302.000			8.257			-1.651
6400.000			8.255			-1.651
6500.000			8.252			-1.650
6601.000			8.251			-1.650
6700.000			8.250			-1.650
6800.000			8.248			-1.650
6902.000			8.244			-1.649
7001.000			8.242			-1.648
7100.000			8.241			-1.648
7201.000			8.240			-1.648
7300.000			8.239			-1.648
7400.000			8.236			-1.647
7501.000			8.234			-1.647
7600.000			8.232			-1.646
7701.000			8.230			-1.646
7802.000			8.229			-1.646
7900.000			8.228			-1.646
8000.000			8.227			-1.645
8101.000			8.225			-1.645
8200.000			8.223			-1.645
8300.000			8.222			-1.644
8402.000			8.219			-1.644
8501.000			8.218			-1.644
8600.000			8.215			-1.643
8701.000			8.215			-1.643
8800.000			8.214			-1.643
8900.000			8.213			-1.643
9001.000			8.211			-1.642
9100.000			8.207			-1.641
9202.000			8.206			-1.641
9301.000			8.206			-1.641
9400.000			8.205			-1.641
9501.000			8.203			-1.641
9600.000			8.202			-1.640
9700.000			8.201			-1.640
9801.000			8.197			-1.639
9900.000			8.196			-1.639
10001.000			8.195			-1.639
10102.000			8.193			-1.639
10200.000			8.192			-1.638
10300.000			8.191			-1.638
10401.000			8.189			-1.638
10500.000			8.188			-1.638
10600.000			8.186			-1.637
10701.000			8.184			-1.637
10801.000			8.183			-1.637
10901.000			8.183			-1.637
11001.000			8.181			-1.636
11100.000			8.180			-1.636
11200.000			8.180			-1.636
11301.000			8.177			-1.635
11400.000			8.176			-1.635
11500.000			8.175			-1.635
11602.000			8.175			-1.635
11701.000			8.174			-1.635
11800.000			8.173			-1.635
11901.000			8.172			-1.634
12000.000			8.169			-1.634
12100.000			8.169			-1.634
12201.000			8.169			-1.634
12300.000			8.167			-1.633
12402.000			8.167			-1.633
12501.000			8.165			-1.633
12600.000			8.165			-1.633
12701.000			8.163			-1.633
12800.000			8.162			-1.632
12900.000			8.161			-1.632
13001.000			8.160			-1.632
13100.000			8.159			-1.632
13201.000			8.157			-1.631
13302.000			8.157			-1.631
13400.000			8.156			-1.631
13500.000			8.154			-1.631
13601.000			8.154			-1.631
13700.000			8.154			-1.631
13800.000			8.153			-1.631
13901.000			8.151			-1.630
14001.000			8.150			-1.630
14101.000			8.149			-1.630
14201.000			8.147			-1.629
14300.000			8.147			-1.629
14400.000			8.145			-1.629
14501.000			8.144			-1.629
14600.000			8.144			-1.629
14701.000			8.143			-1.629
14802.000			8.142			-1.628
14901.000			8.140			-1.628
15000.000			8.139			-1.628
15101.000			8.139			-1.628
15200.000			8.138			-1.628
15300.000			8.137			-1.627
15401.000			8.136			-1.627
15501.000			8.135			-1.627
15602.000			8.133			-1.627
15701.000			8.133			-1.627
15800.000			8.133			-1.627
15901.000			8.131			-1.626
16000.000			8.130			-1.626
16100.000			8.130			-1.626
16201.000			8.128			-1.626
16300.000			8.127			-1.625
16401.000			8.127			-1.625
16502.000			8.125			-1.625
16600.000			8.124			-1.625
16700.000			8.124			-1.625
16801.000			8.124			-1.625
16900.000			8.123			-1.625
17000.000			8.122			-1.624
17101.000			8.122			-1.624
17201.000			8.121			-1.624
17301.000			8.120			-1.624
17401.000			8.119			-1.624
17500.000			8.118			-1.624
17600.000			8.116			-1.623
17701.000			8.116			-1.623
17800.000			8.115			-1.623
17900.000			8.114			-1.623
18002.000			8.114			-1.623
18101.000			8.113			-1.623
18200.000			8.112			-1.622
18301.000			8.112			-1.622
18400.000			8.112			-1.622
18500.000			8.111			-1.622
18601.000			8.109			-1.622
18701.000			8.109			-1.622
18802.000			8.108			-1.622
18901.000			8.108			-1.622
19000.000			8.107			-1.621
19101.000			8.106			-1.621
19200.000			8.105			-1.621
19300.000			8.103			-1.621
19401.000			8.103			-1.621
19501.000			8.102			-1.620
19601.000			8.102			-1.620
19701.000			8.101			-1.620
19800.000			8.100			-1.620
19900.000			8.099			-1.620
20001.000			8.098			-1.620
20100.000			8.097			-1.619
20200.000			8.096			-1.619
20301.000			8.096			-1.619
20401.000			8.095			-1.619
20501.000			8.095			-1.619
20601.000			8.094			-1.619
20700.000			8.092			-1.618
20800.000			8.091			-1.618
20901.000			8.091			-1.618
21000.000			8.091			-1.618
21100.000			8.089			-1.618
21202.000			8.089			-1.618
21301.000			8.090			-1.618
21400.000			8.088			-1.618
21501.000			8.087			-1.617
21600.000			8.087			-1.617
21700.000			8.086			-1.617
21801.000			8.084			-1.617
21901.000			8.085			-1.617
22002.000			8.083			-1.617
22101.000			8.083			-1.617
22200.000			8.083			-1.617
22301.000			8.082			-1.616
22400.000			8.081			-1.616
22500.000			8.081			-1.616
22601.000			8.079			-1.616
22701.000			8.079			-1.616
22801.000			8.078			-1.616
22902.000			8.079			-1.616
23000.000			8.077			-1.615
23100.000			8.076			-1.615
23201.000			8.076			-1.615
23300.000			8.076			-1.615
23400.000			8.075			-1.615
23502.000			8.075			-1.615
23601.000			8.074			-1.615
23700.000			8.072			-1.614
23801.000			8.072			-1.614
23900.000			8.072			-1.614
24000.000			8.071			-1.614
24101.000			8.070			-1.614
24200.000			8.069			-1.614
24301.000			8.070			-1.614
24402.000			8.068			-1.614
24500.000			8.068			-1.614
24600.000			8.067			-1.613
24701.000			8.066			-1.613
24800.000			8.066			-1.613
24900.000			8.065			-1.613
25001.000			8.065			-1.613
25101.000			8.064			-1.613
25202.000			8.064			-1.613
25301.000			8.064			-1.613
25400.000			8.063			-1.613
25501.000			8.063			-1.613
25600.000			8.062			-1.612
25700.000			8.061			-1.612
25801.000			8.061			-1.612
25901.000			8.061			-1.612
26001.000			8.061			-1.612
26101.000			8.060			-1.612
26200.000			8.058			-1.612
26300.000			8.058			-1.612
26401.000			8.058			-1.612
26500.000			8.057			-1.611
26600.000			8.057			-1.611
26702.000			8.057			-1.611
26801.000			8.056			-1.611
26900.000			8.054			-1.611
27001.000			8.054			-1.611
27100.000			8.053			-1.611
27200.000			8.053			-1.611
27301.000			8.053			-1.611
27400.000			8.052			-1.610
27501.000			8.052			-1.610
27602.000			8.052			-1.610
27700.000			8.052			-1.610
27800.000			8.050			-1.610
27901.000			8.050			-1.610
28000.000			8.049			-1.610
28100.000			8.047			-1.609
28201.000			8.047			-1.609
28301.000			8.048			-1.610
28402.000			8.047			-1.609
28500.000			8.046			-1.609
28600.000			8.045			-1.609
28701.000			8.045			-1.609
28800.000			8.044			-1.609
28900.000			8.045			-1.609
29001.000			8.044			-1.609
29101.000			8.043			-1.609
29201.000			8.042			-1.608
29301.000			8.042			-1.608
29400.000			8.041			-1.608
29500.000			8.041			-1.608
29601.000			8.041			-1.608
29700.000			8.039			-1.608
29800.000			8.039			-1.608
29902.000			8.039			-1.608
30001.000			8.038			-1.608
30101.000			8.037			-1.607
30201.000			8.037			-1.607
30300.000			8.036			-1.607
30400.000			8.036			-1.607
30501.000			8.035			-1.607
30600.000			8.034			-1.607
30701.000			8.034			-1.607
30802.000			8.034			-1.607
30901.000			8.034			-1.607
31000.000			8.033			-1.607
31101.000			8.032			-1.606
31200.000			8.032			-1.606
31300.000			8.031			-1.606
31401.000			8.031			-1.606
31501.000			8.032			-1.606
31602.000			8.030			-1.606
31700.000			8.029			-1.606
31800.000			8.029			-1.606
31901.000			8.029			-1.606
32000.000			8.028			-1.606
32100.000			8.028			-1.606
32201.000			8.027			-1.605
32301.000			8.028			-1.606
32401.000			8.026			-1.605
32501.000			8.027			-1.605
32600.000			8.026			-1.605
32700.000			8.025			-1.605
32801.000			8.025			-1.605
32900.000			8.024			-1.605
33000.000			8.023			-1.605
33102.000			8.022			-1.604
33201.000			8.022			-1.604
33300.000			8.022			-1.604
33401.000			8.022			-1.604
33500.000			8.020			-1.604
33600.000			8.021			-1.604
33701.000			8.021			-1.604
33801.000			8.021			-1.604
33901.000			8.020			-1.604
34001.000			8.019			-1.604
34100.000			8.019			-1.604
34200.000			8.019			-1.604
34301.000			8.019			-1.604
34400.000			8.017			-1.603
34500.000			8.017			-1.603
34602.000			8.016			-1.603
34701.000			8.016			-1.603
34800.000			8.015			-1.603
34900.000			8.015			-1.603
35000.000			8.015			-1.603
35101.000			8.015			-1.603
35200.000			8.014			-1.603
35300.000			8.013			-1.603
35402.000			8.012			-1.602
35501.000			8.013			-1.603
35600.000			8.013			-1.603
35701.000			8.013			-1.603
35800.000			8.012			-1.602
35900.000			8.011			-1.602
36001.000			8.011			-1.602
36100.000			8.009			-1.602
36201.000			8.010			-1.602
36302.000			8.009			-1.602
36400.000			8.010			-1.602
36500.000			8.009			-1.602
36601.000			8.009			-1.602
36700.000			8.009			-1.602
36800.000			8.008			-1.602
36901.000			8.007			-1.601
37001.000			8.007			-1.601
37101.000			8.008			-1.602
37201.000			8.007			-1.601
37300.000			8.006			-1.601
37400.000			8.005			-1.601
37501.000			8.004			-1.601
37600.000			8.004			-1.601
37701.000			8.004			-1.601
37802.000			8.003			-1.601
37901.000			8.002			-1.600
38000.000			8.003			-1.601
38100.000			8.003			-1.601
38200.000			8.002			-1.600
38301.000			8.002			-1.600
38400.000			8.002			-1.600
38501.000			8.001			-1.600
38602.000			8.001			-1.600
38701.000			8.001			-1.600
38800.000			8.000			-1.600
38901.000			8.000			-1.600
39000.000			7.999			-1.600
39100.000			7.999			-1.600
39201.000			7.998			-1.600
39301.000			7.997			-1.599
39401.000			7.997			-1.599
39502.000			7.998			-1.600
39600.000			7.997			-1.599
39700.000			7.997			-1.599
39801.000			7.996			-1.599
39900.000			7.996			-1.599
40000.000			7.996			-1.599
40101.000			7.995			-1.599
40201.000			7.996			-1.599
40301.000			7.996			-1.599
40401.000			7.994			-1.599
40500.000			7.994			-1.599
40600.000			7.994			-1.599
40701.000			7.992			-1.598
40800.000			7.992			-1.598
40900.000			7.992			-1.598
41002.000			7.991			-1.598
41101.000			7.992			-1.598
41200.000			7.991			-1.598
41300.000			7.991			-1.598
41400.000			7.990			-1.598
41501.000			7.990			-1.598
41600.000			7.990			-1.598
41700.000			7.990			-1.598
41801.000			7.989			-1.598
41901.000			7.989			-1.598
42001.000			7.988			-1.598
42101.000			7.987			-1.597
42200.000			7.987			-1.597
42300.000			7.986			-1.597
42401.000			7.986			-1.597
42500.000			7.988			-1.598
42600.000			7.987			-1.597
42702.000			7.986			-1.597
42801.000			7.985			-1.597
42900.000			7.985			-1.597
43001.000			7.985			-1.597
43100.000			7.985			-1.597
43200.000			7.985			-1.597
43301.000			7.985			-1.597
43400.000			7.984			-1.597
43501.000			7.984			-1.597
43602.000			7.983			-1.597
43700.000			7.983			-1.597
43800.000			7.983			-1.597
43901.000			7.982			-1.596
44000.000			7.982			-1.596
44100.000			7.981			-1.596
44201.000			7.981			-1.596
44301.000			7.981			-1.596
44402.000			7.981			-1.596
44501.000			7.980			-1.596
44600.000			7.980			-1.596
44701.000			7.980			-1.596
44800.000			7.979			-1.596
44900.000			7.979			-1.596
45001.000			7.979			-1.596
45100.000			7.978			-1.596
45201.000			7.978			-1.596
45302.000			7.978			-1.596
45400.000			7.978			-1.596
45500.000			7.979			-1.596
45601.000			7.977			-1.595
45700.000			7.975			-1.595
45800.000			7.975			-1.595
45901.000			7.976			-1.595
46001.000			7.976			-1.595
46101.000			7.975			-1.595
46202.000			7.975			-1.595
46300.000			7.975			-1.595
46400.000			7.974			-1.595
46501.000			7.974			-1.595
46600.000			7.973			-1.595
46700.000			7.974			-1.595
46801.000			7.973			-1.595
46901.000			7.973			-1.595
47001.000			7.973			-1.595
47101.000			7.972			-1.594
47200.000			7.971			-1.594
47300.000			7.971			-1.594
47401.000			7.971			-1.594
47500.000			7.970			-1.594
47600.000			7.969			-1.594
47702.000			7.971			-1.594
47801.000			7.970			-1.594
47901.000			7.969			-1.594
48000.000			7.969			-1.594
48100.000			7.969			-1.594
48201.000			7.968			-1.594
48300.000			7.968			-1.594
48400.000			7.969			-1.594
48501.000			7.968			-1.594
48601.000			7.967			-1.593
48701.000			7.967			-1.593
48801.000			7.967			-1.593
48900.000			7.967			-1.593
49000.000			7.967			-1.593
49101.000			7.966			-1.593
49200.000			7.967			-1.593
49300.000			7.966			-1.593
49402.000			7.966			-1.593
49501.000			7.965			-1.593
49601.000			7.965			-1.593
49701.000			7.964			-1.593
49800.000			7.965			-1.593
49900.000			7.966			-1.593
50001.000			7.964			-1.593
50100.000			7.964			-1.593
50200.000			7.965			-1.593
50302.000			7.964			-1.593
50401.000			7.964			-1.593
50500.000			7.963			-1.593
50601.000			7.963			-1.593
50700.000			7.963			-1.593
50800.000			7.963			-1.593
50900.000			7.963			-1.593
51000.000			7.962			-1.592
51102.000			7.962			-1.592
51201.000			7.961			-1.592
51300.000			7.961			-1.592
51401.000			7.960			-1.592
51500.000			7.960			-1.592
51600.000			7.959			-1.592
51701.000			7.959			-1.592
51800.000			7.960			-1.592
51901.000			7.960			-1.592
52002.000			7.960			-1.592
52100.000			7.958			-1.592
52200.000			7.958			-1.592
52301.000			7.958			-1.592
52400.000			7.958			-1.592
52500.000			7.959			-1.592
52601.000			7.958			-1.592
52701.000			7.957			-1.591
52801.000			7.957			-1.591
52901.000			7.956			-1.591
53000.000			7.957			-1.591
53100.000			7.957			-1.591
53201.000			7.956			-1.591
53300.000			7.955			-1.591
53400.000			7.954			-1.591
53502.000			7.954			-1.591
53601.000			7.954			-1.591
53701.000			7.954			-1.591
53801.000			7.955			-1.591
53900.000			7.954			-1.591
54000.000			7.953			-1.591
54100.000			7.953			-1.591
54200.000			7.953			-1.591
54301.000			7.953			-1.591
54401.000			7.953			-1.591
54501.000			7.952			-1.590
54601.000			7.951			-1.590
54700.000			7.952			-1.590
54800.000			7.952			-1.590
54901.000			7.951			-1.590
55000.000			7.950			-1.590
55100.000			7.951			-1.590
55202.000			7.951			-1.590
55301.000			7.950			-1.590
55400.000			7.949			-1.590
55501.000			7.949			-1.590
55600.000			7.949			-1.590
55700.000			7.949			-1.590
55801.000			7.948			-1.590
55900.000			7.948			-1.590
56001.000			7.947			-1.589
56102.000			7.946			-1.589
56200.000			7.946			-1.589
56300.000			7.946			-1.589
56401.000			7.946			-1.589
56500.000			7.947			-1.589
56600.000			7.946			-1.589
56701.000			7.947			-1.589
56801.000			7.946			-1.589
56901.000			7.946			-1.589
57002.000			7.945			-1.589
57100.000			7.945			-1.589
57200.000			7.944			-1.589
57300.000			7.944			-1.589
57400.000			7.945			-1.589
57501.000			7.945			-1.589
57600.000			7.944			-1.589
57701.000			7.944			-1.589
57802.000			7.943			-1.589
57900.000			7.943			-1.589
58000.000			7.943			-1.589
58101.000			7.944			-1.589
58200.000			7.943			-1.589
58300.000			7.942			-1.588
58401.000			7.941			-1.588
58501.000			7.942			-1.588
58601.000			7.941			-1.588
58701.000			7.941			-1.588
58800.000			7.941			-1.588
58900.000			7.940			-1.588
59001.000			7.940			-1.588
59100.000			7.940			-1.588
59200.000			7.939			-1.588
59302.000			7.939			-1.588
59401.000			7.939			-1.588
59501.000			7.939			-1.588
59601.000			7.939			-1.588
59700.000			7.939			-1.588
59800.000			7.938			-1.588
59901.000			7.937			-1.587
60000.000			7.938			-1.588
60100.000			7.937			-1.587
60202.000			7.937			-1.587
60301.000			7.937			-1.587
60400.000			7.937			-1.587
60500.000			7.937			-1.587
60600.000			7.936			-1.587
60701.000			7.936			-1.587
60800.000			7.935			-1.587
60900.000			7.935			-1.587
61002.000			7.934			-1.587
61101.000			7.934			-1.587
61200.000			7.934			-1.587
61301.000			7.934			-1.587
61400.000			7.934			-1.587
61500.000			7.934			-1.587
61601.000			7.933			-1.587
61700.000			7.933			-1.587
61801.000			7.934			-1.587
61902.000			7.934			-1.587
62000.000			7.933			-1.587
62100.000			7.932			-1.586
62201.000			7.932			-1.586
62300.000			7.932			-1.586
62400.000			7.932			-1.586
62501.000			7.931			-1.586
62601.000			7.931			-1.586
62701.000			7.932			-1.586
62801.000			7.932			-1.586
62900.000			7.932			-1.586
63000.000			7.932			-1.586
63101.000			7.930			-1.586
63200.000			7.930			-1.586
63300.000			7.930			-1.586
63402.000			7.930			-1.586
63501.000			7.930			-1.586
63600.000			7.930			-1.586
63700.000			7.929			-1.586
63800.000			7.928			-1.586
63901.000			7.929			-1.586
64000.000			7.929			-1.586
64100.000			7.928			-1.586
64202.000			7.928			-1.586
64301.000			7.929			-1.586
64401.000			7.928			-1.586
64501.000			7.927			-1.585
64600.000			7.927			-1.585
64700.000			7.927			-1.585
64801.000			7.928			-1.586
64900.000			7.927			-1.585
65000.000			7.926			-1.585
65102.000			7.926			-1.585
65201.000			7.927			-1.585
65300.000			7.926			-1.585
65401.000			7.926			-1.585
65500.000			7.925			-1.585
65600.000			7.925			-1.585
65701.000			7.925			-1.585
65800.000			7.925			-1.585
65901.000			7.925			-1.585
66002.000			7.924			-1.585
66100.000			7.924			-1.585
66200.000			7.923			-1.585
66301.000			7.923			-1.585
66400.000			7.923			-1.585
66500.000			7.923			-1.585
66601.000			7.923			-1.585
66701.000			7.922			-1.584
66802.000			7.922			-1.584
66901.000			7.923			-1.585
67000.000			7.922			-1.584
67101.000			7.922			-1.584
67200.000			7.922			-1.584
67300.000			7.921			-1.584
67401.000			7.922			-1.584
67501.000			7.922			-1.584
67601.000			7.921			-1.584
67702.000			7.919			-1.584
67800.000			7.919			-1.584
67900.000			7.920			-1.584
68001.000			7.920			-1.584
68100.000			7.920			-1.584
68200.000			7.919			-1.584
68301.000			7.920			-1.584
68401.000			7.919			-1.584
68501.000			7.919			-1.584
68601.000			7.918			-1.584
68700.000			7.918			-1.584
68800.000			7.918			-1.584
68901.000			7.917			-1.583
69000.000			7.917			-1.583
69100.000			7.917			-1.583
69202.000			7.917			-1.583
69301.000			7.917			-1.583
69401.000			7.917			-1.583
69501.000			7.917			-1.583
69600.000			7.916			-1.583
69700.000			7.916			-1.583
69801.000			7.916			-1.583
69900.000			7.915			-1.583
70000.000			7.916			-1.583
70102.000			7.916			-1.583
70201.000			7.915			-1.583
70301.000			7.914			-1.583
70400.000			7.915			-1.583
70500.000			7.914			-1.583
70601.000			7.914			-1.583
70700.000			7.914			-1.583
70800.000			7.914			-1.583
70902.000			7.914			-1.583
71001.000			7.914			-1.583
71100.000			7.914			-1.583
71201.000			7.914			-1.583
71300.000			7.914			-1.583
71400.000			7.913			-1.583
71501.000			7.913			-1.583
71600.000			7.913			-1.583
71701.000			7.913			-1.583
71802.000			7.911			-1.582
71900.000			7.911			-1.582
72000.000			7.911			-1.582
72101.000			7.910			-1.582
72200.000			7.911			-1.582
72300.000			7.911			-1.582
72401.000			7.910			-1.582
72501.000			7.910			-1.582
72601.000			7.909			-1.582
72701.000			7.909			-1.582
72800.000			7.910			-1.582
72900.000			7.909			-1.582
73001.000			7.909			-1.582
73100.000			7.909			-1.582
73200.000			7.907			-1.581
73302.000			7.907			-1.581
73401.000			7.908			-1.582
73502.000			7.908			-1.582
73600.000			7.908			-1.582
73700.000			7.907			-1.581
73801.000			7.906			-1.581
73900.000			7.906			-1.581
74000.000			7.906			-1.581
74101.000			7.906			-1.581
74201.000			7.906			-1.581
74301.000			7.905			-1.581
74401.000			7.905			-1.581
74500.000			7.905			-1.581
74600.000			7.904			-1.581
74701.000			7.903			-1.581
74800.000			7.904			-1.581
74900.000			7.903			-1.581
75002.000			7.903			-1.581
75101.000			7.903			-1.581
75200.000			7.903			-1.581
75301.000			7.903			-1.581
75400.000			7.903			-1.581
75500.000			7.903			-1.581
75601.000			7.902			-1.580
75700.000			7.902			-1.580
75801.000			7.902			-1.580
75902.000			7.901			-1.580
76001.000			7.901			-1.580
76100.000			7.900			-1.580
76201.000			7.901			-1.580
76300.000			7.900			-1.580
76400.000			7.900			-1.580
76500.000			7.901			-1.580
76600.000			7.901			-1.580
76702.000			7.899			-1.580
76801.000			7.899			-1.580
76900.000			7.899			-1.580
77001.000			7.898			-1.580
77100.000			7.898			-1.580
77200.000			7.898			-1.580
77301.000			7.898			-1.580
77400.000			7.898			-1.580
77501.000			7.899			-1.580
77602.000			7.900			-1.580
77701.000			7.899			-1.580
77800.000			7.899			-1.580
77901.000			7.898			-1.580
78000.000			7.898			-1.580
78100.000			7.898			-1.580
78201.000			7.897			-1.579
78300.000			7.898			-1.580
78401.000			7.896			-1.579
78502.000			7.897			-1.579
78601.000			7.898			-1.580
78700.000			7.897			-1.579
78801.000			7.897			-1.579
78900.000			7.896			-1.579
79000.000			7.897			-1.579
79101.000			7.896			-1.579
79200.000			7.897			-1.579
79301.000			7.897			-1.579
79402.000			7.897			-1.579
79500.000			7.896			-1.579
79600.000			7.897			-1.579
79700.000			7.897			-1.579
79800.000			7.895			-1.579
79901.000			7.896			-1.579
80000.000			7.896			-1.579
80100.000			7.896			-1.579
80202.000			7.895			-1.579
80301.000			7.895			-1.579
80400.000			7.895			-1.579
80501.000			7.894			-1.579
80600.000			7.895			-1.579
80700.000			7.895			-1.579
80801.000			7.894			-1.579
80900.000			7.895			-1.579
81001.000			7.895			-1.579
81102.000			7.894			-1.579
81200.000			7.894			-1.579
81300.000			7.893			-1.579
81401.000			7.893			-1.579
81500.000			7.892			-1.578
81600.000			7.892			-1.578
81701.000			7.893			-1.579
81800.000			7.892			-1.578
81901.000			7.892			-1.578
82002.000			7.893			-1.579
82100.000			7.893			-1.579
82200.000			7.893			-1.579
82301.000			7.893			-1.579
82400.000			7.892			-1.578
82500.000			7.890			-1.578
82601.000			7.891			-1.578
82701.000			7.891			-1.578
82802.000			7.892			-1.578
82900.000			7.890			-1.578
83000.000			7.891			-1.578
83101.000			7.890			-1.578
83200.000			7.890			-1.578
83300.000			7.890			-1.578
83401.000			7.890			-1.578
83500.000			7.890			-1.578
83601.000			7.890			-1.578
83702.000			7.889			-1.578
83800.000			7.889			-1.578
83900.000			7.889			-1.578
84001.000			7.889			-1.578
84100.000			7.890			-1.578
84200.000			7.888			-1.578
84301.000			7.888			-1.578
84401.000			7.888			-1.578
84501.000			7.888			-1.578
84602.000			7.888			-1.578
84700.000			7.887			-1.577
84800.000			7.887			-1.577
84901.000			7.887			-1.577
85000.000			7.887			-1.577
85100.000			7.886			-1.577
85201.000			7.885			-1.577
85301.000			7.885			-1.577
85401.000			7.886			-1.577
85501.000			7.885			-1.577
85600.000			7.885			-1.577
85700.000			7.884			-1.577
85801.000			7.884			-1.577
85900.000			7.884			-1.577
86000.000			7.884			-1.577
86100.000			7.884			-1.577
86201.000			7.884			-1.577
86302.000			7.883			-1.577
86400.000			7.883			-1.577
86500.000			7.882			-1.576
86601.000			7.882			-1.576
86700.000			7.882			-1.576
86800.000			7.882			-1.576
86901.000			7.881			-1.576
87001.000			7.880			-1.576
87101.000			7.881			-1.576
87202.000			7.880			-1.576
87300.000			7.880			-1.576
87400.000			7.880			-1.576
87501.000			7.880			-1.576
87600.000			7.880			-1.576
87700.000			7.880			-1.576
87801.000			7.880			-1.576
87901.000			7.880			-1.576
88001.000			7.879			-1.576
88101.000			7.878			-1.576
88200.000			7.878			-1.576
88300.000			7.879			-1.576
88401.000			7.879			-1.576
88500.000			7.879			-1.576
88600.000			7.877			-1.575
88701.000			7.878			-1.576
88801.000			7.877			-1.575
88901.000			7.877			-1.575
89001.000			7.877			-1.575
89100.000			7.877			-1.575
89200.000			7.876			-1.575
89300.000			7.876			-1.575
89400.000			7.875			-1.575
89501.000			7.875			-1.575
89600.000			7.875			-1.575
89701.000			7.876			-1.575
89802.000			7.876			-1.575
89900.000			7.875			-1.575
90000.000			7.874			-1.575
90101.000			7.875			-1.575
90200.000			7.874			-1.575
90300.000			7.874			-1.575
90401.000			7.874			-1.575
90501.000			7.874			-1.575
90601.000			7.874			-1.575
90701.000			7.873			-1.575
90800.000			7.873			-1.575
90900.000			7.873			-1.575
91001.000			7.872			-1.574
91100.000			7.871			-1.574
91200.000			7.872			-1.574
91301.000			7.872			-1.574
91401.000			7.872			-1.574
91501.000			7.873			-1.575
91601.000			7.872			-1.574
91700.000			7.871			-1.574
91800.000			7.872			-1.574
91901.000			7.872			-1.574
92000.000			7.873			-1.575
92100.000			7.872			-1.574
92202.000			7.871			-1.574
92301.000			7.871			-1.574
92400.000			7.871			-1.574
92500.000			7.871			-1.574
92600.000			7.870			-1.574
92701.000			7.870			-1.574
92800.000			7.869			-1.574
92900.000			7.870			-1.574
93001.000			7.869			-1.574
93101.000			7.869			-1.574
93201.000			7.869			-1.574
93301.000			7.868			-1.574
93400.000			7.868			-1.574
93500.000			7.868			-1.574
93601.000			7.869			-1.574
93700.000			7.869			-1.574
93800.000			7.868			-1.574
93901.000			7.867			-1.573
94001.000			7.868			-1.574
94101.000			7.868			-1.574
94201.000			7.868			-1.574
94300.000			7.868			-1.574
94400.000			7.867			-1.573
94501.000			7.867			-1.573
94600.000			7.867			-1.573
94700.000			7.868			-1.574
94802.000			7.868			-1.574
94901.000			7.867			-1.573
95001.000			7.867			-1.573
95101.000			7.866			-1.573
95200.000			7.867			-1.573
95300.000			7.866			-1.573
95401.000			7.865			-1.573
95500.000			7.866			-1.573
95600.000			7.865			-1.573
95702.000			7.866			-1.573
95801.000			7.866			-1.573
95901.000			7.866			-1.573
96000.000			7.866			-1.573
96100.000			7.865			-1.573
96201.000			7.864			-1.573
96300.000			7.864			-1.573
96400.000			7.864			-1.573
96501.000			7.865			-1.573
96601.000			7.863			-1.573
96701.000			7.863			-1.573
96801.000			7.862			-1.572
96900.000			7.863			-1.573
97000.000			7.863			-1.573
97101.000			7.864			-1.573
97200.000			7.863			-1.573
97300.000			7.863			-1.573
97401.000			7.864			-1.573
97501.000			7.864			-1.573
97601.000			7.863			-1.573
97701.000			7.863			-1.573
97800.000			7.862			-1.572
97900.000			7.863			-1.573
98001.000			7.861			-1.572
98100.000			7.860			-1.572
98200.000			7.861			-1.572
98302.000			7.863			-1.573
98401.000			7.862			-1.572
98501.000			7.862			-1.572
98601.000			7.862			-1.572
98700.000			7.861			-1.572
98800.000			7.861			-1.572
98900.000			7.861			-1.572
99000.000			7.860			-1.572
99101.000			7.859			-1.572
99201.000			7.860			-1.572
99301.000			7.859			-1.572
99401.000			7.859			-1.572
99500.000			7.859			-1.572
99600.000			7.859			-1.572
99701.000			7.859			-1.572
99800.000			7.859			-1.572
99900.000			7.859			-1.572
100001.000			7.859			-1.572
100101.000			7.858			-1.572
100201.000			7.858			-1.572
100301.000			7.857			-1.571
100400.000			7.858			-1.572
100500.000			7.858			-1.572
100601.000			7.858			-1.572
100700.000			7.857			-1.571
100800.000			7.857			-1.571
100901.000			7.856			-1.571
101001.000			7.856			-1.571
101101.000			7.857			-1.571
101201.000			7.857			-1.571
101300.000			7.857			-1.571
101400.000			7.857			-1.571
101501.000			7.855			-1.571
101600.000			7.855			-1.571
101700.000			7.856			-1.571
101802.000			7.856			-1.571
101901.000			7.856			-1.571
102000.000			7.854			-1.571
102100.000			7.854			-1.571
102200.000			7.854			-1.571
102301.000			7.855			-1.571
102400.000			7.854			-1.571
102500.000			7.855			-1.571
102601.000			7.854			-1.571
102701.000			7.854			-1.571
102801.000			7.853			-1.571
102901.000			7.854			-1.571
103000.000			7.854			-1.571
103100.000			7.855			-1.571
103201.000			7.855			-1.571
103300.000			7.854			-1.571
103400.000			7.853			-1.571
103502.000			7.854			-1.571
103601.000			7.853			-1.571
103700.000			7.853			-1.571
103801.000			7.854			-1.571
103900.000			7.853			-1.571
104000.000			7.854			-1.571
104101.000			7.854			-1.571
104200.000			7.853			-1.571
104300.000			7.853			-1.571
104402.000			7.853			-1.571
104501.000			7.852			-1.570
104600.000			7.851			-1.570
104701.000			7.852			-1.570
104800.000			7.852			-1.570
104900.000			7.852			-1.570
105001.000			7.853			-1.571
105100.000			7.853			-1.571
105202.000			7.853			-1.571
105301.000			7.852			-1.570
105401.000			7.852			-1.570
105501.000			7.850			-1.570
105600.000			7.852			-1.570
105700.000			7.852			-1.570
105801.000			7.850			-1.570
105900.000			7.851			-1.570
106000.000			7.852			-1.570
106102.000			7.852			-1.570
106201.000			7.851			-1.570
106300.000			7.851			-1.570
106401.000			7.851			-1.570
106500.000			7.850			-1.570
106600.000			7.850			-1.570
106701.000			7.850			-1.570
106800.000			7.850			-1.570
106900.000			7.850			-1.570
107002.000			7.850			-1.570
107101.000			7.850			-1.570
107200.000			7.850			-1.570
107301.000			7.850			-1.570
107400.000			7.849			-1.570
107500.000			7.850			-1.570
107601.000			7.849			-1.570
107700.000			7.849			-1.570
107800.000			7.849			-1.570
107902.000			7.848			-1.570
108001.000			7.849			-1.570
108100.000			7.849			-1.570
108201.000			7.848			-1.570
108300.000			7.849			-1.570
108400.000			7.848			-1.570
108500.000			7.848			-1.570
108600.000			7.848			-1.570
108701.000			7.848			-1.570
108801.000			7.849			-1.570
108901.000			7.848			-1.570
109001.000			7.848			-1.570
109100.000			7.848			-1.570
109200.000			7.848			-1.570
109301.000			7.848			-1.570
109400.000			7.847			-1.569
109500.000			7.847			-1.569
109601.000			7.848			-1.570
109701.000			7.846			-1.569
109801.000			7.847			-1.569
109901.000			7.846			-1.569
110000.000			7.846			-1.569
110100.000			7.846			-1.569
110201.000			7.846			-1.569
110300.000			7.846			-1.569
110400.000			7.846			-1.569
110502.000			7.845			-1.569
110601.000			7.846			-1.569
110700.000			7.846			-1.569
110801.000			7.845			-1.569
110900.000			7.846			-1.569
111000.000			7.847			-1.569
111101.000			7.845			-1.569
111200.000			7.844			-1.569
111300.000			7.845			-1.569
111402.000			7.844			-1.569
111501.000			7.845			-1.569
111600.000			7.845			-1.569
111700.000			7.845			-1.569
111800.000			7.845			-1.569
111901.000			7.844			-1.569
112000.000			7.843			-1.569
112100.000			7.843			-1.569
112201.000			7.844			-1.569
112301.000			7.843			-1.569
112401.000			7.843			-1.569
112501.000			7.843			-1.569
112600.000			7.844			-1.569
112700.000			7.844			-1.569
112801.000			7.843			-1.569
112900.000			7.843			-1.569
113000.000			7.842			-1.568
113102.000			7.841			-1.568
113201.000			7.842			-1.568
113300.000			7.842			-1.568
113401.000			7.842			-1.568
113500.000			7.842			-1.568
113600.000			7.841			-1.568
113701.000			7.841			-1.568
113800.000			7.841			-1.568
113900.000			7.840			-1.568
114002.000			7.841			-1.568
114101.000			7.841			-1.568
114200.000			7.841			-1.568
114301.000			7.840			-1.568
114400.000			7.840			-1.568
114500.000			7.840			-1.568
114601.000			7.839			-1.568
114700.000			7.839			-1.568
114802.000			7.838			-1.568
114901.000			7.838			-1.568
115001.000			7.839			-1.568
115101.000			7.839			-1.568
115200.000			7.838			-1.568
115300.000			7.839			-1.568
115401.000			7.838			-1.568
115500.000			7.838			-1.568
115600.000			7.838			-1.568
115702.000			7.837			-1.567
115801.000			7.837			-1.567
115900.000			7.838			-1.568
116001.000			7.837			-1.567
116100.000			7.837			-1.567
116200.000			7.837			-1.567
116301.000			7.837			-1.567
116400.000			7.836			-1.567
116500.000			7.836			-1.567
116602.000			7.835			-1.567
116701.000			7.836			-1.567
116800.000			7.836			-1.567
116901.000			7.836			-1.567
117000.000			7.836			-1.567
117100.000			7.836			-1.567
117201.000			7.835			-1.567
117300.000			7.835			-1.567
117400.000			7.835			-1.567
117502.000			7.836			-1.567
117601.000			7.834			-1.567
117700.000			7.835			-1.567
117801.000			7.835			-1.567
117900.000			7.834			-1.567
118000.000			7.834			-1.567
118100.000			7.835			-1.567
118200.000			7.834			-1.567
118302.000			7.833			-1.567
118401.000			7.834			-1.567
118501.000			7.834			-1.567
118601.000			7.833			-1.567
118700.000			7.832			-1.566
118800.000			7.832			-1.566
118901.000			7.832			-1.566
119000.000			7.832			-1.566
119100.000			7.832			-1.566
119202.000			7.832			-1.566
119301.000			7.833			-1.567
119400.000			7.833			-1.567
119501.000			7.832			-1.566
119600.000			7.831			-1.566
119700.000			7.831			-1.566
119801.000			7.832			-1.566
119900.000			7.832			-1.566
120000.000			7.831			-1.566
120102.000			7.832			-1.566
120201.000			7.831			-1.566
120300.000			7.831			-1.566
120401.000			7.832			-1.566
120500.000			7.831			-1.566
120600.000			7.831			-1.566
120701.000			7.831			-1.566
120800.000			7.831			-1.566
120901.000			7.831			-1.566
121002.000			7.831			-1.566
121100.000			7.831			-1.566
121200.000			7.832			-1.566
121300.000			7.830			-1.566
121400.000			7.831			-1.566
121501.000			7.831			-1.566
121600.000			7.831			-1.566
121700.000			7.830			-1.566
121802.000			7.830			-1.566
121901.000			7.830			-1.566
122000.000			7.830			-1.566
122101.000			7.830			-1.566
122200.000			7.829			-1.566
122300.000			7.829			-1.566
122401.000			7.829			-1.566
122500.000			7.829			-1.566
122601.000			7.830			-1.566
122702.000			7.831			-1.566
122801.000			7.830			-1.566
122900.000			7.829			-1.566
123001.000			7.828			-1.566
123100.000			7.829			-1.566
123200.000			7.829			-1.566
123301.000			7.827			-1.565
123400.000			7.827			-1.565
123501.000			7.828			-1.566
123602.000			7.828			-1.566
123700.000			7.827			-1.565
123800.000			7.828			-1.566
123901.000			7.827			-1.565
124000.000			7.827			-1.565
124100.000			7.826			-1.565
124201.000			7.827			-1.565
124300.000			7.826			-1.565
124402.000			7.826			-1.565
124501.000			7.827			-1.565
124600.000			7.827			-1.565
124701.000			7.827			-1.565
124800.000			7.826			-1.565
124900.000			7.826			-1.565
125001.000			7.827			-1.565
125100.000			7.826			-1.565
125200.000			7.826			-1.565
125302.000			7.827			-1.565
125401.000			7.827			-1.565
125500.000			7.826			-1.565
125601.000			7.825			-1.565
125700.000			7.825			-1.565
125800.000			7.825			-1.565
125901.000			7.825			-1.565
126000.000			7.825			-1.565
126101.000			7.825			-1.565
126202.000			7.825			-1.565
126301.000			7.825			-1.565
126400.000			7.825			-1.565
126501.000			7.824			-1.565
126600.000			7.824			-1.565
126700.000			7.823			-1.565
126801.000			7.824			-1.565
126900.000			7.824			-1.565
127001.000			7.824			-1.565
127102.000			7.823			-1.565
127200.000			7.823			-1.565
127300.000			7.823			-1.565
127401.000			7.823			-1.565
127500.000			7.823			-1.565
127600.000			7.823			-1.565
127700.000			7.824			-1.565
127800.000			7.823			-1.565
127902.000			7.822			-1.564
128001.000			7.823			-1.565
128100.000			7.822			-1.564
128201.000			7.821			-1.564
128300.000			7.822			-1.564
128400.000			7.821			-1.564
128501.000			7.820			-1.564
128600.000			7.821			-1.564
128701.000			7.821			-1.564
128802.000			7.821			-1.564
128901.000			7.821			-1.564
129000.000			7.821			-1.564
129101.000			7.820			-1.564
129200.000			7.821			-1.564
129300.000			7.821			-1.564
129401.000			7.821			-1.564
129500.000			7.820			-1.564
129601.000			7.820			-1.564
129702.000			7.820			-1.564
129800.000			7.820			-1.564
129900.000			7.819			-1.564
130001.000			7.820			-1.564
130100.000			7.820			-1.564
130200.000			7.819			-1.564
130301.000			7.818			-1.564
130401.000			7.818			-1.564
130501.000			7.819			-1.564
130602.000			7.819			-1.564
130700.000			7.818			-1.564
130800.000			7.818			-1.564
130900.000			7.818			-1.564
131000.000			7.817			-1.563
131101.000			7.817			-1.563
131200.000			7.817			-1.563
131301.000			7.818			-1.564
131402.000			7.817			-1.563
131501.000			7.817			-1.563
131600.000			7.816			-1.563
131701.000			7.816			-1.563
131800.000			7.817			-1.563
131900.000			7.817			-1.563
132001.000			7.816			-1.563
132100.000			7.817			-1.563
132200.000			7.816			-1.563
132302.000			7.816			-1.563
132401.000			7.816			-1.563
132500.000			7.815			-1.563
132601.000			7.815			-1.563
132700.000			7.816			-1.563
132800.000			7.815			-1.563
132901.000			7.815			-1.563
133000.000			7.815			-1.563
133100.000			7.815			-1.563
133202.000			7.814			-1.563
133301.000			7.815			-1.563
133401.000			7.814			-1.563
133501.000			7.814			-1.563
133600.000			7.814			-1.563
133700.000			7.814			-1.563
133801.000			7.814			-1.563
133900.000			7.813			-1.563
134000.000			7.813			-1.563
134102.000			7.815			-1.563
134201.000			7.814			-1.563
134302.000			7.814			-1.563
134400.000			7.813			-1.563
134500.000			7.814			-1.563
134601.000			7.814			-1.563
134700.000			7.814			-1.563
134800.000			7.813			-1.563
134901.000			7.814			-1.563
135000.000			7.814			-1.563
135101.000			7.814			-1.563
135202.000			7.815			-1.563
135300.000			7.814			-1.563
135400.000			7.813			-1.563
135501.000			7.813			-1.563
135600.000			7.813			-1.563
135700.000			7.813			-1.563
135801.000			7.813			-1.563
135900.000			7.813			-1.563
136001.000			7.814			-1.563
136102.000			7.812			-1.562
136201.000			7.812			-1.562
136300.000			7.814			-1.563
136401.000			7.814			-1.563
136500.000			7.813			-1.563
136600.000			7.812			-1.562
136701.000			7.813			-1.563
136800.000			7.812			-1.562
136901.000			7.813			-1.563
137002.000			7.813			-1.563
137101.000			7.813			-1.563
137200.000			7.813			-1.563
137300.000			7.813			-1.563
137400.000			7.813			-1.563
137501.000			7.812			-1.562
137600.000			7.813			-1.563
137700.000			7.812			-1.562
137801.000			7.811			-1.562
137901.000			7.811			-1.562
138001.000			7.812			-1.562
138101.000			7.811			-1.562
138200.000			7.811			-1.562
138300.000			7.811			-1.562
138401.000			7.810			-1.562
138500.000			7.811			-1.562
138600.000			7.811			-1.562
138701.000			7.812			-1.562
138801.000			7.811			-1.562
138901.000			7.811			-1.562
139002.000			7.811			-1.562
139100.000			7.811			-1.562
139200.000			7.811			-1.562
139301.000			7.810			-1.562
139400.000			7.810			-1.562
139500.000			7.810			-1.562
139601.000			7.810			-1.562
139701.000			7.810			-1.562
139801.000			7.810			-1.562
139902.000			7.810			-1.562
140000.000			7.809			-1.562
140100.000			7.809			-1.562
140201.000			7.810			-1.562
140300.000			7.809			-1.562
140400.000			7.809			-1.562
140500.000			7.810			-1.562
140600.000			7.809			-1.562
140702.000			7.808			-1.562
140801.000			7.807			-1.561
140901.000			7.807			-1.561
141001.000			7.808			-1.562
141100.000			7.808			-1.562
141200.000			7.807			-1.561
141301.000			7.809			-1.562
141400.000			7.807			-1.561
141500.000			7.807			-1.561
141601.000			7.807			-1.561
141701.000			7.808			-1.562
141801.000			7.807			-1.561
141901.000			7.806			-1.561
142000.000			7.806			-1.561
142100.000			7.806			-1.561
142201.000			7.807			-1.561
142300.000			7.806			-1.561
142400.000			7.805			-1.561
142501.000			7.806			-1.561
142601.000			7.806			-1.561
142701.000			7.805			-1.561
142801.000			7.805			-1.561
142900.000			7.806			-1.561
143000.000			7.806			-1.561
143101.000			7.805			-1.561
143200.000			7.805			-1.561
143300.000			7.805			-1.561
143401.000			7.804			-1.561
143501.000			7.804			-1.561
143602.000			7.803			-1.561
143701.000			7.803			-1.561
143800.000			7.803			-1.561
143901.000			7.803			-1.561
144000.000			7.804			-1.561
144100.000			7.803			-1.561
144201.000			7.803			-1.561
144300.000			7.803			-1.561
144401.000			7.802			-1.560
144502.000			7.802			-1.560
144601.000			7.803			-1.561
144700.000			7.803			-1.561
144801.000			7.803			-1.561
144900.000			7.803			-1.561
145000.000			7.802			-1.560
145101.000			7.802			-1.560
145200.000			7.802			-1.560
145300.000			7.801			-1.560
145402.000			7.801			-1.560
145501.000			7.801			-1.560
145600.000			7.800			-1.560
145701.000			7.800			-1.560
145800.000			7.801			-1.560
145900.000			7.801			-1.560
146001.000			7.802			-1.560
146100.000			7.799			-1.560
146200.000			7.799			-1.560
146302.000			7.800			-1.560
146401.000			7.801			-1.560
146501.000			7.799			-1.560
146601.000			7.799			-1.560
146700.000			7.801			-1.560
146800.000			7.800			-1.560
146900.000			7.800			-1.560
147000.000			7.799			-1.560
147101.000			7.799			-1.560
147200.000			7.799			-1.560
147301.000			7.799			-1.560
147402.000			7.799			-1.560
147501.000			7.799			-1.560
147600.000			7.799			-1.560
147701.000			7.799			-1.560
147800.000			7.800			-1.560
147900.000			7.799			-1.560
148001.000			7.799			-1.560
148100.000			7.799			-1.560
148200.000			7.799			-1.560
148302.000			7.799			-1.560
148401.000			7.798			-1.560
148501.000			7.798			-1.560
148601.000			7.798			-1.560
148700.000			7.798			-1.560
148800.000			7.798			-1.560
148901.000			7.799			-1.560
149000.000			7.798			-1.560
149100.000			7.797			-1.559
149201.000			7.797			-1.559
149300.000			7.798			-1.560
149401.000			7.798			-1.560
149502.000			7.798			-1.560
149600.000			7.799			-1.560
149700.000			7.798			-1.560
149801.000			7.798			-1.560
149900.000			7.798			-1.560
150000.000			7.798			-1.560
150100.000			7.798			-1.560
150200.000			7.798			-1.560
150301.000			7.798			-1.560
150401.000			7.798			-1.560
150501.000			7.796			-1.559
150601.000			7.798			-1.560
150700.000			7.798			-1.560
150800.000			7.798			-1.560
150901.000			7.798			-1.560
151000.000			7.797			-1.559
151100.000			7.796			-1.559
151201.000			7.797			-1.559
151301.000			7.796			-1.559
151401.000			7.797			-1.559
151502.000			7.797			-1.559
151600.000			7.797			-1.559
151700.000			7.797			-1.559
151801.000			7.796			-1.559
151900.000			7.797			-1.559
152000.000			7.796			-1.559
152101.000			7.795			-1.559
152200.000			7.795			-1.559
152301.000			7.795			-1.559
152402.000			7.795			-1.559
152501.000			7.795			-1.559
152600.000			7.794			-1.559
152701.000			7.795			-1.559
152800.000			7.795			-1.559
152900.000			7.795			-1.559
153001.000			7.795			-1.559
153100.000			7.795			-1.559
153200.000			7.795			-1.559
153302.000			7.795			-1.559
153401.000			7.795			-1.559
153502.000			7.795			-1.559
153600.000			7.795			-1.559
153700.000			7.796			-1.559
153801.000			7.795			-1.559
153900.000			7.795			-1.559
154000.000			7.795			-1.559
154101.000			7.795			-1.559
154200.000			7.794			-1.559
154301.000			7.793			-1.559
154402.000			7.793			-1.559
154500.000			7.793			-1.559
154600.000			7.793			-1.559
154701.000			7.793			-1.559
154800.000			7.793			-1.559
154900.000			7.793			-1.559
155001.000			7.793			-1.559
155100.000			7.793			-1.559
155200.000			7.792			-1.558
155302.000			7.792			-1.558
155401.000			7.793			-1.559
155500.000			7.793			-1.559
155601.000			7.793			-1.559
155700.000			7.794			-1.559
155800.000			7.793			-1.559
155901.000			7.793			-1.559
156000.000			7.792			-1.558
156100.000			7.792			-1.558
156202.000			7.792			-1.558
156301.000			7.792			-1.558
156402.000			7.792			-1.558
156500.000			7.792			-1.558
156600.000			7.792			-1.558
156701.000			7.792			-1.558
156800.000			7.791			-1.558
156900.000			7.791			-1.558
157001.000			7.791			-1.558
157100.000			7.791			-1.558
157201.000			7.792			-1.558
157302.000			7.791			-1.558
157401.000			7.791			-1.558
157500.000			7.790			-1.558
157601.000			7.790			-1.558
157700.000			7.790			-1.558
157800.000			7.790			-1.558
157901.000			7.790			-1.558
158000.000			7.790			-1.558
158100.000			7.790			-1.558
158202.000			7.789			-1.558
158301.000			7.789			-1.558
158401.000			7.789			-1.558
158501.000			7.789			-1.558
158600.000			7.789			-1.558
158700.000			7.790			-1.558
158801.000			7.789			-1.558
158900.000			7.789			-1.558
159000.000			7.789			-1.558
159101.000			7.788			-1.558
159201.000			7.788			-1.558
159301.000			7.788			-1.558
159402.000			7.788			-1.558
159500.000			7.788			-1.558
159600.000			7.789			-1.558
159700.000			7.789			-1.558
159800.000			7.788			-1.558
159901.000			7.788			-1.558
160000.000			7.787			-1.557
160100.000			7.787			-1.557
160202.000			7.787			-1.557
160301.000			7.787			-1.557
160401.000			7.787			-1.557
160501.000			7.787			-1.557
160600.000			7.787			-1.557
160700.000			7.786			-1.557
160801.000			7.787			-1.557
160900.000			7.787			-1.557
161000.000			7.787			-1.557
161101.000			7.786			-1.557
161201.000			7.788			-1.558
161301.000			7.787			-1.557
161401.000			7.785			-1.557
161500.000			7.787			-1.557
161600.000			7.786			-1.557
161701.000			7.787			-1.557
161800.000			7.786			-1.557
161900.000			7.786			-1.557
162001.000			7.786			-1.557
162101.000			7.786			-1.557
162201.000			7.785			-1.557
162302.000			7.785			-1.557
162400.000			7.786			-1.557
162500.000			7.786			-1.557
162601.000			7.786			-1.557
162700.000			7.786			-1.557
162800.000			7.785			-1.557
162900.000			7.785			-1.557
163000.000			7.785			-1.557
163101.000			7.785			-1.557
163201.000			7.785			-1.557
163301.000			7.785			-1.557
163401.000			7.786			-1.557
163500.000			7.785			-1.557
163600.000			7.785			-1.557
163701.000			7.785			-1.557
163800.000			7.785			-1.557
163900.000			7.784			-1.557
164001.000			7.784			-1.557
164101.000			7.785			-1.557
164201.000			7.784			-1.557
164302.000			7.784			-1.557
164400.000			7.784			-1.557
164500.000			7.785			-1.557
164601.000			7.784			-1.557
164700.000			7.783			-1.557
164800.000			7.784			-1.557
164901.000			7.784			-1.557
165000.000			7.783			-1.557
165101.000			7.783			-1.557
165202.000			7.782			-1.556
165301.000			7.782			-1.556
165400.000			7.783			-1.557
165501.000			7.783			-1.557
165600.000			7.782			-1.556
165700.000			7.781			-1.556
165801.000			7.781			-1.556
165900.000			7.782			-1.556
166000.000			7.782			-1.556
166102.000			7.782			-1.556
166201.000			7.782			-1.556
166302.000			7.781			-1.556
166400.000			7.781			-1.556
166500.000			7.782			-1.556
166601.000			7.781			-1.556
166700.000			7.782			-1.556
166800.000			7.781			-1.556
166901.000			7.781			-1.556
167000.000			7.780			-1.556
167101.000			7.780			-1.556
167202.000			7.780			-1.556
167301.000			7.779			-1.556
167400.000			7.780			-1.556
167501.000			7.780			-1.556
167600.000			7.778			-1.556
167700.000			7.779			-1.556
167801.000			7.781			-1.556
167900.000			7.780			-1.556
168000.000			7.778			-1.556
168102.000			7.779			-1.556
168201.000			7.779			-1.556
168300.000			7.779			-1.556
168401.000			7.778			-1.556
168500.000			7.778			-1.556
168600.000			7.779			-1.556
168701.000			7.778			-1.556
168800.000			7.778			-1.556
168900.000			7.779			-1.556
169001.000			7.779			-1.556
169101.000			7.779			-1.556
169202.000			7.778			-1.556
169301.000			7.778			-1.556
169400.000			7.778			-1.556
169501.000			7.778			-1.556
169600.000			7.778			-1.556
169700.000			7.778			-1.556
169801.000			7.778			-1.556
169900.000			7.778			-1.556
170000.000			7.778			-1.556
170102.000			7.777			-1.555
170201.000			7.778			-1.556
170301.000			7.778			-1.556
170401.000			7.778			-1.556
170500.000			7.778			-1.556
170600.000			7.778			-1.556
170701.000			7.778			-1.556
170800.000			7.777			-1.555
170900.000			7.778			-1.556
171001.000			7.778			-1.556
171101.000			7.777			-1.555
171201.000			7.777			-1.555
171301.000			7.777			-1.555
171400.000			7.778			-1.556
171500.000			7.778			-1.556
171601.000			7.777			-1.555
171700.000			7.776			-1.555
171800.000			7.776			-1.555
171901.000			7.776			-1.555
172000.000			7.777			-1.555
172101.000			7.777			-1.555
172202.000			7.777			-1.555
172300.000			7.775			-1.555
172400.000			7.776			-1.555
172500.000			7.776			-1.555
172600.000			7.776			-1.555
172701.000			7.776			-1.555
172800.000			7.777			-1.555
172900.000			7.776			-1.555
173001.000			7.775			-1.555
173101.000			7.776			-1.555
173201.000			7.775			-1.555
173301.000			7.775			-1.555
173400.000			7.775			-1.555
173500.000			7.775			-1.555
173601.000			7.775			-1.555
173700.000			7.775			-1.555
173800.000			7.774			-1.555
173901.000			7.774			-1.555
174001.000			7.774			-1.555
174101.000			7.774			-1.555
174202.000			7.774			-1.555
174300.000			7.773			-1.555
174400.000			7.773			-1.555
174501.000			7.774			-1.555
174600.000			7.774			-1.555
174700.000			7.774			-1.555
174801.000			7.775			-1.555
174900.000			7.774			-1.555
175001.000			7.773			-1.555
175102.000			7.774			-1.555
175201.000			7.772			-1.554
175300.000			7.772			-1.554
175401.000			7.772			-1.554
175500.000			7.772			-1.554
175600.000			7.772			-1.554
175700.000			7.773			-1.555
175800.000			7.773			-1.555
175901.000			7.771			-1.554
176001.000			7.771			-1.554
176101.000			7.771			-1.554
176202.000			7.771			-1.554
176300.000			7.771			-1.554
176400.000			7.772			-1.554
176501.000			7.772			-1.554
176600.000			7.772			-1.554
176700.000			7.772			-1.554
176801.000			7.771			-1.554
176900.000			7.771			-1.554
177001.000			7.771			-1.554
177102.000			7.771			-1.554
177201.000			7.771			-1.554
177300.000			7.770			-1.554
177401.000			7.770			-1.554
177500.000			7.770			-1.554
177600.000			7.770			-1.554
177701.000			7.771			-1.554
177800.000			7.770			-1.554
177900.000			7.770			-1.554
178002.000			7.769			-1.554
178101.000			7.770			-1.554
178201.000			7.769			-1.554
178301.000			7.769			-1.554
178400.000			7.769			-1.554
178500.000			7.769			-1.554
178601.000			7.769			-1.554
178700.000			7.769			-1.554
178800.000			7.769			-1.554
178900.000			7.768			-1.554
179000.000			7.769			-1.554
179102.000			7.770			-1.554
179201.000			7.769			-1.554
179300.000			7.768			-1.554
179401.000			7.767			-1.553
179500.000			7.768			-1.554
179600.000			7.768			-1.554
179701.000			7.767			-1.553
179800.000			7.767			-1.553
179900.000			7.767			-1.553
180001.000			7.767			-1.553
180101.000			7.767			-1.553
180201.000			7.768			-1.554
180301.000			7.768			-1.554
180400.000			7.767			-1.553
180500.000			7.767			-1.553
180601.000			7.767			-1.553
180700.000			7.766			-1.553
180800.000			7.767			-1.553
180901.000			7.768			-1.554
181001.000			7.767			-1.553
181101.000			7.766			-1.553
181202.000			7.767			-1.553
181300.000			7.766			-1.553
181400.000			7.766			-1.553
181501.000			7.767			-1.553
181600.000			7.767			-1.553
181700.000			7.766			-1.553
181801.000			7.766			-1.553
181900.000			7.766			-1.553
182002.000			7.766			-1.553
182101.000			7.765			-1.553
182201.000			7.765			-1.553
182301.000			7.766			-1.553
182400.000			7.766			-1.553
182500.000			7.765			-1.553
182601.000			7.765			-1.553
182700.000			7.765			-1.553
182800.000			7.764			-1.553
182901.000			7.764			-1.553
183001.000			7.765			-1.553
183101.000			7.765			-1.553
183201.000			7.766			-1.553
183300.000			7.765			-1.553
183400.000			7.765			-1.553
183501.000			7.765			-1.553
183600.000			7.764			-1.553
183700.000			7.764			-1.553
183801.000			7.764			-1.553
183900.000			7.764			-1.553
184001.000			7.764			-1.553
184102.000			7.763			-1.553
184200.000			7.763			-1.553
184300.000			7.764			-1.553
184401.000			7.765			-1.553
184500.000			7.764			-1.553
184600.000			7.763			-1.553
184701.000			7.762			-1.552
184800.000			7.762			-1.552
184901.000			7.764			-1.553
185002.000			7.763			-1.553
185101.000			7.763			-1.553
185200.000			7.763			-1.553
185300.000			7.763			-1.553
185400.000			7.762			-1.552
185501.000			7.763			-1.553
185600.000			7.763			-1.553
185700.000			7.763			-1.553
185801.000			7.762			-1.552
185901.000			7.762			-1.552
186001.000			7.762			-1.552
186102.000			7.762			-1.552
186200.000			7.762			-1.552
186300.000			7.761			-1.552
186401.000			7.763			-1.553
186500.000			7.763			-1.553
186600.000			7.762			-1.552
186701.000			7.760			-1.552
186800.000			7.760			-1.552
186901.000			7.760			-1.552
187002.000			7.761			-1.552
187101.000			7.761			-1.552
187200.000			7.761			-1.552
187301.000			7.760			-1.552
187400.000			7.759			-1.552
187500.000			7.759			-1.552
187601.000			7.759			-1.552
187700.000			7.761			-1.552
187800.000			7.760			-1.552
187902.000			7.760			-1.552
188001.000			7.760			-1.552
188101.000			7.759			-1.552
188201.000			7.759			-1.552
188300.000			7.759			-1.552
188400.000			7.760			-1.552
188500.000			7.760			-1.552
188600.000			7.759			-1.552
188701.000			7.759			-1.552
188800.000			7.759			-1.552
188901.000			7.758			-1.552
189002.000			7.758			-1.552
189101.000			7.759			-1.552
189200.000			7.759			-1.552
189301.000			7.759			-1.552
189400.000			7.758			-1.552
189500.000			7.758			-1.552
189601.000			7.758			-1.552
189700.000			7.758			-1.552
189800.000			7.757			-1.551
189901.000			7.759			-1.552
190001.000			7.759			-1.552
190101.000			7.758			-1.552
190201.000			7.758			-1.552
190300.000			7.758			-1.552
190400.000			7.757			-1.551
190501.000			7.757			-1.551
190600.000			7.757			-1.551
190700.000			7.757			-1.551
190801.000			7.758			-1.552
190901.000			7.758			-1.552
191001.000			7.756			-1.551
191102.000			7.756			-1.551
191200.000			7.757			-1.551
191300.000			7.757			-1.551
191401.000			7.757			-1.551
191500.000			7.757			-1.551
191600.000			7.757			-1.551
191700.000			7.756			-1.551
191800.000			7.756			-1.551
191902.000			7.757			-1.551
192001.000			7.757			-1.551
192101.000			7.756			-1.551
192201.000			7.757			-1.551
192300.000			7.756			-1.551
192400.000			7.755			-1.551
192501.000			7.755			-1.551
192600.000			7.756			-1.551
192700.000			7.755			-1.551
192801.000			7.756			-1.551
192901.000			7.756			-1.551
193001.000			7.756			-1.551
193102.000			7.755			-1.551
193200.000			7.755			-1.551
193300.000			7.754			-1.551
193401.000			7.754			-1.551
193500.000			7.755			-1.551
193600.000			7.756			-1.551
193701.000			7.756			-1.551
193800.000			7.754			-1.551
193901.000			7.754			-1.551
194002.000			7.754			-1.551
194101.000			7.755			-1.551
194200.000			7.755			-1.551
194301.000			7.754			-1.551
194400.000			7.755			-1.551
194500.000			7.755			-1.551
194601.000			7.754			-1.551
194700.000			7.754			-1.551
194800.000			7.754			-1.551
194902.000			7.754			-1.551
195001.000			7.755			-1.551
195101.000			7.755			-1.551
195200.000			7.755			-1.551
195300.000			7.755			-1.551
195401.000			7.755			-1.551
195500.000			7.754			-1.551
195600.000			7.754			-1.551
195701.000			7.755			-1.551
195801.000			7.755			-1.551
195901.000			7.755			-1.551
196002.000			7.754			-1.551
196100.000			7.754			-1.551
196200.000			7.753			-1.551
196301.000			7.754			-1.551
196400.000			7.753			-1.551
196500.000			7.753			-1.551
196601.000			7.753			-1.551
196700.000			7.753			-1.551
196800.000			7.753			-1.551
196902.000			7.753			-1.551
197001.000			7.754			-1.551
197100.000			7.753			-1.551
197201.000			7.753			-1.551
197300.000			7.753			-1.551
197400.000			7.751			-1.550
197501.000			7.751			-1.550
197600.000			7.753			-1.551
197700.000			7.752			-1.550
197801.000			7.751			-1.550
197901.000			7.752			-1.550
198002.000			7.752			-1.550
198100.000			7.751			-1.550
198200.000			7.752			-1.550
198301.000			7.751			-1.550
198400.000			7.751			-1.550
198500.000			7.751			-1.550
198601.000			7.752			-1.550
198700.000			7.751			-1.550
198800.000			7.751			-1.550
198902.000			7.752			-1.550
199001.000			7.752			-1.550
199100.000			7.751			-1.550
199201.000			7.751			-1.550
199300.000			7.751			-1.550
199400.000			7.751			-1.550
199501.000			7.751			-1.550
199600.000			7.751			-1.550
199700.000			7.750			-1.550
199802.000			7.750			-1.550
199901.000			7.750			-1.550
200001.000			7.750			-1.550
200101.000			7.751			-1.550
200200.000			7.751			-1.550
200300.000			7.750			-1.550
200401.000			7.750			-1.550
200500.000			7.750			-1.550
200600.000			7.749			-1.550
200701.000			7.749			-1.550
200801.000			7.749			-1.550
200901.000			7.749			-1.550
201001.000			7.750			-1.550
201100.000			7.751			-1.550
201200.000			7.750			-1.550
201300.000			7.750			-1.550
201400.000			7.749			-1.550
201501.000			7.751			-1.550
201600.000			7.750			-1.550
201701.000			7.750			-1.550
201802.000			7.750			-1.550
201901.000			7.749			-1.550
202000.000			7.750			-1.550
202101.000			7.751			-1.550
202200.000			7.750			-1.550
202300.000			7.750			-1.550
202401.000			7.751			-1.550
202500.000			7.751			-1.550
202600.000			7.751			-1.550
202702.000			7.750			-1.550
202801.000			7.750			-1.550
202900.000			7.752			-1.550
203001.000			7.750			-1.550
203100.000			7.749			-1.550
203200.000			7.750			-1.550
203301.000			7.750			-1.550
203400.000			7.750			-1.550
203500.000			7.750			-1.550
203602.000			7.750			-1.550
203701.000			7.750			-1.550
203800.000			7.749			-1.550
203901.000			7.749			-1.550
204000.000			7.749			-1.550
204100.000			7.748			-1.550
204201.000			7.749			-1.550
204300.000			7.749			-1.550
204400.000			7.749			-1.550
204502.000			7.748			-1.550
204601.000			7.749			-1.550
204702.000			7.749			-1.550
204800.000			7.748			-1.550
204900.000			7.748			-1.550
205001.000			7.748			-1.550
205100.000			7.748			-1.550
205200.000			7.748			-1.550
205301.000			7.748			-1.550
205400.000			7.748			-1.550
205501.000			7.748			-1.550
205602.000			7.748			-1.550
205701.000			7.747			-1.549
205800.000			7.748			-1.550
205901.000			7.748			-1.550
206000.000			7.747			-1.549
206100.000			7.747			-1.549
206201.000			7.747			-1.549
206300.000			7.748			-1.550
206400.000			7.748			-1.550
206502.000			7.748			-1.550
206601.000			7.747			-1.549
206700.000			7.748			-1.550
206801.000			7.748			-1.550
206900.000			7.748			-1.550
207000.000			7.748			-1.550
207101.000			7.748			-1.550
207200.000			7.747			-1.549
207300.000			7.747			-1.549
207402.000			7.747			-1.549
207501.000			7.747			-1.549
207602.000			7.747			-1.549
207700.000			7.746			-1.549
207800.000			7.746			-1.549
207901.000			7.746			-1.549
208000.000			7.746			-1.549
208100.000			7.747			-1.549
208201.000			7.747			-1.549
208300.000			7.746			-1.549
208401.000			7.745			-1.549
208502.000			7.746			-1.549
208600.000			7.746			-1.549
208700.000			7.746			-1.549
208801.000			7.745			-1.549
208900.000			7.745			-1.549
209000.000			7.745			-1.549
209101.000			7.745			-1.549
209200.000			7.744			-1.549
209301.000			7.744			-1.549
209402.000			7.745			-1.549
209501.000			7.745			-1.549
209600.000			7.745			-1.549
209701.000			7.745			-1.549
209800.000			7.745			-1.549
209900.000			7.746			-1.549
210001.000			7.745			-1.549
210100.000			7.744			-1.549
210200.000			7.744			-1.549
210302.000			7.744			-1.549
210401.000			7.743			-1.549
210500.000			7.744			-1.549
210601.000			7.744			-1.549
210700.000			7.744			-1.549
210800.000			7.744			-1.549
210900.000			7.744			-1.549
211000.000			7.744			-1.549
211101.000			7.744			-1.549
211201.000			7.743			-1.549
211301.000			7.743			-1.549
211401.000			7.744			-1.549
211500.000			7.743			-1.549
211600.000			7.742			-1.548
211701.000			7.742			-1.548
211800.000			7.742			-1.548
211900.000			7.742			-1.548
212001.000			7.742			-1.548
212101.000			7.741			-1.548
212201.000			7.742			-1.548
212301.000			7.743			-1.549
212400.000			7.742			-1.548
212500.000			7.742			-1.548
212601.000			7.742			-1.548
212700.000			7.742			-1.548
212800.000			7.742			-1.548
212901.000			7.741			-1.548
213001.000			7.742			-1.548
213101.000			7.741			-1.548
213201.000			7.740			-1.548
213300.000			7.740			-1.548
213400.000			7.740			-1.548
213501.000			7.740			-1.548
213600.000			7.740			-1.548
213700.000			7.739			-1.548
213801.000			7.740			-1.548
213901.000			7.740			-1.548
214002.000			7.740			-1.548
214101.000			7.740			-1.548
214200.000			7.740			-1.548
214301.000			7.740			-1.548
214400.000			7.740			-1.548
214500.000			7.741			-1.548
214601.000			7.741			-1.548
214700.000			7.740			-1.548
214801.000			7.739			-1.548
214902.000			7.739			-1.548
215001.000			7.740			-1.548
215100.000			7.740			-1.548
215201.000			7.741			-1.548
215300.000			7.740			-1.548
215400.000			7.739			-1.548
215501.000			7.740			-1.548
215600.000			7.740			-1.548
215700.000			7.740			-1.548
215802.000			7.739			-1.548
215901.000			7.739			-1.548
216000.000			7.739			-1.548
216101.000			7.739			-1.548
216200.000			7.739			-1.548
216300.000			7.739			-1.548
216401.000			7.739			-1.548
216500.000			7.739			-1.548
216600.000			7.739			-1.548
216702.000			7.739			-1.548
216801.000			7.738			-1.548
216901.000			7.739			-1.548
217001.000			7.739			-1.548
217100.000			7.739			-1.548
217200.000			7.739			-1.548
217300.000			7.739			-1.548
217400.000			7.740			-1.548
217501.000			7.741			-1.548
217600.000			7.740			-1.548
217701.000			7.740			-1.548
217802.000			7.739			-1.548
217901.000			7.740			-1.548
218000.000			7.740			-1.548
218101.000			7.740			-1.548
218200.000			7.740			-1.548
218300.000			7.740			-1.548
218401.000			7.740			-1.548
218500.000			7.740			-1.548
218600.000			7.740			-1.548
218702.000			7.740			-1.548
218801.000			7.740			-1.548
218900.000			7.739			-1.548
219001.000			7.740			-1.548
219100.000			7.740			-1.548
219200.000			7.740			-1.548
219301.000			7.740			-1.548
219400.000			7.740			-1.548
219500.000			7.740			-1.548
219602.000			7.739			-1.548
219701.000			7.740			-1.548
219801.000			7.741			-1.548
219901.000			7.740			-1.548
220000.000			7.740			-1.548
220100.000			7.740			-1.548
220201.000			7.740			-1.548
220300.000			7.739			-1.548
220400.000			7.740			-1.548
220500.000			7.740			-1.548
220601.000			7.740			-1.548
220702.000			7.740			-1.548
220800.000			7.740			-1.548
220900.000			7.741			-1.548
221001.000			7.741			-1.548
221100.000			7.739			-1.548
221200.000			7.740			-1.548
221301.000			7.740			-1.548
221400.000			7.740			-1.548
221501.000			7.740			-1.548
221602.000			7.740			-1.548
221700.000			7.740			-1.548
221800.000			7.740			-1.548
221901.000			7.739			-1.548
222000.000			7.740			-1.548
222100.000			7.740			-1.548
222201.000			7.738			-1.548
222300.000			7.738			-1.548
222401.000			7.738			-1.548
222502.000			7.738			-1.548
222601.000			7.738			-1.548
222700.000			7.739			-1.548
222801.000			7.738			-1.548
222900.000			7.738			-1.548
223000.000			7.739			-1.548
223101.000			7.739			-1.548
223200.000			7.739			-1.548
223300.000			7.739			-1.548
223402.000			7.738			-1.548
223501.000			7.738			-1.548
223600.000			7.738			-1.548
223700.000			7.737			-1.547
223800.000			7.737			-1.547
223901.000			7.737			-1.547
224000.000			7.737			-1.547
224100.000			7.737			-1.547
224201.000			7.737			-1.547
224301.000			7.738			-1.548
224401.000			7.738			-1.548
224501.000			7.738			-1.548
224600.000			7.738			-1.548
224700.000			7.738			-1.548
224801.000			7.737			-1.547
224900.000			7.737			-1.547
225000.000			7.737			-1.547
225101.000			7.738			-1.548
225201.000			7.738			-1.548
225301.000			7.737			-1.547
225402.000			7.737			-1.547
225500.000			7.737			-1.547
225600.000			7.736			-1.547
225701.000			7.736			-1.547
225800.000			7.737			-1.547
225900.000			7.737			-1.547
226001.000			7.738			-1.548
226100.000			7.738			-1.548
226201.000			7.738			-1.548
226302.000			7.737			-1.547
226400.000			7.736			-1.547
226500.000			7.736			-1.547
226601.000			7.737			-1.547
226700.000			7.737			-1.547
226800.000			7.737			-1.547
226900.000			7.736			-1.547
227000.000			7.736			-1.547
227102.000			7.736			-1.547
227201.000			7.736			-1.547
227301.000			7.735			-1.547
227401.000			7.736			-1.547
227500.000			7.735			-1.547
227600.000			7.735			-1.547
227701.000			7.735			-1.547
227800.000			7.735			-1.547
227900.000			7.736			-1.547
228001.000			7.736			-1.547
228101.000			7.736			-1.547
228201.000			7.736			-1.547
228301.000			7.736			-1.547
228400.000			7.736			-1.547
228500.000			7.734			-1.547
228601.000			7.734			-1.547
228700.000			7.733			-1.547
228800.000			7.734			-1.547
228901.000			7.735			-1.547
229001.000			7.735			-1.547
229101.000			7.735			-1.547
229202.000			7.734			-1.547
229300.000			7.734			-1.547
229400.000			7.735			-1.547
229501.000			7.735			-1.547
229600.000			7.734			-1.547
229700.000			7.733			-1.547
229801.000			7.734			-1.547
229900.000			7.734			-1.547
230002.000			7.733			-1.547
230101.000			7.734			-1.547
230201.000			7.734			-1.547
230301.000			7.734			-1.547
230400.000			7.733			-1.547
230500.000			7.733			-1.547
230601.000			7.733			-1.547
230700.000			7.733			-1.547
230800.000			7.734			-1.547
230902.000			7.734			-1.547
231001.000			7.734			-1.547
231101.000			7.733			-1.547
231201.000			7.733			-1.547
231300.000			7.732			-1.546
231400.000			7.732			-1.546
231501.000			7.732			-1.546
231600.000			7.732			-1.546
231700.000			7.733			-1.547
231802.000			7.732			-1.546
231901.000			7.732			-1.546
232001.000			7.732			-1.546
232101.000			7.732			-1.546
232200.000			7.732			-1.546
232300.000			7.731			-1.546
232401.000			7.732			-1.546
232500.000			7.732			-1.546
232600.000			7.732			-1.546
232702.000			7.731			-1.546
232801.000			7.730			-1.546
232901.000			7.731			-1.546
233001.000			7.732			-1.546
233100.000			7.731			-1.546
233200.000			7.731			-1.546
233300.000			7.731			-1.546
233400.000			7.731			-1.546
233501.000			7.731			-1.546
233600.000			7.730			-1.546
233701.000			7.731			-1.546
233802.000			7.730			-1.546
233900.000			7.731			-1.546
234000.000			7.730			-1.546
234101.000			7.731			-1.546
234200.000			7.730			-1.546
234300.000			7.730			-1.546
234401.000			7.731			-1.546
234500.000			7.731			-1.546
234601.000			7.731			-1.546
234702.000			7.731			-1.546
234801.000			7.729			-1.546
234900.000			7.728			-1.546
235001.000			7.729			-1.546
235100.000			7.729			-1.546
235200.000			7.729			-1.546
235301.000			7.729			-1.546
235400.000			7.730			-1.546
235500.000			7.730			-1.546
235602.000			7.730			-1.546
235701.000			7.730			-1.546
235800.000			7.729			-1.546
235901.000			7.728			-1.546
236000.000			7.728			-1.546
236100.000			7.728			-1.546
236201.000			7.728			-1.546
236300.000			7.728			-1.546
236400.000			7.728			-1.546
236502.000			7.728			-1.546
236601.000			7.729			-1.546
236702.000			7.728			-1.546
236800.000			7.729			-1.546
236900.000			7.728			-1.546
237001.000			7.728			-1.546
237100.000			7.728			-1.546
237200.000			7.728			-1.546
237301.000			7.729			-1.546
237400.000			7.728			-1.546
237501.000			7.729			-1.546
237602.000			7.729			-1.546
237700.000			7.728			-1.546
237800.000			7.727			-1.545
237901.000			7.728			-1.546
238000.000			7.727			-1.545
238100.000			7.727			-1.545
238201.000			7.727			-1.545
238300.000			7.727			-1.545
238401.000			7.727			-1.545
238502.000			7.728			-1.546
238601.000			7.727			-1.545
238700.000			7.726			-1.545
238801.000			7.725			-1.545
238900.000			7.725			-1.545
239000.000			7.726			-1.545
239101.000			7.726			-1.545
239200.000			7.726			-1.545
239300.000			7.727			-1.545
239402.000			7.727			-1.545
239501.000			7.726			-1.545
239602.000			7.726			-1.545
239700.000			7.726			-1.545
239800.000			7.725			-1.545
239901.000			7.725			-1.545
240000.000			7.724			-1.545
240100.000			7.726			-1.545
240201.000			7.724			-1.545
240300.000			7.724			-1.545
240401.000			7.725			-1.545
240502.000			7.726			-1.545
240600.000			7.725			-1.545
240700.000			7.725			-1.545
240801.000			7.726			-1.545
240900.000			7.725			-1.545
241000.000			7.725			-1.545
241101.000			7.725			-1.545
241200.000			7.725			-1.545
241301.000			7.724			-1.545
241402.000			7.725			-1.545
241500.000			7.724			-1.545
241600.000			7.723			-1.545
241701.000			7.724			-1.545
241800.000			7.724			-1.545
241900.000			7.724			-1.545
242001.000			7.724			-1.545
242100.000			7.724			-1.545
242201.000			7.723			-1.545
242302.000			7.724			-1.545
242401.000			7.724			-1.545
242500.000			7.724			-1.545
242601.000			7.723			-1.545
242700.000			7.724			-1.545
242800.000			7.724			-1.545
242900.000			7.723			-1.545
243000.000			7.723			-1.545
243101.000			7.722			-1.544
243201.000			7.723			-1.545
243301.000			7.723			-1.545
243401.000			7.722			-1.544
243500.000			7.723			-1.545
243600.000			7.723			-1.545
243701.000			7.722			-1.544
243800.000			7.722			-1.544
243900.000			7.722			-1.544
244001.000			7.723			-1.545
244101.000			7.723			-1.545
244201.000			7.723			-1.545
244301.000			7.723			-1.545
244400.000			7.722			-1.544
244500.000			7.721			-1.544
244601.000			7.721			-1.544
244700.000			7.721			-1.544
244800.000			7.721			-1.544
244901.000			7.721			-1.544
245001.000			7.721			-1.544
245101.000			7.721			-1.544
245201.000			7.722			-1.544
245300.000			7.721			-1.544
245400.000			7.722			-1.544
245501.000			7.721			-1.544
245600.000			7.720			-1.544
245700.000			7.721			-1.544
245801.000			7.722			-1.544
245901.000			7.721			-1.544
246002.000			7.721			-1.544
246101.000			7.722			-1.544
246200.000			7.722			-1.544
246301.000			7.721			-1.544
246400.000			7.721			-1.544
246500.000			7.721			-1.544
246601.000			7.721			-1.544
246700.000			7.721			-1.544
246800.000			7.721			-1.544
246902.000			7.720			-1.544
247001.000			7.720			-1.544
247100.000			7.720			-1.544
247201.000			7.720			-1.544
247300.000			7.720			-1.544
247400.000			7.720			-1.544
247501.000			7.720			-1.544
247600.000			7.720			-1.544
247700.000			7.721			-1.544
247802.000			7.721			-1.544
247901.000			7.720			-1.544
248001.000			7.719			-1.544
248101.000			7.718			-1.544
248200.000			7.719			-1.544
248300.000			7.719			-1.544
248401.000			7.718			-1.544
248500.000			7.719			-1.544
248600.000			7.719			-1.544
248701.000			7.719			-1.544
248801.000			7.719			-1.544
248901.000			7.718			-1.544
249002.000			7.719			-1.544
249100.000			7.718			-1.544
249200.000			7.718			-1.544
249300.000			7.718			-1.544
249400.000			7.718			-1.544
249501.000			7.718			-1.544
249600.000			7.717			-1.543
249700.000			7.716			-1.543
249802.000			7.717			-1.543
249901.000			7.717			-1.543
250001.000			7.717			-1.543
250101.000			7.717			-1.543
250200.000			7.718			-1.544
250300.000			7.717			-1.543
250401.000			7.718			-1.544
250500.000			7.718			-1.544
250600.000			7.718			-1.544
250701.000			7.717			-1.543
250801.000			7.716			-1.543
250901.000			7.718			-1.544
251001.000			7.718			-1.544
251100.000			7.718			-1.544
251200.000			7.717			-1.543
251301.000			7.717			-1.543
251400.000			7.717			-1.543
251500.000			7.717			-1.543
251601.000			7.716			-1.543
251701.000			7.716			-1.543
251801.000			7.716			-1.543
251902.000			7.716			-1.543
252000.000			7.716			-1.543
252100.000			7.717			-1.543
252201.000			7.717			-1.543
252300.000			7.716			-1.543
252400.000			7.716			-1.543
252500.000			7.717			-1.543
252600.000			7.717			-1.543
252702.000			7.716			-1.543
252801.000			7.716			-1.543
252900.000			7.716			-1.543
253001.000			7.716			-1.543
253100.000			7.716			-1.543
253200.000			7.715			-1.543
253301.000			7.716			-1.543
253400.000			7.716			-1.543
253500.000			7.716			-1.543
253602.000			7.716			-1.543
253701.000			7.716			-1.543
253801.000			7.716			-1.543
253901.000			7.716			-1.543
254000.000			7.716			-1.543
254100.000			7.716			-1.543
254201.000			7.716			-1.543
254300.000			7.715			-1.543
254400.000			7.715			-1.543
254501.000			7.714			-1.543
254601.000			7.715			-1.543
254701.000			7.716			-1.543
254801.000			7.715			-1.543
254900.000			7.715			-1.543
255000.000			7.715			-1.543
255101.000			7.714			-1.543
255200.000			7.714			-1.543
255300.000			7.714			-1.543
255401.000			7.714			-1.543
255501.000			7.714			-1.543
255602.000			7.714			-1.543
255701.000			7.715			-1.543
255800.000			7.713			-1.543
255901.000			7.713			-1.543
256000.000			7.714			-1.543
256100.000			7.714			-1.543
256201.000			7.715			-1.543
256300.000			7.714			-1.543
256400.000			7.713			-1.543
256502.000			7.713			-1.543
256601.000			7.713			-1.543
256700.000			7.713			-1.543
256801.000			7.713			-1.543
256900.000			7.714			-1.543
257000.000			7.713			-1.543
257101.000			7.714			-1.543
257200.000			7.713			-1.543
257300.000			7.713			-1.543
257402.000			7.714			-1.543
257501.000			7.714			-1.543
257600.000			7.713			-1.543
257701.000			7.712			-1.542
257800.000			7.713			-1.543
257900.000			7.713			-1.543
258001.000			7.713			-1.543
258100.000			7.713			-1.543
258200.000			7.713			-1.543
258302.000			7.713			-1.543
258401.000			7.713			-1.543
258501.000			7.712			-1.542
258601.000			7.713			-1.543
258700.000			7.712			-1.542
258800.000			7.712			-1.542
258900.000			7.712			-1.542
259000.000			7.712			-1.542
259101.000			7.712			-1.542
259200.000			7.711			-1.542
259301.000			7.711			-1.542
259402.000			7.712			-1.542
259501.000			7.712			-1.542
259600.000			7.712			-1.542
259701.000			7.710			-1.542
259800.000			7.710			-1.542
259900.000			7.711			-1.542
260001.000			7.710			-1.542
260100.000			7.711			-1.542
260200.000			7.711			-1.542
260302.000			7.710			-1.542
260401.000			7.710			-1.542
260500.000			7.711			-1.542
260601.000			7.710			-1.542
260700.000			7.709			-1.542
260800.000			7.710			-1.542
260901.000			7.710			-1.542
261000.000			7.709			-1.542
261100.000			7.709			-1.542
261202.000			7.709			-1.542
261301.000			7.709			-1.542
261400.000			7.709			-1.542
261501.000			7.708			-1.542
261600.000			7.709			-1.542
261700.000			7.709			-1.542
261801.000			7.708			-1.542
261900.000			7.708			-1.542
262000.000			7.708			-1.542
262102.000			7.708			-1.542
262201.000			7.708			-1.542
262302.000			7.708			-1.542
262400.000			7.708			-1.542
262500.000			7.707			-1.541
262601.000			7.708			-1.542
262700.000			7.708			-1.542
262800.000			7.707			-1.541
262901.000			7.707			-1.541
263000.000			7.706			-1.541
263101.000			7.706			-1.541
263202.000			7.706			-1.541
263300.000			7.706			-1.541
263400.000			7.706			-1.541
263501.000			7.706			-1.541
263600.000			7.706			-1.541
263700.000			7.706			-1.541
263801.000			7.706			-1.541
263900.000			7.706			-1.541
264001.000			7.705			-1.541
264102.000			7.705			-1.541
264201.000			7.705			-1.541
264300.000			7.705			-1.541
264401.000			7.705			-1.541
264500.000			7.705			-1.541
264600.000			7.704			-1.541
264701.000			7.705			-1.541
264800.000			7.705			-1.541
264900.000			7.705			-1.541
265002.000			7.704			-1.541
265101.000			7.704			-1.541
265200.000			7.704			-1.541
265300.000			7.704			-1.541
265400.000			7.705			-1.541
265501.000			7.704			-1.541
265600.000			7.704			-1.541
265700.000			7.703			-1.541
265801.000			7.704			-1.541
265901.000			7.704			-1.541
266001.000			7.705			-1.541
266101.000			7.704			-1.541
266200.000			7.704			-1.541
266300.000			7.704			-1.541
266401.000			7.704			-1.541
266500.000			7.704			-1.541
266600.000			7.704			-1.541
266701.000			7.704			-1.541
266801.000			7.703			-1.541
266901.000			7.703			-1.541
267002.000			7.704			-1.541
267100.000			7.704			-1.541
267200.000			7.703			-1.541
267301.000			7.703			-1.541
267400.000			7.704			-1.541
267500.000			7.703			-1.541
267601.000			7.702			-1.540
267701.000			7.703			-1.541
267801.000			7.703			-1.541
267902.000			7.703			-1.541
268000.000			7.702			-1.540
268100.000			7.703			-1.541
268201.000			7.702			-1.540
268300.000			7.703			-1.541
268400.000			7.703			-1.541
268500.000			7.703			-1.541
268600.000			7.702			-1.540
268702.000			7.702			-1.540
268801.000			7.702			-1.540
268901.000			7.703			-1.541
269001.000			7.702			-1.540
269100.000			7.702			-1.540
269200.000			7.702			-1.540
269301.000			7.702			-1.540
269400.000			7.703			-1.541
269500.000			7.704			-1.541
269602.000			7.703			-1.541
269701.000			7.703			-1.541
269801.000			7.704			-1.541
269901.000			7.704			-1.541
270000.000			7.703			-1.541
270100.000			7.703			-1.541
270201.000			7.703			-1.541
270300.000			7.703			-1.541
270400.000			7.702			-1.540
270501.000			7.703			-1.541
270601.000			7.702			-1.540
270701.000			7.701			-1.540
270801.000			7.701			-1.540
270900.000			7.702			-1.540
271000.000			7.701			-1.540
271101.000			7.701			-1.540
271200.000			7.702			-1.540
271300.000			7.701			-1.540
271401.000			7.700			-1.540
271501.000			7.701			-1.540
271602.000			7.701			-1.540
271700.000			7.701			-1.540
271800.000			7.702			-1.540
271901.000			7.700			-1.540
272000.000			7.699			-1.540
272100.000			7.701			-1.540
272201.000			7.701			-1.540
272300.000			7.701			-1.540
272401.000			7.701			-1.540
272502.000			7.701			-1.540
272600.000			7.700			-1.540
272700.000			7.701			-1.540
272801.000			7.701			-1.540
272900.000			7.700			-1.540
273000.000			7.701			-1.540
273101.000			7.700			-1.540
273200.000			7.700			-1.540
273301.000			7.701			-1.540
273402.000			7.700			-1.540
273501.000			7.700			-1.540
273600.000			7.700			-1.540
273701.000			7.699			-1.540
273800.000			7.699			-1.540
273900.000			7.699			-1.540
274001.000			7.699			-1.540
274100.000			7.699			-1.540
274200.000			7.700			-1.540
274302.000			7.699			-1.540
274401.000			7.699			-1.540
274500.000			7.699			-1.540
274601.000			7.697			-1.539
274700.000			7.698			-1.540
274800.000			7.698			-1.540
274900.000			7.698			-1.540
275000.000			7.698			-1.540
275101.000			7.698			-1.540
275200.000			7.698			-1.540
275301.000			7.698			-1.540
275402.000			7.698			-1.540
275500.000			7.698			-1.540
275600.000			7.698			-1.540
275701.000			7.698			-1.540
275800.000			7.698			-1.540
275900.000			7.698			-1.540
276001.000			7.699			-1.540
276100.000			7.698			-1.540
276200.000			7.697			-1.539
276302.000			7.698			-1.540
276401.000			7.698			-1.540
276501.000			7.698			-1.540
276601.000			7.697			-1.539
276700.000			7.698			-1.540
276800.000			7.698			-1.540
276901.000			7.698			-1.540
277000.000			7.698			-1.540
277100.000			7.697			-1.539
277201.000			7.698			-1.540
277301.000			7.698			-1.540
277401.000			7.697			-1.539
277501.000			7.698			-1.540
277600.000			7.697			-1.539
277700.000			7.697			-1.539
277801.000			7.698			-1.540
277900.000			7.697			-1.539
278000.000			7.697			-1.539
278100.000			7.698			-1.540
278200.000			7.697			-1.539
278302.000			7.697			-1.539
278401.000			7.697			-1.539
278501.000			7.697			-1.539
278601.000			7.697			-1.539
278700.000			7.697			-1.539
278800.000			7.698			-1.540
278901.000			7.699			-1.540
279000.000			7.699			-1.540
279100.000			7.698			-1.540
279201.000			7.696			-1.539
279301.000			7.697			-1.539
279401.000			7.696			-1.539
279502.000			7.697			-1.539
279600.000			7.698			-1.540
279700.000			7.698			-1.540
279801.000			7.698			-1.540
279900.000			7.699			-1.540
280000.000			7.698			-1.540
280101.000			7.697			-1.539
280200.000			7.697			-1.539
280300.000			7.698			-1.540
280402.000			7.697			-1.539
280501.000			7.697			-1.539
280600.000			7.697			-1.539
280701.000			7.697			-1.539
280800.000			7.697			-1.539
280900.000			7.697			-1.539
281001.000			7.698			-1.540
281100.000			7.697			-1.539
281200.000			7.696			-1.539
281302.000			7.697			-1.539
281401.000			7.697			-1.539
281502.000			7.698			-1.540
281600.000			7.697			-1.539
281700.000			7.696			-1.539
281801.000			7.697			-1.539
281900.000			7.696			-1.539
282000.000			7.695			-1.539
282101.000			7.695			-1.539
282200.000			7.696			-1.539
282301.000			7.696			-1.539
282402.000			7.696			-1.539
282501.000			7.697			-1.539
282600.000			7.696			-1.539
282701.000			7.696			-1.539
282800.000			7.696			-1.539
282900.000			7.696			-1.539
283001.000			7.695			-1.539
283100.000			7.696			-1.539
283200.000			7.695			-1.539
283302.000			7.696			-1.539
283401.000			7.695			-1.539
283501.000			7.695			-1.539
283601.000			7.695			-1.539
283700.000			7.695			-1.539
283800.000			7.694			-1.539
283901.000			7.694			-1.539
284000.000			7.694			-1.539
284100.000			7.694			-1.539
284201.000			7.694			-1.539
284301.000			7.694			-1.539
284402.000			7.694			-1.539
284500.000			7.693			-1.539
284600.000			7.693			-1.539
284701.000			7.694			-1.539
284800.000			7.693			-1.539
284900.000			7.693			-1.539
285001.000			7.694			-1.539
285100.000			7.693			-1.539
285200.000			7.693			-1.539
285302.000			7.694			-1.539
285401.000			7.694			-1.539
285500.000			7.694			-1.539
285601.000			7.694			-1.539
285700.000			7.694			-1.539
285800.000			7.694			-1.539
285901.000			7.694			-1.539
286000.000			7.694			-1.539
286100.000			7.694			-1.539
286202.000			7.693			-1.539
286301.000			7.693			-1.539
286401.000			7.693			-1.539
286501.000			7.692			-1.538
286600.000			7.693			-1.539
286700.000			7.693			-1.539
286801.000			7.692			-1.538
286900.000			7.693			-1.539
287000.000			7.693			-1.539
287101.000			7.693			-1.539
287201.000			7.693			-1.539
287301.000			7.692			-1.538
287402.000			7.692			-1.538
287500.000			7.692			-1.538
287600.000			7.692			-1.538
287700.000			7.692			-1.538
287800.000			7.692			-1.538
287901.000			7.691			-1.538
288000.000			7.691			-1.538
288100.000			7.691			-1.538
288202.000			7.691			-1.538
288301.000			7.691			-1.538
288401.000			7.691			-1.538
288501.000			7.691			-1.538
288600.000			7.690			-1.538
288700.000			7.690			-1.538
288801.000			7.691			-1.538
288900.000			7.691			-1.538
289000.000			7.691			-1.538
289101.000			7.691			-1.538
289201.000			7.692			-1.538
289301.000			7.691			-1.538
289402.000			7.691			-1.538
289500.000			7.691			-1.538
289600.000			7.691			-1.538
289701.000			7.691			-1.538
289800.000			7.689			-1.538
289900.000			7.690			-1.538
290001.000			7.690			-1.538
290100.000			7.690			-1.538
290201.000			7.690			-1.538
290302.000			7.690			-1.538
290401.000			7.690			-1.538
290500.000			7.689			-1.538
290601.000			7.689			-1.538
290700.000			7.689			-1.538
290800.000			7.689			-1.538
290900.000			7.689			-1.538
291000.000			7.689			-1.538
291101.000			7.689			-1.538
291201.000			7.690			-1.538
291301.000			7.689			-1.538
291402.000			7.689			-1.538
291500.000			7.689			-1.538
291600.000			7.689			-1.538
291701.000			7.689			-1.538
291800.000			7.689			-1.538
291900.000			7.688			-1.538
292001.000			7.688			-1.538
292100.000			7.688			-1.538
292201.000			7.688			-1.538
292302.000			7.688			-1.538
292401.000			7.688			-1.538
292500.000			7.687			-1.537
292601.000			7.687			-1.537
292700.000			7.688			-1.538
292800.000			7.687			-1.537
292901.000			7.686			-1.537
293000.000			7.687			-1.537
293100.000			7.687			-1.537
293202.000			7.687			-1.537
293301.000			7.687			-1.537
293401.000			7.687			-1.537
293501.000			7.687			-1.537
293600.000			7.687			-1.537
293700.000			7.687			-1.537
293801.000			7.687			-1.537
293900.000			7.687			-1.537
294000.000			7.687			-1.537
294100.000			7.687			-1.537
294200.000			7.687			-1.537
294302.000			7.688			-1.538
294401.000			7.687			-1.537
294500.000			7.688			-1.538
294601.000			7.688			-1.538
294700.000			7.688			-1.538
294800.000			7.688			-1.538
294901.000			7.687			-1.537
295000.000			7.688			-1.538
295100.000			7.688			-1.538
295202.000			7.687			-1.537
295301.000			7.687			-1.537
295401.000			7.687			-1.537
295501.000			7.687			-1.537
295600.000			7.688			-1.538
295700.000			7.688			-1.538
295801.000			7.688			-1.538
295900.000			7.688			-1.538
296000.000			7.687			-1.537
296101.000			7.688			-1.538
296200.000			7.689			-1.538
296301.000			7.688			-1.538
296402.000			7.687			-1.537
296501.000			7.686			-1.537
296600.000			7.687			-1.537
296701.000			7.687			-1.537
296800.000			7.688			-1.538
296900.000			7.687			-1.537
297001.000			7.688			-1.538
297100.000			7.687			-1.537
297200.000			7.687			-1.537
297302.000			7.687			-1.537
297401.000			7.686			-1.537
297502.000			7.686			-1.537
297600.000			7.687			-1.537
297700.000			7.687			-1.537
297801.000			7.687			-1.537
297900.000			7.687			-1.537
298000.000			7.687			-1.537
298101.000			7.686			-1.537
298200.000			7.687			-1.537
298301.000			7.687			-1.537
298402.000			7.687			-1.537
298501.000			7.686			-1.537
298600.000			7.687			-1.537
298701.000			7.687			-1.537
298800.000			7.687			-1.537
298900.000			7.686			-1.537
299001.000			7.686			-1.537
299100.000			7.687			-1.537
299200.000			7.687			-1.537
299301.000			7.687			-1.537
299401.000			7.686			-1.537
299501.000			7.685			-1.537
299601.000			7.686			-1.537
299700.000			7.686			-1.537
299800.000			7.687			-1.537
299901.000			7.687			-1.537
