# Acquired on 30/01/2024 12:16:35 
# SPIDER: Creep_-11mm_GRPCNT1454A-3
# CREEP MEASUREMENT

# time [ms]		force [N]		stiffness [N/mm]
1.000			55.750			-5.068
104.000			56.625			-5.148
204.000			56.543			-5.140
304.000			55.911			-5.083
404.000			55.140			-5.013
503.000			54.877			-4.989
604.000			54.647			-4.968
704.000			54.444			-4.949
805.000			54.262			-4.933
904.000			54.099			-4.918
1004.000			53.950			-4.905
1105.000			53.685			-4.880
1203.000			53.567			-4.870
1304.000			53.456			-4.860
1405.000			53.353			-4.850
1504.000			53.255			-4.841
1604.000			53.161			-4.833
1705.000			53.073			-4.825
1804.000			52.990			-4.817
1903.000			52.835			-4.803
2005.000			52.763			-4.797
2104.000			52.693			-4.790
2204.000			52.626			-4.784
2305.000			52.562			-4.778
2403.000			52.500			-4.773
2504.000			52.441			-4.767
2605.000			52.328			-4.757
2704.000			52.275			-4.752
2804.000			52.223			-4.748
2905.000			52.173			-4.743
3004.000			52.124			-4.739
3103.000			52.077			-4.734
3205.000			52.031			-4.730
3304.000			51.942			-4.722
3404.000			51.899			-4.718
3505.000			51.859			-4.714
3603.000			51.819			-4.711
3705.000			51.779			-4.707
3804.000			51.741			-4.704
3904.000			51.704			-4.700
4005.000			51.632			-4.694
4104.000			51.597			-4.691
4204.000			51.561			-4.687
4304.000			51.527			-4.684
4404.000			51.495			-4.681
4504.000			51.464			-4.679
4605.000			51.433			-4.676
4704.000			51.401			-4.673
4804.000			51.341			-4.667
4905.000			51.313			-4.665
5003.000			51.283			-4.662
5104.000			51.254			-4.659
5205.000			51.227			-4.657
5304.000			51.200			-4.655
5404.000			51.173			-4.652
5504.000			51.122			-4.647
5604.000			51.095			-4.645
5704.000			51.069			-4.643
5805.000			51.045			-4.640
5904.000			51.021			-4.638
6004.000			50.997			-4.636
6105.000			50.973			-4.634
6203.000			50.929			-4.630
6304.000			50.906			-4.628
6405.000			50.883			-4.626
6504.000			50.861			-4.624
6604.000			50.838			-4.622
6704.000			50.817			-4.620
6804.000			50.797			-4.618
6903.000			50.756			-4.614
7004.000			50.735			-4.612
7104.000			50.715			-4.610
7205.000			50.695			-4.609
7304.000			50.675			-4.607
7403.000			50.656			-4.605
7505.000			50.638			-4.603
7604.000			50.620			-4.602
7704.000			50.583			-4.598
7805.000			50.565			-4.597
7904.000			50.547			-4.595
8004.000			50.528			-4.593
8104.000			50.511			-4.592
8204.000			50.495			-4.590
8304.000			50.477			-4.589
8405.000			50.443			-4.586
8504.000			50.427			-4.584
8603.000			50.411			-4.583
8705.000			50.395			-4.581
8804.000			50.380			-4.580
8904.000			50.363			-4.578
9005.000			50.347			-4.577
9104.000			50.314			-4.574
9204.000			50.301			-4.573
9304.000			50.286			-4.571
9404.000			50.270			-4.570
9504.000			50.256			-4.569
9605.000			50.241			-4.567
9704.000			50.226			-4.566
9803.000			50.199			-4.564
9905.000			50.184			-4.562
10004.000			50.171			-4.561
10105.000			50.156			-4.560
10204.000			50.143			-4.558
10304.000			50.129			-4.557
10405.000			50.116			-4.556
10503.000			50.102			-4.555
10604.000			50.075			-4.552
10705.000			50.063			-4.551
10804.000			50.049			-4.550
10904.000			50.036			-4.549
11005.000			50.023			-4.548
11104.000			50.010			-4.546
11203.000			49.998			-4.545
11305.000			49.974			-4.543
11404.000			49.961			-4.542
11504.000			49.950			-4.541
11605.000			49.938			-4.540
11704.000			49.926			-4.539
11804.000			49.914			-4.538
11904.000			49.901			-4.536
12004.000			49.878			-4.534
12104.000			49.866			-4.533
12205.000			49.855			-4.532
12304.000			49.844			-4.531
12404.000			49.833			-4.530
12505.000			49.821			-4.529
12603.000			49.809			-4.528
12704.000			49.789			-4.526
12805.000			49.778			-4.525
12904.000			49.767			-4.524
13004.000			49.756			-4.523
13104.000			49.746			-4.522
13204.000			49.735			-4.521
13303.000			49.725			-4.520
13404.000			49.715			-4.520
13504.000			49.693			-4.518
13605.000			49.683			-4.517
13704.000			49.673			-4.516
13804.000			49.663			-4.515
13905.000			49.653			-4.514
14003.000			49.643			-4.513
14104.000			49.633			-4.512
14205.000			49.614			-4.510
14304.000			49.605			-4.510
14404.000			49.595			-4.509
14505.000			49.586			-4.508
14604.000			49.577			-4.507
14703.000			49.567			-4.506
14805.000			49.556			-4.505
14904.000			49.537			-4.503
15004.000			49.528			-4.503
15105.000			49.519			-4.502
15204.000			49.510			-4.501
15304.000			49.502			-4.500
15404.000			49.495			-4.500
15504.000			49.484			-4.499
15604.000			49.466			-4.497
15705.000			49.457			-4.496
15804.000			49.448			-4.495
15904.000			49.439			-4.494
16005.000			49.431			-4.494
16103.000			49.422			-4.493
16204.000			49.414			-4.492
16305.000			49.405			-4.491
16404.000			49.389			-4.490
16505.000			49.379			-4.489
16604.000			49.371			-4.488
16704.000			49.363			-4.488
16804.000			49.356			-4.487
16904.000			49.347			-4.486
17004.000			49.338			-4.485
17105.000			49.323			-4.484
17204.000			49.314			-4.483
17304.000			49.306			-4.482
17405.000			49.298			-4.482
17503.000			49.291			-4.481
17604.000			49.283			-4.480
17705.000			49.274			-4.479
17804.000			49.260			-4.478
17904.000			49.252			-4.477
18005.000			49.245			-4.477
18104.000			49.237			-4.476
18203.000			49.229			-4.475
18305.000			49.222			-4.475
18404.000			49.214			-4.474
18504.000			49.200			-4.473
18605.000			49.192			-4.472
18704.000			49.185			-4.471
18804.000			49.177			-4.471
18904.000			49.169			-4.470
19004.000			49.162			-4.469
19104.000			49.156			-4.469
19205.000			49.148			-4.468
19304.000			49.134			-4.467
19404.000			49.127			-4.466
19505.000			49.120			-4.465
19603.000			49.113			-4.465
19705.000			49.106			-4.464
19804.000			49.098			-4.463
19904.000			49.092			-4.463
20005.000			49.079			-4.462
20104.000			49.072			-4.461
20204.000			49.064			-4.460
20304.000			49.057			-4.460
20404.000			49.051			-4.459
20504.000			49.045			-4.459
20605.000			49.038			-4.458
20704.000			49.024			-4.457
20804.000			49.018			-4.456
20905.000			49.012			-4.456
21004.000			49.005			-4.455
21104.000			48.998			-4.454
21205.000			48.991			-4.454
21304.000			48.984			-4.453
21404.000			48.971			-4.452
21504.000			48.966			-4.451
21604.000			48.959			-4.451
21703.000			48.954			-4.450
21805.000			48.948			-4.450
21904.000			48.940			-4.449
22004.000			48.934			-4.449
22105.000			48.929			-4.448
22204.000			48.916			-4.447
22304.000			48.909			-4.446
22404.000			48.903			-4.446
22504.000			48.896			-4.445
22604.000			48.891			-4.445
22704.000			48.885			-4.444
22804.000			48.879			-4.444
22905.000			48.867			-4.442
23004.000			48.861			-4.442
23103.000			48.855			-4.441
23205.000			48.850			-4.441
23304.000			48.844			-4.440
23404.000			48.837			-4.440
23505.000			48.831			-4.439
23604.000			48.821			-4.438
23704.000			48.815			-4.438
23804.000			48.810			-4.437
23904.000			48.803			-4.437
24004.000			48.796			-4.436
24105.000			48.792			-4.436
24204.000			48.787			-4.435
24304.000			48.775			-4.434
24405.000			48.770			-4.434
24503.000			48.763			-4.433
24604.000			48.757			-4.432
24705.000			48.753			-4.432
24804.000			48.747			-4.432
24904.000			48.742			-4.431
25005.000			48.736			-4.431
25104.000			48.726			-4.430
25203.000			48.721			-4.429
25305.000			48.714			-4.429
25404.000			48.709			-4.428
25504.000			48.703			-4.428
25605.000			48.697			-4.427
25704.000			48.692			-4.427
25804.000			48.683			-4.426
25903.000			48.678			-4.425
26004.000			48.672			-4.425
26105.000			48.666			-4.424
26204.000			48.661			-4.424
26304.000			48.657			-4.423
26405.000			48.651			-4.423
26504.000			48.642			-4.422
26603.000			48.636			-4.421
26705.000			48.630			-4.421
26804.000			48.625			-4.420
26904.000			48.620			-4.420
27005.000			48.616			-4.420
27104.000			48.611			-4.419
27204.000			48.600			-4.418
27304.000			48.595			-4.418
27404.000			48.590			-4.417
27504.000			48.585			-4.417
27605.000			48.581			-4.416
27704.000			48.575			-4.416
27804.000			48.570			-4.415
27905.000			48.564			-4.415
28003.000			48.556			-4.414
28104.000			48.550			-4.414
28205.000			48.546			-4.413
28304.000			48.540			-4.413
28404.000			48.536			-4.412
28505.000			48.531			-4.412
28604.000			48.526			-4.411
28703.000			48.517			-4.411
28805.000			48.512			-4.410
28904.000			48.506			-4.410
29004.000			48.503			-4.409
29105.000			48.500			-4.409
29204.000			48.494			-4.409
29305.000			48.490			-4.408
29403.000			48.481			-4.407
29504.000			48.476			-4.407
29605.000			48.471			-4.406
29704.000			48.465			-4.406
29804.000			48.462			-4.406
29905.000			48.457			-4.405
30004.000			48.452			-4.405
30103.000			48.443			-4.404
30205.000			48.438			-4.403
30304.000			48.435			-4.403
30404.000			48.431			-4.403
30505.000			48.427			-4.402
30604.000			48.421			-4.402
30704.000			48.416			-4.401
30804.000			48.413			-4.401
30904.000			48.403			-4.400
31004.000			48.398			-4.400
31105.000			48.393			-4.399
31204.000			48.389			-4.399
31303.000			48.385			-4.399
31405.000			48.381			-4.398
31504.000			48.376			-4.398
31604.000			48.369			-4.397
31705.000			48.365			-4.397
31804.000			48.360			-4.396
31904.000			48.356			-4.396
32004.000			48.352			-4.396
32104.000			48.347			-4.395
32203.000			48.342			-4.395
32305.000			48.334			-4.394
32404.000			48.330			-4.394
32505.000			48.326			-4.393
32604.000			48.323			-4.393
32703.000			48.319			-4.393
32805.000			48.314			-4.392
32904.000			48.309			-4.392
33004.000			48.305			-4.391
33105.000			48.297			-4.391
33204.000			48.292			-4.390
33304.000			48.289			-4.390
33404.000			48.285			-4.390
33504.000			48.282			-4.389
33604.000			48.278			-4.389
33705.000			48.274			-4.389
33804.000			48.265			-4.388
33904.000			48.261			-4.387
34005.000			48.257			-4.387
34103.000			48.253			-4.387
34204.000			48.248			-4.386
34305.000			48.244			-4.386
34404.000			48.241			-4.386
34504.000			48.234			-4.385
34605.000			48.230			-4.385
34704.000			48.225			-4.384
34803.000			48.222			-4.384
34905.000			48.217			-4.383
35004.000			48.214			-4.383
35104.000			48.210			-4.383
35205.000			48.203			-4.382
35304.000			48.200			-4.382
35404.000			48.195			-4.381
35503.000			48.191			-4.381
35604.000			48.188			-4.381
35705.000			48.185			-4.380
35804.000			48.180			-4.380
35904.000			48.171			-4.379
36005.000			48.168			-4.379
36104.000			48.164			-4.379
36203.000			48.159			-4.378
36305.000			48.156			-4.378
36404.000			48.153			-4.378
36504.000			48.149			-4.377
36605.000			48.146			-4.377
36704.000			48.138			-4.376
36804.000			48.134			-4.376
36904.000			48.131			-4.376
37004.000			48.127			-4.375
37104.000			48.123			-4.375
37205.000			48.120			-4.375
37304.000			48.115			-4.374
37403.000			48.108			-4.373
37505.000			48.105			-4.373
37604.000			48.102			-4.373
37704.000			48.098			-4.373
37805.000			48.094			-4.372
37904.000			48.091			-4.372
38004.000			48.087			-4.372
38104.000			48.080			-4.371
38204.000			48.076			-4.371
38303.000			48.073			-4.370
38405.000			48.070			-4.370
38504.000			48.066			-4.370
38604.000			48.062			-4.369
38705.000			48.059			-4.369
38803.000			48.056			-4.369
38905.000			48.048			-4.368
39004.000			48.044			-4.368
39104.000			48.042			-4.367
39205.000			48.039			-4.367
39304.000			48.036			-4.367
39404.000			48.032			-4.367
39504.000			48.028			-4.366
39604.000			48.020			-4.365
39703.000			48.017			-4.365
39805.000			48.014			-4.365
39904.000			48.011			-4.365
40004.000			48.007			-4.364
40105.000			48.003			-4.364
40203.000			48.000			-4.364
40304.000			47.994			-4.363
40405.000			47.991			-4.363
40504.000			47.987			-4.362
40604.000			47.983			-4.362
40705.000			47.979			-4.362
40804.000			47.976			-4.361
40903.000			47.973			-4.361
41005.000			47.966			-4.361
41104.000			47.963			-4.360
41204.000			47.960			-4.360
41305.000			47.957			-4.360
41404.000			47.954			-4.359
41504.000			47.951			-4.359
41604.000			47.947			-4.359
41704.000			47.944			-4.359
41804.000			47.937			-4.358
41904.000			47.934			-4.358
42004.000			47.931			-4.357
42105.000			47.928			-4.357
42204.000			47.924			-4.357
42303.000			47.921			-4.356
42405.000			47.918			-4.356
42504.000			47.912			-4.356
42604.000			47.909			-4.355
42705.000			47.906			-4.355
42804.000			47.902			-4.355
42904.000			47.899			-4.354
43004.000			47.896			-4.354
43104.000			47.893			-4.354
43204.000			47.887			-4.353
43305.000			47.883			-4.353
43404.000			47.880			-4.353
43504.000			47.878			-4.353
43605.000			47.874			-4.352
43703.000			47.871			-4.352
43804.000			47.867			-4.352
43905.000			47.862			-4.351
44004.000			47.859			-4.351
44104.000			47.855			-4.350
44205.000			47.852			-4.350
44304.000			47.849			-4.350
44403.000			47.846			-4.350
44505.000			47.843			-4.349
44604.000			47.840			-4.349
44704.000			47.833			-4.348
44805.000			47.830			-4.348
44904.000			47.829			-4.348
45004.000			47.826			-4.348
45104.000			47.823			-4.348
45204.000			47.820			-4.347
45303.000			47.817			-4.347
45404.000			47.810			-4.346
45504.000			47.807			-4.346
45605.000			47.805			-4.346
45704.000			47.803			-4.346
45804.000			47.799			-4.345
45905.000			47.795			-4.345
46003.000			47.793			-4.345
46104.000			47.787			-4.344
46205.000			47.784			-4.344
46304.000			47.781			-4.344
46404.000			47.778			-4.343
46505.000			47.775			-4.343
46604.000			47.772			-4.343
46703.000			47.768			-4.343
46805.000			47.763			-4.342
46904.000			47.760			-4.342
47004.000			47.757			-4.342
47105.000			47.754			-4.341
47204.000			47.751			-4.341
47304.000			47.749			-4.341
47404.000			47.747			-4.341
47504.000			47.743			-4.340
47604.000			47.736			-4.340
47705.000			47.733			-4.339
47804.000			47.731			-4.339
47904.000			47.728			-4.339
48005.000			47.725			-4.339
48103.000			47.723			-4.338
48204.000			47.721			-4.338
48305.000			47.714			-4.338
48404.000			47.712			-4.337
48505.000			47.709			-4.337
48604.000			47.706			-4.337
48704.000			47.704			-4.337
48804.000			47.701			-4.336
48904.000			47.698			-4.336
49004.000			47.693			-4.336
49105.000			47.690			-4.335
49204.000			47.687			-4.335
49304.000			47.685			-4.335
49405.000			47.682			-4.335
49503.000			47.679			-4.334
49604.000			47.676			-4.334
49705.000			47.670			-4.334
49804.000			47.668			-4.333
49904.000			47.665			-4.333
50005.000			47.661			-4.333
50104.000			47.659			-4.333
50203.000			47.657			-4.332
50305.000			47.654			-4.332
50404.000			47.651			-4.332
50504.000			47.646			-4.331
50605.000			47.642			-4.331
50704.000			47.639			-4.331
50804.000			47.637			-4.331
50904.000			47.635			-4.330
51004.000			47.633			-4.330
51104.000			47.631			-4.330
51205.000			47.625			-4.330
51304.000			47.623			-4.329
51404.000			47.620			-4.329
51505.000			47.618			-4.329
51603.000			47.616			-4.329
51705.000			47.612			-4.328
51804.000			47.609			-4.328
51904.000			47.604			-4.328
52005.000			47.601			-4.327
52104.000			47.599			-4.327
52204.000			47.596			-4.327
52304.000			47.594			-4.327
52404.000			47.590			-4.326
52504.000			47.588			-4.326
52605.000			47.584			-4.326
52704.000			47.581			-4.326
52804.000			47.579			-4.325
52905.000			47.576			-4.325
53003.000			47.574			-4.325
53104.000			47.570			-4.325
53205.000			47.568			-4.324
53304.000			47.565			-4.324
53404.000			47.560			-4.324
53505.000			47.559			-4.324
53604.000			47.556			-4.323
53703.000			47.553			-4.323
53805.000			47.551			-4.323
53904.000			47.548			-4.323
54004.000			47.545			-4.322
54105.000			47.540			-4.322
54204.000			47.538			-4.322
54304.000			47.535			-4.321
54404.000			47.532			-4.321
54504.000			47.530			-4.321
54604.000			47.528			-4.321
54704.000			47.526			-4.321
54804.000			47.520			-4.320
54905.000			47.519			-4.320
55004.000			47.517			-4.320
55103.000			47.514			-4.319
55205.000			47.511			-4.319
55304.000			47.509			-4.319
55404.000			47.506			-4.319
55505.000			47.503			-4.318
55604.000			47.499			-4.318
55704.000			47.497			-4.318
55804.000			47.494			-4.318
55904.000			47.491			-4.317
56004.000			47.490			-4.317
56105.000			47.487			-4.317
56204.000			47.485			-4.317
56304.000			47.478			-4.316
56405.000			47.476			-4.316
56503.000			47.475			-4.316
56604.000			47.473			-4.316
56705.000			47.470			-4.315
56804.000			47.468			-4.315
56904.000			47.465			-4.315
57005.000			47.460			-4.315
57104.000			47.457			-4.314
57203.000			47.455			-4.314
57305.000			47.452			-4.314
57404.000			47.451			-4.314
57504.000			47.448			-4.313
57605.000			47.446			-4.313
57704.000			47.441			-4.313
57804.000			47.440			-4.313
57903.000			47.436			-4.312
58004.000			47.434			-4.312
58105.000			47.430			-4.312
58204.000			47.428			-4.312
58304.000			47.427			-4.312
58405.000			47.425			-4.311
58504.000			47.420			-4.311
58603.000			47.418			-4.311
58705.000			47.415			-4.310
58804.000			47.412			-4.310
58904.000			47.411			-4.310
59005.000			47.409			-4.310
59104.000			47.407			-4.310
59204.000			47.402			-4.309
59304.000			47.399			-4.309
59404.000			47.398			-4.309
59504.000			47.396			-4.309
59605.000			47.392			-4.308
59704.000			47.390			-4.308
59804.000			47.388			-4.308
59905.000			47.384			-4.308
60003.000			47.382			-4.307
60104.000			47.379			-4.307
60205.000			47.376			-4.307
60304.000			47.374			-4.307
60404.000			47.372			-4.307
60505.000			47.370			-4.306
60604.000			47.366			-4.306
60703.000			47.364			-4.306
60805.000			47.361			-4.306
60904.000			47.358			-4.305
61004.000			47.356			-4.305
61105.000			47.355			-4.305
61204.000			47.352			-4.305
61305.000			47.349			-4.304
61403.000			47.347			-4.304
61504.000			47.345			-4.304
61605.000			47.342			-4.304
61704.000			47.339			-4.304
61804.000			47.337			-4.303
61904.000			47.335			-4.303
62004.000			47.333			-4.303
62104.000			47.328			-4.303
62205.000			47.328			-4.303
62304.000			47.325			-4.302
62404.000			47.322			-4.302
62505.000			47.318			-4.302
62603.000			47.316			-4.301
62704.000			47.315			-4.301
62805.000			47.312			-4.301
62904.000			47.309			-4.301
63004.000			47.307			-4.301
63105.000			47.305			-4.300
63204.000			47.303			-4.300
63303.000			47.301			-4.300
63405.000			47.299			-4.300
63504.000			47.294			-4.299
63604.000			47.292			-4.299
63705.000			47.290			-4.299
63804.000			47.286			-4.299
63904.000			47.285			-4.299
64004.000			47.284			-4.299
64104.000			47.282			-4.298
64204.000			47.279			-4.298
64304.000			47.274			-4.298
64404.000			47.273			-4.298
64505.000			47.272			-4.297
64604.000			47.270			-4.297
64703.000			47.267			-4.297
64805.000			47.265			-4.297
64904.000			47.263			-4.297
65004.000			47.258			-4.296
65105.000			47.257			-4.296
65204.000			47.254			-4.296
65304.000			47.251			-4.296
65404.000			47.248			-4.295
65504.000			47.247			-4.295
65604.000			47.246			-4.295
65705.000			47.242			-4.295
65804.000			47.239			-4.294
65904.000			47.238			-4.294
66005.000			47.236			-4.294
66103.000			47.234			-4.294
66204.000			47.232			-4.294
66305.000			47.230			-4.294
66404.000			47.225			-4.293
66504.000			47.223			-4.293
66605.000			47.221			-4.293
66704.000			47.219			-4.293
66803.000			47.217			-4.292
66905.000			47.216			-4.292
67004.000			47.214			-4.292
67104.000			47.211			-4.292
67205.000			47.206			-4.291
67304.000			47.204			-4.291
67404.000			47.203			-4.291
67503.000			47.200			-4.291
67604.000			47.199			-4.291
67705.000			47.197			-4.291
67804.000			47.196			-4.291
67904.000			47.191			-4.290
68005.000			47.189			-4.290
68104.000			47.187			-4.290
68203.000			47.185			-4.290
68305.000			47.184			-4.289
68404.000			47.180			-4.289
68504.000			47.178			-4.289
68605.000			47.175			-4.289
68704.000			47.173			-4.288
68804.000			47.171			-4.288
68904.000			47.169			-4.288
69004.000			47.167			-4.288
69104.000			47.166			-4.288
69205.000			47.164			-4.288
69304.000			47.160			-4.287
69404.000			47.157			-4.287
69505.000			47.156			-4.287
69603.000			47.154			-4.287
69704.000			47.152			-4.287
69805.000			47.150			-4.286
69904.000			47.148			-4.286
70004.000			47.146			-4.286
70105.000			47.143			-4.286
70204.000			47.141			-4.286
70303.000			47.139			-4.285
70405.000			47.136			-4.285
70504.000			47.134			-4.285
70604.000			47.133			-4.285
70705.000			47.130			-4.285
70804.000			47.127			-4.284
70905.000			47.125			-4.284
71003.000			47.123			-4.284
71104.000			47.121			-4.284
71205.000			47.119			-4.284
71304.000			47.117			-4.283
71404.000			47.115			-4.283
71505.000			47.112			-4.283
71604.000			47.110			-4.283
71703.000			47.108			-4.283
71805.000			47.107			-4.282
71904.000			47.105			-4.282
72004.000			47.103			-4.282
72105.000			47.101			-4.282
72204.000			47.097			-4.282
72304.000			47.095			-4.281
72404.000			47.093			-4.281
72504.000			47.092			-4.281
72604.000			47.089			-4.281
72705.000			47.087			-4.281
72804.000			47.085			-4.280
72904.000			47.083			-4.280
73005.000			47.080			-4.280
73103.000			47.079			-4.280
73204.000			47.076			-4.280
73305.000			47.074			-4.279
73404.000			47.072			-4.279
73504.000			47.070			-4.279
73605.000			47.069			-4.279
73704.000			47.065			-4.279
73803.000			47.063			-4.278
73905.000			47.062			-4.278
74004.000			47.061			-4.278
74105.000			47.059			-4.278
74204.000			47.056			-4.278
74304.000			47.053			-4.278
74405.000			47.051			-4.277
74503.000			47.049			-4.277
74604.000			47.048			-4.277
74705.000			47.046			-4.277
74804.000			47.043			-4.277
74904.000			47.041			-4.276
75005.000			47.039			-4.276
75104.000			47.037			-4.276
75203.000			47.035			-4.276
75305.000			47.033			-4.276
75404.000			47.031			-4.276
75504.000			47.029			-4.275
75605.000			47.027			-4.275
75704.000			47.024			-4.275
75804.000			47.023			-4.275
75904.000			47.020			-4.275
76004.000			47.018			-4.274
76104.000			47.017			-4.274
76205.000			47.015			-4.274
76304.000			47.013			-4.274
76404.000			47.011			-4.274
76505.000			47.010			-4.274
76603.000			47.006			-4.273
76704.000			47.004			-4.273
76805.000			47.003			-4.273
76904.000			47.001			-4.273
77004.000			46.998			-4.273
77104.000			46.996			-4.272
77204.000			46.995			-4.272
77303.000			46.991			-4.272
77404.000			46.990			-4.272
77504.000			46.989			-4.272
77605.000			46.987			-4.272
77704.000			46.985			-4.271
77804.000			46.982			-4.271
77905.000			46.980			-4.271
78003.000			46.979			-4.271
78104.000			46.977			-4.271
78205.000			46.975			-4.270
78304.000			46.973			-4.270
78404.000			46.971			-4.270
78505.000			46.969			-4.270
78604.000			46.968			-4.270
78704.000			46.966			-4.270
78805.000			46.962			-4.269
78903.000			46.961			-4.269
79004.000			46.960			-4.269
79105.000			46.958			-4.269
79204.000			46.956			-4.269
79304.000			46.954			-4.269
79405.000			46.953			-4.268
79504.000			46.950			-4.268
79603.000			46.947			-4.268
79705.000			46.945			-4.268
79804.000			46.944			-4.268
79904.000			46.943			-4.268
80005.000			46.941			-4.267
80104.000			46.939			-4.267
80204.000			46.936			-4.267
80304.000			46.935			-4.267
80404.000			46.933			-4.267
80503.000			46.930			-4.266
80604.000			46.929			-4.266
80704.000			46.927			-4.266
80805.000			46.925			-4.266
80904.000			46.921			-4.266
81004.000			46.921			-4.266
81105.000			46.920			-4.265
81203.000			46.917			-4.265
81304.000			46.915			-4.265
81405.000			46.913			-4.265
81504.000			46.912			-4.265
81604.000			46.911			-4.265
81705.000			46.906			-4.264
81804.000			46.905			-4.264
81903.000			46.904			-4.264
82005.000			46.903			-4.264
82104.000			46.900			-4.264
82204.000			46.898			-4.263
82305.000			46.896			-4.263
82404.000			46.893			-4.263
82504.000			46.892			-4.263
82604.000			46.889			-4.263
82704.000			46.888			-4.263
82804.000			46.888			-4.263
82905.000			46.886			-4.262
83004.000			46.884			-4.262
83104.000			46.881			-4.262
83205.000			46.879			-4.262
83303.000			46.878			-4.262
83404.000			46.876			-4.261
83505.000			46.874			-4.261
83604.000			46.873			-4.261
83705.000			46.871			-4.261
83804.000			46.868			-4.261
83904.000			46.866			-4.261
84004.000			46.864			-4.260
84104.000			46.863			-4.260
84203.000			46.861			-4.260
84305.000			46.860			-4.260
84404.000			46.857			-4.260
84504.000			46.855			-4.260
84605.000			46.852			-4.259
84704.000			46.851			-4.259
84804.000			46.849			-4.259
84904.000			46.847			-4.259
85004.000			46.846			-4.259
85104.000			46.845			-4.259
85205.000			46.845			-4.259
85304.000			46.842			-4.258
85404.000			46.839			-4.258
85505.000			46.837			-4.258
85603.000			46.837			-4.258
85704.000			46.834			-4.258
85805.000			46.833			-4.258
85904.000			46.832			-4.257
86004.000			46.828			-4.257
86105.000			46.826			-4.257
86204.000			46.824			-4.257
86303.000			46.823			-4.257
86405.000			46.821			-4.256
86504.000			46.820			-4.256
86604.000			46.818			-4.256
86705.000			46.815			-4.256
86804.000			46.814			-4.256
86905.000			46.812			-4.256
87003.000			46.811			-4.256
87104.000			46.811			-4.256
87205.000			46.808			-4.255
87304.000			46.807			-4.255
87404.000			46.805			-4.255
87505.000			46.802			-4.255
87604.000			46.801			-4.255
87704.000			46.799			-4.254
87805.000			46.797			-4.254
87903.000			46.795			-4.254
88004.000			46.793			-4.254
88105.000			46.793			-4.254
88204.000			46.790			-4.254
88304.000			46.789			-4.254
88405.000			46.786			-4.253
88504.000			46.784			-4.253
88603.000			46.783			-4.253
88705.000			46.781			-4.253
88804.000			46.780			-4.253
88904.000			46.778			-4.253
89005.000			46.775			-4.252
89104.000			46.773			-4.252
89204.000			46.772			-4.252
89305.000			46.770			-4.252
89404.000			46.769			-4.252
89503.000			46.769			-4.252
89605.000			46.765			-4.251
89704.000			46.763			-4.251
89804.000			46.762			-4.251
89905.000			46.761			-4.251
90004.000			46.759			-4.251
90105.000			46.757			-4.251
90203.000			46.755			-4.250
90304.000			46.754			-4.250
90405.000			46.753			-4.250
90504.000			46.751			-4.250
90604.000			46.748			-4.250
90705.000			46.748			-4.250
90804.000			46.746			-4.250
90903.000			46.743			-4.249
91005.000			46.742			-4.249
91104.000			46.739			-4.249
91204.000			46.737			-4.249
91305.000			46.736			-4.249
91404.000			46.735			-4.249
91504.000			46.735			-4.249
91604.000			46.733			-4.248
91704.000			46.732			-4.248
91803.000			46.729			-4.248
91905.000			46.726			-4.248
92004.000			46.724			-4.248
92104.000			46.723			-4.248
92205.000			46.722			-4.247
92304.000			46.721			-4.247
92404.000			46.720			-4.247
92504.000			46.717			-4.247
92604.000			46.714			-4.247
92704.000			46.713			-4.247
92805.000			46.711			-4.246
92904.000			46.709			-4.246
93004.000			46.708			-4.246
93105.000			46.708			-4.246
93203.000			46.707			-4.246
93305.000			46.704			-4.246
93404.000			46.702			-4.246
93504.000			46.700			-4.245
93605.000			46.698			-4.245
93704.000			46.696			-4.245
93804.000			46.696			-4.245
93904.000			46.695			-4.245
94004.000			46.692			-4.245
94104.000			46.689			-4.244
94205.000			46.687			-4.244
94304.000			46.686			-4.244
94404.000			46.685			-4.244
94505.000			46.684			-4.244
94603.000			46.683			-4.244
94704.000			46.680			-4.244
94805.000			46.678			-4.243
94904.000			46.677			-4.243
95004.000			46.675			-4.243
95105.000			46.673			-4.243
95204.000			46.672			-4.243
95304.000			46.672			-4.243
95405.000			46.671			-4.243
95503.000			46.667			-4.242
95604.000			46.666			-4.242
95705.000			46.665			-4.242
95804.000			46.663			-4.242
95904.000			46.662			-4.242
96005.000			46.659			-4.242
96104.000			46.658			-4.242
96203.000			46.656			-4.241
96305.000			46.655			-4.241
96404.000			46.653			-4.241
96505.000			46.651			-4.241
96604.000			46.650			-4.241
96704.000			46.650			-4.241
96805.000			46.648			-4.241
96903.000			46.645			-4.240
97004.000			46.643			-4.240
97104.000			46.642			-4.240
97204.000			46.641			-4.240
97304.000			46.639			-4.240
97405.000			46.638			-4.240
97504.000			46.637			-4.240
97604.000			46.635			-4.240
97705.000			46.634			-4.239
97803.000			46.632			-4.239
97904.000			46.630			-4.239
98005.000			46.629			-4.239
98104.000			46.627			-4.239
98204.000			46.626			-4.239
98305.000			46.624			-4.239
98404.000			46.621			-4.238
98503.000			46.620			-4.238
98605.000			46.619			-4.238
98704.000			46.618			-4.238
98804.000			46.616			-4.238
98905.000			46.615			-4.238
99004.000			46.614			-4.238
99104.000			46.611			-4.237
99204.000			46.610			-4.237
99304.000			46.609			-4.237
99404.000			46.607			-4.237
99504.000			46.605			-4.237
99604.000			46.603			-4.237
99705.000			46.602			-4.237
99804.000			46.600			-4.236
99903.000			46.597			-4.236
100005.000			46.595			-4.236
100104.000			46.595			-4.236
100204.000			46.594			-4.236
100305.000			46.593			-4.236
100404.000			46.591			-4.236
100504.000			46.588			-4.235
100605.000			46.588			-4.235
100704.000			46.587			-4.235
100803.000			46.585			-4.235
100905.000			46.583			-4.235
101004.000			46.582			-4.235
101104.000			46.580			-4.235
101205.000			46.579			-4.234
101304.000			46.576			-4.234
101404.000			46.575			-4.234
101504.000			46.574			-4.234
101604.000			46.572			-4.234
101704.000			46.571			-4.234
101805.000			46.571			-4.234
101904.000			46.569			-4.234
102004.000			46.567			-4.233
102105.000			46.565			-4.233
102203.000			46.564			-4.233
102304.000			46.563			-4.233
102405.000			46.561			-4.233
102504.000			46.560			-4.233
102604.000			46.558			-4.233
102704.000			46.555			-4.232
102804.000			46.554			-4.232
102903.000			46.554			-4.232
103004.000			46.552			-4.232
103104.000			46.550			-4.232
103205.000			46.549			-4.232
103304.000			46.548			-4.232
103404.000			46.544			-4.231
103505.000			46.543			-4.231
103604.000			46.543			-4.231
103704.000			46.541			-4.231
103804.000			46.540			-4.231
103904.000			46.539			-4.231
104004.000			46.538			-4.231
104105.000			46.535			-4.230
104204.000			46.534			-4.230
104304.000			46.532			-4.230
104405.000			46.530			-4.230
104503.000			46.528			-4.230
104604.000			46.528			-4.230
104705.000			46.526			-4.230
104804.000			46.525			-4.230
104904.000			46.523			-4.229
105005.000			46.522			-4.229
105104.000			46.521			-4.229
105203.000			46.519			-4.229
105305.000			46.518			-4.229
105404.000			46.517			-4.229
105504.000			46.515			-4.229
105605.000			46.512			-4.228
105704.000			46.512			-4.228
105804.000			46.510			-4.228
105903.000			46.508			-4.228
106004.000			46.507			-4.228
106105.000			46.506			-4.228
106204.000			46.504			-4.228
106304.000			46.502			-4.227
106405.000			46.500			-4.227
106504.000			46.499			-4.227
106603.000			46.497			-4.227
106705.000			46.497			-4.227
106804.000			46.496			-4.227
106904.000			46.494			-4.227
107005.000			46.494			-4.227
107104.000			46.489			-4.226
107204.000			46.489			-4.226
107304.000			46.489			-4.226
107404.000			46.488			-4.226
107503.000			46.486			-4.226
107605.000			46.485			-4.226
107704.000			46.484			-4.226
107804.000			46.481			-4.226
107905.000			46.480			-4.225
108004.000			46.479			-4.225
108104.000			46.477			-4.225
108204.000			46.476			-4.225
108304.000			46.475			-4.225
108404.000			46.474			-4.225
108505.000			46.471			-4.225
108604.000			46.470			-4.225
108704.000			46.469			-4.224
108805.000			46.468			-4.224
108904.000			46.466			-4.224
109004.000			46.464			-4.224
109103.000			46.462			-4.224
109204.000			46.461			-4.224
109305.000			46.460			-4.224
109404.000			46.459			-4.224
109504.000			46.458			-4.223
109605.000			46.456			-4.223
109704.000			46.455			-4.223
109803.000			46.454			-4.223
109905.000			46.453			-4.223
110004.000			46.451			-4.223
110104.000			46.449			-4.223
110205.000			46.448			-4.223
110304.000			46.448			-4.223
110404.000			46.446			-4.222
110504.000			46.444			-4.222
110604.000			46.443			-4.222
110704.000			46.440			-4.222
110805.000			46.439			-4.222
110904.000			46.437			-4.222
111004.000			46.434			-4.221
111105.000			46.434			-4.221
111203.000			46.435			-4.221
111304.000			46.433			-4.221
111405.000			46.429			-4.221
111504.000			46.428			-4.221
111604.000			46.427			-4.221
111705.000			46.425			-4.220
111804.000			46.425			-4.220
111903.000			46.425			-4.220
112005.000			46.424			-4.220
112104.000			46.419			-4.220
112204.000			46.419			-4.220
112305.000			46.420			-4.220
112404.000			46.418			-4.220
112505.000			46.416			-4.220
112603.000			46.415			-4.220
112704.000			46.413			-4.219
112805.000			46.411			-4.219
112904.000			46.410			-4.219
113004.000			46.409			-4.219
113105.000			46.408			-4.219
113204.000			46.407			-4.219
113303.000			46.404			-4.219
113405.000			46.402			-4.218
113504.000			46.403			-4.218
113604.000			46.400			-4.218
113705.000			46.400			-4.218
113804.000			46.398			-4.218
113904.000			46.396			-4.218
114004.000			46.395			-4.218
114104.000			46.394			-4.218
114203.000			46.393			-4.218
114305.000			46.390			-4.217
114404.000			46.389			-4.217
114504.000			46.389			-4.217
114605.000			46.389			-4.217
114704.000			46.387			-4.217
114804.000			46.385			-4.217
114904.000			46.384			-4.217
115004.000			46.380			-4.216
115104.000			46.379			-4.216
115205.000			46.378			-4.216
115304.000			46.377			-4.216
115404.000			46.376			-4.216
115505.000			46.375			-4.216
115603.000			46.374			-4.216
115705.000			46.373			-4.216
115803.000			46.370			-4.215
115904.000			46.369			-4.215
116005.000			46.368			-4.215
116104.000			46.367			-4.215
116204.000			46.365			-4.215
116305.000			46.365			-4.215
116404.000			46.365			-4.215
116503.000			46.361			-4.215
116605.000			46.360			-4.215
116704.000			46.359			-4.214
116804.000			46.358			-4.214
116905.000			46.357			-4.214
117004.000			46.356			-4.214
117104.000			46.354			-4.214
117204.000			46.352			-4.214
117304.000			46.350			-4.214
117404.000			46.349			-4.214
117505.000			46.348			-4.213
117604.000			46.347			-4.213
117704.000			46.347			-4.213
117805.000			46.346			-4.213
117904.000			46.343			-4.213
118004.000			46.342			-4.213
118104.000			46.341			-4.213
118204.000			46.339			-4.213
118304.000			46.338			-4.213
118405.000			46.337			-4.212
118504.000			46.336			-4.212
118604.000			46.335			-4.212
118705.000			46.332			-4.212
118803.000			46.331			-4.212
118905.000			46.330			-4.212
119004.000			46.328			-4.212
119104.000			46.327			-4.212
119205.000			46.327			-4.212
119304.000			46.326			-4.211
119404.000			46.324			-4.211
119504.000			46.323			-4.211
119604.000			46.322			-4.211
119704.000			46.320			-4.211
119805.000			46.319			-4.211
119904.000			46.317			-4.211
120004.000			46.316			-4.211
120105.000			46.315			-4.210
120204.000			46.313			-4.210
120304.000			46.312			-4.210
120404.000			46.311			-4.210
120504.000			46.310			-4.210
120604.000			46.309			-4.210
120705.000			46.307			-4.210
120804.000			46.305			-4.210
120904.000			46.305			-4.210
121005.000			46.303			-4.209
121103.000			46.301			-4.209
121204.000			46.300			-4.209
121305.000			46.299			-4.209
121404.000			46.298			-4.209
121504.000			46.298			-4.209
121605.000			46.296			-4.209
121704.000			46.294			-4.209
121803.000			46.293			-4.208
121905.000			46.292			-4.208
122004.000			46.291			-4.208
122105.000			46.289			-4.208
122204.000			46.289			-4.208
122304.000			46.287			-4.208
122405.000			46.286			-4.208
122503.000			46.285			-4.208
122604.000			46.283			-4.208
122705.000			46.283			-4.208
122804.000			46.282			-4.207
122904.000			46.280			-4.207
123005.000			46.278			-4.207
123104.000			46.277			-4.207
123203.000			46.276			-4.207
123305.000			46.275			-4.207
123403.000			46.273			-4.207
123504.000			46.272			-4.207
123605.000			46.272			-4.207
123704.000			46.269			-4.206
123804.000			46.268			-4.206
123905.000			46.267			-4.206
124004.000			46.266			-4.206
124103.000			46.264			-4.206
124205.000			46.263			-4.206
124304.000			46.262			-4.206
124404.000			46.260			-4.205
124505.000			46.259			-4.205
124604.000			46.258			-4.205
124704.000			46.257			-4.205
124804.000			46.256			-4.205
124904.000			46.254			-4.205
125004.000			46.254			-4.205
125104.000			46.253			-4.205
125204.000			46.250			-4.205
125305.000			46.249			-4.204
125404.000			46.248			-4.204
125503.000			46.247			-4.204
125605.000			46.247			-4.204
125704.000			46.246			-4.204
125804.000			46.244			-4.204
125905.000			46.243			-4.204
126004.000			46.241			-4.204
126104.000			46.240			-4.204
126204.000			46.239			-4.204
126304.000			46.238			-4.203
126403.000			46.238			-4.203
126505.000			46.235			-4.203
126604.000			46.233			-4.203
126704.000			46.232			-4.203
126805.000			46.231			-4.203
126904.000			46.230			-4.203
127004.000			46.229			-4.203
127104.000			46.228			-4.203
127204.000			46.226			-4.202
127304.000			46.224			-4.202
127405.000			46.224			-4.202
127504.000			46.223			-4.202
127604.000			46.222			-4.202
127705.000			46.220			-4.202
127803.000			46.219			-4.202
127904.000			46.218			-4.202
128005.000			46.217			-4.202
128104.000			46.215			-4.201
128204.000			46.213			-4.201
128304.000			46.213			-4.201
128404.000			46.212			-4.201
128503.000			46.211			-4.201
128604.000			46.210			-4.201
128704.000			46.209			-4.201
128805.000			46.207			-4.201
128904.000			46.206			-4.201
129004.000			46.204			-4.200
129105.000			46.203			-4.200
129203.000			46.204			-4.200
129304.000			46.202			-4.200
129404.000			46.201			-4.200
129504.000			46.198			-4.200
129604.000			46.197			-4.200
129705.000			46.195			-4.200
129804.000			46.195			-4.200
129904.000			46.195			-4.200
130005.000			46.194			-4.199
130103.000			46.193			-4.199
130204.000			46.191			-4.199
130305.000			46.190			-4.199
130404.000			46.189			-4.199
130504.000			46.188			-4.199
130605.000			46.186			-4.199
130704.000			46.186			-4.199
130803.000			46.184			-4.199
130905.000			46.182			-4.198
131004.000			46.181			-4.198
131104.000			46.180			-4.198
131205.000			46.178			-4.198
131304.000			46.177			-4.198
131404.000			46.176			-4.198
131503.000			46.175			-4.198
131604.000			46.174			-4.198
131703.000			46.172			-4.197
131804.000			46.171			-4.197
131904.000			46.170			-4.197
132005.000			46.169			-4.197
132104.000			46.168			-4.197
132204.000			46.167			-4.197
132305.000			46.166			-4.197
132403.000			46.164			-4.197
132504.000			46.163			-4.197
132605.000			46.161			-4.196
132704.000			46.161			-4.196
132804.000			46.160			-4.196
132905.000			46.159			-4.196
133004.000			46.159			-4.196
133104.000			46.156			-4.196
133205.000			46.155			-4.196
133303.000			46.153			-4.196
133404.000			46.153			-4.196
133505.000			46.152			-4.196
133604.000			46.151			-4.196
133704.000			46.151			-4.196
133805.000			46.149			-4.195
133904.000			46.147			-4.195
134004.000			46.146			-4.195
134105.000			46.145			-4.195
134203.000			46.145			-4.195
134304.000			46.144			-4.195
134405.000			46.142			-4.195
134504.000			46.140			-4.195
134604.000			46.139			-4.194
134704.000			46.139			-4.194
134804.000			46.137			-4.194
134905.000			46.137			-4.194
135004.000			46.136			-4.194
135103.000			46.134			-4.194
135205.000			46.133			-4.194
135304.000			46.131			-4.194
135404.000			46.129			-4.194
135505.000			46.127			-4.193
135604.000			46.128			-4.193
135704.000			46.126			-4.193
135804.000			46.127			-4.193
135904.000			46.127			-4.193
136003.000			46.125			-4.193
136105.000			46.122			-4.193
136204.000			46.121			-4.193
136304.000			46.120			-4.193
136405.000			46.119			-4.193
136504.000			46.118			-4.193
136604.000			46.117			-4.192
136704.000			46.117			-4.192
136804.000			46.114			-4.192
136904.000			46.113			-4.192
137005.000			46.112			-4.192
137104.000			46.112			-4.192
137204.000			46.111			-4.192
137305.000			46.111			-4.192
137404.000			46.109			-4.192
137504.000			46.106			-4.191
137604.000			46.106			-4.191
137704.000			46.103			-4.191
137804.000			46.103			-4.191
137904.000			46.103			-4.191
138004.000			46.102			-4.191
138105.000			46.101			-4.191
138204.000			46.098			-4.191
138304.000			46.097			-4.191
138405.000			46.097			-4.191
138503.000			46.096			-4.191
138604.000			46.094			-4.190
138705.000			46.093			-4.190
138804.000			46.093			-4.190
138904.000			46.090			-4.190
139005.000			46.089			-4.190
139104.000			46.089			-4.190
139204.000			46.088			-4.190
139305.000			46.088			-4.190
139403.000			46.085			-4.190
139504.000			46.084			-4.189
139604.000			46.084			-4.189
139704.000			46.082			-4.189
139804.000			46.081			-4.189
139905.000			46.079			-4.189
140004.000			46.078			-4.189
140104.000			46.078			-4.189
140205.000			46.077			-4.189
140303.000			46.076			-4.189
140404.000			46.075			-4.189
140505.000			46.074			-4.189
140604.000			46.072			-4.188
140704.000			46.071			-4.188
140805.000			46.070			-4.188
140904.000			46.071			-4.188
141004.000			46.069			-4.188
141105.000			46.066			-4.188
141203.000			46.065			-4.188
141305.000			46.064			-4.188
141404.000			46.063			-4.188
141504.000			46.063			-4.188
141605.000			46.061			-4.187
141704.000			46.060			-4.187
141804.000			46.060			-4.187
141905.000			46.056			-4.187
142004.000			46.055			-4.187
142103.000			46.055			-4.187
142205.000			46.054			-4.187
142304.000			46.053			-4.187
142404.000			46.052			-4.187
142505.000			46.052			-4.187
142604.000			46.050			-4.186
142704.000			46.049			-4.186
142805.000			46.048			-4.186
142904.000			46.048			-4.186
143003.000			46.046			-4.186
143105.000			46.045			-4.186
143204.000			46.044			-4.186
143304.000			46.042			-4.186
143405.000			46.041			-4.186
143504.000			46.040			-4.185
143604.000			46.039			-4.185
143704.000			46.038			-4.185
143804.000			46.038			-4.185
143903.000			46.037			-4.185
144005.000			46.035			-4.185
144104.000			46.034			-4.185
144204.000			46.033			-4.185
144305.000			46.033			-4.185
144404.000			46.032			-4.185
144505.000			46.030			-4.185
144603.000			46.028			-4.184
144704.000			46.028			-4.184
144805.000			46.026			-4.184
144904.000			46.025			-4.184
145004.000			46.023			-4.184
145105.000			46.023			-4.184
145204.000			46.022			-4.184
145304.000			46.021			-4.184
145405.000			46.021			-4.184
145503.000			46.018			-4.183
145604.000			46.018			-4.183
145705.000			46.017			-4.183
145804.000			46.016			-4.183
145904.000			46.015			-4.183
146005.000			46.015			-4.183
146104.000			46.014			-4.183
146204.000			46.011			-4.183
146305.000			46.011			-4.183
146403.000			46.010			-4.183
146504.000			46.009			-4.183
146605.000			46.008			-4.183
146704.000			46.008			-4.183
146804.000			46.006			-4.182
146905.000			46.003			-4.182
147004.000			46.004			-4.182
147103.000			46.003			-4.182
147205.000			46.001			-4.182
147303.000			46.000			-4.182
147404.000			45.999			-4.182
147505.000			45.999			-4.182
147604.000			45.997			-4.182
147705.000			45.997			-4.182
147804.000			45.995			-4.181
147904.000			45.994			-4.181
148005.000			45.992			-4.181
148104.000			45.993			-4.181
148203.000			45.992			-4.181
148305.000			45.990			-4.181
148404.000			45.989			-4.181
148504.000			45.988			-4.181
148605.000			45.987			-4.181
148704.000			45.986			-4.181
148804.000			45.985			-4.180
148905.000			45.984			-4.180
149004.000			45.983			-4.180
149104.000			45.982			-4.180
149205.000			45.981			-4.180
149303.000			45.980			-4.180
149404.000			45.979			-4.180
149505.000			45.977			-4.180
149604.000			45.977			-4.180
149704.000			45.976			-4.180
149805.000			45.975			-4.180
149904.000			45.975			-4.180
150004.000			45.973			-4.179
150105.000			45.971			-4.179
150203.000			45.970			-4.179
150304.000			45.969			-4.179
150405.000			45.968			-4.179
150504.000			45.967			-4.179
150604.000			45.965			-4.179
150704.000			45.964			-4.179
150804.000			45.964			-4.179
150905.000			45.963			-4.178
151004.000			45.961			-4.178
151103.000			45.961			-4.178
151205.000			45.960			-4.178
151303.000			45.958			-4.178
151404.000			45.956			-4.178
151505.000			45.956			-4.178
151604.000			45.955			-4.178
151704.000			45.954			-4.178
151805.000			45.953			-4.178
151904.000			45.953			-4.178
152003.000			45.950			-4.177
152105.000			45.950			-4.177
152203.000			45.950			-4.177
152304.000			45.949			-4.177
152405.000			45.947			-4.177
152504.000			45.946			-4.177
152604.000			45.946			-4.177
152705.000			45.944			-4.177
152804.000			45.944			-4.177
152904.000			45.942			-4.177
153005.000			45.941			-4.176
153103.000			45.941			-4.176
153204.000			45.940			-4.176
153305.000			45.939			-4.176
153404.000			45.937			-4.176
153504.000			45.936			-4.176
153605.000			45.936			-4.176
153704.000			45.935			-4.176
153804.000			45.934			-4.176
153905.000			45.932			-4.176
154003.000			45.931			-4.176
154105.000			45.931			-4.176
154204.000			45.929			-4.175
154304.000			45.929			-4.175
154405.000			45.927			-4.175
154504.000			45.926			-4.175
154604.000			45.926			-4.175
154705.000			45.925			-4.175
154804.000			45.923			-4.175
154903.000			45.922			-4.175
155005.000			45.921			-4.175
155104.000			45.920			-4.175
155204.000			45.920			-4.175
155305.000			45.919			-4.174
155404.000			45.917			-4.174
155504.000			45.917			-4.174
155604.000			45.915			-4.174
155704.000			45.914			-4.174
155803.000			45.913			-4.174
155905.000			45.913			-4.174
156004.000			45.911			-4.174
156104.000			45.910			-4.174
156205.000			45.910			-4.174
156304.000			45.910			-4.174
156404.000			45.908			-4.173
156505.000			45.907			-4.173
156604.000			45.905			-4.173
156703.000			45.904			-4.173
156805.000			45.903			-4.173
156904.000			45.902			-4.173
157004.000			45.902			-4.173
157105.000			45.899			-4.173
157204.000			45.900			-4.173
157305.000			45.900			-4.173
157404.000			45.898			-4.173
157504.000			45.896			-4.172
157604.000			45.895			-4.172
157704.000			45.895			-4.172
157803.000			45.894			-4.172
157905.000			45.893			-4.172
158004.000			45.892			-4.172
158104.000			45.891			-4.172
158205.000			45.890			-4.172
158304.000			45.889			-4.172
158404.000			45.888			-4.172
158505.000			45.887			-4.172
158604.000			45.886			-4.171
158703.000			45.885			-4.171
158805.000			45.883			-4.171
158904.000			45.883			-4.171
159004.000			45.883			-4.171
159105.000			45.881			-4.171
159204.000			45.880			-4.171
159304.000			45.880			-4.171
159405.000			45.880			-4.171
159504.000			45.878			-4.171
159603.000			45.877			-4.171
159705.000			45.875			-4.170
159803.000			45.873			-4.170
159904.000			45.873			-4.170
160005.000			45.872			-4.170
160104.000			45.871			-4.170
160204.000			45.869			-4.170
160304.000			45.869			-4.170
160404.000			45.869			-4.170
160503.000			45.868			-4.170
160604.000			45.868			-4.170
160703.000			45.866			-4.170
160805.000			45.866			-4.170
160904.000			45.865			-4.170
161004.000			45.864			-4.169
161105.000			45.861			-4.169
161204.000			45.861			-4.169
161304.000			45.861			-4.169
161405.000			45.858			-4.169
161504.000			45.858			-4.169
161603.000			45.857			-4.169
161705.000			45.857			-4.169
161804.000			45.855			-4.169
161904.000			45.855			-4.169
162005.000			45.853			-4.168
162104.000			45.852			-4.168
162204.000			45.850			-4.168
162305.000			45.850			-4.168
162404.000			45.849			-4.168
162503.000			45.848			-4.168
162605.000			45.848			-4.168
162704.000			45.846			-4.168
162804.000			45.847			-4.168
162905.000			45.845			-4.168
163004.000			45.844			-4.168
163104.000			45.843			-4.168
163205.000			45.841			-4.167
163304.000			45.841			-4.167
163403.000			45.840			-4.167
163505.000			45.839			-4.167
163604.000			45.839			-4.167
163705.000			45.838			-4.167
163804.000			45.837			-4.167
163904.000			45.836			-4.167
164005.000			45.835			-4.167
164104.000			45.834			-4.167
164204.000			45.833			-4.167
164304.000			45.832			-4.167
164404.000			45.831			-4.166
164503.000			45.829			-4.166
164605.000			45.828			-4.166
164704.000			45.828			-4.166
164804.000			45.826			-4.166
164905.000			45.826			-4.166
165004.000			45.825			-4.166
165104.000			45.823			-4.166
165204.000			45.823			-4.166
165304.000			45.822			-4.166
165403.000			45.821			-4.166
165505.000			45.821			-4.166
165604.000			45.821			-4.166
165704.000			45.820			-4.165
165805.000			45.817			-4.165
165904.000			45.816			-4.165
166004.000			45.815			-4.165
166105.000			45.814			-4.165
166204.000			45.814			-4.165
166303.000			45.813			-4.165
166405.000			45.812			-4.165
166504.000			45.812			-4.165
166604.000			45.810			-4.165
166705.000			45.809			-4.164
166804.000			45.808			-4.164
166905.000			45.807			-4.164
167004.000			45.807			-4.164
167104.000			45.807			-4.164
167204.000			45.805			-4.164
167304.000			45.803			-4.164
167404.000			45.802			-4.164
167505.000			45.801			-4.164
167604.000			45.800			-4.164
167704.000			45.799			-4.164
167805.000			45.799			-4.164
167904.000			45.798			-4.163
168004.000			45.796			-4.163
168104.000			45.796			-4.163
168204.000			45.796			-4.163
168303.000			45.795			-4.163
168405.000			45.794			-4.163
168504.000			45.793			-4.163
168604.000			45.792			-4.163
168705.000			45.791			-4.163
168804.000			45.790			-4.163
168904.000			45.789			-4.163
169005.000			45.787			-4.162
169104.000			45.786			-4.162
169203.000			45.787			-4.162
169305.000			45.787			-4.162
169404.000			45.786			-4.162
169504.000			45.784			-4.162
169605.000			45.783			-4.162
169704.000			45.782			-4.162
169804.000			45.780			-4.162
169904.000			45.780			-4.162
170004.000			45.779			-4.162
170103.000			45.778			-4.162
170204.000			45.777			-4.162
170303.000			45.777			-4.162
170405.000			45.776			-4.161
170504.000			45.775			-4.161
170604.000			45.774			-4.161
170705.000			45.772			-4.161
170804.000			45.772			-4.161
170904.000			45.771			-4.161
171004.000			45.770			-4.161
171104.000			45.769			-4.161
171203.000			45.767			-4.161
171305.000			45.766			-4.161
171404.000			45.766			-4.161
171504.000			45.766			-4.161
171605.000			45.765			-4.160
171704.000			45.764			-4.160
171804.000			45.763			-4.160
171905.000			45.762			-4.160
172004.000			45.761			-4.160
172103.000			45.760			-4.160
172205.000			45.759			-4.160
172304.000			45.758			-4.160
172404.000			45.757			-4.160
172505.000			45.757			-4.160
172604.000			45.756			-4.160
172704.000			45.754			-4.159
172805.000			45.754			-4.159
172904.000			45.754			-4.159
173003.000			45.753			-4.159
173105.000			45.752			-4.159
173204.000			45.751			-4.159
173305.000			45.749			-4.159
173404.000			45.749			-4.159
173504.000			45.748			-4.159
173605.000			45.747			-4.159
173704.000			45.746			-4.159
173804.000			45.744			-4.159
173904.000			45.744			-4.159
174004.000			45.744			-4.159
174103.000			45.743			-4.158
174205.000			45.742			-4.158
174304.000			45.741			-4.158
174404.000			45.740			-4.158
174505.000			45.738			-4.158
174604.000			45.737			-4.158
174704.000			45.736			-4.158
174804.000			45.735			-4.158
174904.000			45.734			-4.158
175003.000			45.733			-4.158
175105.000			45.734			-4.158
175204.000			45.733			-4.158
175304.000			45.732			-4.157
175405.000			45.731			-4.157
175504.000			45.730			-4.157
175604.000			45.730			-4.157
175705.000			45.729			-4.157
175804.000			45.728			-4.157
175903.000			45.727			-4.157
176005.000			45.726			-4.157
176104.000			45.725			-4.157
176204.000			45.725			-4.157
176305.000			45.723			-4.157
176404.000			45.722			-4.157
176505.000			45.721			-4.156
176604.000			45.721			-4.156
176704.000			45.720			-4.156
176804.000			45.720			-4.156
176904.000			45.718			-4.156
177003.000			45.717			-4.156
177105.000			45.716			-4.156
177204.000			45.715			-4.156
177304.000			45.714			-4.156
177405.000			45.713			-4.156
177504.000			45.712			-4.156
177604.000			45.712			-4.156
177704.000			45.711			-4.156
177804.000			45.710			-4.155
177903.000			45.709			-4.155
178005.000			45.708			-4.155
178104.000			45.707			-4.155
178204.000			45.706			-4.155
178305.000			45.705			-4.155
178404.000			45.705			-4.155
178504.000			45.704			-4.155
178604.000			45.704			-4.155
178704.000			45.703			-4.155
178803.000			45.702			-4.155
178905.000			45.701			-4.155
179004.000			45.699			-4.154
179104.000			45.699			-4.154
179205.000			45.699			-4.154
179304.000			45.698			-4.154
179404.000			45.697			-4.154
179504.000			45.696			-4.154
179604.000			45.695			-4.154
179703.000			45.694			-4.154
179804.000			45.693			-4.154
179903.000			45.693			-4.154
180005.000			45.691			-4.154
180104.000			45.689			-4.154
180204.000			45.689			-4.154
180305.000			45.688			-4.153
180404.000			45.687			-4.153
180504.000			45.686			-4.153
180604.000			45.685			-4.153
180704.000			45.684			-4.153
180803.000			45.684			-4.153
180905.000			45.684			-4.153
181004.000			45.682			-4.153
181104.000			45.681			-4.153
181205.000			45.679			-4.153
181304.000			45.679			-4.153
181404.000			45.679			-4.153
181505.000			45.678			-4.153
181604.000			45.677			-4.152
181703.000			45.675			-4.152
181805.000			45.675			-4.152
181904.000			45.674			-4.152
182004.000			45.673			-4.152
182105.000			45.674			-4.152
182204.000			45.674			-4.152
182304.000			45.672			-4.152
182405.000			45.670			-4.152
182504.000			45.670			-4.152
182603.000			45.670			-4.152
182705.000			45.669			-4.152
182803.000			45.667			-4.152
182905.000			45.666			-4.151
183004.000			45.666			-4.151
183104.000			45.665			-4.151
183205.000			45.664			-4.151
183304.000			45.664			-4.151
183404.000			45.662			-4.151
183504.000			45.661			-4.151
183604.000			45.660			-4.151
183703.000			45.659			-4.151
183805.000			45.659			-4.151
183904.000			45.658			-4.151
184004.000			45.658			-4.151
184105.000			45.658			-4.151
184204.000			45.656			-4.151
184304.000			45.655			-4.150
184405.000			45.653			-4.150
184504.000			45.653			-4.150
184603.000			45.652			-4.150
184705.000			45.651			-4.150
184804.000			45.651			-4.150
184904.000			45.651			-4.150
185005.000			45.649			-4.150
185104.000			45.648			-4.150
185204.000			45.646			-4.150
185305.000			45.645			-4.150
185404.000			45.644			-4.149
185503.000			45.645			-4.150
185605.000			45.644			-4.149
185704.000			45.643			-4.149
185804.000			45.642			-4.149
185905.000			45.642			-4.149
186004.000			45.642			-4.149
186105.000			45.639			-4.149
186204.000			45.638			-4.149
186304.000			45.638			-4.149
186404.000			45.637			-4.149
186504.000			45.636			-4.149
186603.000			45.636			-4.149
186705.000			45.635			-4.149
186804.000			45.633			-4.148
186904.000			45.634			-4.149
187005.000			45.634			-4.149
187104.000			45.632			-4.148
187204.000			45.631			-4.148
187304.000			45.630			-4.148
187404.000			45.629			-4.148
187503.000			45.627			-4.148
187605.000			45.626			-4.148
187704.000			45.626			-4.148
187804.000			45.625			-4.148
187905.000			45.625			-4.148
188004.000			45.625			-4.148
188104.000			45.624			-4.148
188205.000			45.623			-4.148
188304.000			45.622			-4.147
188403.000			45.621			-4.147
188505.000			45.620			-4.147
188604.000			45.619			-4.147
188704.000			45.619			-4.147
188805.000			45.618			-4.147
188904.000			45.618			-4.147
189004.000			45.615			-4.147
189104.000			45.614			-4.147
189204.000			45.613			-4.147
189303.000			45.613			-4.147
189404.000			45.613			-4.147
189503.000			45.612			-4.147
189605.000			45.611			-4.146
189704.000			45.609			-4.146
189804.000			45.609			-4.146
189905.000			45.609			-4.146
190004.000			45.607			-4.146
190104.000			45.606			-4.146
190204.000			45.606			-4.146
190304.000			45.606			-4.146
190403.000			45.605			-4.146
190505.000			45.604			-4.146
190604.000			45.602			-4.146
190704.000			45.601			-4.146
190805.000			45.601			-4.146
190904.000			45.601			-4.146
191004.000			45.599			-4.145
191104.000			45.598			-4.145
191204.000			45.598			-4.145
191303.000			45.596			-4.145
191405.000			45.595			-4.145
191504.000			45.595			-4.145
191604.000			45.595			-4.145
191705.000			45.595			-4.145
191804.000			45.594			-4.145
191904.000			45.592			-4.145
192005.000			45.591			-4.145
192104.000			45.590			-4.145
192203.000			45.590			-4.145
192305.000			45.590			-4.145
192404.000			45.588			-4.144
192505.000			45.588			-4.144
192604.000			45.587			-4.144
192704.000			45.586			-4.144
192805.000			45.585			-4.144
192904.000			45.583			-4.144
193004.000			45.583			-4.144
193104.000			45.583			-4.144
193204.000			45.583			-4.144
193303.000			45.582			-4.144
193405.000			45.580			-4.144
193504.000			45.579			-4.144
193604.000			45.578			-4.143
193705.000			45.578			-4.143
193804.000			45.578			-4.143
193904.000			45.577			-4.143
194005.000			45.576			-4.143
194104.000			45.574			-4.143
194203.000			45.574			-4.143
194305.000			45.573			-4.143
194404.000			45.572			-4.143
194504.000			45.571			-4.143
194605.000			45.572			-4.143
194704.000			45.572			-4.143
194804.000			45.569			-4.143
194905.000			45.568			-4.143
195004.000			45.567			-4.142
195103.000			45.567			-4.142
195205.000			45.568			-4.143
195304.000			45.567			-4.142
195404.000			45.565			-4.142
195505.000			45.564			-4.142
195604.000			45.563			-4.142
195705.000			45.562			-4.142
195804.000			45.561			-4.142
195904.000			45.561			-4.142
196004.000			45.560			-4.142
196104.000			45.559			-4.142
196203.000			45.558			-4.142
196305.000			45.557			-4.142
196404.000			45.556			-4.141
196504.000			45.556			-4.141
196605.000			45.556			-4.141
196704.000			45.555			-4.141
196804.000			45.553			-4.141
196905.000			45.552			-4.141
197004.000			45.552			-4.141
197103.000			45.551			-4.141
197205.000			45.550			-4.141
197304.000			45.549			-4.141
197404.000			45.549			-4.141
197505.000			45.548			-4.141
197604.000			45.547			-4.141
197704.000			45.547			-4.141
197805.000			45.546			-4.141
197904.000			45.545			-4.140
198003.000			45.545			-4.140
198105.000			45.544			-4.140
198204.000			45.543			-4.140
198304.000			45.542			-4.140
198405.000			45.542			-4.140
198504.000			45.541			-4.140
198604.000			45.540			-4.140
198704.000			45.539			-4.140
198804.000			45.539			-4.140
198905.000			45.537			-4.140
199004.000			45.537			-4.140
199103.000			45.537			-4.140
199205.000			45.535			-4.140
199304.000			45.534			-4.139
199404.000			45.533			-4.139
199505.000			45.532			-4.139
199604.000			45.532			-4.139
199704.000			45.531			-4.139
199805.000			45.532			-4.139
199904.000			45.529			-4.139
200003.000			45.528			-4.139
200105.000			45.527			-4.139
200204.000			45.527			-4.139
200304.000			45.526			-4.139
200405.000			45.526			-4.139
200504.000			45.524			-4.139
200604.000			45.523			-4.138
200705.000			45.522			-4.138
200804.000			45.522			-4.138
200903.000			45.522			-4.138
201005.000			45.521			-4.138
201104.000			45.521			-4.138
201204.000			45.520			-4.138
201305.000			45.519			-4.138
201404.000			45.517			-4.138
201504.000			45.517			-4.138
201605.000			45.516			-4.138
201704.000			45.515			-4.138
201803.000			45.515			-4.138
201905.000			45.514			-4.138
202004.000			45.513			-4.138
202105.000			45.512			-4.137
202204.000			45.511			-4.137
202304.000			45.510			-4.137
202405.000			45.509			-4.137
202504.000			45.509			-4.137
202604.000			45.509			-4.137
202704.000			45.509			-4.137
202804.000			45.506			-4.137
202904.000			45.507			-4.137
203005.000			45.505			-4.137
203104.000			45.505			-4.137
203204.000			45.504			-4.137
203305.000			45.504			-4.137
203403.000			45.503			-4.137
203504.000			45.502			-4.137
203605.000			45.501			-4.136
203704.000			45.500			-4.136
203804.000			45.500			-4.136
203905.000			45.499			-4.136
204004.000			45.498			-4.136
204104.000			45.497			-4.136
204205.000			45.497			-4.136
204303.000			45.496			-4.136
204404.000			45.494			-4.136
204505.000			45.494			-4.136
204604.000			45.495			-4.136
204704.000			45.494			-4.136
204805.000			45.493			-4.136
204904.000			45.492			-4.136
205004.000			45.490			-4.135
205105.000			45.489			-4.135
205203.000			45.489			-4.135
205305.000			45.488			-4.135
205404.000			45.487			-4.135
205504.000			45.487			-4.135
205605.000			45.487			-4.135
205704.000			45.486			-4.135
205804.000			45.484			-4.135
205905.000			45.484			-4.135
206004.000			45.484			-4.135
206103.000			45.484			-4.135
206205.000			45.484			-4.135
206304.000			45.482			-4.135
206404.000			45.480			-4.135
206505.000			45.479			-4.134
206604.000			45.479			-4.134
206704.000			45.478			-4.134
206805.000			45.478			-4.134
206904.000			45.477			-4.134
207003.000			45.476			-4.134
207105.000			45.476			-4.134
207203.000			45.475			-4.134
207304.000			45.473			-4.134
207405.000			45.472			-4.134
207504.000			45.473			-4.134
207604.000			45.472			-4.134
207705.000			45.471			-4.134
207804.000			45.471			-4.134
207903.000			45.469			-4.134
208005.000			45.467			-4.133
208103.000			45.468			-4.133
208204.000			45.467			-4.133
208305.000			45.467			-4.133
208404.000			45.467			-4.133
208505.000			45.465			-4.133
208604.000			45.464			-4.133
208704.000			45.464			-4.133
208804.000			45.463			-4.133
208904.000			45.463			-4.133
209003.000			45.462			-4.133
209105.000			45.462			-4.133
209204.000			45.461			-4.133
209304.000			45.458			-4.133
209405.000			45.458			-4.133
209504.000			45.458			-4.133
209604.000			45.457			-4.132
209704.000			45.456			-4.132
209804.000			45.456			-4.132
209903.000			45.455			-4.132
210005.000			45.454			-4.132
210104.000			45.454			-4.132
210204.000			45.453			-4.132
210305.000			45.451			-4.132
210404.000			45.450			-4.132
210504.000			45.450			-4.132
210604.000			45.451			-4.132
210704.000			45.449			-4.132
210804.000			45.448			-4.132
210905.000			45.447			-4.132
211004.000			45.447			-4.132
211104.000			45.447			-4.132
211205.000			45.445			-4.131
211304.000			45.443			-4.131
211404.000			45.444			-4.131
211503.000			45.444			-4.131
211604.000			45.443			-4.131
211705.000			45.442			-4.131
211804.000			45.442			-4.131
211904.000			45.441			-4.131
212005.000			45.440			-4.131
212104.000			45.439			-4.131
212204.000			45.439			-4.131
212305.000			45.438			-4.131
212403.000			45.437			-4.131
212504.000			45.437			-4.131
212605.000			45.436			-4.131
212704.000			45.435			-4.130
212804.000			45.434			-4.130
212905.000			45.433			-4.130
213004.000			45.432			-4.130
213103.000			45.432			-4.130
213205.000			45.431			-4.130
213304.000			45.430			-4.130
213404.000			45.430			-4.130
213505.000			45.429			-4.130
213604.000			45.427			-4.130
213704.000			45.427			-4.130
213805.000			45.428			-4.130
213904.000			45.426			-4.130
214003.000			45.425			-4.130
214105.000			45.424			-4.129
214204.000			45.423			-4.129
214304.000			45.422			-4.129
214405.000			45.422			-4.129
214504.000			45.422			-4.129
214604.000			45.421			-4.129
214704.000			45.420			-4.129
214804.000			45.420			-4.129
214903.000			45.418			-4.129
215004.000			45.418			-4.129
215104.000			45.417			-4.129
215205.000			45.416			-4.129
215304.000			45.415			-4.129
215404.000			45.416			-4.129
215505.000			45.415			-4.129
215604.000			45.414			-4.129
215704.000			45.413			-4.128
215804.000			45.412			-4.128
215904.000			45.412			-4.128
216004.000			45.412			-4.128
216105.000			45.411			-4.128
216204.000			45.410			-4.128
216304.000			45.409			-4.128
216405.000			45.408			-4.128
216503.000			45.407			-4.128
216604.000			45.406			-4.128
216704.000			45.405			-4.128
216804.000			45.405			-4.128
216904.000			45.405			-4.128
217005.000			45.404			-4.128
217104.000			45.405			-4.128
217204.000			45.405			-4.128
217305.000			45.402			-4.127
217403.000			45.401			-4.127
217504.000			45.400			-4.127
217605.000			45.400			-4.127
217704.000			45.398			-4.127
217804.000			45.398			-4.127
217904.000			45.398			-4.127
218004.000			45.396			-4.127
218105.000			45.396			-4.127
218204.000			45.395			-4.127
218303.000			45.395			-4.127
218405.000			45.394			-4.127
218503.000			45.393			-4.127
218604.000			45.392			-4.127
218705.000			45.392			-4.127
218804.000			45.390			-4.126
218904.000			45.390			-4.126
219005.000			45.390			-4.126
219104.000			45.390			-4.126
219204.000			45.389			-4.126
219305.000			45.387			-4.126
219403.000			45.386			-4.126
219504.000			45.385			-4.126
219605.000			45.385			-4.126
219704.000			45.385			-4.126
219804.000			45.385			-4.126
219905.000			45.384			-4.126
220004.000			45.382			-4.126
220104.000			45.381			-4.126
220205.000			45.381			-4.126
220303.000			45.380			-4.125
220404.000			45.380			-4.125
220505.000			45.379			-4.125
220604.000			45.379			-4.125
220704.000			45.378			-4.125
220805.000			45.377			-4.125
220904.000			45.375			-4.125
221004.000			45.374			-4.125
221105.000			45.375			-4.125
221203.000			45.374			-4.125
221305.000			45.374			-4.125
221404.000			45.374			-4.125
221504.000			45.373			-4.125
221605.000			45.370			-4.125
221704.000			45.370			-4.125
221804.000			45.370			-4.125
221904.000			45.369			-4.124
222004.000			45.369			-4.124
222103.000			45.369			-4.124
222205.000			45.369			-4.124
222304.000			45.368			-4.124
222404.000			45.365			-4.124
222505.000			45.365			-4.124
222604.000			45.365			-4.124
222704.000			45.364			-4.124
222804.000			45.363			-4.124
222904.000			45.362			-4.124
223003.000			45.363			-4.124
223105.000			45.361			-4.124
223204.000			45.361			-4.124
223304.000			45.361			-4.124
223405.000			45.360			-4.124
223504.000			45.358			-4.123
223604.000			45.358			-4.123
223704.000			45.358			-4.123
223804.000			45.356			-4.123
223903.000			45.356			-4.123
224005.000			45.356			-4.123
224104.000			45.354			-4.123
224204.000			45.353			-4.123
224305.000			45.352			-4.123
224404.000			45.352			-4.123
224505.000			45.351			-4.123
224603.000			45.352			-4.123
224704.000			45.350			-4.123
224805.000			45.350			-4.123
224904.000			45.350			-4.123
225004.000			45.350			-4.123
225105.000			45.348			-4.123
225204.000			45.347			-4.122
225304.000			45.345			-4.122
225405.000			45.345			-4.122
225503.000			45.345			-4.122
225604.000			45.345			-4.122
225705.000			45.343			-4.122
225804.000			45.342			-4.122
225904.000			45.344			-4.122
226005.000			45.341			-4.122
226104.000			45.340			-4.122
226204.000			45.340			-4.122
226305.000			45.340			-4.122
226403.000			45.339			-4.122
226504.000			45.338			-4.122
226605.000			45.337			-4.122
226704.000			45.337			-4.122
226804.000			45.336			-4.121
226905.000			45.336			-4.121
227004.000			45.335			-4.121
227104.000			45.334			-4.121
227205.000			45.333			-4.121
227303.000			45.332			-4.121
227404.000			45.332			-4.121
227505.000			45.330			-4.121
227604.000			45.330			-4.121
227705.000			45.330			-4.121
227804.000			45.329			-4.121
227904.000			45.327			-4.121
228005.000			45.326			-4.121
228104.000			45.326			-4.121
228203.000			45.326			-4.121
228305.000			45.325			-4.120
228404.000			45.325			-4.120
228504.000			45.326			-4.121
228605.000			45.325			-4.120
228704.000			45.323			-4.120
228804.000			45.322			-4.120
228905.000			45.321			-4.120
229004.000			45.320			-4.120
229103.000			45.320			-4.120
229205.000			45.319			-4.120
229304.000			45.318			-4.120
229404.000			45.320			-4.120
229505.000			45.319			-4.120
229604.000			45.317			-4.120
229704.000			45.317			-4.120
229805.000			45.316			-4.120
229904.000			45.316			-4.120
230003.000			45.315			-4.120
230105.000			45.313			-4.119
230204.000			45.312			-4.119
230304.000			45.312			-4.119
230405.000			45.311			-4.119
230504.000			45.310			-4.119
230604.000			45.310			-4.119
230703.000			45.309			-4.119
230804.000			45.308			-4.119
230903.000			45.308			-4.119
231004.000			45.309			-4.119
231104.000			45.306			-4.119
231205.000			45.307			-4.119
231304.000			45.306			-4.119
231404.000			45.306			-4.119
231505.000			45.305			-4.119
231603.000			45.304			-4.119
231704.000			45.303			-4.118
231805.000			45.302			-4.118
231904.000			45.301			-4.118
232004.000			45.301			-4.118
232105.000			45.300			-4.118
232204.000			45.300			-4.118
232303.000			45.300			-4.118
232405.000			45.299			-4.118
232503.000			45.297			-4.118
232604.000			45.297			-4.118
232705.000			45.297			-4.118
232804.000			45.295			-4.118
232904.000			45.294			-4.118
233005.000			45.293			-4.118
233104.000			45.293			-4.118
233203.000			45.292			-4.117
233305.000			45.292			-4.117
233403.000			45.292			-4.117
233504.000			45.291			-4.117
233605.000			45.290			-4.117
233704.000			45.290			-4.117
233804.000			45.290			-4.117
233904.000			45.289			-4.117
234004.000			45.288			-4.117
234103.000			45.286			-4.117
234204.000			45.286			-4.117
234303.000			45.287			-4.117
234405.000			45.285			-4.117
234504.000			45.284			-4.117
234604.000			45.284			-4.117
234705.000			45.283			-4.117
234804.000			45.281			-4.116
234904.000			45.281			-4.116
235004.000			45.281			-4.116
235104.000			45.281			-4.116
235203.000			45.280			-4.116
235305.000			45.279			-4.116
235404.000			45.277			-4.116
235504.000			45.276			-4.116
235605.000			45.275			-4.116
235704.000			45.277			-4.116
235804.000			45.277			-4.116
235904.000			45.275			-4.116
236004.000			45.274			-4.116
236103.000			45.274			-4.116
236205.000			45.271			-4.116
236304.000			45.271			-4.116
236404.000			45.271			-4.116
236505.000			45.270			-4.115
236604.000			45.270			-4.115
236704.000			45.270			-4.115
236804.000			45.270			-4.115
236904.000			45.268			-4.115
237003.000			45.267			-4.115
237105.000			45.268			-4.115
237204.000			45.268			-4.115
237305.000			45.266			-4.115
237404.000			45.266			-4.115
237504.000			45.265			-4.115
237605.000			45.264			-4.115
237704.000			45.263			-4.115
237804.000			45.262			-4.115
237904.000			45.262			-4.115
238004.000			45.261			-4.115
238104.000			45.260			-4.115
238205.000			45.260			-4.115
238304.000			45.259			-4.114
238404.000			45.260			-4.115
238505.000			45.258			-4.114
238604.000			45.257			-4.114
238704.000			45.256			-4.114
238804.000			45.256			-4.114
238904.000			45.255			-4.114
239004.000			45.255			-4.114
239105.000			45.254			-4.114
239204.000			45.255			-4.114
239304.000			45.253			-4.114
239405.000			45.252			-4.114
239504.000			45.251			-4.114
239604.000			45.250			-4.114
239704.000			45.250			-4.114
239804.000			45.249			-4.114
239904.000			45.249			-4.114
240005.000			45.248			-4.113
240104.000			45.247			-4.113
240204.000			45.246			-4.113
240305.000			45.246			-4.113
240404.000			45.246			-4.113
240505.000			45.244			-4.113
240603.000			45.245			-4.113
240704.000			45.244			-4.113
240805.000			45.243			-4.113
240904.000			45.242			-4.113
241004.000			45.241			-4.113
241105.000			45.240			-4.113
241204.000			45.239			-4.113
241304.000			45.238			-4.113
241405.000			45.237			-4.112
241503.000			45.238			-4.113
241604.000			45.239			-4.113
241705.000			45.238			-4.113
241804.000			45.237			-4.112
241904.000			45.237			-4.112
242005.000			45.234			-4.112
242104.000			45.234			-4.112
242203.000			45.234			-4.112
242305.000			45.235			-4.112
242403.000			45.234			-4.112
242504.000			45.233			-4.112
242605.000			45.232			-4.112
242704.000			45.231			-4.112
242804.000			45.231			-4.112
242905.000			45.229			-4.112
243004.000			45.228			-4.112
243103.000			45.229			-4.112
243205.000			45.228			-4.112
243304.000			45.227			-4.112
243404.000			45.226			-4.111
243505.000			45.226			-4.111
243604.000			45.226			-4.111
243705.000			45.224			-4.111
243804.000			45.223			-4.111
243904.000			45.224			-4.111
244004.000			45.223			-4.111
244104.000			45.222			-4.111
244204.000			45.221			-4.111
244305.000			45.220			-4.111
244404.000			45.220			-4.111
244504.000			45.220			-4.111
244605.000			45.219			-4.111
244704.000			45.219			-4.111
244804.000			45.218			-4.111
244904.000			45.217			-4.111
245004.000			45.216			-4.111
245104.000			45.215			-4.110
245205.000			45.216			-4.111
245304.000			45.216			-4.111
245404.000			45.214			-4.110
245505.000			45.214			-4.110
245604.000			45.212			-4.110
245704.000			45.211			-4.110
245804.000			45.211			-4.110
245904.000			45.210			-4.110
246004.000			45.209			-4.110
246105.000			45.209			-4.110
246204.000			45.208			-4.110
246304.000			45.206			-4.110
246405.000			45.207			-4.110
246503.000			45.206			-4.110
246604.000			45.205			-4.110
246703.000			45.204			-4.109
246804.000			45.205			-4.110
246905.000			45.206			-4.110
247004.000			45.204			-4.109
247104.000			45.203			-4.109
247205.000			45.203			-4.109
247304.000			45.202			-4.109
247403.000			45.201			-4.109
247505.000			45.201			-4.109
247604.000			45.200			-4.109
247704.000			45.200			-4.109
247805.000			45.199			-4.109
247904.000			45.198			-4.109
248004.000			45.198			-4.109
248105.000			45.197			-4.109
248204.000			45.197			-4.109
248303.000			45.196			-4.109
248405.000			45.195			-4.109
248503.000			45.193			-4.108
248604.000			45.193			-4.108
248705.000			45.193			-4.108
248804.000			45.192			-4.108
248904.000			45.191			-4.108
249005.000			45.191			-4.108
249104.000			45.191			-4.108
249203.000			45.191			-4.108
249305.000			45.190			-4.108
249403.000			45.189			-4.108
249504.000			45.188			-4.108
249605.000			45.188			-4.108
249704.000			45.188			-4.108
249804.000			45.185			-4.108
249904.000			45.185			-4.108
250004.000			45.183			-4.108
250103.000			45.184			-4.108
250204.000			45.184			-4.108
250303.000			45.185			-4.108
250405.000			45.184			-4.108
250504.000			45.182			-4.107
250604.000			45.182			-4.107
250705.000			45.180			-4.107
250804.000			45.180			-4.107
250904.000			45.180			-4.107
251004.000			45.180			-4.107
251104.000			45.180			-4.107
251203.000			45.178			-4.107
251305.000			45.178			-4.107
251404.000			45.176			-4.107
251504.000			45.176			-4.107
251605.000			45.176			-4.107
251704.000			45.176			-4.107
251804.000			45.175			-4.107
251904.000			45.174			-4.107
252004.000			45.173			-4.107
252103.000			45.173			-4.107
252205.000			45.172			-4.107
252304.000			45.170			-4.106
252404.000			45.169			-4.106
252505.000			45.169			-4.106
252604.000			45.168			-4.106
252704.000			45.169			-4.106
252804.000			45.168			-4.106
252904.000			45.167			-4.106
253003.000			45.167			-4.106
253105.000			45.166			-4.106
253204.000			45.164			-4.106
253305.000			45.165			-4.106
253404.000			45.165			-4.106
253504.000			45.165			-4.106
253605.000			45.162			-4.106
253703.000			45.162			-4.106
253804.000			45.161			-4.106
253905.000			45.161			-4.106
254004.000			45.160			-4.105
254104.000			45.160			-4.105
254205.000			45.160			-4.105
254304.000			45.158			-4.105
254404.000			45.156			-4.105
254505.000			45.157			-4.105
254603.000			45.157			-4.105
254704.000			45.157			-4.105
254805.000			45.157			-4.105
254904.000			45.155			-4.105
255004.000			45.155			-4.105
255105.000			45.155			-4.105
255204.000			45.153			-4.105
255304.000			45.153			-4.105
255405.000			45.153			-4.105
255503.000			45.151			-4.105
255604.000			45.151			-4.105
255705.000			45.149			-4.104
255804.000			45.149			-4.104
255904.000			45.148			-4.104
256005.000			45.148			-4.104
256104.000			45.148			-4.104
256204.000			45.148			-4.104
256305.000			45.147			-4.104
256403.000			45.146			-4.104
256505.000			45.145			-4.104
256604.000			45.146			-4.104
256704.000			45.146			-4.104
256805.000			45.144			-4.104
256904.000			45.143			-4.104
257004.000			45.143			-4.104
257105.000			45.142			-4.104
257204.000			45.140			-4.104
257303.000			45.140			-4.104
257405.000			45.139			-4.104
257504.000			45.140			-4.104
257604.000			45.139			-4.104
257705.000			45.138			-4.103
257804.000			45.137			-4.103
257904.000			45.137			-4.103
258005.000			45.137			-4.103
258104.000			45.136			-4.103
258203.000			45.134			-4.103
258305.000			45.134			-4.103
258404.000			45.135			-4.103
258504.000			45.134			-4.103
258605.000			45.131			-4.103
258704.000			45.131			-4.103
258804.000			45.130			-4.103
258904.000			45.130			-4.103
259004.000			45.129			-4.103
259103.000			45.129			-4.103
259205.000			45.129			-4.103
259304.000			45.128			-4.103
259404.000			45.128			-4.103
259505.000			45.129			-4.103
259604.000			45.128			-4.103
259705.000			45.127			-4.102
259804.000			45.126			-4.102
259904.000			45.125			-4.102
260004.000			45.123			-4.102
260104.000			45.124			-4.102
260204.000			45.123			-4.102
260305.000			45.122			-4.102
260404.000			45.122			-4.102
260504.000			45.121			-4.102
260605.000			45.121			-4.102
260703.000			45.121			-4.102
260804.000			45.120			-4.102
260905.000			45.119			-4.102
261004.000			45.119			-4.102
261104.000			45.118			-4.102
261205.000			45.117			-4.102
261304.000			45.117			-4.102
261404.000			45.117			-4.102
261505.000			45.115			-4.101
261603.000			45.115			-4.101
261704.000			45.115			-4.101
261805.000			45.112			-4.101
261904.000			45.113			-4.101
262004.000			45.112			-4.101
262105.000			45.112			-4.101
262204.000			45.111			-4.101
262303.000			45.112			-4.101
262405.000			45.110			-4.101
262503.000			45.108			-4.101
262604.000			45.108			-4.101
262705.000			45.108			-4.101
262804.000			45.107			-4.101
262905.000			45.107			-4.101
263004.000			45.106			-4.101
263104.000			45.105			-4.100
263204.000			45.105			-4.100
263304.000			45.104			-4.100
263404.000			45.104			-4.100
263505.000			45.104			-4.100
263604.000			45.103			-4.100
263704.000			45.102			-4.100
263805.000			45.101			-4.100
263904.000			45.100			-4.100
264004.000			45.099			-4.100
264104.000			45.100			-4.100
264204.000			45.100			-4.100
264304.000			45.100			-4.100
264405.000			45.097			-4.100
264504.000			45.097			-4.100
264604.000			45.097			-4.100
264705.000			45.096			-4.100
264804.000			45.096			-4.100
264904.000			45.095			-4.100
265004.000			45.094			-4.099
265104.000			45.093			-4.099
265204.000			45.093			-4.099
265305.000			45.093			-4.099
265404.000			45.092			-4.099
265504.000			45.091			-4.099
265605.000			45.090			-4.099
265704.000			45.090			-4.099
265804.000			45.090			-4.099
265903.000			45.091			-4.099
266004.000			45.089			-4.099
266105.000			45.088			-4.099
266204.000			45.087			-4.099
266304.000			45.086			-4.099
266405.000			45.086			-4.099
266504.000			45.086			-4.099
266604.000			45.085			-4.099
266705.000			45.085			-4.099
266803.000			45.084			-4.099
266904.000			45.082			-4.098
267004.000			45.082			-4.098
267104.000			45.082			-4.098
267204.000			45.082			-4.098
267305.000			45.080			-4.098
267404.000			45.080			-4.098
267504.000			45.080			-4.098
267605.000			45.081			-4.098
267703.000			45.079			-4.098
267804.000			45.078			-4.098
267905.000			45.077			-4.098
268004.000			45.077			-4.098
268104.000			45.076			-4.098
268205.000			45.076			-4.098
268304.000			45.075			-4.098
268404.000			45.073			-4.098
268505.000			45.073			-4.098
268603.000			45.074			-4.098
268704.000			45.073			-4.098
268804.000			45.071			-4.097
268904.000			45.071			-4.097
269004.000			45.071			-4.097
269104.000			45.071			-4.097
269204.000			45.070			-4.097
269305.000			45.069			-4.097
269404.000			45.069			-4.097
269504.000			45.067			-4.097
269605.000			45.066			-4.097
269703.000			45.067			-4.097
269804.000			45.068			-4.097
269905.000			45.068			-4.097
270004.000			45.066			-4.097
270104.000			45.066			-4.097
270205.000			45.065			-4.097
270304.000			45.063			-4.097
270404.000			45.062			-4.097
270505.000			45.062			-4.097
270603.000			45.061			-4.096
270704.000			45.061			-4.096
270805.000			45.061			-4.096
270904.000			45.059			-4.096
271004.000			45.058			-4.096
271105.000			45.058			-4.096
271204.000			45.056			-4.096
271303.000			45.056			-4.096
271405.000			45.057			-4.096
271503.000			45.057			-4.096
271604.000			45.056			-4.096
271705.000			45.056			-4.096
271804.000			45.054			-4.096
271904.000			45.055			-4.096
272005.000			45.054			-4.096
272104.000			45.052			-4.096
272203.000			45.053			-4.096
272305.000			45.052			-4.096
272404.000			45.053			-4.096
272505.000			45.052			-4.096
272604.000			45.050			-4.095
272704.000			45.050			-4.095
272805.000			45.050			-4.095
272904.000			45.050			-4.095
273004.000			45.048			-4.095
273104.000			45.048			-4.095
273204.000			45.046			-4.095
273304.000			45.046			-4.095
273405.000			45.046			-4.095
273504.000			45.045			-4.095
273604.000			45.044			-4.095
273705.000			45.044			-4.095
273804.000			45.044			-4.095
273904.000			45.043			-4.095
274004.000			45.042			-4.095
274104.000			45.042			-4.095
274204.000			45.042			-4.095
274305.000			45.042			-4.095
274404.000			45.040			-4.095
274504.000			45.040			-4.095
274605.000			45.039			-4.094
274703.000			45.038			-4.094
274804.000			45.038			-4.094
274904.000			45.037			-4.094
275004.000			45.037			-4.094
275104.000			45.037			-4.094
275205.000			45.036			-4.094
275304.000			45.035			-4.094
275404.000			45.036			-4.094
275505.000			45.035			-4.094
275603.000			45.034			-4.094
275705.000			45.033			-4.094
275803.000			45.032			-4.094
275904.000			45.032			-4.094
276005.000			45.031			-4.094
276104.000			45.031			-4.094
276204.000			45.030			-4.094
276305.000			45.030			-4.094
276404.000			45.030			-4.094
276503.000			45.029			-4.094
276605.000			45.029			-4.094
276704.000			45.028			-4.093
276804.000			45.028			-4.093
276905.000			45.026			-4.093
277004.000			45.025			-4.093
277104.000			45.025			-4.093
277205.000			45.025			-4.093
277304.000			45.024			-4.093
277403.000			45.024			-4.093
277505.000			45.022			-4.093
277604.000			45.021			-4.093
277704.000			45.021			-4.093
277805.000			45.020			-4.093
277904.000			45.021			-4.093
278004.000			45.021			-4.093
278105.000			45.020			-4.093
278204.000			45.018			-4.093
278303.000			45.018			-4.093
278405.000			45.018			-4.093
278504.000			45.017			-4.092
278604.000			45.016			-4.092
278705.000			45.016			-4.092
278804.000			45.016			-4.092
278905.000			45.016			-4.092
279004.000			45.015			-4.092
279104.000			45.013			-4.092
279204.000			45.013			-4.092
279304.000			45.012			-4.092
279404.000			45.011			-4.092
279505.000			45.011			-4.092
279604.000			45.011			-4.092
279704.000			45.011			-4.092
279805.000			45.010			-4.092
279904.000			45.010			-4.092
280004.000			45.010			-4.092
280104.000			45.010			-4.092
280204.000			45.009			-4.092
280304.000			45.007			-4.092
280405.000			45.007			-4.092
280504.000			45.007			-4.092
280604.000			45.006			-4.091
280705.000			45.004			-4.091
280804.000			45.005			-4.091
280904.000			45.004			-4.091
281004.000			45.004			-4.091
281104.000			45.003			-4.091
281204.000			45.002			-4.091
281305.000			45.001			-4.091
281404.000			45.000			-4.091
281504.000			45.000			-4.091
281605.000			45.001			-4.091
281703.000			45.001			-4.091
281804.000			44.998			-4.091
281905.000			44.998			-4.091
282004.000			44.997			-4.091
282105.000			44.996			-4.091
282204.000			44.996			-4.091
282304.000			44.997			-4.091
282405.000			44.997			-4.091
282504.000			44.995			-4.090
282603.000			44.994			-4.090
282705.000			44.994			-4.090
282803.000			44.993			-4.090
282904.000			44.993			-4.090
283005.000			44.993			-4.090
283104.000			44.992			-4.090
283204.000			44.991			-4.090
283305.000			44.990			-4.090
283404.000			44.991			-4.090
283504.000			44.990			-4.090
283605.000			44.990			-4.090
283703.000			44.989			-4.090
283804.000			44.988			-4.090
283905.000			44.987			-4.090
284004.000			44.987			-4.090
284104.000			44.987			-4.090
284205.000			44.986			-4.090
284304.000			44.985			-4.090
284404.000			44.984			-4.089
284505.000			44.984			-4.089
284604.000			44.984			-4.089
284704.000			44.982			-4.089
284804.000			44.981			-4.089
284904.000			44.982			-4.089
285004.000			44.982			-4.089
285104.000			44.982			-4.089
285204.000			44.982			-4.089
285305.000			44.981			-4.089
285404.000			44.980			-4.089
285504.000			44.979			-4.089
285605.000			44.978			-4.089
285703.000			44.978			-4.089
285804.000			44.978			-4.089
285904.000			44.977			-4.089
286004.000			44.976			-4.089
286104.000			44.974			-4.089
286205.000			44.975			-4.089
286304.000			44.973			-4.088
286404.000			44.974			-4.089
286505.000			44.973			-4.088
286604.000			44.971			-4.088
286704.000			44.971			-4.088
286804.000			44.971			-4.088
286904.000			44.971			-4.088
287004.000			44.970			-4.088
287105.000			44.968			-4.088
287204.000			44.969			-4.088
287304.000			44.969			-4.088
287405.000			44.967			-4.088
287504.000			44.967			-4.088
287604.000			44.968			-4.088
287704.000			44.967			-4.088
287804.000			44.966			-4.088
287903.000			44.966			-4.088
288005.000			44.965			-4.088
288104.000			44.964			-4.088
288204.000			44.964			-4.088
288305.000			44.963			-4.088
288404.000			44.963			-4.088
288505.000			44.963			-4.088
288604.000			44.962			-4.087
288704.000			44.962			-4.087
288804.000			44.961			-4.087
288904.000			44.961			-4.087
289004.000			44.958			-4.087
289105.000			44.959			-4.087
289204.000			44.958			-4.087
289304.000			44.957			-4.087
289405.000			44.957			-4.087
289504.000			44.957			-4.087
289604.000			44.958			-4.087
289704.000			44.956			-4.087
289804.000			44.955			-4.087
289903.000			44.954			-4.087
290005.000			44.955			-4.087
290104.000			44.955			-4.087
290204.000			44.953			-4.087
290305.000			44.954			-4.087
290404.000			44.954			-4.087
290504.000			44.952			-4.087
290605.000			44.951			-4.086
290704.000			44.951			-4.086
290803.000			44.950			-4.086
290905.000			44.949			-4.086
291004.000			44.949			-4.086
291104.000			44.949			-4.086
291205.000			44.948			-4.086
291304.000			44.947			-4.086
291404.000			44.948			-4.086
291504.000			44.947			-4.086
291604.000			44.947			-4.086
291703.000			44.946			-4.086
291804.000			44.945			-4.086
291904.000			44.943			-4.086
292005.000			44.943			-4.086
292104.000			44.941			-4.086
292204.000			44.942			-4.086
292305.000			44.942			-4.086
292404.000			44.942			-4.086
292504.000			44.941			-4.086
292604.000			44.940			-4.085
292704.000			44.939			-4.085
292804.000			44.938			-4.085
292905.000			44.938			-4.085
293004.000			44.938			-4.085
293104.000			44.937			-4.085
293205.000			44.936			-4.085
293304.000			44.937			-4.085
293404.000			44.936			-4.085
293504.000			44.935			-4.085
293604.000			44.935			-4.085
293703.000			44.935			-4.085
293805.000			44.933			-4.085
293904.000			44.932			-4.085
294004.000			44.932			-4.085
294105.000			44.933			-4.085
294204.000			44.932			-4.085
294304.000			44.931			-4.085
294404.000			44.931			-4.085
294504.000			44.930			-4.085
294603.000			44.930			-4.085
294705.000			44.930			-4.085
294804.000			44.928			-4.084
294905.000			44.929			-4.084
295004.000			44.928			-4.084
295104.000			44.927			-4.084
295205.000			44.926			-4.084
295304.000			44.927			-4.084
295404.000			44.926			-4.084
295504.000			44.924			-4.084
295604.000			44.925			-4.084
295703.000			44.926			-4.084
295805.000			44.925			-4.084
295904.000			44.924			-4.084
296004.000			44.923			-4.084
296105.000			44.921			-4.084
296204.000			44.921			-4.084
296304.000			44.921			-4.084
296404.000			44.920			-4.084
296504.000			44.920			-4.084
296603.000			44.920			-4.084
296705.000			44.919			-4.084
296804.000			44.919			-4.084
296904.000			44.917			-4.083
297005.000			44.916			-4.083
297104.000			44.915			-4.083
297204.000			44.917			-4.083
297304.000			44.916			-4.083
297404.000			44.916			-4.083
297503.000			44.916			-4.083
297605.000			44.915			-4.083
297704.000			44.912			-4.083
297804.000			44.911			-4.083
297905.000			44.912			-4.083
298004.000			44.912			-4.083
298105.000			44.913			-4.083
298204.000			44.911			-4.083
298304.000			44.909			-4.083
298404.000			44.910			-4.083
298504.000			44.909			-4.083
298604.000			44.908			-4.083
298705.000			44.909			-4.083
298804.000			44.908			-4.083
298904.000			44.907			-4.082
299005.000			44.907			-4.082
299104.000			44.906			-4.082
299204.000			44.906			-4.082
299304.000			44.904			-4.082
299404.000			44.904			-4.082
299503.000			44.905			-4.082
299605.000			44.904			-4.082
299704.000			44.904			-4.082
299804.000			44.903			-4.082
299905.000			44.902			-4.082
