# Acquired on 25/01/2024 09:45:47 
# SPIDER: Creep_3mm_GRPCNT1454A-2
# CREEP MEASUREMENT

# time [ms]		force [N]		stiffness [N/mm]
0.000			-10.675			-3.558
105.000			-11.315			-3.772
204.000			-11.432			-3.811
304.000			-11.329			-3.776
404.000			-11.161			-3.720
504.000			-11.103			-3.701
605.000			-11.055			-3.685
704.000			-11.011			-3.670
803.000			-10.973			-3.658
905.000			-10.940			-3.647
1004.000			-10.908			-3.636
1104.000			-10.881			-3.627
1205.000			-10.831			-3.610
1304.000			-10.810			-3.603
1404.000			-10.790			-3.597
1504.000			-10.771			-3.590
1604.000			-10.753			-3.584
1704.000			-10.736			-3.579
1805.000			-10.721			-3.574
1904.000			-10.690			-3.563
2003.000			-10.677			-3.559
2105.000			-10.663			-3.554
2204.000			-10.650			-3.550
2304.000			-10.638			-3.546
2405.000			-10.626			-3.542
2504.000			-10.615			-3.538
2604.000			-10.594			-3.531
2703.000			-10.585			-3.528
2804.000			-10.574			-3.525
2905.000			-10.563			-3.521
3004.000			-10.555			-3.518
3104.000			-10.546			-3.515
3204.000			-10.537			-3.512
3304.000			-10.530			-3.510
3404.000			-10.513			-3.504
3505.000			-10.506			-3.502
3604.000			-10.499			-3.500
3704.000			-10.491			-3.497
3805.000			-10.484			-3.495
3903.000			-10.476			-3.492
4004.000			-10.470			-3.490
4105.000			-10.456			-3.485
4204.000			-10.450			-3.483
4304.000			-10.445			-3.482
4404.000			-10.439			-3.480
4504.000			-10.434			-3.478
4604.000			-10.428			-3.476
4705.000			-10.422			-3.474
4804.000			-10.411			-3.470
4904.000			-10.405			-3.468
5005.000			-10.400			-3.467
5103.000			-10.394			-3.465
5204.000			-10.389			-3.463
5305.000			-10.383			-3.461
5404.000			-10.378			-3.459
5504.000			-10.373			-3.458
5604.000			-10.364			-3.455
5704.000			-10.360			-3.453
5804.000			-10.355			-3.452
5904.000			-10.351			-3.450
6004.000			-10.347			-3.449
6105.000			-10.343			-3.448
6204.000			-10.338			-3.446
6303.000			-10.330			-3.443
6405.000			-10.325			-3.442
6504.000			-10.322			-3.441
6604.000			-10.318			-3.439
6705.000			-10.315			-3.438
6803.000			-10.310			-3.437
6904.000			-10.305			-3.435
7005.000			-10.298			-3.433
7104.000			-10.295			-3.432
7204.000			-10.291			-3.430
7305.000			-10.287			-3.429
7404.000			-10.284			-3.428
7503.000			-10.281			-3.427
7605.000			-10.278			-3.426
7704.000			-10.273			-3.424
7804.000			-10.267			-3.422
7905.000			-10.263			-3.421
8003.000			-10.261			-3.420
8104.000			-10.258			-3.419
8205.000			-10.255			-3.418
8304.000			-10.252			-3.417
8404.000			-10.248			-3.416
8505.000			-10.242			-3.414
8604.000			-10.240			-3.413
8703.000			-10.237			-3.412
8805.000			-10.234			-3.411
8904.000			-10.231			-3.410
9004.000			-10.228			-3.409
9105.000			-10.225			-3.408
9203.000			-10.220			-3.407
9305.000			-10.217			-3.406
9404.000			-10.213			-3.404
9504.000			-10.212			-3.404
9605.000			-10.209			-3.403
9704.000			-10.206			-3.402
9804.000			-10.203			-3.401
9904.000			-10.201			-3.400
10004.000			-10.195			-3.398
10104.000			-10.192			-3.397
10205.000			-10.191			-3.397
10304.000			-10.189			-3.396
10403.000			-10.186			-3.395
10505.000			-10.184			-3.395
10604.000			-10.181			-3.394
10704.000			-10.177			-3.392
10805.000			-10.174			-3.391
10904.000			-10.171			-3.390
11004.000			-10.169			-3.390
11104.000			-10.167			-3.389
11204.000			-10.166			-3.389
11304.000			-10.162			-3.387
11405.000			-10.158			-3.386
11504.000			-10.156			-3.385
11604.000			-10.154			-3.385
11705.000			-10.152			-3.384
11803.000			-10.149			-3.383
11904.000			-10.147			-3.382
12005.000			-10.145			-3.382
12104.000			-10.143			-3.381
12204.000			-10.139			-3.380
12304.000			-10.137			-3.379
12404.000			-10.135			-3.378
12504.000			-10.133			-3.378
12604.000			-10.131			-3.377
12704.000			-10.129			-3.376
12805.000			-10.126			-3.375
12904.000			-10.123			-3.374
13003.000			-10.121			-3.374
13105.000			-10.118			-3.373
13204.000			-10.116			-3.372
13304.000			-10.115			-3.372
13405.000			-10.114			-3.371
13504.000			-10.112			-3.371
13604.000			-10.108			-3.369
13704.000			-10.105			-3.368
13804.000			-10.104			-3.368
13904.000			-10.103			-3.368
14005.000			-10.101			-3.367
14104.000			-10.100			-3.367
14203.000			-10.097			-3.366
14305.000			-10.096			-3.365
14404.000			-10.092			-3.364
14504.000			-10.090			-3.363
14605.000			-10.089			-3.363
14704.000			-10.087			-3.362
14804.000			-10.085			-3.362
14904.000			-10.083			-3.361
15004.000			-10.081			-3.360
15104.000			-10.079			-3.360
15205.000			-10.077			-3.359
15304.000			-10.075			-3.358
15403.000			-10.073			-3.358
15505.000			-10.072			-3.357
15604.000			-10.069			-3.356
15705.000			-10.067			-3.356
15804.000			-10.065			-3.355
15904.000			-10.063			-3.354
16005.000			-10.061			-3.354
16103.000			-10.060			-3.353
16204.000			-10.059			-3.353
16305.000			-10.057			-3.352
16404.000			-10.056			-3.352
16504.000			-10.054			-3.351
16605.000			-10.051			-3.350
16704.000			-10.050			-3.350
16803.000			-10.049			-3.350
16905.000			-10.047			-3.349
17004.000			-10.046			-3.349
17104.000			-10.044			-3.348
17205.000			-10.043			-3.348
17303.000			-10.039			-3.346
17404.000			-10.037			-3.346
17505.000			-10.036			-3.345
17604.000			-10.035			-3.345
17704.000			-10.034			-3.345
17805.000			-10.032			-3.344
17904.000			-10.030			-3.343
18003.000			-10.028			-3.343
18105.000			-10.027			-3.342
18204.000			-10.026			-3.342
18304.000			-10.024			-3.341
18405.000			-10.023			-3.341
18504.000			-10.022			-3.341
18604.000			-10.021			-3.340
18703.000			-10.019			-3.340
18804.000			-10.017			-3.339
18905.000			-10.016			-3.339
19004.000			-10.015			-3.338
19104.000			-10.013			-3.338
19204.000			-10.012			-3.337
19304.000			-10.011			-3.337
19404.000			-10.009			-3.336
19505.000			-10.006			-3.335
19604.000			-10.005			-3.335
19704.000			-10.004			-3.335
19805.000			-10.002			-3.334
19903.000			-10.001			-3.334
20004.000			-10.000			-3.333
20105.000			-9.999			-3.333
20204.000			-9.997			-3.332
20304.000			-9.994			-3.331
20405.000			-9.994			-3.331
20504.000			-9.993			-3.331
20603.000			-9.991			-3.330
20705.000			-9.991			-3.330
20804.000			-9.990			-3.330
20904.000			-9.988			-3.329
21005.000			-9.988			-3.329
21104.000			-9.985			-3.328
21204.000			-9.983			-3.328
21304.000			-9.982			-3.327
21404.000			-9.981			-3.327
21504.000			-9.981			-3.327
21605.000			-9.980			-3.327
21704.000			-9.977			-3.326
21804.000			-9.976			-3.325
21905.000			-9.975			-3.325
22003.000			-9.973			-3.324
22105.000			-9.972			-3.324
22204.000			-9.971			-3.324
22304.000			-9.971			-3.324
22405.000			-9.968			-3.323
22504.000			-9.967			-3.322
22604.000			-9.965			-3.322
22704.000			-9.964			-3.321
22804.000			-9.963			-3.321
22904.000			-9.961			-3.320
23005.000			-9.962			-3.321
23104.000			-9.959			-3.320
23204.000			-9.959			-3.320
23305.000			-9.958			-3.319
23403.000			-9.956			-3.319
23504.000			-9.955			-3.318
23605.000			-9.954			-3.318
23704.000			-9.953			-3.318
23804.000			-9.951			-3.317
23905.000			-9.950			-3.317
24004.000			-9.950			-3.317
24103.000			-9.949			-3.316
24205.000			-9.948			-3.316
24304.000			-9.945			-3.315
24404.000			-9.945			-3.315
24505.000			-9.944			-3.315
24604.000			-9.942			-3.314
24704.000			-9.940			-3.313
24804.000			-9.938			-3.313
24904.000			-9.939			-3.313
25004.000			-9.938			-3.313
25104.000			-9.937			-3.312
25204.000			-9.936			-3.312
25305.000			-9.935			-3.312
25404.000			-9.934			-3.311
25503.000			-9.932			-3.311
25605.000			-9.932			-3.311
25704.000			-9.931			-3.310
25804.000			-9.930			-3.310
25905.000			-9.929			-3.310
26004.000			-9.927			-3.309
26104.000			-9.926			-3.309
26204.000			-9.925			-3.308
26304.000			-9.924			-3.308
26404.000			-9.922			-3.307
26505.000			-9.922			-3.307
26604.000			-9.921			-3.307
26704.000			-9.921			-3.307
26805.000			-9.918			-3.306
26903.000			-9.917			-3.306
27004.000			-9.916			-3.305
27105.000			-9.916			-3.305
27204.000			-9.915			-3.305
27304.000			-9.914			-3.305
27405.000			-9.914			-3.305
27504.000			-9.912			-3.304
27603.000			-9.910			-3.303
27705.000			-9.910			-3.303
27804.000			-9.909			-3.303
27904.000			-9.908			-3.303
28005.000			-9.906			-3.302
28104.000			-9.905			-3.302
28204.000			-9.904			-3.301
28303.000			-9.904			-3.301
28404.000			-9.901			-3.300
28505.000			-9.901			-3.300
28604.000			-9.901			-3.300
28704.000			-9.900			-3.300
28804.000			-9.900			-3.300
28904.000			-9.899			-3.300
29003.000			-9.896			-3.299
29105.000			-9.895			-3.298
29204.000			-9.895			-3.298
29304.000			-9.895			-3.298
29405.000			-9.894			-3.298
29504.000			-9.892			-3.297
29604.000			-9.892			-3.297
29704.000			-9.889			-3.296
29804.000			-9.889			-3.296
29904.000			-9.889			-3.296
30005.000			-9.887			-3.296
30104.000			-9.887			-3.296
30204.000			-9.887			-3.296
30305.000			-9.885			-3.295
30403.000			-9.885			-3.295
30504.000			-9.884			-3.295
30605.000			-9.882			-3.294
30704.000			-9.882			-3.294
30804.000			-9.881			-3.294
30904.000			-9.881			-3.294
31004.000			-9.880			-3.293
31103.000			-9.879			-3.293
31205.000			-9.877			-3.292
31304.000			-9.876			-3.292
31404.000			-9.876			-3.292
31505.000			-9.875			-3.292
31604.000			-9.874			-3.291
31705.000			-9.873			-3.291
31803.000			-9.872			-3.291
31904.000			-9.871			-3.290
32005.000			-9.870			-3.290
32104.000			-9.868			-3.289
32204.000			-9.867			-3.289
32305.000			-9.867			-3.289
32404.000			-9.867			-3.289
32503.000			-9.865			-3.288
32605.000			-9.864			-3.288
32704.000			-9.864			-3.288
32804.000			-9.863			-3.288
32905.000			-9.862			-3.287
33004.000			-9.861			-3.287
33104.000			-9.860			-3.287
33205.000			-9.859			-3.286
33304.000			-9.860			-3.287
33404.000			-9.857			-3.286
33505.000			-9.856			-3.285
33604.000			-9.856			-3.285
33703.000			-9.855			-3.285
33805.000			-9.855			-3.285
33904.000			-9.854			-3.285
34004.000			-9.853			-3.284
34105.000			-9.851			-3.284
34204.000			-9.851			-3.284
34304.000			-9.852			-3.284
34404.000			-9.851			-3.284
34504.000			-9.849			-3.283
34604.000			-9.849			-3.283
34704.000			-9.848			-3.283
34804.000			-9.847			-3.282
34905.000			-9.845			-3.282
35004.000			-9.845			-3.282
35103.000			-9.844			-3.281
35205.000			-9.843			-3.281
35304.000			-9.844			-3.281
35404.000			-9.844			-3.281
35505.000			-9.843			-3.281
35604.000			-9.841			-3.280
35704.000			-9.840			-3.280
35804.000			-9.839			-3.280
35904.000			-9.839			-3.280
36004.000			-9.838			-3.279
36105.000			-9.837			-3.279
36204.000			-9.836			-3.279
36304.000			-9.835			-3.278
36405.000			-9.834			-3.278
36503.000			-9.834			-3.278
36604.000			-9.835			-3.278
36705.000			-9.834			-3.278
36804.000			-9.832			-3.277
36904.000			-9.830			-3.277
37005.000			-9.831			-3.277
37104.000			-9.830			-3.277
37203.000			-9.829			-3.276
37305.000			-9.828			-3.276
37404.000			-9.827			-3.276
37504.000			-9.826			-3.275
37605.000			-9.825			-3.275
37704.000			-9.825			-3.275
37804.000			-9.825			-3.275
37903.000			-9.824			-3.275
38004.000			-9.823			-3.274
38105.000			-9.821			-3.274
38204.000			-9.821			-3.274
38304.000			-9.820			-3.273
38405.000			-9.820			-3.273
38504.000			-9.820			-3.273
38603.000			-9.819			-3.273
38705.000			-9.817			-3.272
38804.000			-9.816			-3.272
38904.000			-9.816			-3.272
39005.000			-9.816			-3.272
39104.000			-9.816			-3.272
39204.000			-9.815			-3.272
39304.000			-9.813			-3.271
39404.000			-9.812			-3.271
39504.000			-9.812			-3.271
39605.000			-9.810			-3.270
39704.000			-9.810			-3.270
39804.000			-9.810			-3.270
39905.000			-9.809			-3.270
40003.000			-9.810			-3.270
40104.000			-9.809			-3.270
40205.000			-9.809			-3.270
40304.000			-9.808			-3.269
40404.000			-9.807			-3.269
40504.000			-9.807			-3.269
40604.000			-9.806			-3.269
40704.000			-9.805			-3.268
40805.000			-9.804			-3.268
40904.000			-9.803			-3.268
41004.000			-9.803			-3.268
41105.000			-9.802			-3.267
41203.000			-9.801			-3.267
41305.000			-9.801			-3.267
41404.000			-9.800			-3.267
41504.000			-9.799			-3.266
41605.000			-9.798			-3.266
41704.000			-9.797			-3.266
41804.000			-9.798			-3.266
41904.000			-9.798			-3.266
42004.000			-9.797			-3.266
42104.000			-9.795			-3.265
42205.000			-9.795			-3.265
42304.000			-9.795			-3.265
42404.000			-9.794			-3.265
42505.000			-9.793			-3.264
42603.000			-9.792			-3.264
42704.000			-9.791			-3.264
42805.000			-9.791			-3.264
42904.000			-9.790			-3.263
43004.000			-9.790			-3.263
43105.000			-9.789			-3.263
43204.000			-9.788			-3.263
43303.000			-9.788			-3.263
43405.000			-9.788			-3.263
43504.000			-9.787			-3.262
43604.000			-9.786			-3.262
43705.000			-9.785			-3.262
43804.000			-9.784			-3.261
43904.000			-9.784			-3.261
44004.000			-9.784			-3.261
44104.000			-9.784			-3.261
44204.000			-9.783			-3.261
44304.000			-9.782			-3.261
44404.000			-9.780			-3.260
44505.000			-9.780			-3.260
44604.000			-9.780			-3.260
44703.000			-9.779			-3.260
44805.000			-9.779			-3.260
44904.000			-9.779			-3.260
45004.000			-9.778			-3.259
45105.000			-9.777			-3.259
45204.000			-9.776			-3.259
45304.000			-9.776			-3.259
45404.000			-9.775			-3.258
45504.000			-9.774			-3.258
45604.000			-9.774			-3.258
45705.000			-9.774			-3.258
45804.000			-9.773			-3.258
45904.000			-9.772			-3.257
46005.000			-9.771			-3.257
46103.000			-9.771			-3.257
46204.000			-9.770			-3.257
46305.000			-9.770			-3.257
46404.000			-9.770			-3.257
46504.000			-9.768			-3.256
46605.000			-9.767			-3.256
46704.000			-9.768			-3.256
46803.000			-9.767			-3.256
46905.000			-9.766			-3.255
47004.000			-9.766			-3.255
47104.000			-9.765			-3.255
47205.000			-9.764			-3.255
47304.000			-9.763			-3.254
47404.000			-9.762			-3.254
47503.000			-9.762			-3.254
47604.000			-9.763			-3.254
47705.000			-9.763			-3.254
47804.000			-9.762			-3.254
47904.000			-9.760			-3.253
48005.000			-9.759			-3.253
48104.000			-9.760			-3.253
48203.000			-9.759			-3.253
48305.000			-9.759			-3.253
48404.000			-9.759			-3.253
48504.000			-9.757			-3.252
48605.000			-9.757			-3.252
48704.000			-9.756			-3.252
48804.000			-9.756			-3.252
48904.000			-9.756			-3.252
49004.000			-9.754			-3.251
49103.000			-9.754			-3.251
49205.000			-9.753			-3.251
49304.000			-9.753			-3.251
49404.000			-9.752			-3.251
49505.000			-9.750			-3.250
49603.000			-9.751			-3.250
49704.000			-9.751			-3.250
49805.000			-9.750			-3.250
49904.000			-9.750			-3.250
50004.000			-9.749			-3.250
50105.000			-9.749			-3.250
50204.000			-9.748			-3.249
50303.000			-9.747			-3.249
50405.000			-9.747			-3.249
50504.000			-9.747			-3.249
50604.000			-9.746			-3.249
50705.000			-9.746			-3.249
50804.000			-9.745			-3.248
50905.000			-9.744			-3.248
51003.000			-9.744			-3.248
51104.000			-9.744			-3.248
51205.000			-9.744			-3.248
51304.000			-9.743			-3.248
51404.000			-9.742			-3.247
51505.000			-9.740			-3.247
51604.000			-9.741			-3.247
51703.000			-9.740			-3.247
51805.000			-9.739			-3.246
51904.000			-9.739			-3.246
52004.000			-9.739			-3.246
52105.000			-9.738			-3.246
52204.000			-9.737			-3.246
52304.000			-9.736			-3.245
52404.000			-9.737			-3.246
52504.000			-9.736			-3.245
52604.000			-9.735			-3.245
52705.000			-9.735			-3.245
52804.000			-9.735			-3.245
52904.000			-9.735			-3.245
53005.000			-9.734			-3.245
53103.000			-9.733			-3.244
53204.000			-9.733			-3.244
53305.000			-9.732			-3.244
53404.000			-9.731			-3.244
53504.000			-9.731			-3.244
53604.000			-9.731			-3.244
53704.000			-9.730			-3.243
53804.000			-9.730			-3.243
53904.000			-9.729			-3.243
54004.000			-9.729			-3.243
54105.000			-9.727			-3.242
54204.000			-9.727			-3.242
54303.000			-9.726			-3.242
54405.000			-9.727			-3.242
54504.000			-9.726			-3.242
54604.000			-9.726			-3.242
54705.000			-9.725			-3.242
54804.000			-9.724			-3.241
54904.000			-9.724			-3.241
55004.000			-9.724			-3.241
55104.000			-9.723			-3.241
55204.000			-9.723			-3.241
55305.000			-9.721			-3.240
55404.000			-9.721			-3.240
55504.000			-9.721			-3.240
55605.000			-9.721			-3.240
55703.000			-9.721			-3.240
55804.000			-9.720			-3.240
55905.000			-9.719			-3.240
56004.000			-9.719			-3.240
56104.000			-9.717			-3.239
56205.000			-9.718			-3.239
56304.000			-9.717			-3.239
56403.000			-9.716			-3.239
56505.000			-9.716			-3.239
56604.000			-9.716			-3.239
56704.000			-9.715			-3.238
56805.000			-9.715			-3.238
56904.000			-9.714			-3.238
57004.000			-9.714			-3.238
57103.000			-9.714			-3.238
57204.000			-9.713			-3.238
57305.000			-9.713			-3.238
57404.000			-9.712			-3.237
57504.000			-9.711			-3.237
57605.000			-9.711			-3.237
57704.000			-9.710			-3.237
57803.000			-9.709			-3.236
57905.000			-9.710			-3.237
58004.000			-9.710			-3.237
58104.000			-9.709			-3.236
58205.000			-9.707			-3.236
58304.000			-9.708			-3.236
58404.000			-9.707			-3.236
58504.000			-9.706			-3.235
58604.000			-9.707			-3.236
58704.000			-9.707			-3.236
58805.000			-9.706			-3.235
58904.000			-9.706			-3.235
59003.000			-9.704			-3.235
59105.000			-9.703			-3.234
59204.000			-9.704			-3.235
59304.000			-9.702			-3.234
59405.000			-9.702			-3.234
59504.000			-9.703			-3.234
59604.000			-9.703			-3.234
59704.000			-9.700			-3.233
59804.000			-9.701			-3.234
59904.000			-9.701			-3.234
60005.000			-9.701			-3.234
60104.000			-9.700			-3.233
60204.000			-9.700			-3.233
60305.000			-9.700			-3.233
60403.000			-9.698			-3.233
60505.000			-9.698			-3.233
60604.000			-9.698			-3.233
60704.000			-9.698			-3.233
60805.000			-9.697			-3.232
60904.000			-9.697			-3.232
61004.000			-9.696			-3.232
61104.000			-9.697			-3.232
61204.000			-9.696			-3.232
61304.000			-9.695			-3.232
61405.000			-9.695			-3.232
61504.000			-9.694			-3.231
61604.000			-9.693			-3.231
61705.000			-9.694			-3.231
61803.000			-9.693			-3.231
61904.000			-9.693			-3.231
62005.000			-9.692			-3.231
62104.000			-9.692			-3.231
62204.000			-9.692			-3.231
62305.000			-9.691			-3.230
62404.000			-9.690			-3.230
62503.000			-9.688			-3.229
62605.000			-9.689			-3.230
62704.000			-9.688			-3.229
62804.000			-9.688			-3.229
62905.000			-9.688			-3.229
63004.000			-9.688			-3.229
63104.000			-9.688			-3.229
63204.000			-9.687			-3.229
63304.000			-9.686			-3.229
63404.000			-9.685			-3.228
63504.000			-9.684			-3.228
63604.000			-9.684			-3.228
63705.000			-9.684			-3.228
63804.000			-9.683			-3.228
63903.000			-9.684			-3.228
64005.000			-9.683			-3.228
64104.000			-9.683			-3.228
64204.000			-9.681			-3.227
64305.000			-9.681			-3.227
64404.000			-9.681			-3.227
64504.000			-9.681			-3.227
64604.000			-9.682			-3.227
64704.000			-9.680			-3.227
64804.000			-9.679			-3.226
64905.000			-9.680			-3.227
65004.000			-9.680			-3.227
65104.000			-9.679			-3.226
65205.000			-9.678			-3.226
65303.000			-9.678			-3.226
65404.000			-9.678			-3.226
65505.000			-9.676			-3.225
65604.000			-9.677			-3.226
65704.000			-9.677			-3.226
65805.000			-9.675			-3.225
65904.000			-9.675			-3.225
66003.000			-9.675			-3.225
66105.000			-9.675			-3.225
66204.000			-9.674			-3.225
66304.000			-9.673			-3.224
66405.000			-9.673			-3.224
66504.000			-9.672			-3.224
66604.000			-9.672			-3.224
66703.000			-9.673			-3.224
66804.000			-9.672			-3.224
66905.000			-9.672			-3.224
67004.000			-9.671			-3.224
67104.000			-9.671			-3.224
67205.000			-9.670			-3.223
67304.000			-9.670			-3.223
67403.000			-9.670			-3.223
67505.000			-9.669			-3.223
67604.000			-9.669			-3.223
67704.000			-9.669			-3.223
67805.000			-9.668			-3.223
67904.000			-9.667			-3.222
68004.000			-9.667			-3.222
68104.000			-9.668			-3.223
68204.000			-9.667			-3.222
68303.000			-9.666			-3.222
68405.000			-9.666			-3.222
68504.000			-9.666			-3.222
68604.000			-9.665			-3.222
68705.000			-9.665			-3.222
68804.000			-9.665			-3.222
68904.000			-9.665			-3.222
69004.000			-9.663			-3.221
69104.000			-9.662			-3.221
69204.000			-9.662			-3.221
69305.000			-9.661			-3.220
69404.000			-9.662			-3.221
69504.000			-9.662			-3.221
69605.000			-9.661			-3.220
69703.000			-9.661			-3.220
69804.000			-9.662			-3.221
69905.000			-9.660			-3.220
70004.000			-9.659			-3.220
70105.000			-9.659			-3.220
70204.000			-9.659			-3.220
70304.000			-9.660			-3.220
70404.000			-9.659			-3.220
70504.000			-9.658			-3.219
70604.000			-9.657			-3.219
70705.000			-9.656			-3.219
70804.000			-9.656			-3.219
70904.000			-9.657			-3.219
71005.000			-9.657			-3.219
71103.000			-9.657			-3.219
71204.000			-9.656			-3.219
71305.000			-9.655			-3.218
71404.000			-9.654			-3.218
71504.000			-9.654			-3.218
71605.000			-9.654			-3.218
71704.000			-9.652			-3.217
71803.000			-9.652			-3.217
71905.000			-9.652			-3.217
72004.000			-9.653			-3.218
72104.000			-9.652			-3.217
72205.000			-9.652			-3.217
72304.000			-9.650			-3.217
72404.000			-9.650			-3.217
72504.000			-9.649			-3.216
72604.000			-9.649			-3.216
72704.000			-9.650			-3.217
72805.000			-9.648			-3.216
72904.000			-9.648			-3.216
73004.000			-9.649			-3.216
73105.000			-9.648			-3.216
73203.000			-9.648			-3.216
73305.000			-9.648			-3.216
73404.000			-9.647			-3.216
73504.000			-9.647			-3.216
73605.000			-9.646			-3.215
73704.000			-9.645			-3.215
73804.000			-9.645			-3.215
73904.000			-9.644			-3.215
74004.000			-9.645			-3.215
74104.000			-9.644			-3.215
74205.000			-9.644			-3.215
74304.000			-9.644			-3.215
74404.000			-9.643			-3.214
74505.000			-9.643			-3.214
74603.000			-9.642			-3.214
74704.000			-9.643			-3.214
74805.000			-9.643			-3.214
74904.000			-9.642			-3.214
75004.000			-9.641			-3.214
75105.000			-9.641			-3.214
75204.000			-9.641			-3.214
75303.000			-9.641			-3.214
75405.000			-9.640			-3.213
75504.000			-9.640			-3.213
75604.000			-9.640			-3.213
75705.000			-9.639			-3.213
75804.000			-9.639			-3.213
75904.000			-9.640			-3.213
76004.000			-9.639			-3.213
76104.000			-9.638			-3.213
76204.000			-9.637			-3.212
76304.000			-9.636			-3.212
76404.000			-9.637			-3.212
76505.000			-9.636			-3.212
76604.000			-9.636			-3.212
76703.000			-9.635			-3.212
76805.000			-9.634			-3.211
76904.000			-9.636			-3.212
77004.000			-9.635			-3.212
77105.000			-9.635			-3.212
77204.000			-9.633			-3.211
77304.000			-9.633			-3.211
77404.000			-9.633			-3.211
77504.000			-9.632			-3.211
77604.000			-9.633			-3.211
77705.000			-9.633			-3.211
77804.000			-9.632			-3.211
77904.000			-9.632			-3.211
78005.000			-9.631			-3.210
78103.000			-9.631			-3.210
78204.000			-9.631			-3.210
78305.000			-9.630			-3.210
78404.000			-9.631			-3.210
78504.000			-9.630			-3.210
78605.000			-9.629			-3.210
78704.000			-9.628			-3.209
78803.000			-9.629			-3.210
78905.000			-9.628			-3.209
79004.000			-9.628			-3.209
79104.000			-9.628			-3.209
79205.000			-9.627			-3.209
79304.000			-9.627			-3.209
79404.000			-9.627			-3.209
79503.000			-9.627			-3.209
79604.000			-9.626			-3.209
79705.000			-9.626			-3.209
79804.000			-9.625			-3.208
79904.000			-9.625			-3.208
80005.000			-9.624			-3.208
80104.000			-9.623			-3.208
80203.000			-9.623			-3.208
80305.000			-9.624			-3.208
80404.000			-9.623			-3.208
80504.000			-9.624			-3.208
80605.000			-9.624			-3.208
80704.000			-9.623			-3.208
80804.000			-9.623			-3.208
80904.000			-9.622			-3.207
81004.000			-9.621			-3.207
81104.000			-9.621			-3.207
81205.000			-9.621			-3.207
81304.000			-9.621			-3.207
81404.000			-9.620			-3.207
81505.000			-9.620			-3.207
81603.000			-9.619			-3.206
81704.000			-9.619			-3.206
81805.000			-9.619			-3.206
81904.000			-9.619			-3.206
82004.000			-9.618			-3.206
82105.000			-9.618			-3.206
82204.000			-9.618			-3.206
82303.000			-9.617			-3.206
82405.000			-9.617			-3.206
82504.000			-9.618			-3.206
82604.000			-9.617			-3.206
82705.000			-9.616			-3.205
82804.000			-9.616			-3.205
82905.000			-9.616			-3.205
83003.000			-9.616			-3.205
83104.000			-9.615			-3.205
83205.000			-9.614			-3.205
83304.000			-9.614			-3.205
83404.000			-9.614			-3.205
83505.000			-9.614			-3.205
83604.000			-9.613			-3.204
83703.000			-9.613			-3.204
83805.000			-9.613			-3.204
83904.000			-9.614			-3.205
84004.000			-9.614			-3.205
84105.000			-9.613			-3.204
84204.000			-9.613			-3.204
84304.000			-9.612			-3.204
84404.000			-9.610			-3.203
84504.000			-9.611			-3.204
84604.000			-9.610			-3.203
84705.000			-9.610			-3.203
84804.000			-9.609			-3.203
84904.000			-9.609			-3.203
85005.000			-9.608			-3.203
85103.000			-9.609			-3.203
85204.000			-9.609			-3.203
85305.000			-9.609			-3.203
85404.000			-9.608			-3.203
85504.000			-9.607			-3.202
85605.000			-9.607			-3.202
85704.000			-9.607			-3.202
85803.000			-9.607			-3.202
85905.000			-9.607			-3.202
86004.000			-9.607			-3.202
86105.000			-9.606			-3.202
86204.000			-9.605			-3.202
86304.000			-9.605			-3.202
86405.000			-9.605			-3.202
86503.000			-9.605			-3.202
86604.000			-9.604			-3.201
86705.000			-9.605			-3.202
86804.000			-9.604			-3.201
86904.000			-9.603			-3.201
87005.000			-9.602			-3.201
87104.000			-9.603			-3.201
87203.000			-9.603			-3.201
87305.000			-9.603			-3.201
87404.000			-9.602			-3.201
87504.000			-9.602			-3.201
87605.000			-9.602			-3.201
87704.000			-9.601			-3.200
87804.000			-9.601			-3.200
87904.000			-9.601			-3.200
88004.000			-9.601			-3.200
88104.000			-9.600			-3.200
88205.000			-9.600			-3.200
88304.000			-9.600			-3.200
88404.000			-9.599			-3.200
88505.000			-9.598			-3.199
88603.000			-9.598			-3.199
88704.000			-9.598			-3.199
88805.000			-9.597			-3.199
88904.000			-9.599			-3.200
89004.000			-9.598			-3.199
89104.000			-9.597			-3.199
89204.000			-9.597			-3.199
89304.000			-9.597			-3.199
89404.000			-9.596			-3.199
89504.000			-9.595			-3.198
89605.000			-9.595			-3.198
89704.000			-9.595			-3.198
89804.000			-9.596			-3.199
89905.000			-9.595			-3.198
90004.000			-9.594			-3.198
90104.000			-9.593			-3.198
90204.000			-9.592			-3.197
90304.000			-9.593			-3.198
90404.000			-9.594			-3.198
90505.000			-9.593			-3.198
90604.000			-9.593			-3.198
90704.000			-9.593			-3.198
90805.000			-9.593			-3.198
90903.000			-9.593			-3.198
91004.000			-9.593			-3.198
91105.000			-9.591			-3.197
91204.000			-9.591			-3.197
91304.000			-9.590			-3.197
91405.000			-9.590			-3.197
91504.000			-9.589			-3.196
91603.000			-9.589			-3.196
91705.000			-9.590			-3.197
91804.000			-9.589			-3.196
91904.000			-9.589			-3.196
92005.000			-9.589			-3.196
92104.000			-9.589			-3.196
92204.000			-9.589			-3.196
92303.000			-9.589			-3.196
92404.000			-9.588			-3.196
92505.000			-9.588			-3.196
92604.000			-9.587			-3.196
92704.000			-9.587			-3.196
92805.000			-9.586			-3.195
92904.000			-9.586			-3.195
93003.000			-9.587			-3.196
93105.000			-9.586			-3.195
93204.000			-9.586			-3.195
93304.000			-9.585			-3.195
93405.000			-9.584			-3.195
93504.000			-9.584			-3.195
93604.000			-9.585			-3.195
93704.000			-9.584			-3.195
93804.000			-9.584			-3.195
93904.000			-9.584			-3.195
94005.000			-9.583			-3.194
94104.000			-9.583			-3.194
94204.000			-9.583			-3.194
94305.000			-9.583			-3.194
94403.000			-9.582			-3.194
94504.000			-9.582			-3.194
94605.000			-9.582			-3.194
94704.000			-9.581			-3.194
94804.000			-9.581			-3.194
94905.000			-9.581			-3.194
95004.000			-9.582			-3.194
95103.000			-9.581			-3.194
95205.000			-9.580			-3.193
95304.000			-9.579			-3.193
95404.000			-9.579			-3.193
95505.000			-9.580			-3.193
95604.000			-9.580			-3.193
95705.000			-9.579			-3.193
95804.000			-9.579			-3.193
95904.000			-9.579			-3.193
96004.000			-9.577			-3.192
96104.000			-9.577			-3.192
96204.000			-9.577			-3.192
96305.000			-9.577			-3.192
96404.000			-9.577			-3.192
96504.000			-9.577			-3.192
96605.000			-9.576			-3.192
96703.000			-9.576			-3.192
96804.000			-9.576			-3.192
96905.000			-9.576			-3.192
97004.000			-9.575			-3.192
97104.000			-9.575			-3.192
97205.000			-9.575			-3.192
97304.000			-9.576			-3.192
97403.000			-9.575			-3.192
97505.000			-9.575			-3.192
97604.000			-9.574			-3.191
97704.000			-9.574			-3.191
97805.000			-9.573			-3.191
97904.000			-9.573			-3.191
98004.000			-9.573			-3.191
98104.000			-9.573			-3.191
98204.000			-9.573			-3.191
98304.000			-9.572			-3.191
98405.000			-9.571			-3.190
98504.000			-9.573			-3.191
98604.000			-9.573			-3.191
98705.000			-9.571			-3.190
98803.000			-9.570			-3.190
98905.000			-9.570			-3.190
99003.000			-9.570			-3.190
99104.000			-9.570			-3.190
99205.000			-9.570			-3.190
99304.000			-9.569			-3.190
99404.000			-9.570			-3.190
99505.000			-9.569			-3.190
99604.000			-9.568			-3.189
99703.000			-9.569			-3.190
99805.000			-9.568			-3.189
99904.000			-9.568			-3.189
100004.000			-9.569			-3.190
100105.000			-9.568			-3.189
100204.000			-9.567			-3.189
100304.000			-9.566			-3.189
100404.000			-9.566			-3.189
100504.000			-9.566			-3.189
100604.000			-9.566			-3.189
100705.000			-9.565			-3.188
100804.000			-9.565			-3.188
100904.000			-9.565			-3.188
101005.000			-9.564			-3.188
101103.000			-9.564			-3.188
101204.000			-9.564			-3.188
101305.000			-9.565			-3.188
101404.000			-9.564			-3.188
101504.000			-9.564			-3.188
101605.000			-9.563			-3.188
101704.000			-9.563			-3.188
101803.000			-9.562			-3.187
101905.000			-9.562			-3.187
102004.000			-9.562			-3.187
102105.000			-9.562			-3.187
102204.000			-9.562			-3.187
102304.000			-9.561			-3.187
102405.000			-9.560			-3.187
102503.000			-9.560			-3.187
102604.000			-9.561			-3.187
102705.000			-9.560			-3.187
102804.000			-9.561			-3.187
102904.000			-9.561			-3.187
103005.000			-9.560			-3.187
103104.000			-9.560			-3.187
103203.000			-9.559			-3.186
103305.000			-9.559			-3.186
103404.000			-9.559			-3.186
103504.000			-9.558			-3.186
103605.000			-9.558			-3.186
103704.000			-9.558			-3.186
103804.000			-9.557			-3.186
103904.000			-9.557			-3.186
104004.000			-9.558			-3.186
104103.000			-9.558			-3.186
104205.000			-9.558			-3.186
104304.000			-9.557			-3.186
104404.000			-9.557			-3.186
104505.000			-9.556			-3.185
104604.000			-9.556			-3.185
104704.000			-9.556			-3.185
104804.000			-9.555			-3.185
104904.000			-9.556			-3.185
105004.000			-9.555			-3.185
105104.000			-9.555			-3.185
105204.000			-9.554			-3.185
105305.000			-9.553			-3.184
105404.000			-9.554			-3.185
105503.000			-9.555			-3.185
105605.000			-9.554			-3.185
105704.000			-9.553			-3.184
105804.000			-9.552			-3.184
105905.000			-9.552			-3.184
106004.000			-9.552			-3.184
106104.000			-9.552			-3.184
106204.000			-9.552			-3.184
106304.000			-9.552			-3.184
106404.000			-9.552			-3.184
106505.000			-9.550			-3.183
106604.000			-9.550			-3.183
106704.000			-9.550			-3.183
106805.000			-9.550			-3.183
106903.000			-9.550			-3.183
107004.000			-9.550			-3.183
107105.000			-9.549			-3.183
107204.000			-9.551			-3.184
107304.000			-9.550			-3.183
107405.000			-9.550			-3.183
107504.000			-9.549			-3.183
107603.000			-9.548			-3.183
107705.000			-9.548			-3.183
107804.000			-9.548			-3.183
107904.000			-9.548			-3.183
108005.000			-9.547			-3.182
108104.000			-9.547			-3.182
108204.000			-9.548			-3.183
108303.000			-9.547			-3.182
108404.000			-9.546			-3.182
108504.000			-9.547			-3.182
108604.000			-9.547			-3.182
108704.000			-9.544			-3.181
108805.000			-9.545			-3.182
108904.000			-9.546			-3.182
109004.000			-9.546			-3.182
109105.000			-9.545			-3.182
109203.000			-9.544			-3.181
109304.000			-9.544			-3.181
109405.000			-9.545			-3.182
109504.000			-9.544			-3.181
109604.000			-9.543			-3.181
109705.000			-9.544			-3.181
109804.000			-9.544			-3.181
109903.000			-9.544			-3.181
110005.000			-9.543			-3.181
110104.000			-9.542			-3.181
110204.000			-9.542			-3.181
110305.000			-9.542			-3.181
110404.000			-9.542			-3.181
110504.000			-9.542			-3.181
110604.000			-9.542			-3.181
110704.000			-9.542			-3.181
110804.000			-9.540			-3.180
110905.000			-9.540			-3.180
111004.000			-9.540			-3.180
111104.000			-9.540			-3.180
111205.000			-9.540			-3.180
111303.000			-9.540			-3.180
111404.000			-9.539			-3.180
111505.000			-9.540			-3.180
111604.000			-9.538			-3.179
111705.000			-9.538			-3.179
111804.000			-9.538			-3.179
111904.000			-9.537			-3.179
112004.000			-9.538			-3.179
112104.000			-9.538			-3.179
112204.000			-9.539			-3.180
112305.000			-9.537			-3.179
112404.000			-9.537			-3.179
112504.000			-9.536			-3.179
112605.000			-9.536			-3.179
112703.000			-9.537			-3.179
112804.000			-9.536			-3.179
112905.000			-9.535			-3.178
113004.000			-9.535			-3.178
113104.000			-9.536			-3.179
113205.000			-9.535			-3.178
113304.000			-9.535			-3.178
113403.000			-9.535			-3.178
113505.000			-9.535			-3.178
113604.000			-9.534			-3.178
113704.000			-9.534			-3.178
113805.000			-9.534			-3.178
113904.000			-9.534			-3.178
114004.000			-9.534			-3.178
114104.000			-9.534			-3.178
114204.000			-9.535			-3.178
114304.000			-9.534			-3.178
114405.000			-9.532			-3.177
114504.000			-9.532			-3.177
114604.000			-9.532			-3.177
114705.000			-9.532			-3.177
114803.000			-9.532			-3.177
114905.000			-9.532			-3.177
115004.000			-9.531			-3.177
115104.000			-9.530			-3.177
115205.000			-9.531			-3.177
115304.000			-9.532			-3.177
115404.000			-9.531			-3.177
115504.000			-9.531			-3.177
115604.000			-9.531			-3.177
115704.000			-9.530			-3.177
115805.000			-9.529			-3.176
115904.000			-9.528			-3.176
116004.000			-9.529			-3.176
116105.000			-9.529			-3.176
116203.000			-9.529			-3.176
116304.000			-9.528			-3.176
116405.000			-9.528			-3.176
116504.000			-9.528			-3.176
116604.000			-9.528			-3.176
116705.000			-9.527			-3.176
116804.000			-9.526			-3.175
116903.000			-9.527			-3.176
117005.000			-9.527			-3.176
117104.000			-9.526			-3.175
117204.000			-9.526			-3.175
117305.000			-9.526			-3.175
117404.000			-9.527			-3.176
117504.000			-9.525			-3.175
117605.000			-9.525			-3.175
117704.000			-9.526			-3.175
117803.000			-9.526			-3.175
117905.000			-9.525			-3.175
118004.000			-9.524			-3.175
118105.000			-9.524			-3.175
118204.000			-9.524			-3.175
118304.000			-9.523			-3.174
118405.000			-9.522			-3.174
118503.000			-9.523			-3.174
118604.000			-9.524			-3.175
118705.000			-9.524			-3.175
118804.000			-9.522			-3.174
118904.000			-9.522			-3.174
119005.000			-9.521			-3.174
119104.000			-9.521			-3.174
119203.000			-9.521			-3.174
119305.000			-9.521			-3.174
119404.000			-9.521			-3.174
119504.000			-9.521			-3.174
119605.000			-9.521			-3.174
119704.000			-9.521			-3.174
119804.000			-9.520			-3.173
119904.000			-9.520			-3.173
120004.000			-9.519			-3.173
120104.000			-9.519			-3.173
120205.000			-9.520			-3.173
120304.000			-9.520			-3.173
120404.000			-9.519			-3.173
120505.000			-9.519			-3.173
120603.000			-9.519			-3.173
120704.000			-9.518			-3.173
120805.000			-9.518			-3.173
120904.000			-9.518			-3.173
121004.000			-9.518			-3.173
121104.000			-9.518			-3.173
121204.000			-9.517			-3.172
121304.000			-9.516			-3.172
121404.000			-9.517			-3.172
121504.000			-9.517			-3.172
121605.000			-9.517			-3.172
121704.000			-9.517			-3.172
121804.000			-9.516			-3.172
121905.000			-9.516			-3.172
122003.000			-9.517			-3.172
122104.000			-9.516			-3.172
122205.000			-9.515			-3.172
122304.000			-9.515			-3.172
122404.000			-9.515			-3.172
122505.000			-9.515			-3.172
122604.000			-9.514			-3.171
122703.000			-9.514			-3.171
122805.000			-9.514			-3.171
122903.000			-9.514			-3.171
123004.000			-9.513			-3.171
123105.000			-9.513			-3.171
123204.000			-9.514			-3.171
123304.000			-9.513			-3.171
123405.000			-9.513			-3.171
123504.000			-9.513			-3.171
123603.000			-9.513			-3.171
123705.000			-9.512			-3.171
123804.000			-9.512			-3.171
123904.000			-9.512			-3.171
124005.000			-9.512			-3.171
124104.000			-9.512			-3.171
124204.000			-9.513			-3.171
124303.000			-9.512			-3.171
124404.000			-9.511			-3.170
124505.000			-9.511			-3.170
124604.000			-9.511			-3.170
124704.000			-9.512			-3.171
124805.000			-9.509			-3.170
124904.000			-9.509			-3.170
125003.000			-9.509			-3.170
125105.000			-9.509			-3.170
125204.000			-9.510			-3.170
125304.000			-9.509			-3.170
125405.000			-9.508			-3.169
125504.000			-9.508			-3.169
125604.000			-9.509			-3.170
125704.000			-9.508			-3.169
125804.000			-9.507			-3.169
125904.000			-9.507			-3.169
126005.000			-9.508			-3.169
126104.000			-9.508			-3.169
126204.000			-9.509			-3.170
126305.000			-9.508			-3.169
126403.000			-9.507			-3.169
126504.000			-9.507			-3.169
126605.000			-9.507			-3.169
126704.000			-9.507			-3.169
126804.000			-9.506			-3.169
126905.000			-9.505			-3.168
127004.000			-9.505			-3.168
127103.000			-9.505			-3.168
127205.000			-9.505			-3.168
127304.000			-9.505			-3.168
127404.000			-9.505			-3.168
127505.000			-9.505			-3.168
127604.000			-9.506			-3.169
127705.000			-9.504			-3.168
127804.000			-9.504			-3.168
127904.000			-9.504			-3.168
128004.000			-9.504			-3.168
128104.000			-9.504			-3.168
128204.000			-9.504			-3.168
128305.000			-9.503			-3.168
128404.000			-9.503			-3.168
128504.000			-9.502			-3.167
128605.000			-9.502			-3.167
128703.000			-9.502			-3.167
128804.000			-9.502			-3.167
128905.000			-9.503			-3.168
129004.000			-9.502			-3.167
129104.000			-9.502			-3.167
129205.000			-9.501			-3.167
129304.000			-9.501			-3.167
129403.000			-9.501			-3.167
129505.000			-9.501			-3.167
129604.000			-9.501			-3.167
129704.000			-9.501			-3.167
129805.000			-9.501			-3.167
129904.000			-9.500			-3.167
130004.000			-9.500			-3.167
130104.000			-9.500			-3.167
130204.000			-9.500			-3.167
130304.000			-9.499			-3.166
130405.000			-9.499			-3.166
130504.000			-9.499			-3.166
130604.000			-9.500			-3.167
130705.000			-9.499			-3.166
130803.000			-9.498			-3.166
130905.000			-9.499			-3.166
131003.000			-9.499			-3.166
131104.000			-9.498			-3.166
131205.000			-9.498			-3.166
131304.000			-9.497			-3.166
131404.000			-9.497			-3.166
131505.000			-9.497			-3.166
131604.000			-9.497			-3.166
131703.000			-9.497			-3.166
131805.000			-9.497			-3.166
131903.000			-9.496			-3.165
132004.000			-9.496			-3.165
132105.000			-9.495			-3.165
132204.000			-9.495			-3.165
132304.000			-9.495			-3.165
132405.000			-9.494			-3.165
132504.000			-9.495			-3.165
132603.000			-9.495			-3.165
132705.000			-9.495			-3.165
132804.000			-9.494			-3.165
132904.000			-9.494			-3.165
133005.000			-9.493			-3.164
133104.000			-9.492			-3.164
133204.000			-9.493			-3.164
133305.000			-9.494			-3.165
133404.000			-9.493			-3.164
133503.000			-9.492			-3.164
133605.000			-9.492			-3.164
133704.000			-9.492			-3.164
133804.000			-9.493			-3.164
133905.000			-9.492			-3.164
134004.000			-9.492			-3.164
134105.000			-9.492			-3.164
134204.000			-9.492			-3.164
134304.000			-9.491			-3.164
134404.000			-9.491			-3.164
134504.000			-9.491			-3.164
134604.000			-9.491			-3.164
134705.000			-9.491			-3.164
134804.000			-9.491			-3.164
134904.000			-9.491			-3.164
135005.000			-9.491			-3.164
135104.000			-9.491			-3.164
135204.000			-9.491			-3.164
135304.000			-9.490			-3.163
135404.000			-9.490			-3.163
135504.000			-9.490			-3.163
135605.000			-9.489			-3.163
135704.000			-9.489			-3.163
135804.000			-9.489			-3.163
135905.000			-9.489			-3.163
136004.000			-9.489			-3.163
136104.000			-9.490			-3.163
136204.000			-9.489			-3.163
136304.000			-9.488			-3.163
136403.000			-9.488			-3.163
136505.000			-9.486			-3.162
136604.000			-9.486			-3.162
136704.000			-9.486			-3.162
136805.000			-9.487			-3.162
136904.000			-9.487			-3.162
137004.000			-9.487			-3.162
137103.000			-9.487			-3.162
137204.000			-9.487			-3.162
137304.000			-9.486			-3.162
137404.000			-9.487			-3.162
137504.000			-9.487			-3.162
137605.000			-9.486			-3.162
137704.000			-9.486			-3.162
137804.000			-9.486			-3.162
137905.000			-9.485			-3.162
138004.000			-9.485			-3.162
138104.000			-9.484			-3.161
138204.000			-9.485			-3.162
138304.000			-9.485			-3.162
138404.000			-9.485			-3.162
138505.000			-9.484			-3.161
138604.000			-9.483			-3.161
138704.000			-9.482			-3.161
138805.000			-9.483			-3.161
138904.000			-9.484			-3.161
139004.000			-9.482			-3.161
139104.000			-9.483			-3.161
139204.000			-9.482			-3.161
139304.000			-9.482			-3.161
139405.000			-9.482			-3.161
139504.000			-9.482			-3.161
139604.000			-9.482			-3.161
139705.000			-9.481			-3.160
139804.000			-9.480			-3.160
139904.000			-9.481			-3.160
140004.000			-9.481			-3.160
140104.000			-9.483			-3.161
140204.000			-9.481			-3.160
140304.000			-9.480			-3.160
140404.000			-9.480			-3.160
140505.000			-9.481			-3.160
140604.000			-9.481			-3.160
140704.000			-9.480			-3.160
140805.000			-9.479			-3.160
140903.000			-9.479			-3.160
141004.000			-9.479			-3.160
141105.000			-9.478			-3.159
141204.000			-9.479			-3.160
141304.000			-9.480			-3.160
141405.000			-9.479			-3.160
141504.000			-9.479			-3.160
141604.000			-9.479			-3.160
141705.000			-9.478			-3.159
141803.000			-9.477			-3.159
141904.000			-9.478			-3.159
142005.000			-9.478			-3.159
142104.000			-9.479			-3.160
142204.000			-9.479			-3.160
142305.000			-9.477			-3.159
142404.000			-9.476			-3.159
142504.000			-9.476			-3.159
142605.000			-9.476			-3.159
142703.000			-9.476			-3.159
142804.000			-9.477			-3.159
142905.000			-9.477			-3.159
143004.000			-9.475			-3.158
143104.000			-9.476			-3.159
143205.000			-9.476			-3.159
143304.000			-9.475			-3.158
143403.000			-9.476			-3.159
143505.000			-9.476			-3.159
143603.000			-9.474			-3.158
143705.000			-9.474			-3.158
143804.000			-9.474			-3.158
143904.000			-9.474			-3.158
144005.000			-9.474			-3.158
144104.000			-9.474			-3.158
144204.000			-9.473			-3.158
144304.000			-9.473			-3.158
144404.000			-9.473			-3.158
144504.000			-9.473			-3.158
144605.000			-9.474			-3.158
144704.000			-9.473			-3.158
144804.000			-9.473			-3.158
144905.000			-9.472			-3.157
145004.000			-9.473			-3.158
145104.000			-9.472			-3.157
145204.000			-9.472			-3.157
145304.000			-9.472			-3.157
145404.000			-9.471			-3.157
145505.000			-9.471			-3.157
145604.000			-9.470			-3.157
145704.000			-9.470			-3.157
145805.000			-9.472			-3.157
145904.000			-9.471			-3.157
146004.000			-9.471			-3.157
146104.000			-9.470			-3.157
146204.000			-9.469			-3.156
146304.000			-9.469			-3.156
146405.000			-9.469			-3.156
146504.000			-9.469			-3.156
146604.000			-9.469			-3.156
146705.000			-9.470			-3.157
146804.000			-9.469			-3.156
146905.000			-9.469			-3.156
147003.000			-9.469			-3.156
147104.000			-9.468			-3.156
147204.000			-9.469			-3.156
147304.000			-9.469			-3.156
147404.000			-9.468			-3.156
147505.000			-9.468			-3.156
147604.000			-9.467			-3.156
147704.000			-9.467			-3.156
147805.000			-9.467			-3.156
147904.000			-9.467			-3.156
148004.000			-9.466			-3.155
148104.000			-9.467			-3.156
148204.000			-9.467			-3.156
148304.000			-9.466			-3.155
148405.000			-9.466			-3.155
148504.000			-9.466			-3.155
148604.000			-9.466			-3.155
148705.000			-9.465			-3.155
148804.000			-9.466			-3.155
148904.000			-9.464			-3.155
149004.000			-9.465			-3.155
149104.000			-9.464			-3.155
149204.000			-9.465			-3.155
149305.000			-9.465			-3.155
149404.000			-9.464			-3.155
149504.000			-9.464			-3.155
149605.000			-9.465			-3.155
149704.000			-9.464			-3.155
149804.000			-9.464			-3.155
149903.000			-9.464			-3.155
150004.000			-9.463			-3.154
150104.000			-9.463			-3.154
150204.000			-9.462			-3.154
150304.000			-9.462			-3.154
150405.000			-9.462			-3.154
150504.000			-9.462			-3.154
150604.000			-9.463			-3.154
150705.000			-9.463			-3.154
150803.000			-9.463			-3.154
150904.000			-9.462			-3.154
151005.000			-9.461			-3.154
151104.000			-9.463			-3.154
151204.000			-9.462			-3.154
151305.000			-9.462			-3.154
151404.000			-9.462			-3.154
151504.000			-9.462			-3.154
151605.000			-9.460			-3.153
151703.000			-9.460			-3.153
151804.000			-9.461			-3.154
151905.000			-9.461			-3.154
152004.000			-9.459			-3.153
152104.000			-9.459			-3.153
152205.000			-9.460			-3.153
152304.000			-9.460			-3.153
152403.000			-9.459			-3.153
152505.000			-9.460			-3.153
152603.000			-9.459			-3.153
152704.000			-9.459			-3.153
152805.000			-9.459			-3.153
152904.000			-9.459			-3.153
153004.000			-9.459			-3.153
153104.000			-9.459			-3.153
153204.000			-9.460			-3.153
153305.000			-9.457			-3.152
153404.000			-9.457			-3.152
153503.000			-9.457			-3.152
153605.000			-9.457			-3.152
153704.000			-9.457			-3.152
153804.000			-9.457			-3.152
153905.000			-9.457			-3.152
154004.000			-9.457			-3.152
154104.000			-9.456			-3.152
154205.000			-9.456			-3.152
154304.000			-9.456			-3.152
154403.000			-9.456			-3.152
154505.000			-9.455			-3.152
154604.000			-9.456			-3.152
154704.000			-9.456			-3.152
154805.000			-9.456			-3.152
154904.000			-9.456			-3.152
155004.000			-9.456			-3.152
155105.000			-9.455			-3.152
155204.000			-9.455			-3.152
155303.000			-9.455			-3.152
155405.000			-9.454			-3.151
155504.000			-9.454			-3.151
155604.000			-9.454			-3.151
155705.000			-9.454			-3.151
155804.000			-9.454			-3.151
155904.000			-9.454			-3.151
156005.000			-9.454			-3.151
156104.000			-9.453			-3.151
156203.000			-9.453			-3.151
156305.000			-9.454			-3.151
156404.000			-9.454			-3.151
156505.000			-9.453			-3.151
156604.000			-9.453			-3.151
156704.000			-9.453			-3.151
156805.000			-9.453			-3.151
156904.000			-9.452			-3.151
157004.000			-9.451			-3.150
157104.000			-9.452			-3.151
157204.000			-9.451			-3.150
157304.000			-9.451			-3.150
157405.000			-9.452			-3.151
157504.000			-9.451			-3.150
157604.000			-9.450			-3.150
157705.000			-9.450			-3.150
157804.000			-9.451			-3.150
157904.000			-9.451			-3.150
158004.000			-9.451			-3.150
158104.000			-9.451			-3.150
158204.000			-9.450			-3.150
158305.000			-9.450			-3.150
158404.000			-9.451			-3.150
158504.000			-9.450			-3.150
158605.000			-9.449			-3.150
158704.000			-9.449			-3.150
158804.000			-9.448			-3.149
158904.000			-9.449			-3.150
159004.000			-9.450			-3.150
159104.000			-9.449			-3.150
159205.000			-9.448			-3.149
159304.000			-9.448			-3.149
159404.000			-9.448			-3.149
159505.000			-9.448			-3.149
159604.000			-9.448			-3.149
159705.000			-9.448			-3.149
159803.000			-9.447			-3.149
159904.000			-9.447			-3.149
160005.000			-9.447			-3.149
160104.000			-9.447			-3.149
160204.000			-9.446			-3.149
160305.000			-9.446			-3.149
160404.000			-9.448			-3.149
160504.000			-9.448			-3.149
160605.000			-9.447			-3.149
160703.000			-9.446			-3.149
160804.000			-9.445			-3.148
160905.000			-9.445			-3.148
161004.000			-9.446			-3.149
161104.000			-9.445			-3.148
161205.000			-9.445			-3.148
161304.000			-9.445			-3.148
161404.000			-9.446			-3.149
161505.000			-9.446			-3.149
161603.000			-9.446			-3.149
161704.000			-9.446			-3.149
161805.000			-9.445			-3.148
161904.000			-9.444			-3.148
162004.000			-9.444			-3.148
162105.000			-9.444			-3.148
162204.000			-9.445			-3.148
162303.000			-9.444			-3.148
162405.000			-9.443			-3.148
162503.000			-9.444			-3.148
162604.000			-9.445			-3.148
162705.000			-9.444			-3.148
162804.000			-9.444			-3.148
162905.000			-9.443			-3.148
163004.000			-9.442			-3.147
163104.000			-9.443			-3.148
163204.000			-9.443			-3.148
163304.000			-9.442			-3.147
163403.000			-9.442			-3.147
163505.000			-9.441			-3.147
163604.000			-9.441			-3.147
163704.000			-9.442			-3.147
163805.000			-9.441			-3.147
163904.000			-9.441			-3.147
164004.000			-9.442			-3.147
164104.000			-9.442			-3.147
164204.000			-9.442			-3.147
164304.000			-9.441			-3.147
164405.000			-9.441			-3.147
164504.000			-9.439			-3.146
164604.000			-9.440			-3.147
164705.000			-9.441			-3.147
164804.000			-9.441			-3.147
164904.000			-9.440			-3.147
165004.000			-9.440			-3.147
165104.000			-9.440			-3.147
165204.000			-9.439			-3.146
165305.000			-9.439			-3.146
165404.000			-9.440			-3.147
165504.000			-9.440			-3.147
165605.000			-9.439			-3.146
165704.000			-9.438			-3.146
165804.000			-9.438			-3.146
165903.000			-9.438			-3.146
166004.000			-9.437			-3.146
166104.000			-9.438			-3.146
166204.000			-9.437			-3.146
166304.000			-9.437			-3.146
166405.000			-9.437			-3.146
166504.000			-9.436			-3.145
166604.000			-9.436			-3.145
166705.000			-9.436			-3.145
166803.000			-9.436			-3.145
166904.000			-9.436			-3.145
167004.000			-9.436			-3.145
167104.000			-9.437			-3.146
167204.000			-9.436			-3.145
167305.000			-9.436			-3.145
167404.000			-9.436			-3.145
167504.000			-9.435			-3.145
167605.000			-9.435			-3.145
167703.000			-9.436			-3.145
167804.000			-9.435			-3.145
167904.000			-9.435			-3.145
168004.000			-9.434			-3.145
168104.000			-9.434			-3.145
168205.000			-9.435			-3.145
168304.000			-9.434			-3.145
168404.000			-9.434			-3.145
168505.000			-9.434			-3.145
168603.000			-9.433			-3.144
168704.000			-9.432			-3.144
168804.000			-9.432			-3.144
168904.000			-9.432			-3.144
169004.000			-9.433			-3.144
169104.000			-9.432			-3.144
169204.000			-9.431			-3.144
169305.000			-9.432			-3.144
169404.000			-9.433			-3.144
169503.000			-9.432			-3.144
169605.000			-9.432			-3.144
169703.000			-9.432			-3.144
169804.000			-9.431			-3.144
169905.000			-9.430			-3.143
170004.000			-9.431			-3.144
170104.000			-9.432			-3.144
170205.000			-9.431			-3.144
170304.000			-9.430			-3.143
170403.000			-9.430			-3.143
170505.000			-9.430			-3.143
170604.000			-9.430			-3.143
170704.000			-9.430			-3.143
170805.000			-9.430			-3.143
170904.000			-9.430			-3.143
171004.000			-9.429			-3.143
171105.000			-9.429			-3.143
171204.000			-9.429			-3.143
171303.000			-9.429			-3.143
171405.000			-9.429			-3.143
171504.000			-9.429			-3.143
171604.000			-9.429			-3.143
171705.000			-9.428			-3.143
171804.000			-9.429			-3.143
171904.000			-9.429			-3.143
172005.000			-9.428			-3.143
172104.000			-9.428			-3.143
172203.000			-9.429			-3.143
172305.000			-9.428			-3.143
172404.000			-9.428			-3.143
172505.000			-9.428			-3.143
172604.000			-9.428			-3.143
172704.000			-9.428			-3.143
172805.000			-9.428			-3.143
172904.000			-9.426			-3.142
173004.000			-9.427			-3.142
173104.000			-9.427			-3.142
173204.000			-9.426			-3.142
173304.000			-9.426			-3.142
173405.000			-9.427			-3.142
173504.000			-9.427			-3.142
173604.000			-9.427			-3.142
173705.000			-9.426			-3.142
173804.000			-9.426			-3.142
173904.000			-9.425			-3.142
174004.000			-9.426			-3.142
174104.000			-9.426			-3.142
174204.000			-9.426			-3.142
174305.000			-9.426			-3.142
174404.000			-9.426			-3.142
174504.000			-9.425			-3.142
174605.000			-9.425			-3.142
174704.000			-9.424			-3.141
174804.000			-9.424			-3.141
174904.000			-9.425			-3.142
175004.000			-9.425			-3.142
175104.000			-9.425			-3.142
175205.000			-9.424			-3.141
175304.000			-9.422			-3.141
175404.000			-9.423			-3.141
175505.000			-9.423			-3.141
175604.000			-9.422			-3.141
175705.000			-9.422			-3.141
175803.000			-9.422			-3.141
175904.000			-9.422			-3.141
176005.000			-9.422			-3.141
176104.000			-9.422			-3.141
176204.000			-9.422			-3.141
176305.000			-9.422			-3.141
176404.000			-9.421			-3.140
176504.000			-9.421			-3.140
176605.000			-9.419			-3.140
176703.000			-9.420			-3.140
176804.000			-9.420			-3.140
176905.000			-9.419			-3.140
177004.000			-9.419			-3.140
177104.000			-9.420			-3.140
177205.000			-9.420			-3.140
177304.000			-9.420			-3.140
177404.000			-9.419			-3.140
177505.000			-9.420			-3.140
177603.000			-9.419			-3.140
177704.000			-9.418			-3.139
177805.000			-9.419			-3.140
177904.000			-9.419			-3.140
178004.000			-9.419			-3.140
178105.000			-9.419			-3.140
178204.000			-9.418			-3.139
178304.000			-9.418			-3.139
178405.000			-9.419			-3.140
178503.000			-9.419			-3.140
178604.000			-9.418			-3.139
178703.000			-9.418			-3.139
178804.000			-9.418			-3.139
178905.000			-9.417			-3.139
179004.000			-9.417			-3.139
179104.000			-9.417			-3.139
179205.000			-9.418			-3.139
179304.000			-9.418			-3.139
179404.000			-9.417			-3.139
179505.000			-9.417			-3.139
179603.000			-9.416			-3.139
179704.000			-9.417			-3.139
179805.000			-9.417			-3.139
179904.000			-9.417			-3.139
180004.000			-9.417			-3.139
180105.000			-9.417			-3.139
180204.000			-9.416			-3.139
180304.000			-9.415			-3.138
180405.000			-9.415			-3.138
180503.000			-9.417			-3.139
180604.000			-9.415			-3.138
180705.000			-9.415			-3.138
180804.000			-9.414			-3.138
180904.000			-9.415			-3.138
181005.000			-9.415			-3.138
181104.000			-9.414			-3.138
181203.000			-9.415			-3.138
181305.000			-9.415			-3.138
181403.000			-9.414			-3.138
181504.000			-9.414			-3.138
181605.000			-9.414			-3.138
181704.000			-9.414			-3.138
181804.000			-9.413			-3.138
181904.000			-9.414			-3.138
182004.000			-9.413			-3.138
182104.000			-9.413			-3.138
182204.000			-9.413			-3.138
182303.000			-9.412			-3.137
182405.000			-9.412			-3.137
182504.000			-9.412			-3.137
182604.000			-9.412			-3.137
182705.000			-9.412			-3.137
182804.000			-9.413			-3.138
182904.000			-9.412			-3.137
183004.000			-9.411			-3.137
183104.000			-9.411			-3.137
183204.000			-9.411			-3.137
183305.000			-9.412			-3.137
183404.000			-9.412			-3.137
183504.000			-9.411			-3.137
183605.000			-9.412			-3.137
183703.000			-9.412			-3.137
183804.000			-9.412			-3.137
183904.000			-9.411			-3.137
184004.000			-9.411			-3.137
184104.000			-9.411			-3.137
184205.000			-9.411			-3.137
184304.000			-9.410			-3.137
184404.000			-9.410			-3.137
184505.000			-9.410			-3.137
184603.000			-9.409			-3.136
184704.000			-9.409			-3.136
184805.000			-9.409			-3.136
184904.000			-9.409			-3.136
185004.000			-9.409			-3.136
185104.000			-9.409			-3.136
185204.000			-9.408			-3.136
185305.000			-9.409			-3.136
185404.000			-9.410			-3.137
185503.000			-9.409			-3.136
185605.000			-9.409			-3.136
185704.000			-9.409			-3.136
185804.000			-9.408			-3.136
185905.000			-9.408			-3.136
186004.000			-9.408			-3.136
186104.000			-9.408			-3.136
186205.000			-9.407			-3.136
186304.000			-9.406			-3.135
186403.000			-9.406			-3.135
186505.000			-9.407			-3.136
186604.000			-9.408			-3.136
186704.000			-9.408			-3.136
186805.000			-9.407			-3.136
186904.000			-9.407			-3.136
187004.000			-9.406			-3.135
187105.000			-9.407			-3.136
187204.000			-9.407			-3.136
187303.000			-9.406			-3.135
187405.000			-9.406			-3.135
187504.000			-9.406			-3.135
187604.000			-9.406			-3.135
187705.000			-9.407			-3.136
187804.000			-9.405			-3.135
187904.000			-9.405			-3.135
188005.000			-9.405			-3.135
188104.000			-9.405			-3.135
188203.000			-9.404			-3.135
188305.000			-9.405			-3.135
188404.000			-9.405			-3.135
188505.000			-9.405			-3.135
188604.000			-9.405			-3.135
188704.000			-9.406			-3.135
188805.000			-9.406			-3.135
188904.000			-9.405			-3.135
189004.000			-9.405			-3.135
189104.000			-9.403			-3.134
189204.000			-9.404			-3.135
189303.000			-9.405			-3.135
189405.000			-9.405			-3.135
189504.000			-9.404			-3.135
189604.000			-9.404			-3.135
189705.000			-9.404			-3.135
189804.000			-9.403			-3.134
189904.000			-9.402			-3.134
190004.000			-9.403			-3.134
190104.000			-9.403			-3.134
190203.000			-9.403			-3.134
190305.000			-9.404			-3.135
190404.000			-9.403			-3.134
190504.000			-9.401			-3.134
190605.000			-9.402			-3.134
190704.000			-9.402			-3.134
190804.000			-9.401			-3.134
190904.000			-9.401			-3.134
191004.000			-9.401			-3.134
191104.000			-9.401			-3.134
191205.000			-9.402			-3.134
191304.000			-9.401			-3.134
191404.000			-9.401			-3.134
191505.000			-9.401			-3.134
191604.000			-9.401			-3.134
191705.000			-9.401			-3.134
191803.000			-9.401			-3.134
191904.000			-9.401			-3.134
192005.000			-9.400			-3.133
192104.000			-9.400			-3.133
192204.000			-9.401			-3.134
192305.000			-9.401			-3.134
192404.000			-9.401			-3.134
192504.000			-9.400			-3.133
192605.000			-9.399			-3.133
192703.000			-9.399			-3.133
192804.000			-9.400			-3.133
192905.000			-9.400			-3.133
193004.000			-9.400			-3.133
193104.000			-9.399			-3.133
193205.000			-9.400			-3.133
193304.000			-9.400			-3.133
193404.000			-9.399			-3.133
193505.000			-9.399			-3.133
193603.000			-9.399			-3.133
193704.000			-9.399			-3.133
193805.000			-9.398			-3.133
193904.000			-9.399			-3.133
194004.000			-9.399			-3.133
194105.000			-9.399			-3.133
194204.000			-9.398			-3.133
194304.000			-9.398			-3.133
194405.000			-9.398			-3.133
194504.000			-9.398			-3.133
194604.000			-9.398			-3.133
194703.000			-9.397			-3.132
194804.000			-9.396			-3.132
194905.000			-9.396			-3.132
195004.000			-9.397			-3.132
195104.000			-9.397			-3.132
195205.000			-9.397			-3.132
195304.000			-9.397			-3.132
195404.000			-9.397			-3.132
195505.000			-9.396			-3.132
195603.000			-9.397			-3.132
195704.000			-9.396			-3.132
195805.000			-9.395			-3.132
195904.000			-9.395			-3.132
196004.000			-9.395			-3.132
196105.000			-9.395			-3.132
196204.000			-9.395			-3.132
196304.000			-9.395			-3.132
196405.000			-9.395			-3.132
196503.000			-9.395			-3.132
196604.000			-9.397			-3.132
196704.000			-9.396			-3.132
196804.000			-9.396			-3.132
196904.000			-9.395			-3.132
197005.000			-9.393			-3.131
197104.000			-9.394			-3.131
197204.000			-9.394			-3.131
197305.000			-9.393			-3.131
197404.000			-9.394			-3.131
197504.000			-9.394			-3.131
197604.000			-9.393			-3.131
197704.000			-9.392			-3.131
197804.000			-9.393			-3.131
197904.000			-9.393			-3.131
198004.000			-9.392			-3.131
198105.000			-9.391			-3.130
198204.000			-9.391			-3.130
198304.000			-9.392			-3.131
198405.000			-9.392			-3.131
198503.000			-9.391			-3.130
198604.000			-9.391			-3.130
198705.000			-9.391			-3.130
198804.000			-9.391			-3.130
198904.000			-9.391			-3.130
199005.000			-9.390			-3.130
199104.000			-9.389			-3.130
199204.000			-9.389			-3.130
199305.000			-9.389			-3.130
199403.000			-9.390			-3.130
199504.000			-9.389			-3.130
199604.000			-9.388			-3.129
199704.000			-9.388			-3.129
199804.000			-9.387			-3.129
199905.000			-9.388			-3.129
200004.000			-9.388			-3.129
200104.000			-9.389			-3.130
200205.000			-9.389			-3.130
200303.000			-9.389			-3.130
200404.000			-9.389			-3.130
200504.000			-9.388			-3.129
200604.000			-9.389			-3.130
200704.000			-9.388			-3.129
200805.000			-9.388			-3.129
200904.000			-9.389			-3.130
201004.000			-9.389			-3.130
201105.000			-9.389			-3.130
201203.000			-9.388			-3.129
201305.000			-9.388			-3.129
201403.000			-9.389			-3.130
201504.000			-9.388			-3.129
201605.000			-9.389			-3.130
201704.000			-9.389			-3.130
201804.000			-9.389			-3.130
201905.000			-9.388			-3.129
202004.000			-9.388			-3.129
202103.000			-9.387			-3.129
202205.000			-9.387			-3.129
202304.000			-9.387			-3.129
202404.000			-9.388			-3.129
202505.000			-9.388			-3.129
202604.000			-9.388			-3.129
202704.000			-9.388			-3.129
202805.000			-9.388			-3.129
202904.000			-9.386			-3.129
203003.000			-9.387			-3.129
203105.000			-9.386			-3.129
203204.000			-9.387			-3.129
203304.000			-9.388			-3.129
203405.000			-9.388			-3.129
203504.000			-9.386			-3.129
203604.000			-9.385			-3.128
203705.000			-9.386			-3.129
203804.000			-9.387			-3.129
203903.000			-9.385			-3.128
204005.000			-9.386			-3.129
204104.000			-9.386			-3.129
204204.000			-9.386			-3.129
204305.000			-9.386			-3.129
204404.000			-9.387			-3.129
204505.000			-9.387			-3.129
204604.000			-9.385			-3.128
204704.000			-9.385			-3.128
204804.000			-9.386			-3.129
204904.000			-9.386			-3.129
205004.000			-9.385			-3.128
205105.000			-9.384			-3.128
205204.000			-9.384			-3.128
205304.000			-9.385			-3.128
205405.000			-9.384			-3.128
205504.000			-9.383			-3.128
205604.000			-9.383			-3.128
205704.000			-9.385			-3.128
205804.000			-9.385			-3.128
205904.000			-9.383			-3.128
206005.000			-9.383			-3.128
206104.000			-9.383			-3.128
206204.000			-9.384			-3.128
206305.000			-9.384			-3.128
206404.000			-9.383			-3.128
206504.000			-9.383			-3.128
206604.000			-9.383			-3.128
206704.000			-9.383			-3.128
206804.000			-9.384			-3.128
206905.000			-9.383			-3.128
207004.000			-9.383			-3.128
207104.000			-9.383			-3.128
207205.000			-9.383			-3.128
207303.000			-9.381			-3.127
207404.000			-9.383			-3.128
207505.000			-9.383			-3.128
207604.000			-9.382			-3.127
207705.000			-9.381			-3.127
207804.000			-9.381			-3.127
207904.000			-9.381			-3.127
208005.000			-9.381			-3.127
208104.000			-9.382			-3.127
208203.000			-9.381			-3.127
208305.000			-9.380			-3.127
208404.000			-9.379			-3.126
208504.000			-9.380			-3.127
208605.000			-9.381			-3.127
208704.000			-9.380			-3.127
208804.000			-9.380			-3.127
208905.000			-9.380			-3.127
209004.000			-9.380			-3.127
209103.000			-9.380			-3.127
209205.000			-9.380			-3.127
209304.000			-9.380			-3.127
209404.000			-9.380			-3.127
209505.000			-9.380			-3.127
209604.000			-9.380			-3.127
209704.000			-9.379			-3.126
209805.000			-9.378			-3.126
209904.000			-9.378			-3.126
210003.000			-9.379			-3.126
210105.000			-9.379			-3.126
210204.000			-9.379			-3.126
210304.000			-9.378			-3.126
210405.000			-9.379			-3.126
210504.000			-9.379			-3.126
210604.000			-9.379			-3.126
210704.000			-9.378			-3.126
210804.000			-9.378			-3.126
210904.000			-9.378			-3.126
211004.000			-9.378			-3.126
211104.000			-9.377			-3.126
211205.000			-9.377			-3.126
211304.000			-9.377			-3.126
211404.000			-9.378			-3.126
211505.000			-9.378			-3.126
211604.000			-9.377			-3.126
211704.000			-9.376			-3.125
211804.000			-9.377			-3.126
211904.000			-9.377			-3.126
212004.000			-9.375			-3.125
212105.000			-9.375			-3.125
212204.000			-9.376			-3.125
212304.000			-9.376			-3.125
212405.000			-9.376			-3.125
212503.000			-9.376			-3.125
212604.000			-9.376			-3.125
212704.000			-9.377			-3.126
212804.000			-9.376			-3.125
212904.000			-9.375			-3.125
213005.000			-9.375			-3.125
213104.000			-9.375			-3.125
213204.000			-9.374			-3.125
213305.000			-9.374			-3.125
213403.000			-9.374			-3.125
213504.000			-9.375			-3.125
213605.000			-9.375			-3.125
213704.000			-9.375			-3.125
213804.000			-9.375			-3.125
213904.000			-9.374			-3.125
214004.000			-9.374			-3.125
214105.000			-9.374			-3.125
214204.000			-9.374			-3.125
214303.000			-9.375			-3.125
214405.000			-9.375			-3.125
214504.000			-9.374			-3.125
214604.000			-9.373			-3.124
214705.000			-9.373			-3.124
214804.000			-9.374			-3.125
214904.000			-9.374			-3.125
215004.000			-9.373			-3.124
215104.000			-9.373			-3.124
215203.000			-9.372			-3.124
215305.000			-9.373			-3.124
215404.000			-9.372			-3.124
215504.000			-9.373			-3.124
215605.000			-9.373			-3.124
215704.000			-9.373			-3.124
215804.000			-9.373			-3.124
215904.000			-9.373			-3.124
216004.000			-9.373			-3.124
216103.000			-9.372			-3.124
216205.000			-9.371			-3.124
216304.000			-9.370			-3.123
216404.000			-9.370			-3.123
216505.000			-9.370			-3.123
216604.000			-9.370			-3.123
216704.000			-9.370			-3.123
216804.000			-9.371			-3.124
216904.000			-9.370			-3.123
217004.000			-9.370			-3.123
217104.000			-9.371			-3.124
217204.000			-9.371			-3.124
217305.000			-9.370			-3.123
217404.000			-9.370			-3.123
217504.000			-9.370			-3.123
217605.000			-9.369			-3.123
217703.000			-9.369			-3.123
217804.000			-9.369			-3.123
217905.000			-9.369			-3.123
218004.000			-9.368			-3.123
218104.000			-9.368			-3.123
218205.000			-9.368			-3.123
218304.000			-9.368			-3.123
218404.000			-9.367			-3.122
218505.000			-9.367			-3.122
218603.000			-9.368			-3.123
218704.000			-9.368			-3.123
218805.000			-9.368			-3.123
218904.000			-9.368			-3.123
219004.000			-9.368			-3.123
219105.000			-9.368			-3.123
219204.000			-9.368			-3.123
219304.000			-9.367			-3.122
219405.000			-9.366			-3.122
219503.000			-9.367			-3.122
219604.000			-9.367			-3.122
219705.000			-9.367			-3.122
219804.000			-9.367			-3.122
219904.000			-9.366			-3.122
220005.000			-9.366			-3.122
220104.000			-9.366			-3.122
220204.000			-9.365			-3.122
220305.000			-9.366			-3.122
220403.000			-9.366			-3.122
220505.000			-9.365			-3.122
220604.000			-9.365			-3.122
220704.000			-9.365			-3.122
220805.000			-9.365			-3.122
220904.000			-9.365			-3.122
221004.000			-9.365			-3.122
221105.000			-9.364			-3.121
221204.000			-9.365			-3.122
221303.000			-9.366			-3.122
221405.000			-9.365			-3.122
221504.000			-9.364			-3.121
221604.000			-9.364			-3.121
221705.000			-9.364			-3.121
221804.000			-9.364			-3.121
221904.000			-9.364			-3.121
222004.000			-9.365			-3.122
222104.000			-9.364			-3.121
222203.000			-9.364			-3.121
222305.000			-9.364			-3.121
222404.000			-9.364			-3.121
222504.000			-9.364			-3.121
222605.000			-9.364			-3.121
222704.000			-9.362			-3.121
222804.000			-9.363			-3.121
222904.000			-9.363			-3.121
223004.000			-9.362			-3.121
223104.000			-9.363			-3.121
223205.000			-9.364			-3.121
223304.000			-9.363			-3.121
223404.000			-9.362			-3.121
223505.000			-9.363			-3.121
223604.000			-9.363			-3.121
223705.000			-9.363			-3.121
223803.000			-9.362			-3.121
223904.000			-9.362			-3.121
224005.000			-9.363			-3.121
224104.000			-9.362			-3.121
224204.000			-9.363			-3.121
224305.000			-9.362			-3.121
224404.000			-9.362			-3.121
224503.000			-9.362			-3.121
224605.000			-9.363			-3.121
224703.000			-9.363			-3.121
224804.000			-9.363			-3.121
224905.000			-9.361			-3.120
225004.000			-9.361			-3.120
225104.000			-9.359			-3.120
225205.000			-9.361			-3.120
225304.000			-9.361			-3.120
225403.000			-9.360			-3.120
225505.000			-9.361			-3.120
225604.000			-9.361			-3.120
225704.000			-9.360			-3.120
225805.000			-9.361			-3.120
225904.000			-9.361			-3.120
226004.000			-9.361			-3.120
226105.000			-9.361			-3.120
226204.000			-9.360			-3.120
226303.000			-9.360			-3.120
226405.000			-9.359			-3.120
226504.000			-9.360			-3.120
226604.000			-9.360			-3.120
226705.000			-9.359			-3.120
226804.000			-9.359			-3.120
226905.000			-9.359			-3.120
227004.000			-9.359			-3.120
227104.000			-9.358			-3.119
227204.000			-9.359			-3.120
227304.000			-9.359			-3.120
227404.000			-9.358			-3.119
227505.000			-9.358			-3.119
227604.000			-9.357			-3.119
227704.000			-9.357			-3.119
227805.000			-9.359			-3.120
227904.000			-9.359			-3.120
228004.000			-9.359			-3.120
228104.000			-9.359			-3.120
228204.000			-9.358			-3.119
228304.000			-9.357			-3.119
228405.000			-9.357			-3.119
228504.000			-9.358			-3.119
228604.000			-9.358			-3.119
228705.000			-9.358			-3.119
228804.000			-9.359			-3.120
228904.000			-9.356			-3.119
229004.000			-9.356			-3.119
229104.000			-9.357			-3.119
229203.000			-9.358			-3.119
229305.000			-9.356			-3.119
229404.000			-9.357			-3.119
229504.000			-9.358			-3.119
229605.000			-9.357			-3.119
229704.000			-9.356			-3.119
229804.000			-9.355			-3.118
229904.000			-9.356			-3.119
230004.000			-9.356			-3.119
230104.000			-9.356			-3.119
230204.000			-9.356			-3.119
230304.000			-9.356			-3.119
230405.000			-9.356			-3.119
230504.000			-9.355			-3.118
230604.000			-9.355			-3.118
230705.000			-9.356			-3.119
230803.000			-9.356			-3.119
230904.000			-9.354			-3.118
231005.000			-9.355			-3.118
231104.000			-9.354			-3.118
231204.000			-9.354			-3.118
231305.000			-9.354			-3.118
231404.000			-9.355			-3.118
231504.000			-9.353			-3.118
231605.000			-9.352			-3.117
231703.000			-9.354			-3.118
231804.000			-9.355			-3.118
231905.000			-9.353			-3.118
232004.000			-9.352			-3.117
232104.000			-9.354			-3.118
232205.000			-9.353			-3.118
232304.000			-9.352			-3.117
232404.000			-9.352			-3.117
232505.000			-9.352			-3.117
232603.000			-9.352			-3.117
232704.000			-9.351			-3.117
232805.000			-9.351			-3.117
232904.000			-9.351			-3.117
233004.000			-9.351			-3.117
233104.000			-9.350			-3.117
233204.000			-9.350			-3.117
233304.000			-9.351			-3.117
233404.000			-9.351			-3.117
233503.000			-9.351			-3.117
233605.000			-9.350			-3.117
233704.000			-9.350			-3.117
233804.000			-9.349			-3.116
233905.000			-9.349			-3.116
234004.000			-9.350			-3.117
234104.000			-9.350			-3.117
234204.000			-9.349			-3.116
234304.000			-9.349			-3.116
234403.000			-9.350			-3.117
234505.000			-9.349			-3.116
234604.000			-9.347			-3.116
234704.000			-9.346			-3.115
234805.000			-9.347			-3.116
234904.000			-9.347			-3.116
235004.000			-9.346			-3.115
235104.000			-9.347			-3.116
235204.000			-9.347			-3.116
235303.000			-9.346			-3.115
235405.000			-9.347			-3.116
235504.000			-9.347			-3.116
235604.000			-9.346			-3.115
235705.000			-9.347			-3.116
235804.000			-9.346			-3.115
235904.000			-9.347			-3.116
236004.000			-9.347			-3.116
236104.000			-9.347			-3.116
236203.000			-9.346			-3.115
236305.000			-9.346			-3.115
236404.000			-9.346			-3.115
236505.000			-9.346			-3.115
236604.000			-9.346			-3.115
236704.000			-9.346			-3.115
236805.000			-9.346			-3.115
236903.000			-9.345			-3.115
237004.000			-9.346			-3.115
237104.000			-9.347			-3.116
237204.000			-9.348			-3.116
237304.000			-9.347			-3.116
237405.000			-9.347			-3.116
237504.000			-9.346			-3.115
237604.000			-9.345			-3.115
237705.000			-9.345			-3.115
237803.000			-9.346			-3.115
237904.000			-9.347			-3.116
238004.000			-9.345			-3.115
238104.000			-9.345			-3.115
238204.000			-9.345			-3.115
238305.000			-9.345			-3.115
238404.000			-9.345			-3.115
238504.000			-9.346			-3.115
238605.000			-9.345			-3.115
238703.000			-9.345			-3.115
238804.000			-9.345			-3.115
238904.000			-9.346			-3.115
239004.000			-9.345			-3.115
239104.000			-9.344			-3.115
239205.000			-9.344			-3.115
239304.000			-9.344			-3.115
239404.000			-9.344			-3.115
239505.000			-9.343			-3.114
239603.000			-9.343			-3.114
239705.000			-9.343			-3.114
239803.000			-9.343			-3.114
239904.000			-9.343			-3.114
240005.000			-9.344			-3.115
240104.000			-9.342			-3.114
240204.000			-9.343			-3.114
240305.000			-9.343			-3.114
240404.000			-9.342			-3.114
240503.000			-9.343			-3.114
240605.000			-9.342			-3.114
240704.000			-9.341			-3.114
240804.000			-9.341			-3.114
240905.000			-9.342			-3.114
241004.000			-9.340			-3.113
241104.000			-9.342			-3.114
241204.000			-9.341			-3.114
241304.000			-9.340			-3.113
241403.000			-9.341			-3.114
241505.000			-9.341			-3.114
241604.000			-9.340			-3.113
241704.000			-9.340			-3.113
241805.000			-9.340			-3.113
241904.000			-9.340			-3.113
242004.000			-9.340			-3.113
242104.000			-9.340			-3.113
242204.000			-9.339			-3.113
242304.000			-9.340			-3.113
242405.000			-9.339			-3.113
242504.000			-9.340			-3.113
242604.000			-9.340			-3.113
242705.000			-9.339			-3.113
242804.000			-9.340			-3.113
242905.000			-9.340			-3.113
243003.000			-9.340			-3.113
243104.000			-9.339			-3.113
243205.000			-9.339			-3.113
243304.000			-9.339			-3.113
243404.000			-9.338			-3.113
243505.000			-9.337			-3.112
243604.000			-9.338			-3.113
243704.000			-9.338			-3.113
243805.000			-9.338			-3.113
243903.000			-9.338			-3.113
244004.000			-9.338			-3.113
244105.000			-9.338			-3.113
244204.000			-9.337			-3.112
244304.000			-9.337			-3.112
244405.000			-9.337			-3.112
244504.000			-9.338			-3.113
244604.000			-9.336			-3.112
244705.000			-9.336			-3.112
244803.000			-9.336			-3.112
244904.000			-9.336			-3.112
245005.000			-9.335			-3.112
245104.000			-9.336			-3.112
245204.000			-9.335			-3.112
245305.000			-9.335			-3.112
245404.000			-9.335			-3.112
245503.000			-9.336			-3.112
245605.000			-9.335			-3.112
245703.000			-9.336			-3.112
245804.000			-9.335			-3.112
245905.000			-9.335			-3.112
246004.000			-9.334			-3.111
246105.000			-9.335			-3.112
246204.000			-9.334			-3.111
246304.000			-9.334			-3.111
246404.000			-9.334			-3.111
246504.000			-9.335			-3.112
246603.000			-9.335			-3.112
246705.000			-9.334			-3.111
246804.000			-9.335			-3.112
246904.000			-9.335			-3.112
247005.000			-9.335			-3.112
247104.000			-9.334			-3.111
247204.000			-9.334			-3.111
247304.000			-9.334			-3.111
247404.000			-9.335			-3.112
247503.000			17.231			5.744
247679.000			-9.334			-3.111
247768.000			-9.334			-3.111
247856.000			-9.334			-3.111
247944.000			-9.333			-3.111
248032.000			-9.333			-3.111
248120.000			-9.333			-3.111
248208.000			-9.333			-3.111
248304.000			-9.333			-3.111
248404.000			-9.333			-3.111
248505.000			-9.333			-3.111
248603.000			-9.333			-3.111
248704.000			-9.333			-3.111
248804.000			-9.333			-3.111
248904.000			-9.333			-3.111
249004.000			-9.332			-3.111
249104.000			-9.333			-3.111
249204.000			-9.332			-3.111
249305.000			-9.333			-3.111
249404.000			-9.333			-3.111
249503.000			-9.332			-3.111
249605.000			-9.332			-3.111
249703.000			-9.332			-3.111
249804.000			-9.331			-3.110
249905.000			-9.331			-3.110
250004.000			-9.330			-3.110
250104.000			-9.330			-3.110
250205.000			-9.331			-3.110
250304.000			-9.331			-3.110
250403.000			-9.330			-3.110
250505.000			-9.331			-3.110
250604.000			-9.330			-3.110
250704.000			-9.330			-3.110
250805.000			-9.330			-3.110
250904.000			-9.330			-3.110
251004.000			-9.330			-3.110
251104.000			-9.330			-3.110
251204.000			-9.329			-3.110
251303.000			-9.329			-3.110
251405.000			-9.329			-3.110
251504.000			-9.329			-3.110
251604.000			-9.329			-3.110
251705.000			-9.329			-3.110
251804.000			-9.328			-3.109
251904.000			-9.328			-3.109
252004.000			-9.329			-3.110
252104.000			-9.329			-3.110
252203.000			-9.328			-3.109
252305.000			-9.328			-3.109
252404.000			-9.327			-3.109
252505.000			-9.328			-3.109
252604.000			-9.327			-3.109
252704.000			-9.328			-3.109
252805.000			-9.327			-3.109
252903.000			-9.326			-3.109
253004.000			-9.327			-3.109
253104.000			-9.327			-3.109
253204.000			-9.327			-3.109
253304.000			-9.327			-3.109
253405.000			-9.326			-3.109
253504.000			-9.326			-3.109
253604.000			-9.326			-3.109
253705.000			-9.327			-3.109
253803.000			-9.327			-3.109
253904.000			-9.326			-3.109
254005.000			-9.326			-3.109
254104.000			-9.326			-3.109
254204.000			-9.325			-3.108
254305.000			-9.324			-3.108
254404.000			-9.325			-3.108
254504.000			-9.325			-3.108
254605.000			-9.324			-3.108
254703.000			-9.325			-3.108
254804.000			-9.325			-3.108
254904.000			-9.324			-3.108
255004.000			-9.324			-3.108
255104.000			-9.323			-3.108
255205.000			-9.325			-3.108
255304.000			-9.325			-3.108
255404.000			-9.325			-3.108
255505.000			-9.324			-3.108
255603.000			-9.324			-3.108
255705.000			-9.325			-3.108
255803.000			-9.325			-3.108
255904.000			-9.324			-3.108
256005.000			-9.325			-3.108
256104.000			-9.325			-3.108
256204.000			-9.324			-3.108
256305.000			-9.325			-3.108
256404.000			-9.325			-3.108
256503.000			-9.325			-3.108
256605.000			-9.325			-3.108
256703.000			-9.325			-3.108
256804.000			-9.325			-3.108
256905.000			-9.324			-3.108
257004.000			-9.323			-3.108
257104.000			-9.324			-3.108
257205.000			-9.324			-3.108
257304.000			-9.325			-3.108
257403.000			-9.324			-3.108
257505.000			-9.324			-3.108
257604.000			-9.324			-3.108
257704.000			-9.324			-3.108
257805.000			-9.325			-3.108
257904.000			-9.324			-3.108
258004.000			-9.323			-3.108
258105.000			-9.323			-3.108
258204.000			-9.324			-3.108
258303.000			-9.325			-3.108
258405.000			-9.325			-3.108
258504.000			-9.324			-3.108
258604.000			-9.324			-3.108
258705.000			-9.324			-3.108
258804.000			-9.325			-3.108
258905.000			-9.324			-3.108
259004.000			-9.323			-3.108
259104.000			-9.323			-3.108
259204.000			-9.323			-3.108
259304.000			-9.323			-3.108
259404.000			-9.323			-3.108
259505.000			-9.324			-3.108
259604.000			-9.325			-3.108
259704.000			-9.325			-3.108
259805.000			-9.324			-3.108
259904.000			-9.323			-3.108
260004.000			-9.324			-3.108
260104.000			-9.324			-3.108
260204.000			-9.323			-3.108
260304.000			-9.322			-3.107
260405.000			-9.322			-3.107
260504.000			-9.321			-3.107
260604.000			-9.322			-3.107
260705.000			-9.322			-3.107
260804.000			-9.322			-3.107
260904.000			-9.322			-3.107
261004.000			-9.322			-3.107
261104.000			-9.322			-3.107
261204.000			-9.321			-3.107
261305.000			-9.322			-3.107
261404.000			-9.323			-3.108
261504.000			-9.322			-3.107
261605.000			-9.321			-3.107
261703.000			-9.321			-3.107
261804.000			-9.322			-3.107
261903.000			-9.322			-3.107
262004.000			-9.322			-3.107
262105.000			-9.321			-3.107
262204.000			-9.321			-3.107
262304.000			-9.322			-3.107
262405.000			-9.322			-3.107
262504.000			-9.321			-3.107
262603.000			-9.321			-3.107
262705.000			-9.321			-3.107
262804.000			-9.320			-3.107
262904.000			-9.321			-3.107
263005.000			-9.321			-3.107
263104.000			-9.321			-3.107
263204.000			-9.320			-3.107
263305.000			-9.321			-3.107
263404.000			-9.321			-3.107
263503.000			-9.320			-3.107
263605.000			-9.321			-3.107
263704.000			-9.320			-3.107
263804.000			-9.321			-3.107
263905.000			-9.320			-3.107
264004.000			-9.320			-3.107
264104.000			-9.320			-3.107
264204.000			-9.320			-3.107
264304.000			-9.320			-3.107
264403.000			-9.320			-3.107
264505.000			-9.320			-3.107
264604.000			-9.319			-3.106
264704.000			-9.319			-3.106
264805.000			-9.319			-3.106
264904.000			-9.319			-3.106
265004.000			-9.320			-3.107
265103.000			-9.319			-3.106
265204.000			-9.317			-3.106
265305.000			-9.317			-3.106
265404.000			-9.318			-3.106
265504.000			-9.319			-3.106
265605.000			-9.319			-3.106
265704.000			-9.319			-3.106
265804.000			-9.319			-3.106
265905.000			-9.318			-3.106
266003.000			-9.318			-3.106
266104.000			-9.318			-3.106
266205.000			-9.318			-3.106
266304.000			-9.318			-3.106
266404.000			-9.318			-3.106
266505.000			-9.318			-3.106
266604.000			-9.318			-3.106
266704.000			-9.317			-3.106
266805.000			-9.318			-3.106
266903.000			-9.317			-3.106
267004.000			-9.317			-3.106
267105.000			-9.317			-3.106
267204.000			-9.317			-3.106
267304.000			-9.317			-3.106
267405.000			-9.317			-3.106
267504.000			-9.316			-3.105
267604.000			-9.317			-3.106
267705.000			-9.316			-3.105
267803.000			-9.316			-3.105
267904.000			-9.316			-3.105
268005.000			-9.316			-3.105
268104.000			-9.317			-3.106
268204.000			-9.316			-3.105
268304.000			-9.316			-3.105
268404.000			-9.316			-3.105
268505.000			-9.317			-3.106
268604.000			-9.316			-3.105
268703.000			-9.316			-3.105
268805.000			-9.316			-3.105
268904.000			-9.315			-3.105
269004.000			-9.315			-3.105
269105.000			-9.315			-3.105
269204.000			-9.314			-3.105
269304.000			-9.315			-3.105
269405.000			-9.316			-3.105
269504.000			-9.316			-3.105
269603.000			-9.315			-3.105
269705.000			-9.314			-3.105
269804.000			-9.315			-3.105
269904.000			-9.315			-3.105
270005.000			-9.314			-3.105
270104.000			-9.315			-3.105
270204.000			-9.315			-3.105
270304.000			-9.314			-3.105
270404.000			-9.314			-3.105
270503.000			-9.316			-3.105
270605.000			-9.316			-3.105
270704.000			-9.315			-3.105
270804.000			-9.315			-3.105
270905.000			-9.314			-3.105
271004.000			-9.313			-3.104
271104.000			-9.315			-3.105
271204.000			-9.314			-3.105
271304.000			-9.313			-3.104
271404.000			-9.313			-3.104
271504.000			-9.314			-3.105
271604.000			-9.313			-3.104
271705.000			-9.314			-3.105
271804.000			-9.313			-3.104
271904.000			-9.311			-3.104
272005.000			-9.312			-3.104
272103.000			-9.312			-3.104
272204.000			-9.312			-3.104
272305.000			-9.312			-3.104
272404.000			-9.313			-3.104
272504.000			-9.312			-3.104
272605.000			-9.311			-3.104
272704.000			-9.311			-3.104
272803.000			-9.312			-3.104
272905.000			-9.312			-3.104
273003.000			-9.312			-3.104
273104.000			-9.311			-3.104
273205.000			-9.312			-3.104
273304.000			-9.311			-3.104
273404.000			-9.311			-3.104
273505.000			-9.311			-3.104
273604.000			-9.312			-3.104
273703.000			-9.312			-3.104
273805.000			-9.311			-3.104
273904.000			-9.311			-3.104
274004.000			-9.310			-3.103
274105.000			-9.310			-3.103
274204.000			-9.311			-3.104
274304.000			-9.311			-3.104
274405.000			-9.310			-3.103
274504.000			-9.310			-3.103
274603.000			-9.310			-3.103
274705.000			-9.310			-3.103
274804.000			-9.310			-3.103
274905.000			-9.311			-3.104
275004.000			-9.311			-3.104
275104.000			-9.311			-3.104
275205.000			-9.310			-3.103
275304.000			-9.309			-3.103
275404.000			-9.309			-3.103
275504.000			-9.309			-3.103
275604.000			-9.309			-3.103
275704.000			-9.310			-3.103
275805.000			-9.310			-3.103
275904.000			-9.310			-3.103
276004.000			-9.309			-3.103
276105.000			-9.307			-3.102
276203.000			-9.308			-3.103
276304.000			-9.308			-3.103
276404.000			-9.307			-3.102
276504.000			-9.307			-3.102
276604.000			-9.308			-3.103
276705.000			-9.307			-3.102
276804.000			-9.308			-3.103
276904.000			-9.307			-3.102
277005.000			-9.307			-3.102
277103.000			-9.307			-3.102
277204.000			-9.308			-3.103
277305.000			-9.308			-3.103
277404.000			-9.307			-3.102
277504.000			-9.307			-3.102
277605.000			-9.307			-3.102
277704.000			-9.307			-3.102
277804.000			-9.307			-3.102
277905.000			-9.307			-3.102
278003.000			-9.307			-3.102
278105.000			-9.306			-3.102
278204.000			-9.307			-3.102
278304.000			-9.306			-3.102
278405.000			-9.306			-3.102
278504.000			-9.306			-3.102
278604.000			-9.307			-3.102
278705.000			-9.307			-3.102
278804.000			-9.306			-3.102
278903.000			-9.306			-3.102
279005.000			-9.305			-3.102
279104.000			-9.305			-3.102
279204.000			-9.305			-3.102
279305.000			-9.305			-3.102
279404.000			-9.306			-3.102
279504.000			-9.306			-3.102
279605.000			-9.307			-3.102
279704.000			-9.306			-3.102
279803.000			-9.305			-3.102
279905.000			-9.305			-3.102
280004.000			-9.304			-3.101
280104.000			-9.305			-3.102
280205.000			-9.305			-3.102
280304.000			-9.305			-3.102
280404.000			-9.305			-3.102
280505.000			-9.304			-3.101
280604.000			-9.304			-3.101
280703.000			-9.304			-3.101
280805.000			-9.304			-3.101
280904.000			-9.303			-3.101
281004.000			-9.304			-3.101
281105.000			-9.305			-3.102
281204.000			-9.303			-3.101
281305.000			-9.303			-3.101
281404.000			-9.304			-3.101
281504.000			-9.303			-3.101
281604.000			-9.302			-3.101
281704.000			-9.304			-3.101
281804.000			-9.303			-3.101
281905.000			-9.303			-3.101
282004.000			-9.304			-3.101
282104.000			-9.303			-3.101
282205.000			-9.302			-3.101
282303.000			-9.302			-3.101
282404.000			-9.302			-3.101
282505.000			-9.302			-3.101
282604.000			-9.302			-3.101
282704.000			-9.302			-3.101
282805.000			-9.302			-3.101
282904.000			-9.302			-3.101
283004.000			-9.302			-3.101
283105.000			-9.303			-3.101
283203.000			-9.302			-3.101
283304.000			-9.302			-3.101
283405.000			-9.301			-3.100
283504.000			-9.302			-3.101
283604.000			-9.302			-3.101
283705.000			-9.301			-3.100
283804.000			-9.301			-3.100
283903.000			-9.302			-3.101
284005.000			-9.301			-3.100
284104.000			-9.302			-3.101
284204.000			-9.301			-3.100
284305.000			-9.301			-3.100
284404.000			-9.301			-3.100
284505.000			-9.300			-3.100
284604.000			-9.301			-3.100
284704.000			-9.301			-3.100
284804.000			-9.300			-3.100
284904.000			-9.300			-3.100
285003.000			-9.300			-3.100
285105.000			-9.300			-3.100
285204.000			-9.299			-3.100
285304.000			-9.299			-3.100
285405.000			-9.299			-3.100
285504.000			-9.299			-3.100
285604.000			-9.300			-3.100
285704.000			-9.299			-3.100
285804.000			-9.299			-3.100
285903.000			-9.299			-3.100
286005.000			-9.299			-3.100
286104.000			-9.299			-3.100
286204.000			-9.300			-3.100
286305.000			-9.299			-3.100
286404.000			-9.299			-3.100
286504.000			-9.299			-3.100
286605.000			-9.299			-3.100
286704.000			-9.298			-3.099
286803.000			-9.298			-3.099
286905.000			-9.297			-3.099
287004.000			-9.298			-3.099
287104.000			-9.298			-3.099
287205.000			-9.297			-3.099
287304.000			-9.297			-3.099
287404.000			-9.297			-3.099
287504.000			-9.297			-3.099
287604.000			-9.297			-3.099
287704.000			-9.298			-3.099
287804.000			-9.298			-3.099
287903.000			-9.296			-3.099
288005.000			-9.296			-3.099
288104.000			-9.296			-3.099
288204.000			-9.297			-3.099
288305.000			-9.297			-3.099
288404.000			-9.297			-3.099
288504.000			-9.297			-3.099
288605.000			-9.296			-3.099
288704.000			-9.295			-3.098
288803.000			-9.295			-3.098
288905.000			-9.296			-3.099
289004.000			-9.296			-3.099
289104.000			-9.296			-3.099
289205.000			-9.297			-3.099
289304.000			-9.297			-3.099
289404.000			-9.296			-3.099
289505.000			-9.296			-3.099
289604.000			-9.296			-3.099
289703.000			-9.297			-3.099
289805.000			-9.297			-3.099
289903.000			-9.297			-3.099
290004.000			-9.295			-3.098
290105.000			-9.297			-3.099
290204.000			-9.296			-3.099
290304.000			-9.295			-3.098
290405.000			-9.295			-3.098
290504.000			-9.295			-3.098
290604.000			-9.295			-3.098
290705.000			-9.296			-3.099
290803.000			-9.296			-3.099
290905.000			-9.294			-3.098
291004.000			-9.294			-3.098
291104.000			-9.295			-3.098
291205.000			-9.294			-3.098
291304.000			-9.294			-3.098
291404.000			-9.295			-3.098
291505.000			-9.295			-3.098
291604.000			-9.295			-3.098
291703.000			-9.294			-3.098
291805.000			-9.294			-3.098
291904.000			-9.295			-3.098
292004.000			-9.296			-3.099
292105.000			-9.295			-3.098
292204.000			-9.295			-3.098
292304.000			-9.294			-3.098
292405.000			-9.295			-3.098
292504.000			-9.295			-3.098
292603.000			-9.295			-3.098
292705.000			-9.294			-3.098
292804.000			-9.294			-3.098
292904.000			-9.294			-3.098
293005.000			-9.294			-3.098
293104.000			-9.293			-3.098
293204.000			-9.294			-3.098
293305.000			-9.294			-3.098
293404.000			-9.293			-3.098
293503.000			-9.293			-3.098
293605.000			-9.293			-3.098
293704.000			-9.293			-3.098
293804.000			-9.293			-3.098
293905.000			-9.292			-3.097
294004.000			-9.293			-3.098
294105.000			-9.293			-3.098
294204.000			-9.292			-3.097
294304.000			-9.292			-3.097
294404.000			-9.292			-3.097
294504.000			-9.292			-3.097
294603.000			-9.291			-3.097
294705.000			-9.292			-3.097
294804.000			-9.291			-3.097
294904.000			-9.292			-3.097
295005.000			-9.292			-3.097
295104.000			-9.290			-3.097
295204.000			-9.292			-3.097
295304.000			-9.292			-3.097
295404.000			-9.291			-3.097
295503.000			-9.291			-3.097
295605.000			-9.292			-3.097
295704.000			-9.292			-3.097
295804.000			-9.290			-3.097
295905.000			-9.290			-3.097
296004.000			-9.291			-3.097
296104.000			-9.292			-3.097
296204.000			-9.292			-3.097
296304.000			-9.291			-3.097
296403.000			-9.291			-3.097
296505.000			-9.290			-3.097
296604.000			-9.290			-3.097
296704.000			-9.291			-3.097
296805.000			-9.291			-3.097
296904.000			-9.291			-3.097
297004.000			-9.290			-3.097
297103.000			-9.290			-3.097
297204.000			-9.290			-3.097
297304.000			-9.290			-3.097
297404.000			-9.290			-3.097
297504.000			-9.288			-3.096
297605.000			-9.289			-3.096
297704.000			-9.289			-3.096
297804.000			-9.289			-3.096
297905.000			-9.290			-3.097
298004.000			-9.288			-3.096
298104.000			-9.288			-3.096
298204.000			-9.289			-3.096
298304.000			-9.289			-3.096
298403.000			-9.288			-3.096
298505.000			-9.288			-3.096
298604.000			-9.288			-3.096
298704.000			-9.290			-3.097
298805.000			-9.288			-3.096
298904.000			-9.288			-3.096
299004.000			-9.288			-3.096
299104.000			-9.288			-3.096
299204.000			-9.288			-3.096
299303.000			-9.288			-3.096
299405.000			-9.288			-3.096
299504.000			-9.288			-3.096
299604.000			-9.287			-3.096
299705.000			-9.286			-3.095
299804.000			-9.286			-3.095
299904.000			-9.288			-3.096
