# Acquired on 10/01/2024 11:46:53 
# SPIDER: Creep_3mm_07714532C-2
# CREEP MEASUREMENT

# time [ms]		force [N]		stiffness [N/mm]
0.000			-4.167			-1.389
101.000			-4.874			-1.625
200.000			-5.334			-1.778
301.000			-5.320			-1.773
401.000			-5.298			-1.766
500.000			-5.281			-1.760
600.000			-5.267			-1.756
701.000			-5.254			-1.751
800.000			-5.243			-1.748
900.000			-5.224			-1.741
1002.000			-5.217			-1.739
1100.000			-5.211			-1.737
1200.000			-5.203			-1.734
1301.000			-5.197			-1.732
1400.000			-5.191			-1.730
1500.000			-5.185			-1.728
1600.000			-5.181			-1.727
1701.000			-5.171			-1.724
1802.000			-5.166			-1.722
1900.000			-5.162			-1.721
2000.000			-5.158			-1.719
2101.000			-5.154			-1.718
2200.000			-5.150			-1.717
2300.000			-5.147			-1.716
2402.000			-5.140			-1.713
2501.000			-5.137			-1.712
2600.000			-5.134			-1.711
2701.000			-5.131			-1.710
2800.000			-5.127			-1.709
2900.000			-5.125			-1.708
3001.000			-5.121			-1.707
3101.000			-5.117			-1.706
3201.000			-5.115			-1.705
3301.000			-5.111			-1.704
3400.000			-5.108			-1.703
3500.000			-5.106			-1.702
3601.000			-5.104			-1.701
3700.000			-5.102			-1.701
3800.000			-5.100			-1.700
3902.000			-5.095			-1.698
4001.000			-5.093			-1.698
4100.000			-5.091			-1.697
4201.000			-5.089			-1.696
4300.000			-5.087			-1.696
4400.000			-5.085			-1.695
4501.000			-5.083			-1.694
4601.000			-5.079			-1.693
4702.000			-5.077			-1.692
4800.000			-5.074			-1.691
4900.000			-5.073			-1.691
5001.000			-5.072			-1.691
5100.000			-5.070			-1.690
5200.000			-5.067			-1.689
5301.000			-5.064			-1.688
5401.000			-5.064			-1.688
5501.000			-5.062			-1.687
5601.000			-5.060			-1.687
5700.000			-5.059			-1.686
5800.000			-5.058			-1.686
5901.000			-5.057			-1.686
6000.000			-5.054			-1.685
6101.000			-5.052			-1.684
6202.000			-5.050			-1.683
6300.000			-5.049			-1.683
6400.000			-5.048			-1.683
6501.000			-5.048			-1.683
6600.000			-5.046			-1.682
6700.000			-5.045			-1.682
6801.000			-5.042			-1.681
6901.000			-5.041			-1.680
7001.000			-5.039			-1.680
7101.000			-5.039			-1.680
7200.000			-5.037			-1.679
7300.000			-5.035			-1.678
7401.000			-5.035			-1.678
7500.000			-5.033			-1.678
7601.000			-5.032			-1.677
7702.000			-5.030			-1.677
7800.000			-5.029			-1.676
7900.000			-5.027			-1.676
8000.000			-5.026			-1.675
8100.000			-5.025			-1.675
8201.000			-5.022			-1.674
8300.000			-5.022			-1.674
8401.000			-5.021			-1.674
8501.000			-5.019			-1.673
8600.000			-5.019			-1.673
8700.000			-5.018			-1.673
8801.000			-5.017			-1.672
8900.000			-5.016			-1.672
9000.000			-5.014			-1.671
9102.000			-5.012			-1.671
9201.000			-5.012			-1.671
9300.000			-5.011			-1.670
9401.000			-5.011			-1.670
9500.000			-5.009			-1.670
9600.000			-5.008			-1.669
9701.000			-5.007			-1.669
9801.000			-5.006			-1.669
9901.000			-5.004			-1.668
10001.000			-5.004			-1.668
10100.000			-5.004			-1.668
10200.000			-5.002			-1.667
10301.000			-5.002			-1.667
10400.000			-4.999			-1.666
10500.000			-4.998			-1.666
10602.000			-4.998			-1.666
10701.000			-4.997			-1.666
10800.000			-4.995			-1.665
10901.000			-4.994			-1.665
11000.000			-4.994			-1.665
11100.000			-4.991			-1.664
11200.000			-4.992			-1.664
11300.000			-4.991			-1.664
11402.000			-4.989			-1.663
11501.000			-4.989			-1.663
11600.000			-4.988			-1.663
11701.000			-4.987			-1.662
11800.000			-4.986			-1.662
11900.000			-4.986			-1.662
12001.000			-4.985			-1.662
12100.000			-4.984			-1.661
12201.000			-4.983			-1.661
12302.000			-4.983			-1.661
12400.000			-4.982			-1.661
12500.000			-4.981			-1.660
12601.000			-4.980			-1.660
12700.000			-4.979			-1.660
12800.000			-4.978			-1.659
12901.000			-4.977			-1.659
13001.000			-4.976			-1.659
13101.000			-4.976			-1.659
13201.000			-4.976			-1.659
13300.000			-4.974			-1.658
13400.000			-4.973			-1.658
13501.000			-4.972			-1.657
13600.000			-4.971			-1.657
13700.000			-4.971			-1.657
13802.000			-4.970			-1.657
13901.000			-4.970			-1.657
14000.000			-4.970			-1.657
14101.000			-4.967			-1.656
14200.000			-4.966			-1.655
14300.000			-4.966			-1.655
14400.000			-4.966			-1.655
14500.000			-4.966			-1.655
14602.000			-4.964			-1.655
14701.000			-4.963			-1.654
14800.000			-4.962			-1.654
14901.000			-4.963			-1.654
15000.000			-4.961			-1.654
15100.000			-4.960			-1.653
15201.000			-4.959			-1.653
15300.000			-4.958			-1.653
15401.000			-4.958			-1.653
15502.000			-4.957			-1.652
15600.000			-4.957			-1.652
15700.000			-4.954			-1.651
15801.000			-4.954			-1.651
15900.000			-4.954			-1.651
16000.000			-4.954			-1.651
16101.000			-4.952			-1.651
16201.000			-4.952			-1.651
16301.000			-4.951			-1.650
16401.000			-4.950			-1.650
16500.000			-4.950			-1.650
16600.000			-4.949			-1.650
16701.000			-4.948			-1.649
16800.000			-4.947			-1.649
16900.000			-4.947			-1.649
17002.000			-4.947			-1.649
17101.000			-4.946			-1.649
17200.000			-4.946			-1.649
17301.000			-4.945			-1.648
17400.000			-4.945			-1.648
17500.000			-4.944			-1.648
17600.000			-4.943			-1.648
17700.000			-4.942			-1.647
17802.000			-4.943			-1.648
17901.000			-4.941			-1.647
18001.000			-4.941			-1.647
18101.000			-4.940			-1.647
18200.000			-4.940			-1.647
18300.000			-4.939			-1.646
18401.000			-4.939			-1.646
18500.000			-4.939			-1.646
18600.000			-4.938			-1.646
18702.000			-4.937			-1.646
18801.000			-4.938			-1.646
18900.000			-4.936			-1.645
19001.000			-4.935			-1.645
19100.000			-4.935			-1.645
19200.000			-4.933			-1.644
19301.000			-4.934			-1.645
19401.000			-4.933			-1.644
19501.000			-4.932			-1.644
19602.000			-4.931			-1.644
19700.000			-4.932			-1.644
19800.000			-4.932			-1.644
19901.000			-4.930			-1.643
20000.000			-4.930			-1.643
20100.000			-4.930			-1.643
20202.000			-4.930			-1.643
20301.000			-4.930			-1.643
20401.000			-4.929			-1.643
20501.000			-4.928			-1.643
20600.000			-4.926			-1.642
20700.000			-4.927			-1.642
20800.000			-4.926			-1.642
20900.000			-4.925			-1.642
21002.000			-4.925			-1.642
21101.000			-4.925			-1.642
21200.000			-4.925			-1.642
21301.000			-4.924			-1.641
21400.000			-4.923			-1.641
21500.000			-4.923			-1.641
21601.000			-4.922			-1.641
21700.000			-4.921			-1.640
21801.000			-4.922			-1.641
21902.000			-4.922			-1.641
22000.000			-4.921			-1.640
22100.000			-4.921			-1.640
22201.000			-4.920			-1.640
22300.000			-4.920			-1.640
22400.000			-4.919			-1.640
22501.000			-4.919			-1.640
22601.000			-4.919			-1.640
22701.000			-4.918			-1.639
22801.000			-4.917			-1.639
22900.000			-4.917			-1.639
23000.000			-4.916			-1.639
23101.000			-4.917			-1.639
23200.000			-4.916			-1.639
23300.000			-4.916			-1.639
23402.000			-4.915			-1.638
23501.000			-4.915			-1.638
23600.000			-4.914			-1.638
23701.000			-4.913			-1.638
23800.000			-4.913			-1.638
23900.000			-4.912			-1.637
24000.000			-4.911			-1.637
24100.000			-4.912			-1.637
24202.000			-4.912			-1.637
24301.000			-4.911			-1.637
24400.000			-4.910			-1.637
24501.000			-4.911			-1.637
24600.000			-4.910			-1.637
24700.000			-4.910			-1.637
24801.000			-4.909			-1.636
24901.000			-4.909			-1.636
25001.000			-4.907			-1.636
25101.000			-4.906			-1.635
25200.000			-4.906			-1.635
25300.000			-4.907			-1.636
25401.000			-4.907			-1.636
25500.000			-4.905			-1.635
25600.000			-4.905			-1.635
25702.000			-4.905			-1.635
25801.000			-4.903			-1.634
25901.000			-4.904			-1.635
26001.000			-4.904			-1.635
26100.000			-4.903			-1.634
26200.000			-4.903			-1.634
26301.000			-4.903			-1.634
26400.000			-4.902			-1.634
26501.000			-4.902			-1.634
26602.000			-4.901			-1.634
26700.000			-4.900			-1.633
26800.000			-4.901			-1.634
26901.000			-4.901			-1.634
27000.000			-4.899			-1.633
27100.000			-4.899			-1.633
27200.000			-4.897			-1.632
27301.000			-4.898			-1.633
27402.000			-4.898			-1.633
27501.000			-4.899			-1.633
27600.000			-4.898			-1.633
27701.000			-4.897			-1.632
27800.000			-4.895			-1.632
27900.000			-4.896			-1.632
28001.000			-4.895			-1.632
28100.000			-4.895			-1.632
28201.000			-4.895			-1.632
28302.000			-4.895			-1.632
28400.000			-4.894			-1.631
28500.000			-4.894			-1.631
28601.000			-4.894			-1.631
28700.000			-4.894			-1.631
28800.000			-4.893			-1.631
28901.000			-4.892			-1.631
29001.000			-4.893			-1.631
29101.000			-4.891			-1.630
29201.000			-4.891			-1.630
29300.000			-4.891			-1.630
29400.000			-4.891			-1.630
29501.000			-4.891			-1.630
29600.000			-4.890			-1.630
29700.000			-4.889			-1.630
29802.000			-4.890			-1.630
29901.000			-4.890			-1.630
30000.000			-4.888			-1.629
30101.000			-4.889			-1.630
30200.000			-4.888			-1.629
30300.000			-4.887			-1.629
30400.000			-4.887			-1.629
30500.000			-4.887			-1.629
30602.000			-4.886			-1.629
30701.000			-4.886			-1.629
30800.000			-4.885			-1.628
30901.000			-4.884			-1.628
31000.000			-4.884			-1.628
31100.000			-4.883			-1.628
31201.000			-4.884			-1.628
31300.000			-4.884			-1.628
31401.000			-4.883			-1.628
31502.000			-4.883			-1.628
31600.000			-4.883			-1.628
31700.000			-4.882			-1.627
31801.000			-4.882			-1.627
31900.000			-4.881			-1.627
32000.000			-4.881			-1.627
32101.000			-4.881			-1.627
32201.000			-4.881			-1.627
32301.000			-4.879			-1.626
32401.000			-4.878			-1.626
32500.000			-4.878			-1.626
32600.000			-4.879			-1.626
32701.000			-4.879			-1.626
32800.000			-4.879			-1.626
32900.000			-4.878			-1.626
33002.000			-4.877			-1.626
33101.000			-4.877			-1.626
33200.000			-4.876			-1.625
33301.000			-4.877			-1.626
33400.000			-4.877			-1.626
33500.000			-4.876			-1.625
33600.000			-4.876			-1.625
33700.000			-4.875			-1.625
33802.000			-4.875			-1.625
33901.000			-4.874			-1.625
34000.000			-4.874			-1.625
34101.000			-4.874			-1.625
34200.000			-4.873			-1.624
34300.000			-4.873			-1.624
34401.000			-4.873			-1.624
34500.000			-4.874			-1.625
34601.000			-4.873			-1.624
34702.000			-4.872			-1.624
34800.000			-4.872			-1.624
34900.000			-4.873			-1.624
35001.000			-4.873			-1.624
35100.000			-4.871			-1.624
35200.000			-4.870			-1.623
35301.000			-4.869			-1.623
35401.000			-4.870			-1.623
35501.000			-4.870			-1.623
35601.000			-4.869			-1.623
35700.000			-4.868			-1.623
35800.000			-4.868			-1.623
35901.000			-4.868			-1.623
36000.000			-4.866			-1.622
36100.000			-4.867			-1.622
36202.000			-4.868			-1.623
36301.000			-4.867			-1.622
36401.000			-4.866			-1.622
36501.000			-4.865			-1.622
36600.000			-4.865			-1.622
36700.000			-4.865			-1.622
36800.000			-4.865			-1.622
36900.000			-4.865			-1.622
37001.000			-4.865			-1.622
37101.000			-4.865			-1.622
37201.000			-4.864			-1.621
37301.000			-4.863			-1.621
37400.000			-4.863			-1.621
37500.000			-4.864			-1.621
37601.000			-4.863			-1.621
37700.000			-4.862			-1.621
37800.000			-4.862			-1.621
37902.000			-4.862			-1.621
38001.000			-4.862			-1.621
38100.000			-4.861			-1.620
38201.000			-4.860			-1.620
38300.000			-4.860			-1.620
38400.000			-4.859			-1.620
38501.000			-4.859			-1.620
38600.000			-4.859			-1.620
38701.000			-4.858			-1.619
38802.000			-4.858			-1.619
38900.000			-4.859			-1.620
39000.000			-4.859			-1.620
39101.000			-4.858			-1.619
39200.000			-4.857			-1.619
39300.000			-4.857			-1.619
39401.000			-4.858			-1.619
39501.000			-4.856			-1.619
39601.000			-4.857			-1.619
39701.000			-4.856			-1.619
39800.000			-4.856			-1.619
39900.000			-4.856			-1.619
40000.000			-4.856			-1.619
40100.000			-4.856			-1.619
40201.000			-4.855			-1.618
40301.000			-4.855			-1.618
40401.000			-4.854			-1.618
40501.000			-4.853			-1.618
40600.000			-4.854			-1.618
40700.000			-4.854			-1.618
40801.000			-4.854			-1.618
40900.000			-4.854			-1.618
41000.000			-4.852			-1.617
41102.000			-4.852			-1.617
41201.000			-4.852			-1.617
41300.000			-4.852			-1.617
41401.000			-4.851			-1.617
41500.000			-4.851			-1.617
41600.000			-4.850			-1.617
41701.000			-4.850			-1.617
41800.000			-4.850			-1.617
41901.000			-4.850			-1.617
42002.000			-4.851			-1.617
42100.000			-4.850			-1.617
42200.000			-4.849			-1.616
42301.000			-4.848			-1.616
42400.000			-4.849			-1.616
42500.000			-4.848			-1.616
42601.000			-4.848			-1.616
42701.000			-4.848			-1.616
42801.000			-4.848			-1.616
42901.000			-4.847			-1.616
43000.000			-4.848			-1.616
43100.000			-4.847			-1.616
43200.000			-4.846			-1.615
43300.000			-4.847			-1.616
43401.000			-4.847			-1.616
43501.000			-4.846			-1.615
43601.000			-4.845			-1.615
43701.000			-4.845			-1.615
43800.000			-4.846			-1.615
43900.000			-4.845			-1.615
44001.000			-4.845			-1.615
44100.000			-4.845			-1.615
44200.000			-4.844			-1.615
44302.000			-4.843			-1.614
44401.000			-4.844			-1.615
44500.000			-4.843			-1.614
44601.000			-4.843			-1.614
44700.000			-4.843			-1.614
44800.000			-4.842			-1.614
44901.000			-4.842			-1.614
45000.000			-4.842			-1.614
45101.000			-4.841			-1.614
45202.000			-4.840			-1.613
45300.000			-4.839			-1.613
45400.000			-4.841			-1.614
45501.000			-4.841			-1.614
45600.000			-4.841			-1.614
45700.000			-4.841			-1.614
45802.000			-4.841			-1.614
45901.000			-4.840			-1.613
46000.000			-4.839			-1.613
46101.000			-4.839			-1.613
46200.000			-4.838			-1.613
46300.000			-4.837			-1.612
46400.000			-4.837			-1.612
46500.000			-4.836			-1.612
46602.000			-4.837			-1.612
46701.000			-4.837			-1.612
46801.000			-4.837			-1.612
46901.000			-4.836			-1.612
47000.000			-4.837			-1.612
47100.000			-4.836			-1.612
47201.000			-4.836			-1.612
47300.000			-4.836			-1.612
47400.000			-4.836			-1.612
47502.000			-4.835			-1.612
47601.000			-4.834			-1.611
47700.000			-4.834			-1.611
47801.000			-4.834			-1.611
47900.000			-4.833			-1.611
48000.000			-4.834			-1.611
48101.000			-4.834			-1.611
48201.000			-4.833			-1.611
48301.000			-4.833			-1.611
48402.000			-4.833			-1.611
48500.000			-4.833			-1.611
48600.000			-4.832			-1.611
48701.000			-4.832			-1.611
48800.000			-4.832			-1.611
48900.000			-4.832			-1.611
49001.000			-4.833			-1.611
49101.000			-4.831			-1.610
49201.000			-4.831			-1.610
49301.000			-4.831			-1.610
49400.000			-4.831			-1.610
49500.000			-4.831			-1.610
49600.000			-4.832			-1.611
49700.000			-4.831			-1.610
49801.000			-4.830			-1.610
49901.000			-4.830			-1.610
50001.000			-4.830			-1.610
50101.000			-4.829			-1.610
50200.000			-4.829			-1.610
50300.000			-4.829			-1.610
50401.000			-4.829			-1.610
50500.000			-4.829			-1.610
50600.000			-4.828			-1.609
50702.000			-4.828			-1.609
50801.000			-4.829			-1.610
50900.000			-4.828			-1.609
51001.000			-4.828			-1.609
51100.000			-4.828			-1.609
51200.000			-4.826			-1.609
51301.000			-4.827			-1.609
51401.000			-4.827			-1.609
51501.000			-4.827			-1.609
51601.000			-4.826			-1.609
51700.000			-4.825			-1.608
51800.000			-4.826			-1.609
51901.000			-4.825			-1.608
52000.000			-4.825			-1.608
52100.000			-4.824			-1.608
52202.000			-4.824			-1.608
52301.000			-4.825			-1.608
52400.000			-4.825			-1.608
52501.000			-4.825			-1.608
52600.000			-4.825			-1.608
52700.000			-4.824			-1.608
52800.000			-4.823			-1.608
52900.000			-4.824			-1.608
53002.000			-4.823			-1.608
53101.000			-4.823			-1.608
53200.000			-4.823			-1.608
53301.000			-4.823			-1.608
53400.000			-4.823			-1.608
53500.000			-4.822			-1.607
53601.000			-4.822			-1.607
53700.000			-4.822			-1.607
53801.000			-4.822			-1.607
53902.000			-4.822			-1.607
54000.000			-4.822			-1.607
54100.000			-4.821			-1.607
54201.000			-4.820			-1.607
54300.000			-4.819			-1.606
54400.000			-4.819			-1.606
54501.000			-4.820			-1.607
54601.000			-4.820			-1.607
54701.000			-4.819			-1.606
54801.000			-4.819			-1.606
54900.000			-4.819			-1.606
55000.000			-4.818			-1.606
55101.000			-4.818			-1.606
55200.000			-4.817			-1.606
55300.000			-4.818			-1.606
55402.000			-4.819			-1.606
55501.000			-4.818			-1.606
55600.000			-4.817			-1.606
55701.000			-4.817			-1.606
55800.000			-4.817			-1.606
55900.000			-4.817			-1.606
56000.000			-4.817			-1.606
56100.000			-4.817			-1.606
56202.000			-4.817			-1.606
56301.000			-4.816			-1.605
56400.000			-4.816			-1.605
56501.000			-4.816			-1.605
56600.000			-4.816			-1.605
56700.000			-4.817			-1.606
56801.000			-4.816			-1.605
56900.000			-4.816			-1.605
57001.000			-4.815			-1.605
57102.000			-4.815			-1.605
57200.000			-4.814			-1.605
57300.000			-4.815			-1.605
57401.000			-4.815			-1.605
57500.000			-4.815			-1.605
57600.000			-4.814			-1.605
57701.000			-4.813			-1.604
57801.000			-4.814			-1.605
57901.000			-4.814			-1.605
58001.000			-4.813			-1.604
58100.000			-4.814			-1.605
58200.000			-4.814			-1.605
58301.000			-4.813			-1.604
58400.000			-4.813			-1.604
58500.000			-4.812			-1.604
58602.000			-4.812			-1.604
58701.000			-4.812			-1.604
58800.000			-4.812			-1.604
58901.000			-4.812			-1.604
59000.000			-4.812			-1.604
59100.000			-4.812			-1.604
59200.000			-4.811			-1.604
59300.000			-4.812			-1.604
59402.000			-4.811			-1.604
59501.000			-4.810			-1.603
59600.000			-4.811			-1.604
59701.000			-4.810			-1.603
59800.000			-4.810			-1.603
59900.000			-4.810			-1.603
60001.000			-4.810			-1.603
60100.000			-4.810			-1.603
60201.000			-4.809			-1.603
60302.000			-4.809			-1.603
60400.000			-4.809			-1.603
60500.000			-4.808			-1.603
60601.000			-4.809			-1.603
60700.000			-4.809			-1.603
60800.000			-4.809			-1.603
60901.000			-4.807			-1.602
61001.000			-4.807			-1.602
61101.000			-4.808			-1.603
61201.000			-4.807			-1.602
61300.000			-4.808			-1.603
61400.000			-4.808			-1.603
61501.000			-4.808			-1.603
61600.000			-4.807			-1.602
61700.000			-4.806			-1.602
61802.000			-4.806			-1.602
61901.000			-4.806			-1.602
62000.000			-4.807			-1.602
62101.000			-4.806			-1.602
62200.000			-4.806			-1.602
62300.000			-4.806			-1.602
62400.000			-4.805			-1.602
62500.000			-4.805			-1.602
62602.000			-4.805			-1.602
62701.000			-4.805			-1.602
62800.000			-4.805			-1.602
62901.000			-4.804			-1.601
63000.000			-4.804			-1.601
63100.000			-4.805			-1.602
63201.000			-4.804			-1.601
63301.000			-4.804			-1.601
63401.000			-4.803			-1.601
63501.000			-4.802			-1.601
63600.000			-4.804			-1.601
63700.000			-4.803			-1.601
63801.000			-4.802			-1.601
63900.000			-4.802			-1.601
64000.000			-4.802			-1.601
64102.000			-4.803			-1.601
64201.000			-4.802			-1.601
64300.000			-4.802			-1.601
64401.000			-4.801			-1.600
64500.000			-4.801			-1.600
64600.000			-4.801			-1.600
64701.000			-4.801			-1.600
64800.000			-4.800			-1.600
64901.000			-4.800			-1.600
65002.000			-4.800			-1.600
65100.000			-4.799			-1.600
65200.000			-4.800			-1.600
65301.000			-4.800			-1.600
65400.000			-4.799			-1.600
65500.000			-4.799			-1.600
65600.000			-4.799			-1.600
65701.000			-4.799			-1.600
65802.000			-4.799			-1.600
65901.000			-4.797			-1.599
66000.000			-4.797			-1.599
66101.000			-4.798			-1.599
66200.000			-4.799			-1.600
66300.000			-4.799			-1.600
66401.000			-4.798			-1.599
66500.000			-4.799			-1.600
66601.000			-4.798			-1.599
66702.000			-4.797			-1.599
66800.000			-4.797			-1.599
66900.000			-4.798			-1.599
67001.000			-4.797			-1.599
67100.000			-4.796			-1.599
67200.000			-4.797			-1.599
67301.000			-4.796			-1.599
67401.000			-4.797			-1.599
67501.000			-4.796			-1.599
67601.000			-4.796			-1.599
67700.000			-4.796			-1.599
67800.000			-4.795			-1.598
67901.000			-4.795			-1.598
68000.000			-4.796			-1.599
68100.000			-4.795			-1.598
68202.000			-4.795			-1.598
68301.000			-4.796			-1.599
68401.000			-4.795			-1.598
68501.000			-4.794			-1.598
68600.000			-4.794			-1.598
68700.000			-4.795			-1.598
68800.000			-4.795			-1.598
68900.000			-4.793			-1.598
69001.000			-4.794			-1.598
69101.000			-4.794			-1.598
69201.000			-4.793			-1.598
69301.000			-4.793			-1.598
69400.000			-4.792			-1.597
69500.000			-4.792			-1.597
69601.000			-4.793			-1.598
69700.000			-4.794			-1.598
69800.000			-4.793			-1.598
69902.000			-4.792			-1.597
70001.000			-4.791			-1.597
70100.000			-4.791			-1.597
70201.000			-4.792			-1.597
70300.000			-4.791			-1.597
70400.000			-4.791			-1.597
70501.000			-4.791			-1.597
70600.000			-4.791			-1.597
70701.000			-4.791			-1.597
70802.000			-4.791			-1.597
70901.000			-4.791			-1.597
71000.000			-4.791			-1.597
71101.000			-4.790			-1.597
71200.000			-4.789			-1.596
71300.000			-4.791			-1.597
71401.000			-4.790			-1.597
71501.000			-4.790			-1.597
71601.000			-4.790			-1.597
71701.000			-4.789			-1.596
71800.000			-4.788			-1.596
71900.000			-4.789			-1.596
72000.000			-4.789			-1.596
72100.000			-4.790			-1.597
72201.000			-4.790			-1.597
72300.000			-4.789			-1.596
72401.000			-4.789			-1.596
72502.000			-4.789			-1.596
72600.000			-4.788			-1.596
72700.000			-4.787			-1.596
72801.000			-4.788			-1.596
72900.000			-4.788			-1.596
73000.000			-4.788			-1.596
73101.000			-4.788			-1.596
73201.000			-4.789			-1.596
73301.000			-4.789			-1.596
73401.000			-4.787			-1.596
73500.000			-4.787			-1.596
73600.000			-4.787			-1.596
73701.000			-4.786			-1.595
73800.000			-4.786			-1.595
73900.000			-4.785			-1.595
74002.000			-4.785			-1.595
74101.000			-4.786			-1.595
74201.000			-4.786			-1.595
74301.000			-4.786			-1.595
74400.000			-4.786			-1.595
74500.000			-4.785			-1.595
74601.000			-4.786			-1.595
74700.000			-4.786			-1.595
74800.000			-4.786			-1.595
74902.000			-4.785			-1.595
75001.000			-4.786			-1.595
75100.000			-4.785			-1.595
75200.000			-4.785			-1.595
75300.000			-4.784			-1.595
75401.000			-4.784			-1.595
75500.000			-4.784			-1.595
75600.000			-4.784			-1.595
75702.000			-4.784			-1.595
75801.000			-4.784			-1.595
75901.000			-4.783			-1.594
76001.000			-4.785			-1.595
76100.000			-4.784			-1.595
76200.000			-4.785			-1.595
76301.000			-4.783			-1.594
76400.000			-4.783			-1.594
76500.000			-4.783			-1.594
76602.000			-4.783			-1.594
76701.000			-4.783			-1.594
76800.000			-4.783			-1.594
76901.000			-4.782			-1.594
77000.000			-4.782			-1.594
77100.000			-4.783			-1.594
77201.000			-4.783			-1.594
77300.000			-4.782			-1.594
77401.000			-4.782			-1.594
77502.000			-4.782			-1.594
77600.000			-4.781			-1.594
77700.000			-4.781			-1.594
77801.000			-4.780			-1.593
77900.000			-4.780			-1.593
78000.000			-4.780			-1.593
78101.000			-4.781			-1.594
78201.000			-4.781			-1.594
78302.000			-4.780			-1.593
78400.000			-4.780			-1.593
78500.000			-4.780			-1.593
78601.000			-4.779			-1.593
78700.000			-4.780			-1.593
78800.000			-4.780			-1.593
78901.000			-4.780			-1.593
79001.000			-4.780			-1.593
79101.000			-4.780			-1.593
79201.000			-4.779			-1.593
79300.000			-4.778			-1.593
79400.000			-4.779			-1.593
79501.000			-4.779			-1.593
79600.000			-4.778			-1.593
79700.000			-4.777			-1.592
79801.000			-4.777			-1.592
79901.000			-4.778			-1.593
80001.000			-4.777			-1.592
80101.000			-4.777			-1.592
80200.000			-4.777			-1.592
80300.000			-4.777			-1.592
80401.000			-4.776			-1.592
80500.000			-4.777			-1.592
80600.000			-4.775			-1.592
80702.000			-4.776			-1.592
80801.000			-4.776			-1.592
80900.000			-4.776			-1.592
81001.000			-4.775			-1.592
81100.000			-4.776			-1.592
81200.000			-4.777			-1.592
81301.000			-4.776			-1.592
81400.000			-4.775			-1.592
81502.000			-4.776			-1.592
81601.000			-4.775			-1.592
81700.000			-4.774			-1.591
81801.000			-4.776			-1.592
81900.000			-4.775			-1.592
82000.000			-4.774			-1.591
82101.000			-4.774			-1.591
82200.000			-4.773			-1.591
82301.000			-4.774			-1.591
82402.000			-4.774			-1.591
82501.000			-4.773			-1.591
82600.000			-4.773			-1.591
82701.000			-4.773			-1.591
82800.000			-4.773			-1.591
82900.000			-4.773			-1.591
83001.000			-4.773			-1.591
83101.000			-4.773			-1.591
83201.000			-4.772			-1.591
83302.000			-4.773			-1.591
83400.000			-4.772			-1.591
83500.000			-4.771			-1.590
83601.000			-4.772			-1.591
83700.000			-4.771			-1.590
83800.000			-4.772			-1.591
83901.000			-4.771			-1.590
84001.000			-4.772			-1.591
84101.000			-4.773			-1.591
84201.000			-4.772			-1.591
84300.000			-4.771			-1.590
84400.000			-4.770			-1.590
84501.000			-4.771			-1.590
84600.000			-4.771			-1.590
84700.000			-4.772			-1.591
84802.000			-4.771			-1.590
84901.000			-4.770			-1.590
85001.000			-4.770			-1.590
85100.000			-4.770			-1.590
85200.000			-4.770			-1.590
85301.000			-4.770			-1.590
85400.000			-4.770			-1.590
85500.000			-4.770			-1.590
85602.000			-4.770			-1.590
85701.000			-4.770			-1.590
85800.000			-4.771			-1.590
85901.000			-4.771			-1.590
86000.000			-4.770			-1.590
86100.000			-4.770			-1.590
86201.000			-4.770			-1.590
86300.000			-4.769			-1.590
86401.000			-4.768			-1.589
86502.000			-4.768			-1.589
86601.000			-4.769			-1.590
86700.000			-4.769			-1.590
86801.000			-4.769			-1.590
86900.000			-4.768			-1.589
87000.000			-4.767			-1.589
87101.000			-4.768			-1.589
87200.000			-4.768			-1.589
87301.000			-4.769			-1.590
87402.000			-4.769			-1.590
87500.000			-4.768			-1.589
87600.000			-4.767			-1.589
87701.000			-4.766			-1.589
87800.000			-4.767			-1.589
87900.000			-4.768			-1.589
88000.000			-4.767			-1.589
88101.000			-4.768			-1.589
88202.000			-4.767			-1.589
88301.000			-4.766			-1.589
88400.000			-4.767			-1.589
88501.000			-4.767			-1.589
88600.000			-4.767			-1.589
88700.000			-4.767			-1.589
88801.000			-4.767			-1.589
88900.000			-4.767			-1.589
89001.000			-4.767			-1.589
89102.000			-4.767			-1.589
89200.000			-4.767			-1.589
89300.000			-4.766			-1.589
89401.000			-4.766			-1.589
89500.000			-4.766			-1.589
89600.000			-4.764			-1.588
89701.000			-4.765			-1.588
89801.000			-4.766			-1.589
89901.000			-4.764			-1.588
90002.000			-4.764			-1.588
90100.000			-4.766			-1.589
90200.000			-4.765			-1.588
90301.000			-4.764			-1.588
90400.000			-4.765			-1.588
90500.000			-4.765			-1.588
90601.000			-4.764			-1.588
90701.000			-4.764			-1.588
90801.000			-4.764			-1.588
90901.000			-4.764			-1.588
91000.000			-4.765			-1.588
91100.000			-4.765			-1.588
91200.000			-4.765			-1.588
91300.000			-4.764			-1.588
91401.000			-4.764			-1.588
91501.000			-4.765			-1.588
91601.000			-4.764			-1.588
91701.000			-4.764			-1.588
91800.000			-4.764			-1.588
91900.000			-4.763			-1.588
92001.000			-4.762			-1.587
92100.000			-4.763			-1.588
92200.000			-4.763			-1.588
92302.000			-4.763			-1.588
92401.000			-4.763			-1.588
92500.000			-4.762			-1.587
92601.000			-4.762			-1.587
92700.000			-4.763			-1.588
92800.000			-4.761			-1.587
92901.000			-4.762			-1.587
93000.000			-4.762			-1.587
93100.000			-4.762			-1.587
93202.000			-4.762			-1.587
93301.000			-4.761			-1.587
93400.000			-4.761			-1.587
93501.000			-4.762			-1.587
93600.000			-4.761			-1.587
93700.000			-4.761			-1.587
93801.000			-4.760			-1.587
93900.000			-4.760			-1.587
94001.000			-4.761			-1.587
94102.000			-4.760			-1.587
94200.000			-4.759			-1.586
94300.000			-4.759			-1.586
94400.000			-4.759			-1.586
94500.000			-4.759			-1.586
94601.000			-4.759			-1.586
94700.000			-4.758			-1.586
94801.000			-4.758			-1.586
94902.000			-4.758			-1.586
95000.000			-4.758			-1.586
95100.000			-4.758			-1.586
95201.000			-4.757			-1.586
95300.000			-4.757			-1.586
95400.000			-4.758			-1.586
95501.000			-4.757			-1.586
95601.000			-4.758			-1.586
95701.000			-4.757			-1.586
95801.000			-4.758			-1.586
95900.000			-4.758			-1.586
96000.000			-4.757			-1.586
96101.000			-4.757			-1.586
96200.000			-4.756			-1.585
96300.000			-4.757			-1.586
96401.000			-4.757			-1.586
96501.000			-4.756			-1.585
96601.000			-4.755			-1.585
96701.000			-4.755			-1.585
96800.000			-4.755			-1.585
96900.000			-4.755			-1.585
97001.000			-4.755			-1.585
97100.000			-4.755			-1.585
97200.000			-4.755			-1.585
97302.000			-4.755			-1.585
97401.000			-4.755			-1.585
97500.000			-4.755			-1.585
97600.000			-4.754			-1.585
97700.000			-4.754			-1.585
97801.000			-4.755			-1.585
97900.000			-4.755			-1.585
98000.000			-4.754			-1.585
98102.000			-4.754			-1.585
98201.000			-4.754			-1.585
98301.000			-4.753			-1.584
98401.000			-4.753			-1.584
98500.000			-4.754			-1.585
98600.000			-4.753			-1.584
98701.000			-4.752			-1.584
98800.000			-4.752			-1.584
98900.000			-4.753			-1.584
99002.000			-4.752			-1.584
99101.000			-4.753			-1.584
99200.000			-4.753			-1.584
99301.000			-4.752			-1.584
99400.000			-4.751			-1.584
99500.000			-4.752			-1.584
99601.000			-4.752			-1.584
99700.000			-4.751			-1.584
99801.000			-4.751			-1.584
99902.000			-4.752			-1.584
100000.000			-4.752			-1.584
100100.000			-4.752			-1.584
100201.000			-4.750			-1.583
100300.000			-4.751			-1.584
100400.000			-4.751			-1.584
100501.000			-4.752			-1.584
100601.000			-4.751			-1.584
100702.000			-4.751			-1.584
100800.000			-4.750			-1.583
100900.000			-4.750			-1.583
101001.000			-4.750			-1.583
101100.000			-4.750			-1.583
101200.000			-4.750			-1.583
101301.000			-4.750			-1.583
101401.000			-4.749			-1.583
101501.000			-4.750			-1.583
101601.000			-4.749			-1.583
101700.000			-4.748			-1.583
101800.000			-4.749			-1.583
101901.000			-4.749			-1.583
102000.000			-4.749			-1.583
102100.000			-4.749			-1.583
102201.000			-4.748			-1.583
102301.000			-4.748			-1.583
102401.000			-4.747			-1.582
102501.000			-4.747			-1.582
102600.000			-4.747			-1.582
102700.000			-4.748			-1.583
102801.000			-4.748			-1.583
102900.000			-4.747			-1.582
103000.000			-4.747			-1.582
103102.000			-4.746			-1.582
103201.000			-4.746			-1.582
103300.000			-4.746			-1.582
103401.000			-4.747			-1.582
103500.000			-4.746			-1.582
103600.000			-4.746			-1.582
103701.000			-4.745			-1.582
103800.000			-4.745			-1.582
103902.000			-4.745			-1.582
104001.000			-4.745			-1.582
104100.000			-4.746			-1.582
104201.000			-4.745			-1.582
104300.000			-4.744			-1.581
104400.000			-4.744			-1.581
104501.000			-4.744			-1.581
104600.000			-4.744			-1.581
104700.000			-4.744			-1.581
104802.000			-4.745			-1.582
104901.000			-4.744			-1.581
105000.000			-4.745			-1.582
105101.000			-4.745			-1.582
105200.000			-4.745			-1.582
105300.000			-4.743			-1.581
105401.000			-4.744			-1.581
105500.000			-4.745			-1.582
105601.000			-4.745			-1.582
105702.000			-4.744			-1.581
105800.000			-4.744			-1.581
105900.000			-4.744			-1.581
106001.000			-4.743			-1.581
106100.000			-4.743			-1.581
106200.000			-4.743			-1.581
106301.000			-4.743			-1.581
106401.000			-4.742			-1.581
106501.000			-4.742			-1.581
106601.000			-4.743			-1.581
106700.000			-4.742			-1.581
106800.000			-4.742			-1.581
106901.000			-4.742			-1.581
107000.000			-4.741			-1.580
107100.000			-4.741			-1.580
107202.000			-4.742			-1.581
107301.000			-4.743			-1.581
107401.000			-4.743			-1.581
107500.000			-4.741			-1.580
107600.000			-4.742			-1.581
107701.000			-4.742			-1.581
107800.000			-4.742			-1.581
107900.000			-4.742			-1.581
108001.000			-4.740			-1.580
108101.000			-4.741			-1.580
108201.000			-4.742			-1.581
108301.000			-4.742			-1.581
108400.000			-4.743			-1.581
108500.000			-4.742			-1.581
108601.000			-4.741			-1.580
108700.000			-4.740			-1.580
108800.000			-4.740			-1.580
108902.000			-4.740			-1.580
109001.000			-4.740			-1.580
109100.000			-4.740			-1.580
109201.000			-4.740			-1.580
109300.000			-4.741			-1.580
109400.000			-4.740			-1.580
109501.000			-4.740			-1.580
109600.000			-4.740			-1.580
109700.000			-4.740			-1.580
109802.000			-4.740			-1.580
109901.000			-4.739			-1.580
110000.000			-4.740			-1.580
110101.000			-4.740			-1.580
110200.000			-4.740			-1.580
110300.000			-4.740			-1.580
110400.000			-4.739			-1.580
110500.000			-4.739			-1.580
110602.000			-4.739			-1.580
110701.000			-4.739			-1.580
110800.000			-4.739			-1.580
110901.000			-4.739			-1.580
111000.000			-4.739			-1.580
111100.000			-4.739			-1.580
111201.000			-4.738			-1.579
111300.000			-4.738			-1.579
111401.000			-4.739			-1.580
111502.000			-4.738			-1.579
111600.000			-4.738			-1.579
111700.000			-4.738			-1.579
111801.000			-4.738			-1.579
111900.000			-4.737			-1.579
112000.000			-4.737			-1.579
112101.000			-4.738			-1.579
112200.000			-4.738			-1.579
112301.000			-4.738			-1.579
112402.000			-4.738			-1.579
112500.000			-4.738			-1.579
112600.000			-4.737			-1.579
112701.000			-4.737			-1.579
112800.000			-4.738			-1.579
112900.000			-4.737			-1.579
113001.000			-4.738			-1.579
113101.000			-4.737			-1.579
113201.000			-4.737			-1.579
113301.000			-4.737			-1.579
113400.000			-4.737			-1.579
113500.000			-4.738			-1.579
113600.000			-4.737			-1.579
113700.000			-4.736			-1.579
113801.000			-4.736			-1.579
113901.000			-4.736			-1.579
114001.000			-4.736			-1.579
114101.000			-4.736			-1.579
114200.000			-4.736			-1.579
114300.000			-4.735			-1.578
114401.000			-4.735			-1.578
114500.000			-4.736			-1.579
114600.000			-4.734			-1.578
114701.000			-4.735			-1.578
114801.000			-4.735			-1.578
114901.000			-4.735			-1.578
115001.000			-4.735			-1.578
115100.000			-4.735			-1.578
115200.000			-4.735			-1.578
115301.000			-4.734			-1.578
115400.000			-4.734			-1.578
115500.000			-4.735			-1.578
115602.000			-4.736			-1.579
115701.000			-4.735			-1.578
115800.000			-4.735			-1.578
115901.000			-4.735			-1.578
116000.000			-4.734			-1.578
116100.000			-4.734			-1.578
116201.000			-4.734			-1.578
116300.000			-4.734			-1.578
116401.000			-4.735			-1.578
116502.000			-4.735			-1.578
116601.000			-4.735			-1.578
116700.000			-4.734			-1.578
116800.000			-4.734			-1.578
116900.000			-4.733			-1.578
117001.000			-4.733			-1.578
117100.000			-4.734			-1.578
117200.000			-4.734			-1.578
117302.000			-4.734			-1.578
117401.000			-4.733			-1.578
117500.000			-4.733			-1.578
117601.000			-4.733			-1.578
117700.000			-4.732			-1.577
117800.000			-4.733			-1.578
117901.000			-4.733			-1.578
118000.000			-4.733			-1.578
118101.000			-4.733			-1.578
118202.000			-4.733			-1.578
118301.000			-4.732			-1.577
118400.000			-4.732			-1.577
118501.000			-4.733			-1.578
118600.000			-4.733			-1.578
118700.000			-4.733			-1.578
118801.000			-4.732			-1.577
118900.000			-4.731			-1.577
119001.000			-4.732			-1.577
119102.000			-4.732			-1.577
119200.000			-4.732			-1.577
119300.000			-4.732			-1.577
119401.000			-4.732			-1.577
119500.000			-4.733			-1.578
119600.000			-4.732			-1.577
119701.000			-4.732			-1.577
119801.000			-4.732			-1.577
119902.000			-4.732			-1.577
120000.000			-4.731			-1.577
120100.000			-4.731			-1.577
120201.000			-4.731			-1.577
120300.000			-4.731			-1.577
120400.000			-4.732			-1.577
120501.000			-4.732			-1.577
120601.000			-4.731			-1.577
120701.000			-4.730			-1.577
120801.000			-4.731			-1.577
120900.000			-4.732			-1.577
121000.000			-4.732			-1.577
121101.000			-4.730			-1.577
121200.000			-4.731			-1.577
121300.000			-4.730			-1.577
121402.000			-4.730			-1.577
121501.000			-4.731			-1.577
121600.000			-4.731			-1.577
121701.000			-4.729			-1.576
121800.000			-4.729			-1.576
121900.000			-4.729			-1.576
122001.000			-4.730			-1.577
122100.000			-4.731			-1.577
122200.000			-4.731			-1.577
122302.000			-4.730			-1.577
122401.000			-4.730			-1.577
122500.000			-4.730			-1.577
122601.000			-4.730			-1.577
122700.000			-4.729			-1.576
122800.000			-4.729			-1.576
122901.000			-4.729			-1.576
123000.000			-4.729			-1.576
123102.000			-4.728			-1.576
123201.000			-4.728			-1.576
123301.000			-4.727			-1.576
123401.000			-4.728			-1.576
123500.000			-4.729			-1.576
123600.000			-4.729			-1.576
123701.000			-4.729			-1.576
123800.000			-4.728			-1.576
123900.000			-4.729			-1.576
124002.000			-4.729			-1.576
124101.000			-4.729			-1.576
124200.000			-4.727			-1.576
124301.000			-4.727			-1.576
124400.000			-4.729			-1.576
124500.000			-4.729			-1.576
124601.000			-4.727			-1.576
124700.000			-4.727			-1.576
124801.000			-4.727			-1.576
124902.000			-4.726			-1.575
125001.000			-4.726			-1.575
125100.000			-4.727			-1.576
125201.000			-4.727			-1.576
125300.000			-4.727			-1.576
125400.000			-4.726			-1.575
125501.000			-4.726			-1.575
125600.000			-4.727			-1.576
125701.000			-4.726			-1.575
125802.000			-4.726			-1.575
125900.000			-4.725			-1.575
126000.000			-4.725			-1.575
126101.000			-4.724			-1.575
126200.000			-4.724			-1.575
126300.000			-4.724			-1.575
126400.000			-4.724			-1.575
126501.000			-4.723			-1.574
126602.000			-4.723			-1.574
126700.000			-4.723			-1.574
126800.000			-4.723			-1.574
126901.000			-4.722			-1.574
127000.000			-4.723			-1.574
127100.000			-4.723			-1.574
127201.000			-4.723			-1.574
127300.000			-4.723			-1.574
127401.000			-4.723			-1.574
127502.000			-4.722			-1.574
127600.000			-4.722			-1.574
127700.000			-4.722			-1.574
127801.000			-4.721			-1.574
127900.000			-4.721			-1.574
128000.000			-4.721			-1.574
128101.000			-4.721			-1.574
128201.000			-4.722			-1.574
128301.000			-4.722			-1.574
128401.000			-4.721			-1.574
128500.000			-4.720			-1.573
128600.000			-4.721			-1.574
128701.000			-4.721			-1.574
128800.000			-4.721			-1.574
128900.000			-4.720			-1.573
129002.000			-4.721			-1.574
129101.000			-4.721			-1.574
129200.000			-4.720			-1.573
129301.000			-4.721			-1.574
129400.000			-4.721			-1.574
129500.000			-4.722			-1.574
129600.000			-4.721			-1.574
129700.000			-4.720			-1.573
129801.000			-4.721			-1.574
129901.000			-4.721			-1.574
130001.000			-4.720			-1.573
130101.000			-4.719			-1.573
130200.000			-4.720			-1.573
130300.000			-4.720			-1.573
130401.000			-4.719			-1.573
130500.000			-4.719			-1.573
130600.000			-4.720			-1.573
130702.000			-4.719			-1.573
130801.000			-4.718			-1.573
130900.000			-4.719			-1.573
131001.000			-4.719			-1.573
131100.000			-4.719			-1.573
131200.000			-4.719			-1.573
131301.000			-4.717			-1.572
131400.000			-4.718			-1.573
131501.000			-4.719			-1.573
131602.000			-4.719			-1.573
131701.000			-4.718			-1.573
131800.000			-4.718			-1.573
131901.000			-4.718			-1.573
132000.000			-4.719			-1.573
132100.000			-4.718			-1.573
132201.000			-4.718			-1.573
132300.000			-4.719			-1.573
132400.000			-4.718			-1.573
132502.000			-4.718			-1.573
132601.000			-4.718			-1.573
132700.000			-4.719			-1.573
132800.000			-4.719			-1.573
132900.000			-4.717			-1.572
133001.000			-4.716			-1.572
133100.000			-4.718			-1.573
133200.000			-4.716			-1.572
133301.000			-4.716			-1.572
133401.000			-4.718			-1.573
133501.000			-4.719			-1.573
133601.000			-4.717			-1.572
133700.000			-4.717			-1.572
133800.000			-4.717			-1.572
133901.000			-4.718			-1.573
134000.000			-4.718			-1.573
134100.000			-4.718			-1.573
134201.000			-4.718			-1.573
134301.000			-4.717			-1.572
134401.000			-4.717			-1.572
134501.000			-4.717			-1.572
134600.000			-4.717			-1.572
134700.000			-4.716			-1.572
134801.000			-4.716			-1.572
134900.000			-4.716			-1.572
135000.000			-4.716			-1.572
135101.000			-4.716			-1.572
135201.000			-4.717			-1.572
135301.000			-4.717			-1.572
135402.000			-4.716			-1.572
135500.000			-4.716			-1.572
135600.000			-4.717			-1.572
135701.000			-4.717			-1.572
135800.000			-4.716			-1.572
135900.000			-4.716			-1.572
136000.000			-4.716			-1.572
136100.000			-4.716			-1.572
136202.000			-4.717			-1.572
136301.000			-4.716			-1.572
136400.000			-4.716			-1.572
136501.000			-4.715			-1.572
136600.000			-4.714			-1.571
136700.000			-4.715			-1.572
136801.000			-4.717			-1.572
136900.000			-4.716			-1.572
137000.000			-4.716			-1.572
137102.000			-4.716			-1.572
137201.000			-4.716			-1.572
137300.000			-4.717			-1.572
137401.000			-4.717			-1.572
137500.000			-4.716			-1.572
137600.000			-4.715			-1.572
137701.000			-4.716			-1.572
137800.000			-4.717			-1.572
137900.000			-4.716			-1.572
138002.000			-4.716			-1.572
138101.000			-4.717			-1.572
138200.000			-4.717			-1.572
138301.000			-4.716			-1.572
138400.000			-4.715			-1.572
138500.000			-4.715			-1.572
138601.000			-4.714			-1.571
138700.000			-4.714			-1.571
138800.000			-4.714			-1.571
138902.000			-4.715			-1.572
139001.000			-4.715			-1.572
139102.000			-4.715			-1.572
139200.000			-4.715			-1.572
139300.000			-4.716			-1.572
139401.000			-4.717			-1.572
139500.000			-4.716			-1.572
139600.000			-4.715			-1.572
139701.000			-4.715			-1.572
139801.000			-4.715			-1.572
139901.000			-4.715			-1.572
140002.000			-4.714			-1.571
140100.000			-4.715			-1.572
140200.000			-4.715			-1.572
140301.000			-4.715			-1.572
140400.000			-4.714			-1.571
140500.000			-4.713			-1.571
140601.000			-4.713			-1.571
140701.000			-4.713			-1.571
140801.000			-4.713			-1.571
140902.000			-4.712			-1.571
141000.000			-4.714			-1.571
141100.000			-4.714			-1.571
141201.000			-4.714			-1.571
141300.000			-4.713			-1.571
141400.000			-4.713			-1.571
141501.000			-4.712			-1.571
141601.000			-4.713			-1.571
141701.000			-4.714			-1.571
141801.000			-4.714			-1.571
141900.000			-4.714			-1.571
142000.000			-4.713			-1.571
142101.000			-4.713			-1.571
142200.000			-4.713			-1.571
142300.000			-4.712			-1.571
142400.000			-4.713			-1.571
142501.000			-4.713			-1.571
142602.000			-4.713			-1.571
142701.000			-4.712			-1.571
142800.000			-4.712			-1.571
142901.000			-4.711			-1.570
143000.000			-4.712			-1.571
143100.000			-4.711			-1.570
143201.000			-4.712			-1.571
143300.000			-4.713			-1.571
143401.000			-4.713			-1.571
143502.000			-4.712			-1.571
143600.000			-4.711			-1.570
143700.000			-4.710			-1.570
143801.000			-4.710			-1.570
143900.000			-4.711			-1.570
144000.000			-4.711			-1.570
144101.000			-4.710			-1.570
144200.000			-4.710			-1.570
144301.000			-4.711			-1.570
144402.000			-4.710			-1.570
144500.000			-4.710			-1.570
144600.000			-4.710			-1.570
144701.000			-4.712			-1.571
144800.000			-4.712			-1.571
144900.000			-4.711			-1.570
145001.000			-4.711			-1.570
145100.000			-4.711			-1.570
145201.000			-4.710			-1.570
145302.000			-4.711			-1.570
145400.000			-4.711			-1.570
145500.000			-4.710			-1.570
145600.000			-4.709			-1.570
145700.000			-4.710			-1.570
145801.000			-4.710			-1.570
145900.000			-4.709			-1.570
146000.000			-4.710			-1.570
146102.000			-4.709			-1.570
146201.000			-4.709			-1.570
146300.000			-4.709			-1.570
146401.000			-4.709			-1.570
146500.000			-4.709			-1.570
146600.000			-4.709			-1.570
146701.000			-4.709			-1.570
146800.000			-4.709			-1.570
146900.000			-4.709			-1.570
147002.000			-4.710			-1.570
147101.000			-4.710			-1.570
147201.000			-4.708			-1.569
147301.000			-4.709			-1.570
147400.000			-4.708			-1.569
147500.000			-4.708			-1.569
147601.000			-4.708			-1.569
147700.000			-4.709			-1.570
147800.000			-4.709			-1.570
147902.000			-4.708			-1.569
148001.000			-4.707			-1.569
148101.000			-4.707			-1.569
148201.000			-4.707			-1.569
148300.000			-4.707			-1.569
148400.000			-4.708			-1.569
148501.000			-4.707			-1.569
148600.000			-4.707			-1.569
148700.000			-4.707			-1.569
148800.000			-4.707			-1.569
148901.000			-4.707			-1.569
149002.000			-4.707			-1.569
149100.000			-4.707			-1.569
149200.000			-4.706			-1.569
149301.000			-4.706			-1.569
149400.000			-4.707			-1.569
149500.000			-4.707			-1.569
149601.000			-4.706			-1.569
149700.000			-4.705			-1.568
149801.000			-4.706			-1.569
149902.000			-4.706			-1.569
150001.000			-4.706			-1.569
150100.000			-4.706			-1.569
150201.000			-4.706			-1.569
150300.000			-4.706			-1.569
150400.000			-4.706			-1.569
150501.000			-4.706			-1.569
150600.000			-4.705			-1.568
150701.000			-4.706			-1.569
150802.000			-4.705			-1.568
150900.000			-4.705			-1.568
151000.000			-4.705			-1.568
151101.000			-4.706			-1.569
151200.000			-4.706			-1.569
151300.000			-4.705			-1.568
151401.000			-4.704			-1.568
151500.000			-4.704			-1.568
151601.000			-4.704			-1.568
151702.000			-4.704			-1.568
151800.000			-4.704			-1.568
151900.000			-4.703			-1.568
152000.000			-4.703			-1.568
152100.000			-4.703			-1.568
152201.000			-4.703			-1.568
152300.000			-4.703			-1.568
152400.000			-4.702			-1.567
152502.000			-4.703			-1.568
152601.000			-4.703			-1.568
152700.000			-4.702			-1.567
152801.000			-4.702			-1.567
152900.000			-4.701			-1.567
153000.000			-4.701			-1.567
153101.000			-4.701			-1.567
153200.000			-4.700			-1.567
153300.000			-4.700			-1.567
153402.000			-4.700			-1.567
153501.000			-4.700			-1.567
153601.000			-4.700			-1.567
153701.000			-4.701			-1.567
153800.000			-4.700			-1.567
153900.000			-4.699			-1.566
154001.000			-4.699			-1.566
154100.000			-4.699			-1.566
154200.000			-4.699			-1.566
154301.000			-4.699			-1.566
154401.000			-4.699			-1.566
154501.000			-4.699			-1.566
154601.000			-4.700			-1.567
154700.000			-4.698			-1.566
154800.000			-4.698			-1.566
154901.000			-4.699			-1.566
155000.000			-4.699			-1.566
155100.000			-4.698			-1.566
155200.000			-4.698			-1.566
155301.000			-4.699			-1.566
155402.000			-4.700			-1.567
155501.000			-4.699			-1.566
155600.000			-4.698			-1.566
155701.000			-4.699			-1.566
155800.000			-4.699			-1.566
155900.000			-4.699			-1.566
156001.000			-4.699			-1.566
156100.000			-4.699			-1.566
156200.000			-4.699			-1.566
156302.000			-4.698			-1.566
156401.000			-4.698			-1.566
156501.000			-4.698			-1.566
156601.000			-4.697			-1.566
156700.000			-4.698			-1.566
156800.000			-4.697			-1.566
156901.000			-4.698			-1.566
157000.000			-4.699			-1.566
157100.000			-4.699			-1.566
157201.000			-4.698			-1.566
157301.000			-4.699			-1.566
157401.000			-4.698			-1.566
157501.000			-4.698			-1.566
157600.000			-4.697			-1.566
157700.000			-4.697			-1.566
157801.000			-4.698			-1.566
157900.000			-4.698			-1.566
158000.000			-4.697			-1.566
158101.000			-4.697			-1.566
158201.000			-4.696			-1.565
158302.000			-4.697			-1.566
158401.000			-4.698			-1.566
158500.000			-4.697			-1.566
158601.000			-4.696			-1.565
158700.000			-4.696			-1.565
158800.000			-4.696			-1.565
158901.000			-4.696			-1.565
159000.000			-4.696			-1.565
159100.000			-4.696			-1.565
159202.000			-4.696			-1.565
159301.000			-4.696			-1.565
159400.000			-4.696			-1.565
159501.000			-4.696			-1.565
159600.000			-4.697			-1.566
159700.000			-4.696			-1.565
159801.000			-4.695			-1.565
159900.000			-4.696			-1.565
160000.000			-4.696			-1.565
160101.000			-4.696			-1.565
160201.000			-4.696			-1.565
160301.000			-4.696			-1.565
160401.000			-4.696			-1.565
160500.000			-4.696			-1.565
160600.000			-4.695			-1.565
160701.000			-4.695			-1.565
160800.000			-4.695			-1.565
160900.000			-4.696			-1.565
161001.000			-4.695			-1.565
161101.000			-4.694			-1.565
161201.000			-4.694			-1.565
161301.000			-4.694			-1.565
161400.000			-4.694			-1.565
161500.000			-4.694			-1.565
161600.000			-4.695			-1.565
161700.000			-4.694			-1.565
161801.000			-4.694			-1.565
161900.000			-4.694			-1.565
162001.000			-4.694			-1.565
162102.000			-4.695			-1.565
162201.000			-4.694			-1.565
162300.000			-4.693			-1.564
162401.000			-4.693			-1.564
162500.000			-4.693			-1.564
162600.000			-4.695			-1.565
162701.000			-4.693			-1.564
162800.000			-4.693			-1.564
162900.000			-4.693			-1.564
163002.000			-4.693			-1.564
163101.000			-4.693			-1.564
163200.000			-4.692			-1.564
163301.000			-4.692			-1.564
163400.000			-4.692			-1.564
163500.000			-4.692			-1.564
163601.000			-4.692			-1.564
163700.000			-4.693			-1.564
163800.000			-4.691			-1.564
163902.000			-4.692			-1.564
164001.000			-4.693			-1.564
164101.000			-4.692			-1.564
164201.000			-4.692			-1.564
164300.000			-4.691			-1.564
164400.000			-4.691			-1.564
164501.000			-4.692			-1.564
164600.000			-4.692			-1.564
164700.000			-4.692			-1.564
164802.000			-4.691			-1.564
164901.000			-4.691			-1.564
165002.000			-4.691			-1.564
165100.000			-4.691			-1.564
165200.000			-4.691			-1.564
165301.000			-4.691			-1.564
165400.000			-4.690			-1.563
165500.000			-4.691			-1.564
165601.000			-4.691			-1.564
165700.000			-4.690			-1.563
165801.000			-4.690			-1.563
165902.000			-4.691			-1.564
166001.000			-4.690			-1.563
166100.000			-4.690			-1.563
166201.000			-4.690			-1.563
166300.000			-4.690			-1.563
166400.000			-4.690			-1.563
166501.000			-4.691			-1.564
166600.000			-4.691			-1.564
166700.000			-4.690			-1.563
166802.000			-4.690			-1.563
166901.000			-4.690			-1.563
167000.000			-4.690			-1.563
167101.000			-4.691			-1.564
167200.000			-4.690			-1.563
167300.000			-4.691			-1.564
167401.000			-4.691			-1.564
167500.000			-4.690			-1.563
167600.000			-4.690			-1.563
167702.000			-4.691			-1.564
167801.000			-4.691			-1.564
167900.000			-4.691			-1.564
168000.000			-4.689			-1.563
168100.000			-4.688			-1.563
168201.000			-4.688			-1.563
168300.000			-4.689			-1.563
168400.000			-4.689			-1.563
168501.000			-4.690			-1.563
168601.000			-4.690			-1.563
168701.000			-4.690			-1.563
168802.000			-4.689			-1.563
168900.000			-4.689			-1.563
169000.000			-4.689			-1.563
169101.000			-4.689			-1.563
169200.000			-4.689			-1.563
169300.000			-4.690			-1.563
169401.000			-4.689			-1.563
169500.000			-4.690			-1.563
169600.000			-4.690			-1.563
169702.000			-4.689			-1.563
169801.000			-4.689			-1.563
169900.000			-4.688			-1.563
170001.000			-4.687			-1.562
170100.000			-4.687			-1.562
170200.000			-4.689			-1.563
170301.000			-4.689			-1.563
170400.000			-4.689			-1.563
170500.000			-4.688			-1.563
170602.000			-4.687			-1.562
170701.000			-4.688			-1.563
170800.000			-4.687			-1.562
170901.000			-4.688			-1.563
171000.000			-4.688			-1.563
171100.000			-4.688			-1.563
171200.000			-4.688			-1.563
171300.000			-4.687			-1.562
171401.000			-4.687			-1.562
171501.000			-4.687			-1.562
171601.000			-4.687			-1.562
171702.000			-4.687			-1.562
171800.000			-4.687			-1.562
171900.000			-4.687			-1.562
172001.000			-4.688			-1.563
172100.000			-4.687			-1.562
172200.000			-4.687			-1.562
172301.000			-4.688			-1.563
172400.000			-4.688			-1.563
172501.000			-4.687			-1.562
172602.000			-4.688			-1.563
172700.000			-4.688			-1.563
172800.000			-4.687			-1.562
172901.000			-4.687			-1.562
173000.000			-4.686			-1.562
173100.000			-4.687			-1.562
173201.000			-4.688			-1.563
173300.000			-4.688			-1.563
173401.000			-4.689			-1.563
173502.000			-4.689			-1.563
173601.000			-4.689			-1.563
173700.000			-4.688			-1.563
173801.000			-4.688			-1.563
173900.000			-4.688			-1.563
174000.000			-4.687			-1.562
174101.000			-4.688			-1.563
174200.000			-4.688			-1.563
174300.000			-4.689			-1.563
174402.000			-4.689			-1.563
174501.000			-4.689			-1.563
174601.000			-4.688			-1.563
174700.000			-4.688			-1.563
174800.000			-4.687			-1.562
174901.000			-4.687			-1.562
175000.000			-4.687			-1.562
175100.000			-4.688			-1.563
175201.000			-4.688			-1.563
175300.000			-4.687			-1.562
175401.000			-4.687			-1.562
175502.000			-4.687			-1.562
175600.000			-4.687			-1.562
175700.000			-4.687			-1.562
175801.000			-4.688			-1.563
175900.000			-4.688			-1.563
176000.000			-4.687			-1.562
176101.000			-4.688			-1.563
176200.000			-4.688			-1.563
176300.000			-4.688			-1.563
176402.000			-4.688			-1.563
176501.000			-4.687			-1.562
176600.000			-4.687			-1.562
176701.000			-4.687			-1.562
176800.000			-4.687			-1.562
176900.000			-4.687			-1.562
177001.000			-4.687			-1.562
177100.000			-4.687			-1.562
177200.000			-4.686			-1.562
177302.000			-4.687			-1.562
177401.000			-4.686			-1.562
177502.000			-4.687			-1.562
177600.000			-4.687			-1.562
177700.000			-4.687			-1.562
177801.000			-4.687			-1.562
177900.000			-4.686			-1.562
178000.000			-4.686			-1.562
178101.000			-4.687			-1.562
178200.000			-4.686			-1.562
178301.000			-4.687			-1.562
178402.000			-4.687			-1.562
178501.000			-4.686			-1.562
178600.000			-4.686			-1.562
178701.000			-4.685			-1.562
178800.000			-4.686			-1.562
178900.000			-4.685			-1.562
179001.000			-4.686			-1.562
179100.000			-4.686			-1.562
179200.000			-4.685			-1.562
179302.000			-4.685			-1.562
179401.000			-4.685			-1.562
179500.000			-4.686			-1.562
179601.000			-4.686			-1.562
179700.000			-4.686			-1.562
179800.000			-4.685			-1.562
179901.000			-4.684			-1.561
180000.000			-4.685			-1.562
180100.000			-4.685			-1.562
180202.000			-4.685			-1.562
180301.000			-4.685			-1.562
180401.000			-4.685			-1.562
180501.000			-4.685			-1.562
180600.000			-4.684			-1.561
180700.000			-4.684			-1.561
180800.000			-4.684			-1.561
180900.000			-4.684			-1.561
181001.000			-4.683			-1.561
181100.000			-4.684			-1.561
181201.000			-4.683			-1.561
181302.000			-4.683			-1.561
181400.000			-4.683			-1.561
181500.000			-4.683			-1.561
181601.000			-4.684			-1.561
181700.000			-4.684			-1.561
181800.000			-4.684			-1.561
181901.000			-4.684			-1.561
182000.000			-4.683			-1.561
182101.000			-4.684			-1.561
182202.000			-4.683			-1.561
182301.000			-4.683			-1.561
182400.000			-4.683			-1.561
182501.000			-4.683			-1.561
182600.000			-4.684			-1.561
182700.000			-4.684			-1.561
182801.000			-4.684			-1.561
182900.000			-4.684			-1.561
183000.000			-4.683			-1.561
183102.000			-4.683			-1.561
183201.000			-4.683			-1.561
183300.000			-4.683			-1.561
183401.000			-4.683			-1.561
183500.000			-4.683			-1.561
183600.000			-4.683			-1.561
183701.000			-4.683			-1.561
183800.000			-4.683			-1.561
183900.000			-4.683			-1.561
184002.000			-4.682			-1.561
184101.000			-4.682			-1.561
184202.000			-4.682			-1.561
184300.000			-4.681			-1.560
184400.000			-4.681			-1.560
184501.000			-4.682			-1.561
184600.000			-4.681			-1.560
184700.000			-4.681			-1.560
184801.000			-4.681			-1.560
184900.000			-4.680			-1.560
185001.000			-4.680			-1.560
185102.000			-4.680			-1.560
185201.000			-4.681			-1.560
185300.000			-4.680			-1.560
185401.000			-4.681			-1.560
185500.000			-4.680			-1.560
185600.000			-4.680			-1.560
185701.000			-4.680			-1.560
185800.000			-4.680			-1.560
185900.000			-4.681			-1.560
186002.000			-4.680			-1.560
186101.000			-4.680			-1.560
186200.000			-4.681			-1.560
186301.000			-4.681			-1.560
186400.000			-4.680			-1.560
186500.000			-4.679			-1.560
186601.000			-4.679			-1.560
186700.000			-4.680			-1.560
186800.000			-4.680			-1.560
186902.000			-4.680			-1.560
187001.000			-4.679			-1.560
187102.000			-4.680			-1.560
187200.000			-4.680			-1.560
187300.000			-4.680			-1.560
187401.000			-4.680			-1.560
187500.000			-4.679			-1.560
187600.000			-4.679			-1.560
187701.000			-4.679			-1.560
187800.000			-4.679			-1.560
187900.000			-4.679			-1.560
188002.000			-4.679			-1.560
188101.000			-4.679			-1.560
188200.000			-4.679			-1.560
188301.000			-4.680			-1.560
188400.000			-4.679			-1.560
188500.000			-4.679			-1.560
188601.000			-4.679			-1.560
188700.000			-4.679			-1.560
188800.000			-4.679			-1.560
188901.000			-4.679			-1.560
189001.000			-4.679			-1.560
189101.000			-4.678			-1.559
189201.000			-4.678			-1.559
189300.000			-4.678			-1.559
189400.000			-4.677			-1.559
189501.000			-4.678			-1.559
189600.000			-4.678			-1.559
189700.000			-4.678			-1.559
189801.000			-4.678			-1.559
189901.000			-4.678			-1.559
190001.000			-4.678			-1.559
190102.000			-4.677			-1.559
190200.000			-4.679			-1.560
190300.000			-4.678			-1.559
190400.000			-4.677			-1.559
190500.000			-4.676			-1.559
190601.000			-4.677			-1.559
190700.000			-4.678			-1.559
190800.000			-4.677			-1.559
190902.000			-4.677			-1.559
191001.000			-4.678			-1.559
191101.000			-4.678			-1.559
191201.000			-4.678			-1.559
191300.000			-4.677			-1.559
191400.000			-4.677			-1.559
191501.000			-4.676			-1.559
191600.000			-4.677			-1.559
191700.000			-4.677			-1.559
191801.000			-4.677			-1.559
191901.000			-4.678			-1.559
192001.000			-4.677			-1.559
192101.000			-4.676			-1.559
192200.000			-4.676			-1.559
192300.000			-4.676			-1.559
192401.000			-4.677			-1.559
192500.000			-4.676			-1.559
192600.000			-4.676			-1.559
192701.000			-4.676			-1.559
192801.000			-4.675			-1.558
192901.000			-4.675			-1.558
193002.000			-4.676			-1.559
193100.000			-4.675			-1.558
193200.000			-4.674			-1.558
193301.000			-4.675			-1.558
193400.000			-4.675			-1.558
193500.000			-4.675			-1.558
193600.000			-4.675			-1.558
193700.000			-4.674			-1.558
193802.000			-4.674			-1.558
193901.000			-4.674			-1.558
194000.000			-4.674			-1.558
194101.000			-4.674			-1.558
194200.000			-4.674			-1.558
194300.000			-4.674			-1.558
194401.000			-4.674			-1.558
194500.000			-4.675			-1.558
194600.000			-4.674			-1.558
194702.000			-4.675			-1.558
194801.000			-4.674			-1.558
194901.000			-4.674			-1.558
195001.000			-4.673			-1.558
195100.000			-4.673			-1.558
195200.000			-4.674			-1.558
195301.000			-4.674			-1.558
195400.000			-4.674			-1.558
195500.000			-4.674			-1.558
195601.000			-4.673			-1.558
195701.000			-4.672			-1.557
195801.000			-4.673			-1.558
195901.000			-4.673			-1.558
196000.000			-4.673			-1.558
196100.000			-4.673			-1.558
196201.000			-4.673			-1.558
196300.000			-4.673			-1.558
196400.000			-4.673			-1.558
196501.000			-4.673			-1.558
196600.000			-4.674			-1.558
196702.000			-4.674			-1.558
196801.000			-4.672			-1.557
196900.000			-4.673			-1.558
197001.000			-4.674			-1.558
197100.000			-4.673			-1.558
197200.000			-4.673			-1.558
197301.000			-4.673			-1.558
197400.000			-4.673			-1.558
197500.000			-4.673			-1.558
197602.000			-4.673			-1.558
197701.000			-4.672			-1.557
197801.000			-4.672			-1.557
197901.000			-4.672			-1.557
198000.000			-4.673			-1.558
198100.000			-4.674			-1.558
198201.000			-4.673			-1.558
198300.000			-4.673			-1.558
198400.000			-4.673			-1.558
198501.000			-4.672			-1.557
198601.000			-4.672			-1.557
198701.000			-4.672			-1.557
198801.000			-4.673			-1.558
198900.000			-4.672			-1.557
199000.000			-4.671			-1.557
199101.000			-4.671			-1.557
199200.000			-4.671			-1.557
199300.000			-4.671			-1.557
199401.000			-4.671			-1.557
199501.000			-4.672			-1.557
199601.000			-4.671			-1.557
199702.000			-4.671			-1.557
199800.000			-4.671			-1.557
199900.000			-4.671			-1.557
200000.000			-4.671			-1.557
200100.000			-4.670			-1.557
200201.000			-4.671			-1.557
200300.000			-4.671			-1.557
200400.000			-4.671			-1.557
200502.000			-4.671			-1.557
200601.000			-4.670			-1.557
200700.000			-4.671			-1.557
200801.000			-4.670			-1.557
200900.000			-4.670			-1.557
201000.000			-4.670			-1.557
201101.000			-4.669			-1.556
201200.000			-4.670			-1.557
201300.000			-4.671			-1.557
201402.000			-4.671			-1.557
201501.000			-4.670			-1.557
201601.000			-4.670			-1.557
201701.000			-4.670			-1.557
201800.000			-4.671			-1.557
201900.000			-4.670			-1.557
202001.000			-4.670			-1.557
202100.000			-4.670			-1.557
202200.000			-4.669			-1.556
202302.000			-4.670			-1.557
202401.000			-4.670			-1.557
202501.000			-4.670			-1.557
202601.000			-4.669			-1.556
202700.000			-4.670			-1.557
202800.000			-4.670			-1.557
202901.000			-4.669			-1.556
203000.000			-4.670			-1.557
203100.000			-4.670			-1.557
203200.000			-4.669			-1.556
203301.000			-4.669			-1.556
203402.000			-4.668			-1.556
203500.000			-4.669			-1.556
203600.000			-4.668			-1.556
203701.000			-4.669			-1.556
203800.000			-4.669			-1.556
203900.000			-4.669			-1.556
204001.000			-4.668			-1.556
204100.000			-4.669			-1.556
204201.000			-4.669			-1.556
204302.000			-4.669			-1.556
204401.000			-4.668			-1.556
204500.000			-4.668			-1.556
204601.000			-4.669			-1.556
204700.000			-4.669			-1.556
204800.000			-4.669			-1.556
204901.000			-4.667			-1.556
205000.000			-4.668			-1.556
205100.000			-4.669			-1.556
205202.000			-4.667			-1.556
205301.000			-4.668			-1.556
205400.000			-4.667			-1.556
205501.000			-4.666			-1.555
205600.000			-4.667			-1.556
205700.000			-4.667			-1.556
205801.000			-4.667			-1.556
205900.000			-4.667			-1.556
206000.000			-4.666			-1.555
206102.000			-4.667			-1.556
206201.000			-4.667			-1.556
206300.000			-4.666			-1.555
206400.000			-4.666			-1.555
206500.000			-4.667			-1.556
206601.000			-4.666			-1.555
206700.000			-4.666			-1.555
206800.000			-4.665			-1.555
206901.000			-4.664			-1.555
207001.000			-4.664			-1.555
207101.000			-4.665			-1.555
207201.000			-4.666			-1.555
207300.000			-4.665			-1.555
207400.000			-4.664			-1.555
207501.000			-4.664			-1.555
207600.000			-4.664			-1.555
207700.000			-4.665			-1.555
207801.000			-4.664			-1.555
207901.000			-4.664			-1.555
208001.000			-4.665			-1.555
208102.000			-4.665			-1.555
208200.000			-4.665			-1.555
208300.000			-4.665			-1.555
208401.000			-4.664			-1.555
208500.000			-4.665			-1.555
208600.000			-4.664			-1.555
208701.000			-4.664			-1.555
208801.000			-4.664			-1.555
208901.000			-4.664			-1.555
209002.000			-4.664			-1.555
209100.000			-4.664			-1.555
209200.000			-4.664			-1.555
209301.000			-4.664			-1.555
209400.000			-4.664			-1.555
209500.000			-4.664			-1.555
209600.000			-4.663			-1.554
209700.000			-4.664			-1.555
209802.000			-4.663			-1.554
209901.000			-4.664			-1.555
210000.000			-4.664			-1.555
210101.000			-4.663			-1.554
210200.000			-4.662			-1.554
210300.000			-4.663			-1.554
210401.000			-4.664			-1.555
210500.000			-4.663			-1.554
210600.000			-4.663			-1.554
210702.000			-4.663			-1.554
210801.000			-4.664			-1.555
210900.000			-4.664			-1.555
211001.000			-4.663			-1.554
211100.000			-4.663			-1.554
211200.000			-4.662			-1.554
211301.000			-4.663			-1.554
211400.000			-4.663			-1.554
211500.000			-4.663			-1.554
211602.000			-4.664			-1.555
211701.000			-4.663			-1.554
211800.000			-4.663			-1.554
211901.000			-4.663			-1.554
212000.000			-4.663			-1.554
212100.000			-4.662			-1.554
212201.000			-4.662			-1.554
212300.000			-4.662			-1.554
212400.000			-4.663			-1.554
212502.000			-4.662			-1.554
212601.000			-4.662			-1.554
212700.000			-4.663			-1.554
212800.000			-4.663			-1.554
212900.000			-4.661			-1.554
213001.000			-4.662			-1.554
213100.000			-4.663			-1.554
213200.000			-4.663			-1.554
213301.000			-4.663			-1.554
213401.000			-4.663			-1.554
213501.000			-4.663			-1.554
213601.000			-4.663			-1.554
213700.000			-4.663			-1.554
213800.000			-4.662			-1.554
213901.000			-4.663			-1.554
214000.000			-4.663			-1.554
214100.000			-4.662			-1.554
214201.000			-4.662			-1.554
214301.000			-4.662			-1.554
214401.000			-4.662			-1.554
214501.000			-4.663			-1.554
214600.000			-4.663			-1.554
214700.000			-4.662			-1.554
214801.000			-4.662			-1.554
214900.000			-4.663			-1.554
215000.000			-4.662			-1.554
215101.000			-4.663			-1.554
215201.000			-4.663			-1.554
215301.000			-4.663			-1.554
215401.000			-4.663			-1.554
215500.000			-4.664			-1.555
215600.000			-4.663			-1.554
215701.000			-4.663			-1.554
215800.000			-4.662			-1.554
215900.000			-4.662			-1.554
216000.000			-4.662			-1.554
216101.000			-4.662			-1.554
216202.000			-4.662			-1.554
216301.000			-4.662			-1.554
216400.000			-4.663			-1.554
216501.000			-4.662			-1.554
216600.000			-4.663			-1.554
216700.000			-4.662			-1.554
216801.000			-4.662			-1.554
216900.000			-4.661			-1.554
217000.000			-4.661			-1.554
217102.000			-4.661			-1.554
217201.000			-4.662			-1.554
217300.000			-4.662			-1.554
217401.000			-4.662			-1.554
217500.000			-4.661			-1.554
217600.000			-4.661			-1.554
217701.000			-4.661			-1.554
217800.000			-4.661			-1.554
217900.000			-4.661			-1.554
218002.000			-4.661			-1.554
218101.000			-4.661			-1.554
218200.000			-4.659			-1.553
218301.000			-4.661			-1.554
218400.000			-4.661			-1.554
218500.000			-4.659			-1.553
218601.000			-4.659			-1.553
218700.000			-4.660			-1.553
218800.000			-4.660			-1.553
218902.000			-4.659			-1.553
219001.000			-4.659			-1.553
219102.000			-4.660			-1.553
219200.000			-4.660			-1.553
219300.000			-4.660			-1.553
219401.000			-4.660			-1.553
219500.000			-4.659			-1.553
219600.000			-4.659			-1.553
219701.000			-4.658			-1.553
219800.000			-4.659			-1.553
219901.000			-4.659			-1.553
220002.000			-4.659			-1.553
220100.000			-4.659			-1.553
220200.000			-4.659			-1.553
220301.000			-4.660			-1.553
220400.000			-4.659			-1.553
220500.000			-4.659			-1.553
220601.000			-4.658			-1.553
220700.000			-4.659			-1.553
220801.000			-4.658			-1.553
220902.000			-4.659			-1.553
221001.000			-4.659			-1.553
221100.000			-4.659			-1.553
221201.000			-4.658			-1.553
221300.000			-4.658			-1.553
221400.000			-4.659			-1.553
221501.000			-4.660			-1.553
221600.000			-4.658			-1.553
221701.000			-4.659			-1.553
221802.000			-4.659			-1.553
221901.000			-4.659			-1.553
222000.000			-4.659			-1.553
222101.000			-4.658			-1.553
222200.000			-4.659			-1.553
222300.000			-4.659			-1.553
222400.000			-4.659			-1.553
222500.000			-4.658			-1.553
222601.000			-4.658			-1.553
222701.000			-4.659			-1.553
222801.000			-4.658			-1.553
222901.000			-4.658			-1.553
223000.000			-4.659			-1.553
223100.000			-4.659			-1.553
223201.000			-4.659			-1.553
223300.000			-4.658			-1.553
223400.000			-4.657			-1.552
223501.000			-4.657			-1.552
223601.000			-4.657			-1.552
223701.000			-4.657			-1.552
223801.000			-4.658			-1.553
223900.000			-4.658			-1.553
224000.000			-4.657			-1.552
224101.000			-4.658			-1.553
224200.000			-4.657			-1.552
224300.000			-4.657			-1.552
224401.000			-4.658			-1.553
224501.000			-4.658			-1.553
224601.000			-4.657			-1.552
224702.000			-4.657			-1.552
224800.000			-4.657			-1.552
224900.000			-4.656			-1.552
225001.000			-4.657			-1.552
225100.000			-4.657			-1.552
225200.000			-4.658			-1.553
225301.000			-4.657			-1.552
225401.000			-4.656			-1.552
225502.000			-4.657			-1.552
225601.000			-4.657			-1.552
225700.000			-4.656			-1.552
225801.000			-4.656			-1.552
225900.000			-4.655			-1.552
226000.000			-4.657			-1.552
226101.000			-4.657			-1.552
226200.000			-4.657			-1.552
226300.000			-4.657			-1.552
226402.000			-4.656			-1.552
226501.000			-4.655			-1.552
226600.000			-4.655			-1.552
226701.000			-4.656			-1.552
226800.000			-4.656			-1.552
226900.000			-4.656			-1.552
227001.000			-4.656			-1.552
227100.000			-4.656			-1.552
227200.000			-4.656			-1.552
227302.000			-4.656			-1.552
227401.000			-4.655			-1.552
227501.000			-4.656			-1.552
227601.000			-4.656			-1.552
227700.000			-4.655			-1.552
227800.000			-4.655			-1.552
227901.000			-4.656			-1.552
228000.000			-4.655			-1.552
228100.000			-4.655			-1.552
228201.000			-4.655			-1.552
228301.000			-4.655			-1.552
228401.000			-4.655			-1.552
228501.000			-4.655			-1.552
228600.000			-4.655			-1.552
228700.000			-4.654			-1.551
228800.000			-4.655			-1.552
228900.000			-4.655			-1.552
229001.000			-4.655			-1.552
229100.000			-4.654			-1.551
229201.000			-4.655			-1.552
229302.000			-4.656			-1.552
229401.000			-4.655			-1.552
229500.000			-4.655			-1.552
229601.000			-4.654			-1.551
229700.000			-4.654			-1.551
229800.000			-4.655			-1.552
229901.000			-4.654			-1.551
230000.000			-4.654			-1.551
230101.000			-4.655			-1.552
230202.000			-4.654			-1.551
230301.000			-4.654			-1.551
230400.000			-4.654			-1.551
230501.000			-4.654			-1.551
230600.000			-4.654			-1.551
230700.000			-4.655			-1.552
230801.000			-4.655			-1.552
230900.000			-4.654			-1.551
231000.000			-4.653			-1.551
231102.000			-4.653			-1.551
231201.000			-4.653			-1.551
231300.000			-4.654			-1.551
231401.000			-4.654			-1.551
231500.000			-4.654			-1.551
231600.000			-4.653			-1.551
231701.000			-4.653			-1.551
231800.000			-4.653			-1.551
231900.000			-4.653			-1.551
232002.000			-4.653			-1.551
232101.000			-4.654			-1.551
232201.000			-4.653			-1.551
232300.000			-4.653			-1.551
232400.000			-4.654			-1.551
232501.000			-4.653			-1.551
232600.000			-4.653			-1.551
232700.000			-4.652			-1.551
232801.000			-4.653			-1.551
232901.000			-4.653			-1.551
233001.000			-4.652			-1.551
233101.000			-4.652			-1.551
233200.000			-4.654			-1.551
233300.000			-4.653			-1.551
233401.000			-4.653			-1.551
233500.000			-4.653			-1.551
233600.000			-4.652			-1.551
233701.000			-4.652			-1.551
233801.000			-4.652			-1.551
233901.000			-4.651			-1.550
234001.000			-4.652			-1.551
234100.000			-4.652			-1.551
234200.000			-4.651			-1.550
234301.000			-4.651			-1.550
234400.000			-4.651			-1.550
234500.000			-4.652			-1.551
234602.000			-4.653			-1.551
234701.000			-4.652			-1.551
234801.000			-4.653			-1.551
234901.000			-4.651			-1.550
235000.000			-4.652			-1.551
235100.000			-4.653			-1.551
235200.000			-4.652			-1.551
235300.000			-4.652			-1.551
235401.000			-4.653			-1.551
235500.000			-4.651			-1.550
235601.000			-4.651			-1.550
235702.000			-4.651			-1.550
235800.000			-4.652			-1.551
235900.000			-4.651			-1.550
236001.000			-4.651			-1.550
236100.000			-4.652			-1.551
236200.000			-4.652			-1.551
236301.000			-4.652			-1.551
236400.000			-4.651			-1.550
236501.000			-4.651			-1.550
236602.000			-4.650			-1.550
236700.000			-4.651			-1.550
236800.000			-4.651			-1.550
236901.000			-4.651			-1.550
237000.000			-4.651			-1.550
237100.000			-4.650			-1.550
237201.000			-4.651			-1.550
237300.000			-4.651			-1.550
237401.000			-4.650			-1.550
237502.000			-4.650			-1.550
237600.000			-4.651			-1.550
237700.000			-4.651			-1.550
237801.000			-4.652			-1.551
237900.000			-4.651			-1.550
238000.000			-4.650			-1.550
238101.000			-4.650			-1.550
238200.000			-4.650			-1.550
238302.000			-4.650			-1.550
238401.000			-4.650			-1.550
238501.000			-4.649			-1.550
238601.000			-4.649			-1.550
238700.000			-4.650			-1.550
238800.000			-4.651			-1.550
238901.000			-4.651			-1.550
239000.000			-4.649			-1.550
239100.000			-4.649			-1.550
239201.000			-4.650			-1.550
239301.000			-4.650			-1.550
239401.000			-4.649			-1.550
239501.000			-4.650			-1.550
239600.000			-4.650			-1.550
239700.000			-4.650			-1.550
239801.000			-4.651			-1.550
239900.000			-4.650			-1.550
240000.000			-4.651			-1.550
240101.000			-4.651			-1.550
240201.000			-4.649			-1.550
240301.000			-4.649			-1.550
240401.000			-4.650			-1.550
240500.000			-4.649			-1.550
240600.000			-4.648			-1.549
240701.000			-4.649			-1.550
240800.000			-4.649			-1.550
240900.000			-4.650			-1.550
241001.000			-4.649			-1.550
241101.000			-4.649			-1.550
241201.000			-4.649			-1.550
241302.000			-4.649			-1.550
241400.000			-4.649			-1.550
241500.000			-4.649			-1.550
241600.000			-4.649			-1.550
241700.000			-4.649			-1.550
241801.000			-4.648			-1.549
241900.000			-4.648			-1.549
242000.000			-4.648			-1.549
242102.000			-4.648			-1.549
242201.000			-4.648			-1.549
242300.000			-4.649			-1.550
242401.000			-4.648			-1.549
242500.000			-4.648			-1.549
242600.000			-4.648			-1.549
242701.000			-4.648			-1.549
242800.000			-4.648			-1.549
242900.000			-4.647			-1.549
243002.000			-4.648			-1.549
243101.000			-4.648			-1.549
243201.000			-4.649			-1.550
243301.000			-4.648			-1.549
243400.000			-4.647			-1.549
243500.000			-4.648			-1.549
243601.000			-4.648			-1.549
243700.000			-4.648			-1.549
243800.000			-4.647			-1.549
243902.000			-4.648			-1.549
244001.000			-4.648			-1.549
244101.000			-4.648			-1.549
244201.000			-4.647			-1.549
244300.000			-4.647			-1.549
244400.000			-4.646			-1.549
244501.000			-4.647			-1.549
244600.000			-4.647			-1.549
244700.000			-4.647			-1.549
244800.000			-4.647			-1.549
244901.000			-4.645			-1.548
245002.000			-4.645			-1.548
245101.000			-4.645			-1.548
245200.000			-4.645			-1.548
245301.000			-4.645			-1.548
245400.000			-4.645			-1.548
245500.000			-4.645			-1.548
245601.000			-4.645			-1.548
245700.000			-4.645			-1.548
245801.000			-4.645			-1.548
245902.000			-4.646			-1.549
246001.000			-4.645			-1.548
246100.000			-4.645			-1.548
246201.000			-4.646			-1.549
246300.000			-4.645			-1.548
246400.000			-4.645			-1.548
246501.000			-4.645			-1.548
246600.000			-4.646			-1.549
246700.000			-4.645			-1.548
246802.000			-4.645			-1.548
246901.000			-4.645			-1.548
247000.000			-4.644			-1.548
247101.000			-4.645			-1.548
247200.000			-4.645			-1.548
247300.000			-4.645			-1.548
247401.000			-4.644			-1.548
247500.000			-4.644			-1.548
247600.000			-4.644			-1.548
247702.000			-4.644			-1.548
247801.000			-4.645			-1.548
247902.000			-4.645			-1.548
248000.000			-4.645			-1.548
248100.000			-4.644			-1.548
248201.000			-4.644			-1.548
248300.000			-4.644			-1.548
248400.000			-4.644			-1.548
248501.000			-4.644			-1.548
248600.000			-4.643			-1.548
248701.000			-4.642			-1.547
248802.000			-4.643			-1.548
248900.000			-4.644			-1.548
249000.000			-4.643			-1.548
249101.000			-4.643			-1.548
249200.000			-4.643			-1.548
249300.000			-4.642			-1.547
249401.000			-4.642			-1.547
249500.000			-4.641			-1.547
249601.000			-4.641			-1.547
249702.000			-4.642			-1.547
249801.000			-4.642			-1.547
249900.000			-4.642			-1.547
250001.000			-4.642			-1.547
250100.000			-4.642			-1.547
250200.000			-4.641			-1.547
250301.000			-4.641			-1.547
250400.000			-4.642			-1.547
250501.000			-4.641			-1.547
250602.000			-4.641			-1.547
250700.000			-4.640			-1.547
250800.000			-4.641			-1.547
250901.000			-4.642			-1.547
251000.000			-4.642			-1.547
251100.000			-4.641			-1.547
251200.000			-4.641			-1.547
251300.000			-4.641			-1.547
251402.000			-4.640			-1.547
251501.000			-4.640			-1.547
251600.000			-4.640			-1.547
251701.000			-4.640			-1.547
251800.000			-4.639			-1.546
251900.000			-4.639			-1.546
252001.000			-4.639			-1.546
252100.000			-4.640			-1.547
252200.000			-4.640			-1.547
252302.000			-4.639			-1.546
252401.000			-4.640			-1.547
252501.000			-4.640			-1.547
252601.000			-4.639			-1.546
252700.000			-4.639			-1.546
252800.000			-4.639			-1.546
252901.000			-4.638			-1.546
253000.000			-4.639			-1.546
253100.000			-4.638			-1.546
253202.000			-4.639			-1.546
253301.000			-4.640			-1.547
253401.000			-4.639			-1.546
253501.000			-4.639			-1.546
253600.000			-4.639			-1.546
253700.000			-4.639			-1.546
253801.000			-4.639			-1.546
253900.000			-4.640			-1.547
254000.000			-4.640			-1.547
254101.000			-4.639			-1.546
254201.000			-4.639			-1.546
254302.000			-4.639			-1.546
254400.000			-4.638			-1.546
254500.000			-4.639			-1.546
254601.000			-4.639			-1.546
254700.000			-4.638			-1.546
254800.000			-4.639			-1.546
254901.000			-4.639			-1.546
255000.000			-4.639			-1.546
255101.000			-4.640			-1.547
255202.000			-4.640			-1.547
255301.000			-4.639			-1.546
255400.000			-4.640			-1.547
255501.000			-4.640			-1.547
255600.000			-4.639			-1.546
255700.000			-4.640			-1.547
255801.000			-4.638			-1.546
255900.000			-4.639			-1.546
256000.000			-4.639			-1.546
256102.000			-4.638			-1.546
256201.000			-4.639			-1.546
256301.000			-4.638			-1.546
256401.000			-4.638			-1.546
256500.000			-4.638			-1.546
256600.000			-4.638			-1.546
256701.000			-4.638			-1.546
256800.000			-4.637			-1.546
256900.000			-4.637			-1.546
257001.000			-4.637			-1.546
257101.000			-4.638			-1.546
257201.000			-4.637			-1.546
257301.000			-4.637			-1.546
257400.000			-4.637			-1.546
257500.000			-4.637			-1.546
257600.000			-4.637			-1.546
257700.000			-4.638			-1.546
257801.000			-4.637			-1.546
257900.000			-4.636			-1.545
258001.000			-4.637			-1.546
258102.000			-4.637			-1.546
258201.000			-4.636			-1.545
258300.000			-4.637			-1.546
258401.000			-4.636			-1.545
258500.000			-4.636			-1.545
258600.000			-4.637			-1.546
258701.000			-4.637			-1.546
258800.000			-4.637			-1.546
258901.000			-4.636			-1.545
259002.000			-4.636			-1.545
259101.000			-4.636			-1.545
259200.000			-4.636			-1.545
259301.000			-4.636			-1.545
259400.000			-4.636			-1.545
259500.000			-4.636			-1.545
259601.000			-4.637			-1.546
259700.000			-4.637			-1.546
259800.000			-4.637			-1.546
259902.000			-4.636			-1.545
260001.000			-4.635			-1.545
260100.000			-4.636			-1.545
260201.000			-4.636			-1.545
260300.000			-4.635			-1.545
260400.000			-4.635			-1.545
260501.000			-4.635			-1.545
260600.000			-4.635			-1.545
260700.000			-4.635			-1.545
260802.000			-4.637			-1.546
260901.000			-4.636			-1.545
261002.000			-4.636			-1.545
261100.000			-4.635			-1.545
261200.000			-4.636			-1.545
261301.000			-4.636			-1.545
261400.000			-4.636			-1.545
261500.000			-4.636			-1.545
261601.000			-4.636			-1.545
261701.000			-4.636			-1.545
261801.000			-4.635			-1.545
261902.000			-4.636			-1.545
262000.000			-4.637			-1.546
262100.000			-4.637			-1.546
262201.000			-4.636			-1.545
262300.000			-4.636			-1.545
262400.000			-4.636			-1.545
262501.000			-4.635			-1.545
262601.000			-4.634			-1.545
262701.000			-4.634			-1.545
262802.000			-4.634			-1.545
262900.000			-4.635			-1.545
263000.000			-4.634			-1.545
263101.000			-4.635			-1.545
263200.000			-4.636			-1.545
263300.000			-4.635			-1.545
263401.000			-4.635			-1.545
263500.000			-4.636			-1.545
263601.000			-4.634			-1.545
263702.000			-4.633			-1.544
263800.000			-4.633			-1.544
263900.000			-4.635			-1.545
264000.000			-4.636			-1.545
264100.000			-4.635			-1.545
264201.000			-4.636			-1.545
264300.000			-4.634			-1.545
264400.000			-4.635			-1.545
264502.000			-4.635			-1.545
264601.000			-4.635			-1.545
264700.000			-4.635			-1.545
264801.000			-4.634			-1.545
264900.000			-4.634			-1.545
265000.000			-4.634			-1.545
265101.000			-4.634			-1.545
265200.000			-4.634			-1.545
265300.000			-4.634			-1.545
265402.000			-4.634			-1.545
265501.000			-4.634			-1.545
265600.000			-4.633			-1.544
265701.000			-4.633			-1.544
265800.000			-4.634			-1.545
265900.000			-4.634			-1.545
266001.000			-4.634			-1.545
266100.000			-4.635			-1.545
266200.000			-4.635			-1.545
266302.000			-4.634			-1.545
266401.000			-4.633			-1.544
266501.000			-4.634			-1.545
266601.000			-4.634			-1.545
266700.000			-4.633			-1.544
266800.000			-4.634			-1.545
266901.000			-4.634			-1.545
267000.000			-4.634			-1.545
267100.000			-4.633			-1.544
267202.000			-4.633			-1.544
267301.000			-4.634			-1.545
267402.000			-4.633			-1.544
267500.000			-4.633			-1.544
267600.000			-4.634			-1.545
267701.000			-4.633			-1.544
267800.000			-4.634			-1.545
267900.000			-4.634			-1.545
268001.000			-4.633			-1.544
268100.000			-4.634			-1.545
268201.000			-4.633			-1.544
268302.000			-4.634			-1.545
268400.000			-4.633			-1.544
268500.000			-4.633			-1.544
268601.000			-4.634			-1.545
268700.000			-4.634			-1.545
268800.000			-4.633			-1.544
268901.000			-4.633			-1.544
269000.000			-4.633			-1.544
269101.000			-4.632			-1.544
269202.000			-4.633			-1.544
269301.000			-4.633			-1.544
269400.000			-4.634			-1.545
269501.000			-4.633			-1.544
269600.000			-4.634			-1.545
269700.000			-4.633			-1.544
269801.000			-4.632			-1.544
269900.000			-4.634			-1.545
270001.000			-4.633			-1.544
270102.000			-4.632			-1.544
270201.000			-4.632			-1.544
270300.000			-4.633			-1.544
270400.000			-4.634			-1.545
270500.000			-4.634			-1.545
270601.000			-4.633			-1.544
270700.000			-4.632			-1.544
270800.000			-4.632			-1.544
270902.000			-4.633			-1.544
271001.000			-4.633			-1.544
271101.000			-4.632			-1.544
271201.000			-4.632			-1.544
271300.000			-4.632			-1.544
271400.000			-4.633			-1.544
271501.000			-4.632			-1.544
271600.000			-4.632			-1.544
271700.000			-4.632			-1.544
271802.000			-4.632			-1.544
271901.000			-4.632			-1.544
272001.000			-4.632			-1.544
272101.000			-4.633			-1.544
272200.000			-4.632			-1.544
272300.000			-4.632			-1.544
272401.000			-4.633			-1.544
272500.000			-4.631			-1.544
272600.000			-4.631			-1.544
272702.000			-4.632			-1.544
272801.000			-4.632			-1.544
272901.000			-4.632			-1.544
273001.000			-4.631			-1.544
273100.000			-4.631			-1.544
273200.000			-4.633			-1.544
273301.000			-4.632			-1.544
273400.000			-4.631			-1.544
273500.000			-4.631			-1.544
273602.000			-4.632			-1.544
273701.000			-4.631			-1.544
273802.000			-4.631			-1.544
273900.000			-4.631			-1.544
274000.000			-4.631			-1.544
274101.000			-4.631			-1.544
274200.000			-4.631			-1.544
274300.000			-4.631			-1.544
274401.000			-4.631			-1.544
274501.000			-4.632			-1.544
274601.000			-4.631			-1.544
274702.000			-4.630			-1.543
274800.000			-4.631			-1.544
274900.000			-4.632			-1.544
275001.000			-4.631			-1.544
275100.000			-4.631			-1.544
275200.000			-4.631			-1.544
275301.000			-4.631			-1.544
275401.000			-4.632			-1.544
275501.000			-4.631			-1.544
275602.000			-4.630			-1.543
275700.000			-4.630			-1.543
275800.000			-4.632			-1.544
275901.000			-4.633			-1.544
276000.000			-4.632			-1.544
276100.000			-4.632			-1.544
276201.000			-4.631			-1.544
276300.000			-4.630			-1.543
276401.000			-4.630			-1.543
276502.000			-4.631			-1.544
276600.000			-4.632			-1.544
276700.000			-4.630			-1.543
276800.000			-4.630			-1.543
276900.000			-4.631			-1.544
277001.000			-4.630			-1.543
277100.000			-4.630			-1.543
277200.000			-4.631			-1.544
277302.000			-4.631			-1.544
277401.000			-4.630			-1.543
277500.000			-4.630			-1.543
277601.000			-4.631			-1.544
277700.000			-4.630			-1.543
277800.000			-4.630			-1.543
277901.000			-4.629			-1.543
278000.000			-4.629			-1.543
278100.000			-4.630			-1.543
278202.000			-4.631			-1.544
278301.000			-4.629			-1.543
278401.000			-4.631			-1.544
278501.000			-4.631			-1.544
278600.000			-4.631			-1.544
278700.000			-4.630			-1.543
278801.000			-4.630			-1.543
278900.000			-4.630			-1.543
279000.000			-4.630			-1.543
279102.000			-4.629			-1.543
279201.000			-4.630			-1.543
279301.000			-4.630			-1.543
279401.000			-4.630			-1.543
279500.000			-4.630			-1.543
279600.000			-4.630			-1.543
279701.000			-4.630			-1.543
279800.000			-4.630			-1.543
279900.000			-4.630			-1.543
280000.000			-4.629			-1.543
280101.000			-4.629			-1.543
280202.000			-4.630			-1.543
280301.000			-4.629			-1.543
280400.000			-4.628			-1.543
280501.000			-4.628			-1.543
280600.000			-4.628			-1.543
280700.000			-4.629			-1.543
280801.000			-4.630			-1.543
280900.000			-4.629			-1.543
281000.000			-4.628			-1.543
281102.000			-4.629			-1.543
281201.000			-4.629			-1.543
281300.000			-4.628			-1.543
281401.000			-4.628			-1.543
281500.000			-4.628			-1.543
281600.000			-4.628			-1.543
281701.000			-4.628			-1.543
281800.000			-4.628			-1.543
281900.000			-4.628			-1.543
282002.000			-4.628			-1.543
282101.000			-4.628			-1.543
282200.000			-4.628			-1.543
282301.000			-4.628			-1.543
282400.000			-4.627			-1.542
282500.000			-4.628			-1.543
282601.000			-4.628			-1.543
282700.000			-4.627			-1.542
282800.000			-4.626			-1.542
282902.000			-4.626			-1.542
283001.000			-4.626			-1.542
283102.000			-4.626			-1.542
283200.000			-4.626			-1.542
283300.000			-4.626			-1.542
283401.000			-4.625			-1.542
283500.000			-4.625			-1.542
283600.000			-4.627			-1.542
283701.000			-4.627			-1.542
283801.000			-4.625			-1.542
283901.000			-4.626			-1.542
284002.000			-4.625			-1.542
284100.000			-4.626			-1.542
284200.000			-4.626			-1.542
284301.000			-4.625			-1.542
284400.000			-4.626			-1.542
284500.000			-4.626			-1.542
284601.000			-4.626			-1.542
284700.000			-4.626			-1.542
284801.000			-4.625			-1.542
284902.000			-4.625			-1.542
285000.000			-4.624			-1.541
285100.000			-4.624			-1.541
285201.000			-4.625			-1.542
285300.000			-4.626			-1.542
285400.000			-4.625			-1.542
285501.000			-4.624			-1.541
285600.000			-4.624			-1.541
285701.000			-4.625			-1.542
285802.000			-4.626			-1.542
285901.000			-4.625			-1.542
286000.000			-4.625			-1.542
286101.000			-4.625			-1.542
286200.000			-4.626			-1.542
286300.000			-4.624			-1.541
286400.000			-4.623			-1.541
286500.000			-4.623			-1.541
286601.000			-4.624			-1.541
286701.000			-4.624			-1.541
286801.000			-4.623			-1.541
286901.000			-4.623			-1.541
287000.000			-4.624			-1.541
287100.000			-4.624			-1.541
287201.000			-4.624			-1.541
287300.000			-4.623			-1.541
287400.000			-4.624			-1.541
287501.000			-4.625			-1.542
287601.000			-4.625			-1.542
287701.000			-4.625			-1.542
287801.000			-4.625			-1.542
287900.000			-4.624			-1.541
288000.000			-4.624			-1.541
288101.000			-4.625			-1.542
288200.000			-4.624			-1.541
288300.000			-4.624			-1.541
288401.000			-4.625			-1.542
288501.000			-4.625			-1.542
288601.000			-4.623			-1.541
288702.000			-4.623			-1.541
288800.000			-4.624			-1.541
288900.000			-4.624			-1.541
289001.000			-4.622			-1.541
289100.000			-4.623			-1.541
289200.000			-4.624			-1.541
289301.000			-4.624			-1.541
289400.000			-4.625			-1.542
289502.000			-4.624			-1.541
289601.000			-4.623			-1.541
289700.000			-4.623			-1.541
289801.000			-4.623			-1.541
289900.000			-4.623			-1.541
290000.000			-4.623			-1.541
290101.000			-4.623			-1.541
290200.000			-4.623			-1.541
290300.000			-4.624			-1.541
290402.000			-4.624			-1.541
290501.000			-4.624			-1.541
290600.000			-4.624			-1.541
290701.000			-4.623			-1.541
290800.000			-4.623			-1.541
290900.000			-4.624			-1.541
291001.000			-4.624			-1.541
291100.000			-4.624			-1.541
291200.000			-4.624			-1.541
291302.000			-4.623			-1.541
291401.000			-4.624			-1.541
291500.000			-4.623			-1.541
291601.000			-4.622			-1.541
291700.000			-4.622			-1.541
291800.000			-4.623			-1.541
291901.000			-4.623			-1.541
292000.000			-4.623			-1.541
292100.000			-4.623			-1.541
292202.000			-4.623			-1.541
292301.000			-4.624			-1.541
292400.000			-4.624			-1.541
292501.000			-4.624			-1.541
292600.000			-4.624			-1.541
292700.000			-4.625			-1.542
292800.000			-4.624			-1.541
292900.000			-4.623			-1.541
293001.000			-4.622			-1.541
293101.000			-4.622			-1.541
293201.000			-4.622			-1.541
293301.000			-4.622			-1.541
293400.000			-4.623			-1.541
293500.000			-4.623			-1.541
293601.000			-4.622			-1.541
293700.000			-4.622			-1.541
293800.000			-4.623			-1.541
293901.000			-4.623			-1.541
294001.000			-4.623			-1.541
294101.000			-4.622			-1.541
294202.000			-4.623			-1.541
294300.000			-4.623			-1.541
294400.000			-4.623			-1.541
294501.000			-4.622			-1.541
294600.000			-4.623			-1.541
294700.000			-4.623			-1.541
294801.000			-4.622			-1.541
294900.000			-4.622			-1.541
295001.000			-4.622			-1.541
295102.000			-4.623			-1.541
295200.000			-4.621			-1.540
295300.000			-4.623			-1.541
295401.000			-4.623			-1.541
295500.000			-4.622			-1.541
295600.000			-4.622			-1.541
295701.000			-4.622			-1.541
295800.000			-4.623			-1.541
295902.000			-4.622			-1.541
296001.000			-4.622			-1.541
296100.000			-4.622			-1.541
296201.000			-4.622			-1.541
296300.000			-4.622			-1.541
296400.000			-4.622			-1.541
296501.000			-4.621			-1.540
296600.000			-4.621			-1.540
296700.000			-4.622			-1.541
296802.000			-4.621			-1.540
296901.000			-4.621			-1.540
297001.000			-4.621			-1.540
297101.000			-4.621			-1.540
297200.000			-4.622			-1.541
297300.000			-4.622			-1.541
297401.000			-4.622			-1.541
297500.000			-4.621			-1.540
297600.000			-4.622			-1.541
297702.000			-4.622			-1.540
297801.000			-4.621			-1.540
297901.000			-4.622			-1.541
298001.000			-4.622			-1.541
298100.000			-4.621			-1.540
298200.000			-4.621			-1.540
298301.000			-4.621			-1.540
298400.000			-4.620			-1.540
298500.000			-4.620			-1.540
298601.000			-4.620			-1.540
298701.000			-4.621			-1.540
298801.000			-4.621			-1.540
298901.000			-4.621			-1.540
299000.000			-4.621			-1.540
299100.000			-4.620			-1.540
299200.000			-4.620			-1.540
299300.000			-4.620			-1.540
299401.000			-4.621			-1.540
299500.000			-4.620			-1.540
299601.000			-4.620			-1.540
299702.000			-4.620			-1.540
299801.000			-4.620			-1.540
299900.000			-4.620			-1.540
