# Acquired on 26/01/2024 13:45:35 
# SPIDER: Creep_5mm_HM077x145x38AB-1
# CREEP MEASUREMENT

# time [ms]		force [N]		stiffness [N/mm]
0.000			-17.275			-3.455
104.000			-17.786			-3.557
205.000			-17.892			-3.578
303.000			-17.843			-3.569
404.000			-17.796			-3.559
505.000			-17.758			-3.552
604.000			-17.697			-3.539
704.000			-17.671			-3.534
805.000			-17.648			-3.530
904.000			-17.627			-3.525
1003.000			-17.607			-3.521
1105.000			-17.588			-3.518
1204.000			-17.572			-3.514
1304.000			-17.541			-3.508
1405.000			-17.526			-3.505
1503.000			-17.512			-3.502
1604.000			-17.499			-3.500
1705.000			-17.486			-3.497
1804.000			-17.474			-3.495
1904.000			-17.462			-3.492
2005.000			-17.441			-3.488
2104.000			-17.430			-3.486
2203.000			-17.422			-3.484
2305.000			-17.412			-3.482
2404.000			-17.402			-3.480
2504.000			-17.394			-3.479
2605.000			-17.386			-3.477
2703.000			-17.378			-3.476
2804.000			-17.361			-3.472
2905.000			-17.353			-3.471
3004.000			-17.345			-3.469
3104.000			-17.337			-3.467
3204.000			-17.330			-3.466
3304.000			-17.323			-3.465
3404.000			-17.316			-3.463
3504.000			-17.302			-3.460
3604.000			-17.297			-3.459
3705.000			-17.290			-3.458
3804.000			-17.284			-3.457
3904.000			-17.278			-3.456
4005.000			-17.272			-3.454
4103.000			-17.266			-3.453
4204.000			-17.253			-3.451
4305.000			-17.248			-3.450
4404.000			-17.242			-3.448
4504.000			-17.238			-3.448
4604.000			-17.233			-3.447
4704.000			-17.228			-3.446
4804.000			-17.223			-3.445
4905.000			-17.212			-3.442
5004.000			-17.208			-3.442
5104.000			-17.204			-3.441
5205.000			-17.200			-3.440
5303.000			-17.195			-3.439
5404.000			-17.188			-3.438
5505.000			-17.183			-3.437
5604.000			-17.179			-3.436
5704.000			-17.171			-3.434
5804.000			-17.167			-3.433
5904.000			-17.162			-3.432
6003.000			-17.158			-3.432
6105.000			-17.153			-3.431
6204.000			-17.150			-3.430
6304.000			-17.145			-3.429
6405.000			-17.136			-3.427
6503.000			-17.133			-3.427
6605.000			-17.130			-3.426
6704.000			-17.125			-3.425
6804.000			-17.121			-3.424
6905.000			-17.118			-3.424
7004.000			-17.114			-3.423
7104.000			-17.106			-3.421
7204.000			-17.102			-3.420
7304.000			-17.098			-3.420
7404.000			-17.094			-3.419
7505.000			-17.090			-3.418
7604.000			-17.086			-3.417
7703.000			-17.084			-3.417
7805.000			-17.076			-3.415
7904.000			-17.074			-3.415
8004.000			-17.070			-3.414
8105.000			-17.067			-3.413
8204.000			-17.064			-3.413
8304.000			-17.060			-3.412
8404.000			-17.056			-3.411
8504.000			-17.053			-3.411
8604.000			-17.048			-3.410
8705.000			-17.045			-3.409
8804.000			-17.043			-3.409
8903.000			-17.039			-3.408
9005.000			-17.036			-3.407
9104.000			-17.034			-3.407
9204.000			-17.032			-3.406
9305.000			-17.026			-3.405
9404.000			-17.023			-3.405
9504.000			-17.019			-3.404
9603.000			-17.018			-3.404
9704.000			-17.015			-3.403
9805.000			-17.012			-3.402
9904.000			-17.009			-3.402
10004.000			-17.004			-3.401
10105.000			-17.002			-3.400
10204.000			-16.999			-3.400
10303.000			-16.997			-3.399
10405.000			-16.994			-3.399
10504.000			-16.992			-3.398
10604.000			-16.988			-3.398
10705.000			-16.983			-3.397
10804.000			-16.980			-3.396
10904.000			-16.978			-3.396
11004.000			-16.976			-3.395
11104.000			-16.973			-3.395
11204.000			-16.971			-3.394
11305.000			-16.969			-3.394
11404.000			-16.966			-3.393
11504.000			-16.962			-3.392
11605.000			-16.960			-3.392
11703.000			-16.956			-3.391
11804.000			-16.955			-3.391
11905.000			-16.953			-3.391
12004.000			-16.950			-3.390
12104.000			-16.948			-3.390
12204.000			-16.944			-3.389
12304.000			-16.943			-3.389
12403.000			-16.940			-3.388
12505.000			-16.936			-3.387
12604.000			-16.935			-3.387
12704.000			-16.933			-3.387
12805.000			-16.931			-3.386
12903.000			-16.927			-3.385
13005.000			-16.925			-3.385
13104.000			-16.922			-3.384
13204.000			-16.920			-3.384
13305.000			-16.918			-3.384
13404.000			-16.917			-3.383
13504.000			-16.914			-3.383
13604.000			-16.911			-3.382
13704.000			-16.909			-3.382
13804.000			-16.906			-3.381
13905.000			-16.904			-3.381
14004.000			-16.903			-3.381
14104.000			-16.901			-3.380
14205.000			-16.898			-3.380
14303.000			-16.896			-3.379
14404.000			-16.892			-3.378
14505.000			-16.891			-3.378
14604.000			-16.889			-3.378
14704.000			-16.887			-3.377
14805.000			-16.886			-3.377
14904.000			-16.884			-3.377
15003.000			-16.882			-3.376
15105.000			-16.878			-3.376
15204.000			-16.876			-3.375
15304.000			-16.873			-3.375
15405.000			-16.872			-3.374
15504.000			-16.870			-3.374
15604.000			-16.868			-3.374
15704.000			-16.867			-3.373
15804.000			-16.864			-3.373
15904.000			-16.862			-3.372
16004.000			-16.861			-3.372
16104.000			-16.858			-3.372
16205.000			-16.857			-3.371
16304.000			-16.855			-3.371
16403.000			-16.853			-3.371
16505.000			-16.852			-3.370
16604.000			-16.848			-3.370
16704.000			-16.847			-3.369
16805.000			-16.846			-3.369
16904.000			-16.843			-3.369
17004.000			-16.843			-3.369
17104.000			-16.840			-3.368
17204.000			-16.838			-3.368
17304.000			-16.835			-3.367
17405.000			-16.833			-3.367
17504.000			-16.832			-3.366
17604.000			-16.831			-3.366
17705.000			-16.829			-3.366
17803.000			-16.828			-3.366
17904.000			-16.825			-3.365
18005.000			-16.822			-3.364
18104.000			-16.821			-3.364
18204.000			-16.819			-3.364
18305.000			-16.817			-3.363
18404.000			-16.815			-3.363
18503.000			-16.815			-3.363
18605.000			-16.813			-3.363
18704.000			-16.811			-3.362
18804.000			-16.810			-3.362
18905.000			-16.808			-3.362
19004.000			-16.806			-3.361
19104.000			-16.805			-3.361
19203.000			-16.803			-3.361
19304.000			-16.800			-3.360
19405.000			-16.799			-3.360
19504.000			-16.798			-3.360
19604.000			-16.795			-3.359
19705.000			-16.794			-3.359
19804.000			-16.793			-3.359
19903.000			-16.791			-3.358
20005.000			-16.790			-3.358
20104.000			-16.789			-3.358
20204.000			-16.786			-3.357
20305.000			-16.784			-3.357
20404.000			-16.783			-3.357
20504.000			-16.781			-3.356
20604.000			-16.780			-3.356
20704.000			-16.778			-3.356
20804.000			-16.776			-3.355
20905.000			-16.774			-3.355
21004.000			-16.772			-3.354
21104.000			-16.772			-3.354
21205.000			-16.771			-3.354
21303.000			-16.769			-3.354
21404.000			-16.768			-3.354
21505.000			-16.767			-3.353
21604.000			-16.764			-3.353
21704.000			-16.762			-3.352
21804.000			-16.761			-3.352
21904.000			-16.761			-3.352
22003.000			-16.759			-3.352
22105.000			-16.756			-3.351
22204.000			-16.755			-3.351
22304.000			-16.755			-3.351
22405.000			-16.751			-3.350
22503.000			-16.750			-3.350
22605.000			-16.750			-3.350
22704.000			-16.748			-3.350
22804.000			-16.746			-3.349
22905.000			-16.745			-3.349
23004.000			-16.744			-3.349
23104.000			-16.742			-3.348
23204.000			-16.741			-3.348
23304.000			-16.740			-3.348
23404.000			-16.739			-3.348
23505.000			-16.736			-3.347
23604.000			-16.736			-3.347
23704.000			-16.735			-3.347
23805.000			-16.731			-3.346
23903.000			-16.730			-3.346
24004.000			-16.730			-3.346
24105.000			-16.729			-3.346
24204.000			-16.726			-3.345
24304.000			-16.725			-3.345
24405.000			-16.725			-3.345
24504.000			-16.722			-3.344
24603.000			-16.721			-3.344
24705.000			-16.721			-3.344
24804.000			-16.720			-3.344
24904.000			-16.718			-3.344
25005.000			-16.717			-3.343
25104.000			-16.716			-3.343
25204.000			-16.714			-3.343
25304.000			-16.712			-3.342
25404.000			-16.711			-3.342
25504.000			-16.710			-3.342
25604.000			-16.708			-3.342
25704.000			-16.707			-3.341
25805.000			-16.707			-3.341
25904.000			-16.706			-3.341
26003.000			-16.705			-3.341
26105.000			-16.702			-3.340
26204.000			-16.701			-3.340
26304.000			-16.698			-3.340
26405.000			-16.698			-3.340
26504.000			-16.698			-3.340
26604.000			-16.697			-3.339
26704.000			-16.695			-3.339
26804.000			-16.694			-3.339
26904.000			-16.692			-3.338
27005.000			-16.691			-3.338
27104.000			-16.691			-3.338
27204.000			-16.689			-3.338
27305.000			-16.688			-3.338
27403.000			-16.687			-3.337
27504.000			-16.685			-3.337
27605.000			-16.682			-3.336
27704.000			-16.681			-3.336
27804.000			-16.680			-3.336
27905.000			-16.680			-3.336
28004.000			-16.679			-3.336
28103.000			-16.678			-3.336
28205.000			-16.675			-3.335
28304.000			-16.674			-3.335
28404.000			-16.674			-3.335
28505.000			-16.673			-3.335
28604.000			-16.671			-3.334
28704.000			-16.670			-3.334
28803.000			-16.669			-3.334
28904.000			-16.667			-3.333
29005.000			-16.666			-3.333
29104.000			-16.665			-3.333
29204.000			-16.664			-3.333
29305.000			-16.664			-3.333
29404.000			-16.662			-3.332
29503.000			-16.662			-3.332
29605.000			-16.660			-3.332
29704.000			-16.659			-3.332
29804.000			-16.657			-3.331
29905.000			-16.657			-3.331
30004.000			-16.656			-3.331
30104.000			-16.655			-3.331
30204.000			-16.655			-3.331
30304.000			-16.653			-3.331
30404.000			-16.651			-3.330
30505.000			-16.649			-3.330
30604.000			-16.648			-3.330
30704.000			-16.648			-3.330
30805.000			-16.646			-3.329
30903.000			-16.646			-3.329
31004.000			-16.644			-3.329
31105.000			-16.644			-3.329
31204.000			-16.643			-3.329
31304.000			-16.642			-3.328
31404.000			-16.640			-3.328
31504.000			-16.638			-3.328
31603.000			-16.638			-3.328
31705.000			-16.636			-3.327
31804.000			-16.636			-3.327
31904.000			-16.634			-3.327
32005.000			-16.633			-3.327
32103.000			-16.632			-3.326
32205.000			-16.631			-3.326
32304.000			-16.631			-3.326
32404.000			-16.629			-3.326
32505.000			-16.627			-3.325
32604.000			-16.626			-3.325
32704.000			-16.626			-3.325
32804.000			-16.625			-3.325
32904.000			-16.624			-3.325
33004.000			-16.624			-3.325
33105.000			-16.622			-3.324
33204.000			-16.622			-3.324
33304.000			-16.619			-3.324
33405.000			-16.618			-3.324
33503.000			-16.618			-3.324
33604.000			-16.617			-3.323
33705.000			-16.616			-3.323
33804.000			-16.615			-3.323
33904.000			-16.615			-3.323
34005.000			-16.613			-3.323
34104.000			-16.612			-3.322
34203.000			-16.611			-3.322
34305.000			-16.610			-3.322
34404.000			-16.610			-3.322
34504.000			-16.609			-3.322
34605.000			-16.607			-3.321
34704.000			-16.605			-3.321
34804.000			-16.605			-3.321
34904.000			-16.604			-3.321
35004.000			-16.603			-3.321
35104.000			-16.602			-3.320
35204.000			-16.602			-3.320
35304.000			-16.601			-3.320
35404.000			-16.599			-3.320
35504.000			-16.599			-3.320
35604.000			-16.598			-3.320
35705.000			-16.597			-3.319
35804.000			-16.595			-3.319
35904.000			-16.594			-3.319
36005.000			-16.594			-3.319
36103.000			-16.593			-3.319
36204.000			-16.591			-3.318
36305.000			-16.591			-3.318
36404.000			-16.589			-3.318
36504.000			-16.589			-3.318
36605.000			-16.589			-3.318
36704.000			-16.588			-3.318
36803.000			-16.586			-3.317
36905.000			-16.585			-3.317
37004.000			-16.584			-3.317
37104.000			-16.582			-3.316
37205.000			-16.582			-3.316
37304.000			-16.581			-3.316
37404.000			-16.580			-3.316
37504.000			-16.579			-3.316
37604.000			-16.578			-3.316
37704.000			-16.578			-3.316
37805.000			-16.577			-3.315
37904.000			-16.577			-3.315
38004.000			-16.575			-3.315
38105.000			-16.573			-3.315
38203.000			-16.573			-3.315
38304.000			-16.572			-3.314
38405.000			-16.571			-3.314
38504.000			-16.570			-3.314
38605.000			-16.570			-3.314
38704.000			-16.569			-3.314
38804.000			-16.568			-3.314
38904.000			-16.567			-3.313
39004.000			-16.567			-3.313
39103.000			-16.566			-3.313
39205.000			-16.565			-3.313
39304.000			-16.563			-3.313
39404.000			-16.562			-3.312
39505.000			-16.562			-3.312
39604.000			-16.561			-3.312
39704.000			-16.561			-3.312
39804.000			-16.559			-3.312
39904.000			-16.559			-3.312
40004.000			-16.558			-3.312
40105.000			-16.557			-3.311
40204.000			-16.556			-3.311
40303.000			-16.555			-3.311
40405.000			-16.554			-3.311
40504.000			-16.553			-3.311
40604.000			-16.552			-3.310
40705.000			-16.552			-3.310
40804.000			-16.552			-3.310
40904.000			-16.551			-3.310
41004.000			-16.549			-3.310
41104.000			-16.548			-3.310
41204.000			-16.547			-3.309
41305.000			-16.547			-3.309
41404.000			-16.546			-3.309
41504.000			-16.546			-3.309
41605.000			-16.544			-3.309
41703.000			-16.543			-3.309
41805.000			-16.543			-3.309
41904.000			-16.542			-3.308
42004.000			-16.540			-3.308
42105.000			-16.539			-3.308
42204.000			-16.539			-3.308
42304.000			-16.539			-3.308
42404.000			-16.539			-3.308
42504.000			-16.537			-3.307
42604.000			-16.536			-3.307
42705.000			-16.536			-3.307
42804.000			-16.535			-3.307
42904.000			-16.533			-3.307
43005.000			-16.532			-3.306
43103.000			-16.531			-3.306
43204.000			-16.531			-3.306
43305.000			-16.530			-3.306
43404.000			-16.530			-3.306
43504.000			-16.528			-3.306
43604.000			-16.528			-3.306
43704.000			-16.528			-3.306
43804.000			-16.527			-3.305
43905.000			-16.525			-3.305
44004.000			-16.524			-3.305
44104.000			-16.524			-3.305
44205.000			-16.523			-3.305
44303.000			-16.522			-3.304
44404.000			-16.521			-3.304
44505.000			-16.521			-3.304
44604.000			-16.519			-3.304
44704.000			-16.519			-3.304
44804.000			-16.518			-3.304
44904.000			-16.518			-3.304
45004.000			-16.517			-3.303
45104.000			-16.517			-3.303
45204.000			-16.516			-3.303
45305.000			-16.515			-3.303
45404.000			-16.515			-3.303
45504.000			-16.513			-3.303
45605.000			-16.511			-3.302
45703.000			-16.511			-3.302
45804.000			-16.511			-3.302
45905.000			-16.510			-3.302
46004.000			-16.509			-3.302
46104.000			-16.509			-3.302
46204.000			-16.508			-3.302
46304.000			-16.506			-3.301
46403.000			-16.506			-3.301
46505.000			-16.505			-3.301
46604.000			-16.505			-3.301
46704.000			-16.504			-3.301
46805.000			-16.504			-3.301
46903.000			-16.503			-3.301
47004.000			-16.501			-3.300
47105.000			-16.500			-3.300
47204.000			-16.499			-3.300
47304.000			-16.499			-3.300
47405.000			-16.499			-3.300
47504.000			-16.499			-3.300
47603.000			-16.498			-3.300
47705.000			-16.497			-3.299
47804.000			-16.496			-3.299
47904.000			-16.495			-3.299
48005.000			-16.495			-3.299
48104.000			-16.495			-3.299
48205.000			-16.494			-3.299
48304.000			-16.493			-3.299
48404.000			-16.492			-3.298
48504.000			-16.490			-3.298
48604.000			-16.490			-3.298
48704.000			-16.490			-3.298
48805.000			-16.489			-3.298
48904.000			-16.488			-3.298
49004.000			-16.487			-3.297
49105.000			-16.486			-3.297
49203.000			-16.485			-3.297
49304.000			-16.485			-3.297
49405.000			-16.484			-3.297
49504.000			-16.483			-3.297
49604.000			-16.482			-3.296
49705.000			-16.482			-3.296
49804.000			-16.482			-3.296
49903.000			-16.481			-3.296
50005.000			-16.479			-3.296
50104.000			-16.480			-3.296
50204.000			-16.479			-3.296
50305.000			-16.477			-3.295
50404.000			-16.477			-3.295
50504.000			-16.478			-3.296
50604.000			-16.476			-3.295
50704.000			-16.474			-3.295
50804.000			-16.475			-3.295
50905.000			-16.474			-3.295
51004.000			-16.473			-3.295
51104.000			-16.472			-3.294
51205.000			-16.472			-3.294
51303.000			-16.472			-3.294
51405.000			-16.470			-3.294
51504.000			-16.470			-3.294
51604.000			-16.469			-3.294
51705.000			-16.467			-3.293
51804.000			-16.467			-3.293
51904.000			-16.468			-3.294
52004.000			-16.467			-3.293
52104.000			-16.465			-3.293
52204.000			-16.464			-3.293
52305.000			-16.463			-3.293
52404.000			-16.464			-3.293
52503.000			-16.465			-3.293
52605.000			-16.463			-3.293
52704.000			-16.462			-3.292
52804.000			-16.461			-3.292
52905.000			-16.460			-3.292
53004.000			-16.459			-3.292
53104.000			-16.460			-3.292
53204.000			-16.459			-3.292
53304.000			-16.458			-3.292
53404.000			-16.457			-3.291
53505.000			-16.456			-3.291
53604.000			-16.455			-3.291
53704.000			-16.455			-3.291
53805.000			-16.454			-3.291
53903.000			-16.454			-3.291
54004.000			-16.452			-3.290
54105.000			-16.451			-3.290
54204.000			-16.451			-3.290
54304.000			-16.451			-3.290
54404.000			-16.450			-3.290
54504.000			-16.450			-3.290
54604.000			-16.448			-3.290
54704.000			-16.448			-3.290
54804.000			-16.448			-3.290
54905.000			-16.447			-3.289
55004.000			-16.447			-3.289
55104.000			-16.446			-3.289
55205.000			-16.445			-3.289
55303.000			-16.444			-3.289
55404.000			-16.444			-3.289
55505.000			-16.443			-3.289
55604.000			-16.442			-3.288
55704.000			-16.442			-3.288
55805.000			-16.441			-3.288
55904.000			-16.441			-3.288
56003.000			-16.441			-3.288
56105.000			-16.440			-3.288
56204.000			-16.439			-3.288
56304.000			-16.439			-3.288
56405.000			-16.439			-3.288
56504.000			-16.437			-3.287
56604.000			-16.436			-3.287
56704.000			-16.436			-3.287
56804.000			-16.436			-3.287
56904.000			-16.436			-3.287
57005.000			-16.435			-3.287
57104.000			-16.434			-3.287
57203.000			-16.432			-3.286
57305.000			-16.432			-3.286
57404.000			-16.432			-3.286
57504.000			-16.431			-3.286
57605.000			-16.431			-3.286
57704.000			-16.431			-3.286
57805.000			-16.431			-3.286
57903.000			-16.429			-3.286
58004.000			-16.428			-3.286
58105.000			-16.427			-3.285
58204.000			-16.427			-3.285
58304.000			-16.426			-3.285
58405.000			-16.425			-3.285
58504.000			-16.424			-3.285
58603.000			-16.424			-3.285
58705.000			-16.424			-3.285
58804.000			-16.425			-3.285
58904.000			-16.425			-3.285
59005.000			-16.423			-3.285
59104.000			-16.423			-3.285
59204.000			-16.422			-3.284
59304.000			-16.421			-3.284
59404.000			-16.418			-3.284
59504.000			-16.418			-3.284
59605.000			-16.418			-3.284
59704.000			-16.417			-3.283
59804.000			-16.416			-3.283
59905.000			-16.416			-3.283
60003.000			-16.417			-3.283
60104.000			-16.416			-3.283
60205.000			-16.415			-3.283
60304.000			-16.414			-3.283
60404.000			-16.414			-3.283
60504.000			-16.414			-3.283
60604.000			-16.413			-3.283
60704.000			-16.413			-3.283
60804.000			-16.412			-3.282
60904.000			-16.411			-3.282
61005.000			-16.410			-3.282
61104.000			-16.410			-3.282
61203.000			-16.410			-3.282
61305.000			-16.409			-3.282
61404.000			-16.409			-3.282
61504.000			-16.406			-3.281
61605.000			-16.406			-3.281
61704.000			-16.406			-3.281
61804.000			-16.406			-3.281
61904.000			-16.405			-3.281
62004.000			-16.405			-3.281
62104.000			-16.404			-3.281
62205.000			-16.403			-3.281
62304.000			-16.402			-3.280
62404.000			-16.402			-3.280
62505.000			-16.402			-3.280
62604.000			-16.401			-3.280
62704.000			-16.400			-3.280
62805.000			-16.400			-3.280
62904.000			-16.400			-3.280
63004.000			-16.399			-3.280
63104.000			-16.399			-3.280
63204.000			-16.398			-3.280
63303.000			-16.396			-3.279
63405.000			-16.395			-3.279
63504.000			-16.395			-3.279
63604.000			-16.395			-3.279
63705.000			-16.394			-3.279
63803.000			-16.394			-3.279
63904.000			-16.393			-3.279
64005.000			-16.394			-3.279
64104.000			-16.393			-3.279
64205.000			-16.392			-3.278
64304.000			-16.393			-3.279
64404.000			-16.392			-3.278
64504.000			-16.391			-3.278
64604.000			-16.390			-3.278
64703.000			-16.389			-3.278
64805.000			-16.388			-3.278
64904.000			-16.386			-3.277
65004.000			-16.386			-3.277
65105.000			-16.387			-3.277
65203.000			-16.386			-3.277
65304.000			-16.385			-3.277
65405.000			-16.386			-3.277
65504.000			-16.385			-3.277
65604.000			-16.385			-3.277
65705.000			-16.383			-3.277
65804.000			-16.383			-3.277
65903.000			-16.383			-3.277
66005.000			-16.383			-3.277
66104.000			-16.382			-3.276
66204.000			-16.382			-3.276
66305.000			-16.381			-3.276
66404.000			-16.380			-3.276
66504.000			-16.381			-3.276
66604.000			-16.379			-3.276
66704.000			-16.379			-3.276
66803.000			-16.378			-3.276
66905.000			-16.378			-3.276
67004.000			-16.377			-3.275
67104.000			-16.377			-3.275
67205.000			-16.376			-3.275
67304.000			-16.376			-3.275
67405.000			-16.374			-3.275
67503.000			-16.374			-3.275
67604.000			-16.374			-3.275
67705.000			-16.374			-3.275
67804.000			-16.374			-3.275
67904.000			-16.374			-3.275
68005.000			-16.372			-3.274
68104.000			-16.370			-3.274
68203.000			-16.370			-3.274
68305.000			-16.370			-3.274
68404.000			-16.370			-3.274
68504.000			-16.368			-3.274
68605.000			-16.368			-3.274
68704.000			-16.369			-3.274
68804.000			-16.368			-3.274
68904.000			-16.368			-3.274
69004.000			-16.367			-3.273
69104.000			-16.365			-3.273
69205.000			-16.365			-3.273
69304.000			-16.365			-3.273
69404.000			-16.364			-3.273
69505.000			-16.364			-3.273
69603.000			-16.364			-3.273
69704.000			-16.363			-3.273
69805.000			-16.362			-3.272
69904.000			-16.361			-3.272
70004.000			-16.361			-3.272
70105.000			-16.361			-3.272
70204.000			-16.360			-3.272
70303.000			-16.360			-3.272
70405.000			-16.360			-3.272
70504.000			-16.360			-3.272
70605.000			-16.360			-3.272
70704.000			-16.358			-3.272
70804.000			-16.358			-3.272
70905.000			-16.358			-3.272
71003.000			-16.357			-3.271
71104.000			-16.356			-3.271
71205.000			-16.356			-3.271
71304.000			-16.355			-3.271
71404.000			-16.354			-3.271
71505.000			-16.354			-3.271
71604.000			-16.354			-3.271
71703.000			-16.353			-3.271
71805.000			-16.353			-3.271
71904.000			-16.353			-3.271
72004.000			-16.352			-3.270
72105.000			-16.351			-3.270
72204.000			-16.351			-3.270
72304.000			-16.350			-3.270
72404.000			-16.350			-3.270
72504.000			-16.350			-3.270
72604.000			-16.349			-3.270
72705.000			-16.349			-3.270
72804.000			-16.347			-3.269
72904.000			-16.347			-3.269
73005.000			-16.347			-3.269
73103.000			-16.347			-3.269
73204.000			-16.345			-3.269
73305.000			-16.346			-3.269
73404.000			-16.344			-3.269
73504.000			-16.343			-3.269
73604.000			-16.343			-3.269
73704.000			-16.343			-3.269
73804.000			-16.344			-3.269
73904.000			-16.342			-3.268
74004.000			-16.342			-3.268
74105.000			-16.341			-3.268
74204.000			-16.340			-3.268
74303.000			-16.341			-3.268
74405.000			-16.340			-3.268
74504.000			-16.339			-3.268
74604.000			-16.339			-3.268
74705.000			-16.338			-3.268
74804.000			-16.337			-3.267
74904.000			-16.336			-3.267
75004.000			-16.336			-3.267
75104.000			-16.335			-3.267
75203.000			-16.335			-3.267
75305.000			-16.335			-3.267
75404.000			-16.334			-3.267
75504.000			-16.334			-3.267
75605.000			-16.332			-3.266
75703.000			-16.331			-3.266
75804.000			-16.332			-3.266
75905.000			-16.332			-3.266
76004.000			-16.332			-3.266
76104.000			-16.330			-3.266
76205.000			-16.330			-3.266
76304.000			-16.330			-3.266
76403.000			-16.330			-3.266
76505.000			-16.328			-3.266
76604.000			-16.328			-3.266
76704.000			-16.328			-3.266
76805.000			-16.327			-3.265
76904.000			-16.327			-3.265
77005.000			-16.327			-3.265
77103.000			-16.326			-3.265
77204.000			-16.325			-3.265
77305.000			-16.324			-3.265
77404.000			-16.324			-3.265
77504.000			-16.322			-3.264
77605.000			-16.322			-3.264
77704.000			-16.323			-3.265
77803.000			-16.323			-3.265
77905.000			-16.322			-3.264
78004.000			-16.322			-3.264
78104.000			-16.321			-3.264
78205.000			-16.321			-3.264
78304.000			-16.321			-3.264
78404.000			-16.321			-3.264
78504.000			-16.319			-3.264
78604.000			-16.320			-3.264
78704.000			-16.320			-3.264
78805.000			-16.319			-3.264
78904.000			-16.319			-3.264
79004.000			-16.317			-3.263
79105.000			-16.317			-3.263
79203.000			-16.316			-3.263
79304.000			-16.316			-3.263
79405.000			-16.316			-3.263
79504.000			-16.315			-3.263
79604.000			-16.315			-3.263
79705.000			-16.314			-3.263
79804.000			-16.314			-3.263
79903.000			-16.314			-3.263
80005.000			-16.313			-3.263
80104.000			-16.314			-3.263
80205.000			-16.313			-3.263
80304.000			-16.313			-3.263
80404.000			-16.311			-3.262
80505.000			-16.311			-3.262
80603.000			-16.311			-3.262
80704.000			-16.311			-3.262
80805.000			-16.310			-3.262
80904.000			-16.310			-3.262
81004.000			-16.310			-3.262
81105.000			-16.310			-3.262
81204.000			-16.308			-3.262
81303.000			-16.308			-3.262
81405.000			-16.307			-3.261
81504.000			-16.307			-3.261
81604.000			-16.307			-3.261
81705.000			-16.307			-3.261
81804.000			-16.307			-3.261
81904.000			-16.304			-3.261
82004.000			-16.304			-3.261
82104.000			-16.304			-3.261
82204.000			-16.304			-3.261
82305.000			-16.303			-3.261
82404.000			-16.303			-3.261
82504.000			-16.303			-3.261
82605.000			-16.302			-3.260
82703.000			-16.302			-3.260
82804.000			-16.302			-3.260
82905.000			-16.301			-3.260
83004.000			-16.301			-3.260
83104.000			-16.301			-3.260
83203.000			-16.301			-3.260
83304.000			-16.299			-3.260
83405.000			-16.298			-3.260
83504.000			-16.297			-3.259
83604.000			-16.297			-3.259
83705.000			-16.297			-3.259
83804.000			-16.298			-3.260
83904.000			-16.297			-3.259
84005.000			-16.297			-3.259
84103.000			-16.295			-3.259
84204.000			-16.295			-3.259
84305.000			-16.294			-3.259
84404.000			-16.294			-3.259
84504.000			-16.294			-3.259
84605.000			-16.294			-3.259
84704.000			-16.293			-3.259
84803.000			-16.292			-3.258
84905.000			-16.292			-3.258
85004.000			-16.292			-3.258
85104.000			-16.291			-3.258
85205.000			-16.290			-3.258
85304.000			-16.289			-3.258
85404.000			-16.289			-3.258
85504.000			-16.289			-3.258
85604.000			-16.289			-3.258
85704.000			-16.288			-3.258
85805.000			-16.288			-3.258
85904.000			-16.288			-3.258
86004.000			-16.287			-3.257
86105.000			-16.287			-3.257
86203.000			-16.287			-3.257
86304.000			-16.286			-3.257
86405.000			-16.284			-3.257
86504.000			-16.284			-3.257
86605.000			-16.284			-3.257
86704.000			-16.283			-3.257
86804.000			-16.283			-3.257
86904.000			-16.282			-3.256
87004.000			-16.280			-3.256
87104.000			-16.280			-3.256
87205.000			-16.281			-3.256
87304.000			-16.280			-3.256
87404.000			-16.279			-3.256
87505.000			-16.279			-3.256
87603.000			-16.278			-3.256
87704.000			-16.277			-3.255
87805.000			-16.277			-3.255
87904.000			-16.276			-3.255
88004.000			-16.275			-3.255
88105.000			-16.275			-3.255
88204.000			-16.275			-3.255
88303.000			-16.275			-3.255
88405.000			-16.274			-3.255
88504.000			-16.274			-3.255
88604.000			-16.272			-3.254
88705.000			-16.272			-3.254
88804.000			-16.272			-3.254
88904.000			-16.271			-3.254
89005.000			-16.271			-3.254
89104.000			-16.271			-3.254
89203.000			-16.269			-3.254
89305.000			-16.268			-3.254
89404.000			-16.268			-3.254
89504.000			-16.268			-3.254
89605.000			-16.268			-3.254
89704.000			-16.268			-3.254
89805.000			-16.268			-3.254
89903.000			-16.266			-3.253
90004.000			-16.265			-3.253
90105.000			-16.265			-3.253
90204.000			-16.265			-3.253
90304.000			-16.265			-3.253
90405.000			-16.265			-3.253
90504.000			-16.264			-3.253
90603.000			-16.263			-3.253
90705.000			-16.262			-3.252
90804.000			-16.262			-3.252
90904.000			-16.262			-3.252
91005.000			-16.261			-3.252
91104.000			-16.261			-3.252
91204.000			-16.261			-3.252
91304.000			-16.259			-3.252
91404.000			-16.260			-3.252
91504.000			-16.260			-3.252
91605.000			-16.260			-3.252
91704.000			-16.259			-3.252
91804.000			-16.259			-3.252
91905.000			-16.258			-3.252
92003.000			-16.258			-3.252
92104.000			-16.258			-3.252
92205.000			-16.257			-3.251
92304.000			-16.257			-3.251
92404.000			-16.257			-3.251
92505.000			-16.255			-3.251
92604.000			-16.255			-3.251
92703.000			-16.256			-3.251
92805.000			-16.255			-3.251
92904.000			-16.255			-3.251
93005.000			-16.254			-3.251
93104.000			-16.254			-3.251
93204.000			-16.253			-3.251
93305.000			-16.253			-3.251
93403.000			-16.253			-3.251
93504.000			-16.254			-3.251
93605.000			-16.254			-3.251
93704.000			-16.253			-3.251
93804.000			-16.253			-3.251
93904.000			-16.253			-3.251
94004.000			-16.253			-3.251
94103.000			-16.251			-3.250
94205.000			-16.252			-3.250
94304.000			-16.252			-3.250
94404.000			-16.250			-3.250
94505.000			-16.250			-3.250
94603.000			-16.250			-3.250
94704.000			-16.250			-3.250
94805.000			-16.250			-3.250
94904.000			-16.249			-3.250
95004.000			-16.249			-3.250
95105.000			-16.248			-3.250
95204.000			-16.248			-3.250
95304.000			-16.249			-3.250
95405.000			-16.249			-3.250
95503.000			-16.248			-3.250
95604.000			-16.247			-3.249
95705.000			-16.247			-3.249
95804.000			-16.246			-3.249
95904.000			-16.246			-3.249
96004.000			-16.246			-3.249
96104.000			-16.245			-3.249
96204.000			-16.245			-3.249
96304.000			-16.244			-3.249
96404.000			-16.244			-3.249
96505.000			-16.244			-3.249
96604.000			-16.243			-3.249
96704.000			-16.242			-3.248
96805.000			-16.243			-3.249
96903.000			-16.243			-3.249
97004.000			-16.242			-3.248
97105.000			-16.241			-3.248
97204.000			-16.241			-3.248
97304.000			-16.241			-3.248
97405.000			-16.241			-3.248
97504.000			-16.241			-3.248
97603.000			-16.240			-3.248
97705.000			-16.240			-3.248
97804.000			-16.239			-3.248
97904.000			-16.238			-3.248
98005.000			-16.238			-3.248
98104.000			-16.238			-3.248
98204.000			-16.238			-3.248
98304.000			-16.237			-3.247
98404.000			-16.236			-3.247
98504.000			-16.236			-3.247
98605.000			-16.236			-3.247
98704.000			-16.237			-3.247
98804.000			-16.237			-3.247
98905.000			-16.236			-3.247
99003.000			-16.234			-3.247
99104.000			-16.233			-3.247
99205.000			-16.234			-3.247
99304.000			-16.234			-3.247
99405.000			-16.233			-3.247
99504.000			-16.233			-3.247
99604.000			-16.233			-3.247
99704.000			-16.233			-3.247
99804.000			-16.233			-3.247
99904.000			-16.232			-3.246
100005.000			-16.231			-3.246
100104.000			-16.231			-3.246
100204.000			-16.231			-3.246
100305.000			-16.230			-3.246
100403.000			-16.230			-3.246
100504.000			-16.229			-3.246
100605.000			-16.229			-3.246
100704.000			-16.230			-3.246
100804.000			-16.228			-3.246
100905.000			-16.228			-3.246
101004.000			-16.228			-3.246
101103.000			-16.227			-3.245
101205.000			-16.228			-3.246
101304.000			-16.227			-3.245
101404.000			-16.227			-3.245
101505.000			-16.227			-3.245
101604.000			-16.226			-3.245
101704.000			-16.225			-3.245
101804.000			-16.224			-3.245
101904.000			-16.224			-3.245
102004.000			-16.224			-3.245
102105.000			-16.225			-3.245
102204.000			-16.223			-3.245
102304.000			-16.223			-3.245
102405.000			-16.223			-3.245
102503.000			-16.224			-3.245
102605.000			-16.222			-3.244
102704.000			-16.222			-3.244
102804.000			-16.222			-3.244
102905.000			-16.221			-3.244
103004.000			-16.220			-3.244
103104.000			-16.221			-3.244
103204.000			-16.222			-3.244
103304.000			-16.221			-3.244
103404.000			-16.219			-3.244
103505.000			-16.219			-3.244
103604.000			-16.219			-3.244
103704.000			-16.218			-3.244
103805.000			-16.218			-3.244
103903.000			-16.217			-3.243
104004.000			-16.217			-3.243
104105.000			-16.217			-3.243
104204.000			-16.218			-3.244
104304.000			-16.217			-3.243
104405.000			-16.217			-3.243
104504.000			-16.216			-3.243
104603.000			-16.215			-3.243
104705.000			-16.216			-3.243
104804.000			-16.215			-3.243
104904.000			-16.215			-3.243
105005.000			-16.215			-3.243
105104.000			-16.213			-3.243
105204.000			-16.213			-3.243
105304.000			-16.214			-3.243
105404.000			-16.215			-3.243
105504.000			-16.214			-3.243
105604.000			-16.213			-3.243
105704.000			-16.213			-3.243
105805.000			-16.212			-3.242
105904.000			-16.212			-3.242
106003.000			-16.211			-3.242
106105.000			-16.213			-3.243
106204.000			-16.212			-3.242
106304.000			-16.210			-3.242
106405.000			-16.209			-3.242
106504.000			-16.209			-3.242
106604.000			-16.209			-3.242
106704.000			-16.209			-3.242
106804.000			-16.208			-3.242
106904.000			-16.207			-3.241
107005.000			-16.207			-3.241
107104.000			-16.207			-3.241
107204.000			-16.207			-3.241
107305.000			-16.206			-3.241
107403.000			-16.206			-3.241
107504.000			-16.204			-3.241
107605.000			-16.204			-3.241
107704.000			-16.204			-3.241
107804.000			-16.205			-3.241
107905.000			-16.204			-3.241
108004.000			-16.202			-3.240
108103.000			-16.202			-3.240
108205.000			-16.203			-3.241
108304.000			-16.203			-3.241
108404.000			-16.201			-3.240
108505.000			-16.201			-3.240
108604.000			-16.202			-3.240
108704.000			-16.200			-3.240
108803.000			-16.201			-3.240
108904.000			-16.201			-3.240
109005.000			-16.200			-3.240
109104.000			-16.199			-3.240
109204.000			-16.199			-3.240
109305.000			-16.199			-3.240
109404.000			-16.199			-3.240
109503.000			-16.198			-3.240
109605.000			-16.197			-3.239
109704.000			-16.196			-3.239
109804.000			-16.196			-3.239
109905.000			-16.196			-3.239
110004.000			-16.196			-3.239
110104.000			-16.196			-3.239
110204.000			-16.196			-3.239
110304.000			-16.195			-3.239
110403.000			-16.195			-3.239
110505.000			-16.193			-3.239
110604.000			-16.193			-3.239
110704.000			-16.194			-3.239
110805.000			-16.194			-3.239
110904.000			-16.193			-3.239
111004.000			-16.193			-3.239
111104.000			-16.192			-3.238
111204.000			-16.191			-3.238
111304.000			-16.190			-3.238
111405.000			-16.190			-3.238
111504.000			-16.190			-3.238
111604.000			-16.190			-3.238
111705.000			-16.189			-3.238
111803.000			-16.189			-3.238
111904.000			-16.189			-3.238
112005.000			-16.188			-3.238
112104.000			-16.188			-3.238
112205.000			-16.187			-3.237
112304.000			-16.187			-3.237
112404.000			-16.187			-3.237
112504.000			-16.186			-3.237
112604.000			-16.186			-3.237
112704.000			-16.186			-3.237
112805.000			-16.186			-3.237
112904.000			-16.185			-3.237
113004.000			-16.184			-3.237
113105.000			-16.184			-3.237
113203.000			-16.183			-3.237
113304.000			-16.182			-3.236
113405.000			-16.183			-3.237
113504.000			-16.183			-3.237
113604.000			-16.182			-3.236
113705.000			-16.181			-3.236
113804.000			-16.182			-3.236
113903.000			-16.181			-3.236
114005.000			-16.181			-3.236
114104.000			-16.180			-3.236
114204.000			-16.180			-3.236
114305.000			-16.180			-3.236
114404.000			-16.179			-3.236
114504.000			-16.179			-3.236
114604.000			-16.179			-3.236
114704.000			-16.178			-3.236
114804.000			-16.178			-3.236
114905.000			-16.179			-3.236
115004.000			-16.179			-3.236
115104.000			-16.178			-3.236
115205.000			-16.178			-3.236
115303.000			-16.178			-3.236
115405.000			-16.178			-3.236
115504.000			-16.178			-3.236
115604.000			-16.178			-3.236
115705.000			-16.176			-3.235
115804.000			-16.177			-3.235
115904.000			-16.176			-3.235
116005.000			-16.176			-3.235
116104.000			-16.176			-3.235
116203.000			-16.176			-3.235
116305.000			-16.175			-3.235
116404.000			-16.175			-3.235
116504.000			-16.174			-3.235
116605.000			-16.174			-3.235
116704.000			-16.175			-3.235
116804.000			-16.174			-3.235
116904.000			-16.173			-3.235
117004.000			-16.173			-3.235
117104.000			-16.173			-3.235
117205.000			-16.174			-3.235
117304.000			-16.173			-3.235
117404.000			-16.172			-3.234
117505.000			-16.172			-3.234
117603.000			-16.172			-3.234
117704.000			-16.173			-3.235
117805.000			-16.170			-3.234
117904.000			-16.170			-3.234
118004.000			-16.169			-3.234
118105.000			-16.169			-3.234
118204.000			-16.170			-3.234
118303.000			-16.169			-3.234
118405.000			-16.168			-3.234
118504.000			-16.168			-3.234
118605.000			-16.169			-3.234
118704.000			-16.168			-3.234
118804.000			-16.168			-3.234
118905.000			-16.166			-3.233
119003.000			-16.166			-3.233
119104.000			-16.166			-3.233
119205.000			-16.165			-3.233
119304.000			-16.165			-3.233
119404.000			-16.165			-3.233
119505.000			-16.164			-3.233
119604.000			-16.165			-3.233
119704.000			-16.164			-3.233
119805.000			-16.163			-3.233
119903.000			-16.163			-3.233
120004.000			-16.163			-3.233
120105.000			-16.163			-3.233
120204.000			-16.163			-3.233
120304.000			-16.162			-3.232
120405.000			-16.163			-3.233
120504.000			-16.163			-3.233
120603.000			-16.162			-3.232
120705.000			-16.161			-3.232
120804.000			-16.160			-3.232
120904.000			-16.160			-3.232
121005.000			-16.159			-3.232
121104.000			-16.160			-3.232
121204.000			-16.161			-3.232
121304.000			-16.159			-3.232
121404.000			-16.159			-3.232
121504.000			-16.159			-3.232
121604.000			-16.159			-3.232
121704.000			-16.159			-3.232
121805.000			-16.158			-3.232
121904.000			-16.157			-3.231
122003.000			-16.157			-3.231
122105.000			-16.157			-3.231
122204.000			-16.157			-3.231
122304.000			-16.156			-3.231
122405.000			-16.157			-3.231
122504.000			-16.156			-3.231
122604.000			-16.156			-3.231
122704.000			-16.156			-3.231
122804.000			-16.155			-3.231
122904.000			-16.155			-3.231
123005.000			-16.154			-3.231
123104.000			-16.154			-3.231
123204.000			-16.154			-3.231
123305.000			-16.155			-3.231
123403.000			-16.154			-3.231
123504.000			-16.153			-3.231
123605.000			-16.153			-3.231
123704.000			-16.153			-3.231
123804.000			-16.153			-3.231
123905.000			-16.152			-3.230
124004.000			-16.152			-3.230
124103.000			-16.151			-3.230
124205.000			-16.151			-3.230
124304.000			-16.152			-3.230
124404.000			-16.152			-3.230
124505.000			-16.151			-3.230
124604.000			-16.150			-3.230
124704.000			-16.149			-3.230
124803.000			-16.150			-3.230
124904.000			-16.149			-3.230
125005.000			-16.149			-3.230
125104.000			-16.151			-3.230
125204.000			-16.149			-3.230
125305.000			-16.149			-3.230
125404.000			-16.147			-3.229
125503.000			-16.147			-3.229
125605.000			-16.146			-3.229
125704.000			-16.147			-3.229
125804.000			-16.147			-3.229
125905.000			-16.147			-3.229
126004.000			-16.147			-3.229
126104.000			-16.147			-3.229
126204.000			-16.146			-3.229
126304.000			-16.146			-3.229
126404.000			-16.146			-3.229
126505.000			-16.145			-3.229
126604.000			-16.145			-3.229
126704.000			-16.146			-3.229
126805.000			-16.145			-3.229
126903.000			-16.144			-3.229
127004.000			-16.144			-3.229
127105.000			-16.144			-3.229
127204.000			-16.145			-3.229
127304.000			-16.143			-3.229
127405.000			-16.142			-3.228
127504.000			-16.142			-3.228
127603.000			-16.142			-3.228
127705.000			-16.142			-3.228
127804.000			-16.141			-3.228
127904.000			-16.141			-3.228
128005.000			-16.142			-3.228
128104.000			-16.140			-3.228
128205.000			-16.140			-3.228
128304.000			-16.141			-3.228
128404.000			-16.139			-3.228
128504.000			-16.140			-3.228
128604.000			-16.139			-3.228
128704.000			-16.138			-3.228
128805.000			-16.139			-3.228
128904.000			-16.139			-3.228
129004.000			-16.138			-3.228
129105.000			-16.138			-3.228
129203.000			-16.137			-3.227
129304.000			-16.137			-3.227
129405.000			-16.136			-3.227
129504.000			-16.135			-3.227
129604.000			-16.136			-3.227
129705.000			-16.136			-3.227
129804.000			-16.136			-3.227
129903.000			-16.136			-3.227
130005.000			-16.136			-3.227
130104.000			-16.136			-3.227
130204.000			-16.135			-3.227
130305.000			-16.134			-3.227
130404.000			-16.134			-3.227
130504.000			-16.134			-3.227
130604.000			-16.133			-3.227
130704.000			-16.132			-3.226
130804.000			-16.132			-3.226
130905.000			-16.132			-3.226
131004.000			-16.130			-3.226
131104.000			-16.131			-3.226
131205.000			-16.130			-3.226
131303.000			-16.130			-3.226
131405.000			-16.131			-3.226
131504.000			-16.130			-3.226
131604.000			-16.130			-3.226
131705.000			-16.130			-3.226
131804.000			-16.129			-3.226
131904.000			-16.129			-3.226
132005.000			-16.129			-3.226
132104.000			-16.128			-3.226
132203.000			-16.128			-3.226
132305.000			-16.127			-3.225
132404.000			-16.128			-3.226
132504.000			-16.128			-3.226
132605.000			-16.127			-3.225
132704.000			-16.126			-3.225
132804.000			-16.127			-3.225
132904.000			-16.127			-3.225
133004.000			-16.126			-3.225
133103.000			-16.125			-3.225
133205.000			-16.125			-3.225
133304.000			-16.125			-3.225
133404.000			-16.124			-3.225
133505.000			-16.123			-3.225
133604.000			-16.123			-3.225
133704.000			-16.123			-3.225
133804.000			-16.123			-3.225
133904.000			-16.123			-3.225
134004.000			-16.122			-3.224
134105.000			-16.121			-3.224
134204.000			-16.121			-3.224
134304.000			-16.121			-3.224
134405.000			-16.120			-3.224
134504.000			-16.120			-3.224
134605.000			-16.120			-3.224
134703.000			-16.121			-3.224
134804.000			-16.120			-3.224
134905.000			-16.120			-3.224
135004.000			-16.120			-3.224
135104.000			-16.121			-3.224
135205.000			-16.119			-3.224
135304.000			-16.118			-3.224
135403.000			-16.118			-3.224
135505.000			-16.118			-3.224
135603.000			-16.118			-3.224
135704.000			-16.118			-3.224
135805.000			-16.118			-3.224
135904.000			-16.116			-3.223
136004.000			-16.116			-3.223
136105.000			-16.116			-3.223
136204.000			-16.116			-3.223
136303.000			-16.116			-3.223
136405.000			-16.116			-3.223
136504.000			-16.116			-3.223
136604.000			-16.116			-3.223
136705.000			-16.117			-3.223
136804.000			-16.116			-3.223
136904.000			-16.115			-3.223
137005.000			-16.114			-3.223
137104.000			-16.113			-3.223
137203.000			-16.113			-3.223
137305.000			-16.114			-3.223
137404.000			-16.113			-3.223
137504.000			-16.115			-3.223
137605.000			-16.114			-3.223
137704.000			-16.113			-3.223
137805.000			-16.112			-3.222
137904.000			-16.111			-3.222
138004.000			-16.111			-3.222
138104.000			-16.111			-3.222
138204.000			-16.111			-3.222
138304.000			-16.111			-3.222
138405.000			-16.111			-3.222
138504.000			-16.112			-3.222
138604.000			-16.110			-3.222
138705.000			-16.110			-3.222
138803.000			-16.109			-3.222
138904.000			-16.108			-3.222
139005.000			-16.109			-3.222
139104.000			-16.110			-3.222
139204.000			-16.110			-3.222
139305.000			-16.109			-3.222
139404.000			-16.109			-3.222
139504.000			-16.108			-3.222
139605.000			-16.108			-3.222
139703.000			-16.107			-3.221
139804.000			-16.107			-3.221
139905.000			-16.107			-3.221
140004.000			-16.107			-3.221
140104.000			-16.106			-3.221
140205.000			-16.106			-3.221
140304.000			-16.105			-3.221
140404.000			-16.104			-3.221
140505.000			-16.106			-3.221
140603.000			-16.106			-3.221
140704.000			-16.103			-3.221
140805.000			-16.103			-3.221
140904.000			-16.104			-3.221
141005.000			-16.103			-3.221
141104.000			-16.103			-3.221
141204.000			-16.104			-3.221
141304.000			-16.103			-3.221
141404.000			-16.104			-3.221
141504.000			-16.102			-3.220
141605.000			-16.101			-3.220
141704.000			-16.101			-3.220
141804.000			-16.101			-3.220
141905.000			-16.101			-3.220
142004.000			-16.101			-3.220
142104.000			-16.100			-3.220
142204.000			-16.100			-3.220
142304.000			-16.099			-3.220
142404.000			-16.099			-3.220
142505.000			-16.099			-3.220
142604.000			-16.100			-3.220
142704.000			-16.099			-3.220
142805.000			-16.099			-3.220
142903.000			-16.099			-3.220
143004.000			-16.099			-3.220
143104.000			-16.097			-3.219
143204.000			-16.098			-3.220
143304.000			-16.098			-3.220
143405.000			-16.097			-3.219
143504.000			-16.097			-3.219
143604.000			-16.097			-3.219
143705.000			-16.098			-3.220
143803.000			-16.097			-3.219
143904.000			-16.095			-3.219
144003.000			-16.096			-3.219
144104.000			-16.096			-3.219
144205.000			-16.095			-3.219
144304.000			-16.096			-3.219
144404.000			-16.094			-3.219
144505.000			-16.095			-3.219
144604.000			-16.095			-3.219
144703.000			-16.095			-3.219
144805.000			-16.094			-3.219
144903.000			-16.095			-3.219
145004.000			-16.092			-3.218
145105.000			-16.092			-3.218
145204.000			-16.093			-3.219
145304.000			-16.092			-3.218
145405.000			-16.092			-3.218
145504.000			-16.091			-3.218
145603.000			-16.091			-3.218
145705.000			-16.091			-3.218
145804.000			-16.091			-3.218
145904.000			-16.091			-3.218
146005.000			-16.090			-3.218
146104.000			-16.090			-3.218
146204.000			-16.090			-3.218
146305.000			-16.090			-3.218
146404.000			-16.091			-3.218
146503.000			-16.088			-3.218
146605.000			-16.088			-3.218
146704.000			-16.088			-3.218
146804.000			-16.088			-3.218
146905.000			-16.087			-3.217
147004.000			-16.087			-3.217
147104.000			-16.088			-3.218
147204.000			-16.087			-3.217
147304.000			-16.086			-3.217
147404.000			-16.086			-3.217
147504.000			-16.086			-3.217
147603.000			-16.086			-3.217
147705.000			-16.085			-3.217
147804.000			-16.086			-3.217
147904.000			-16.085			-3.217
148005.000			-16.085			-3.217
148104.000			-16.085			-3.217
148204.000			-16.084			-3.217
148304.000			-16.085			-3.217
148404.000			-16.085			-3.217
148503.000			-16.083			-3.217
148605.000			-16.083			-3.217
148704.000			-16.083			-3.217
148804.000			-16.082			-3.216
148905.000			-16.082			-3.216
149004.000			-16.080			-3.216
149104.000			-16.080			-3.216
149204.000			-16.082			-3.216
149304.000			-16.082			-3.216
149403.000			-16.081			-3.216
149505.000			-16.080			-3.216
149604.000			-16.080			-3.216
149704.000			-16.080			-3.216
149805.000			-16.080			-3.216
149904.000			-16.079			-3.216
150004.000			-16.079			-3.216
150104.000			-16.078			-3.216
150204.000			-16.078			-3.216
150303.000			-16.078			-3.216
150405.000			-16.078			-3.216
150504.000			-16.078			-3.216
150605.000			-16.077			-3.215
150704.000			-16.077			-3.215
150804.000			-16.077			-3.215
150905.000			-16.077			-3.215
151003.000			-16.078			-3.216
151104.000			-16.078			-3.216
151205.000			-16.077			-3.215
151304.000			-16.077			-3.215
151404.000			-16.076			-3.215
151505.000			-16.076			-3.215
151604.000			-16.075			-3.215
151704.000			-16.075			-3.215
151805.000			-16.075			-3.215
151903.000			-16.075			-3.215
152004.000			-16.074			-3.215
152105.000			-16.074			-3.215
152204.000			-16.075			-3.215
152304.000			-16.074			-3.215
152405.000			-16.074			-3.215
152504.000			-16.074			-3.215
152604.000			-16.073			-3.215
152705.000			-16.073			-3.215
152803.000			-16.072			-3.214
152904.000			-16.072			-3.214
153005.000			-16.072			-3.214
153104.000			-16.071			-3.214
153204.000			-16.071			-3.214
153305.000			-16.071			-3.214
153404.000			-16.071			-3.214
153503.000			-16.071			-3.214
153605.000			-16.070			-3.214
153703.000			-16.071			-3.214
153805.000			-16.070			-3.214
153904.000			-16.070			-3.214
154004.000			-16.070			-3.214
154105.000			-16.069			-3.214
154204.000			-16.069			-3.214
154304.000			-16.069			-3.214
154404.000			-16.069			-3.214
154504.000			-16.069			-3.214
154604.000			-16.068			-3.214
154705.000			-16.068			-3.214
154804.000			-16.068			-3.214
154904.000			-16.068			-3.214
155005.000			-16.068			-3.214
155104.000			-16.067			-3.213
155204.000			-16.069			-3.214
155304.000			-16.069			-3.214
155404.000			-16.067			-3.213
155504.000			-16.066			-3.213
155605.000			-16.066			-3.213
155704.000			-16.066			-3.213
155804.000			-16.066			-3.213
155905.000			-16.067			-3.213
156004.000			-16.065			-3.213
156104.000			-16.064			-3.213
156204.000			-16.064			-3.213
156304.000			-16.064			-3.213
156403.000			-16.064			-3.213
156505.000			-16.063			-3.213
156604.000			-16.064			-3.213
156704.000			-16.064			-3.213
156805.000			-16.064			-3.213
156904.000			-16.064			-3.213
157005.000			-16.063			-3.213
157103.000			-16.063			-3.213
157204.000			-16.062			-3.212
157305.000			-16.063			-3.213
157404.000			-16.062			-3.212
157504.000			-16.062			-3.212
157605.000			-16.062			-3.212
157704.000			-16.062			-3.212
157804.000			-16.062			-3.212
157905.000			-16.062			-3.212
158003.000			-16.061			-3.212
158104.000			-16.061			-3.212
158204.000			-16.061			-3.212
158304.000			-16.061			-3.212
158404.000			-16.061			-3.212
158505.000			-16.061			-3.212
158604.000			-16.060			-3.212
158704.000			-16.059			-3.212
158805.000			-16.059			-3.212
158903.000			-16.060			-3.212
159004.000			-16.059			-3.212
159104.000			-16.058			-3.212
159204.000			-16.057			-3.211
159304.000			-16.057			-3.211
159405.000			-16.057			-3.211
159504.000			-16.057			-3.211
159604.000			-16.057			-3.211
159705.000			-16.057			-3.211
159803.000			-16.057			-3.211
159904.000			-16.057			-3.211
160003.000			-16.057			-3.211
160104.000			-16.057			-3.211
160205.000			-16.056			-3.211
160304.000			-16.055			-3.211
160404.000			-16.055			-3.211
160505.000			-16.056			-3.211
160604.000			-16.056			-3.211
160703.000			-16.055			-3.211
160805.000			-16.054			-3.211
160904.000			-16.054			-3.211
161004.000			-16.054			-3.211
161105.000			-16.054			-3.211
161204.000			-16.054			-3.211
161304.000			-16.053			-3.211
161405.000			-16.053			-3.211
161504.000			-16.053			-3.211
161603.000			-16.053			-3.211
161705.000			-16.052			-3.210
161804.000			-16.051			-3.210
161904.000			-16.051			-3.210
162005.000			-16.051			-3.210
162104.000			-16.051			-3.210
162204.000			-16.051			-3.210
162304.000			-16.051			-3.210
162404.000			-16.051			-3.210
162503.000			-16.051			-3.210
162605.000			-16.050			-3.210
162704.000			-16.050			-3.210
162804.000			-16.049			-3.210
162905.000			-16.050			-3.210
163004.000			-16.050			-3.210
163104.000			-16.049			-3.210
163203.000			-16.048			-3.210
163304.000			-16.047			-3.209
163405.000			-16.047			-3.209
163504.000			-16.048			-3.210
163604.000			-16.047			-3.209
163705.000			-16.048			-3.210
163804.000			-16.047			-3.209
163904.000			-16.046			-3.209
164005.000			-16.047			-3.209
164103.000			-16.047			-3.209
164204.000			-16.046			-3.209
164305.000			-16.046			-3.209
164404.000			-16.045			-3.209
164504.000			-16.045			-3.209
164605.000			-16.045			-3.209
164704.000			-16.046			-3.209
164804.000			-16.045			-3.209
164905.000			-16.045			-3.209
165003.000			-16.044			-3.209
165104.000			-16.045			-3.209
165205.000			-16.044			-3.209
165304.000			-16.043			-3.209
165404.000			-16.044			-3.209
165505.000			-16.043			-3.209
165604.000			-16.043			-3.209
165704.000			-16.043			-3.209
165805.000			-16.042			-3.208
165903.000			-16.043			-3.209
166004.000			-16.043			-3.209
166105.000			-16.043			-3.209
166204.000			-16.043			-3.209
166304.000			-16.041			-3.208
166404.000			-16.040			-3.208
166504.000			-16.041			-3.208
166604.000			-16.041			-3.208
166704.000			-16.040			-3.208
166803.000			-16.040			-3.208
166905.000			-16.039			-3.208
167004.000			-16.039			-3.208
167104.000			-16.039			-3.208
167205.000			-16.040			-3.208
167304.000			-16.039			-3.208
167404.000			-16.039			-3.208
167504.000			-16.039			-3.208
167604.000			-16.038			-3.208
167703.000			-16.037			-3.207
167805.000			-16.037			-3.207
167904.000			-16.037			-3.207
168004.000			-16.037			-3.207
168105.000			-16.037			-3.207
168204.000			-16.036			-3.207
168304.000			-16.037			-3.207
168404.000			-16.036			-3.207
168504.000			-16.036			-3.207
168603.000			-16.036			-3.207
168705.000			-16.037			-3.207
168804.000			-16.036			-3.207
168904.000			-16.034			-3.207
169005.000			-16.035			-3.207
169104.000			-16.036			-3.207
169204.000			-16.035			-3.207
169304.000			-16.035			-3.207
169404.000			-16.035			-3.207
169503.000			-16.034			-3.207
169605.000			-16.033			-3.207
169704.000			-16.033			-3.207
169805.000			-16.032			-3.206
169904.000			-16.032			-3.206
170004.000			-16.033			-3.207
170105.000			-16.032			-3.206
170203.000			-16.032			-3.206
170304.000			-16.032			-3.206
170405.000			-16.031			-3.206
170504.000			-16.031			-3.206
170604.000			-16.031			-3.206
170705.000			-16.032			-3.206
170804.000			-16.030			-3.206
170904.000			-16.029			-3.206
171005.000			-16.030			-3.206
171103.000			-16.031			-3.206
171204.000			-16.030			-3.206
171305.000			-16.029			-3.206
171404.000			-16.030			-3.206
171504.000			-16.028			-3.206
171605.000			-16.028			-3.206
171704.000			-16.029			-3.206
171803.000			-16.029			-3.206
171905.000			-16.027			-3.205
172003.000			-16.028			-3.206
172104.000			-16.029			-3.206
172205.000			-16.028			-3.206
172304.000			-16.028			-3.206
172404.000			-16.027			-3.205
172505.000			-16.026			-3.205
172604.000			-16.026			-3.205
172703.000			-16.026			-3.205
172805.000			-16.025			-3.205
172904.000			-16.026			-3.205
173005.000			-16.026			-3.205
173104.000			-16.027			-3.205
173204.000			-16.026			-3.205
173305.000			-16.026			-3.205
173404.000			-16.025			-3.205
173504.000			-16.025			-3.205
173604.000			-16.024			-3.205
173704.000			-16.024			-3.205
173804.000			-16.024			-3.205
173905.000			-16.023			-3.205
174004.000			-16.023			-3.205
174104.000			-16.023			-3.205
174205.000			-16.023			-3.205
174303.000			-16.023			-3.205
174404.000			-16.024			-3.205
174504.000			-16.023			-3.205
174604.000			-16.023			-3.205
174704.000			-16.022			-3.204
174805.000			-16.021			-3.204
174904.000			-16.021			-3.204
175004.000			-16.022			-3.204
175105.000			-16.021			-3.204
175203.000			-16.021			-3.204
175304.000			-16.021			-3.204
175405.000			-16.020			-3.204
175504.000			-16.020			-3.204
175604.000			-16.020			-3.204
175705.000			-16.019			-3.204
175804.000			-16.019			-3.204
175904.000			-16.018			-3.204
176005.000			-16.020			-3.204
176103.000			-16.020			-3.204
176205.000			-16.018			-3.204
176304.000			-16.018			-3.204
176404.000			-16.018			-3.204
176505.000			-16.019			-3.204
176604.000			-16.017			-3.203
176704.000			-16.018			-3.204
176805.000			-16.018			-3.204
176904.000			-16.017			-3.203
177003.000			-16.016			-3.203
177105.000			-16.016			-3.203
177204.000			-16.016			-3.203
177304.000			-16.016			-3.203
177405.000			-16.016			-3.203
177504.000			-16.016			-3.203
177604.000			-16.015			-3.203
177705.000			-16.015			-3.203
177804.000			-16.015			-3.203
177903.000			-16.016			-3.203
178005.000			-16.015			-3.203
178104.000			-16.014			-3.203
178204.000			-16.014			-3.203
178305.000			-16.013			-3.203
178404.000			-16.013			-3.203
178504.000			-16.013			-3.203
178604.000			-16.014			-3.203
178704.000			-16.014			-3.203
178803.000			-16.014			-3.203
178905.000			-16.012			-3.202
179004.000			-16.012			-3.202
179104.000			-16.013			-3.203
179205.000			-16.013			-3.203
179304.000			-16.012			-3.202
179405.000			-16.012			-3.202
179503.000			-16.012			-3.202
179604.000			-16.011			-3.202
179704.000			-16.011			-3.202
179804.000			-16.010			-3.202
179904.000			-16.010			-3.202
180005.000			-16.010			-3.202
180104.000			-16.010			-3.202
180204.000			-16.010			-3.202
180305.000			-16.009			-3.202
180403.000			-16.009			-3.202
180504.000			-16.009			-3.202
180605.000			-16.010			-3.202
180704.000			-16.009			-3.202
180804.000			-16.009			-3.202
180905.000			-16.009			-3.202
181004.000			-16.007			-3.201
181104.000			-16.007			-3.201
181205.000			-16.008			-3.202
181303.000			-16.007			-3.201
181404.000			-16.007			-3.201
181505.000			-16.007			-3.201
181604.000			-16.007			-3.201
181704.000			-16.006			-3.201
181805.000			-16.006			-3.201
181904.000			-16.006			-3.201
182003.000			-16.007			-3.201
182105.000			-16.006			-3.201
182203.000			-16.006			-3.201
182304.000			-16.006			-3.201
182405.000			-16.005			-3.201
182504.000			-16.004			-3.201
182605.000			-16.004			-3.201
182704.000			-16.005			-3.201
182804.000			-16.004			-3.201
182904.000			-16.004			-3.201
183004.000			-16.003			-3.201
183104.000			-16.003			-3.201
183205.000			-16.003			-3.201
183304.000			-16.004			-3.201
183404.000			-16.004			-3.201
183505.000			-16.002			-3.200
183604.000			-16.002			-3.200
183704.000			-16.001			-3.200
183804.000			-16.001			-3.200
183904.000			-16.002			-3.200
184004.000			-16.001			-3.200
184105.000			-16.001			-3.200
184204.000			-16.001			-3.200
184304.000			-16.000			-3.200
184405.000			-16.000			-3.200
184504.000			-16.001			-3.200
184604.000			-16.000			-3.200
184704.000			-15.999			-3.200
184804.000			-15.998			-3.200
184904.000			-15.999			-3.200
185005.000			-15.999			-3.200
185104.000			-15.998			-3.200
185204.000			-15.997			-3.199
185305.000			-15.997			-3.199
185404.000			-15.998			-3.200
185504.000			-15.998			-3.200
185603.000			-15.997			-3.199
185704.000			-15.996			-3.199
185804.000			-15.997			-3.199
185904.000			-15.996			-3.199
186004.000			-15.996			-3.199
186105.000			-15.997			-3.199
186204.000			-15.997			-3.199
186304.000			-15.996			-3.199
186405.000			-15.996			-3.199
186504.000			-15.996			-3.199
186604.000			-15.996			-3.199
186704.000			-15.995			-3.199
186804.000			-15.995			-3.199
186903.000			-15.994			-3.199
187005.000			-15.995			-3.199
187104.000			-15.995			-3.199
187204.000			-15.995			-3.199
187305.000			-15.995			-3.199
187404.000			-15.995			-3.199
187504.000			-15.995			-3.199
187605.000			-15.994			-3.199
187704.000			-15.994			-3.199
187803.000			-15.994			-3.199
187905.000			-15.993			-3.199
188004.000			-15.993			-3.199
188104.000			-15.993			-3.199
188205.000			-15.993			-3.199
188304.000			-15.992			-3.198
188404.000			-15.991			-3.198
188505.000			-15.992			-3.198
188604.000			-15.993			-3.199
188704.000			-15.991			-3.198
188805.000			-15.992			-3.198
188903.000			-15.992			-3.198
189005.000			-15.991			-3.198
189103.000			-15.991			-3.198
189204.000			-15.991			-3.198
189305.000			-15.990			-3.198
189404.000			-15.990			-3.198
189504.000			-15.989			-3.198
189605.000			-15.989			-3.198
189704.000			-15.991			-3.198
189804.000			-15.991			-3.198
189905.000			-15.991			-3.198
190003.000			-15.989			-3.198
190104.000			-15.989			-3.198
190205.000			-15.988			-3.198
190304.000			-15.988			-3.198
190404.000			-15.988			-3.198
190505.000			-15.989			-3.198
190604.000			-15.988			-3.198
190704.000			-15.988			-3.198
190805.000			-15.988			-3.198
190904.000			-15.988			-3.198
191004.000			-15.987			-3.197
191104.000			-15.987			-3.197
191204.000			-15.987			-3.197
191304.000			-15.987			-3.197
191405.000			-15.986			-3.197
191504.000			-15.985			-3.197
191604.000			-15.986			-3.197
191705.000			-15.987			-3.197
191804.000			-15.985			-3.197
191904.000			-15.984			-3.197
192003.000			-15.984			-3.197
192104.000			-15.985			-3.197
192204.000			-15.985			-3.197
192304.000			-15.985			-3.197
192404.000			-15.984			-3.197
192505.000			-15.983			-3.197
192604.000			-15.983			-3.197
192704.000			-15.983			-3.197
192805.000			-15.983			-3.197
192904.000			-15.982			-3.196
193004.000			-15.982			-3.196
193104.000			-15.982			-3.196
193204.000			-15.983			-3.197
193304.000			-15.983			-3.197
193405.000			-15.982			-3.196
193504.000			-15.982			-3.196
193604.000			-15.981			-3.196
193705.000			-15.980			-3.196
193804.000			-15.980			-3.196
193904.000			-15.980			-3.196
194004.000			-15.980			-3.196
194104.000			-15.980			-3.196
194203.000			-15.981			-3.196
194305.000			-15.981			-3.196
194404.000			-15.979			-3.196
194504.000			-15.978			-3.196
194605.000			-15.977			-3.195
194704.000			-15.978			-3.196
194804.000			-15.977			-3.195
194904.000			-15.977			-3.195
195004.000			-15.977			-3.195
195103.000			-15.978			-3.196
195205.000			-15.978			-3.196
195304.000			-15.977			-3.195
195405.000			-15.977			-3.195
195504.000			-15.977			-3.195
195604.000			-15.977			-3.195
195705.000			-15.977			-3.195
195804.000			-15.978			-3.196
195904.000			-15.978			-3.196
196004.000			-15.977			-3.195
196104.000			-15.977			-3.195
196203.000			-15.977			-3.195
196305.000			-15.977			-3.195
196404.000			-15.977			-3.195
196504.000			-15.977			-3.195
196605.000			-15.976			-3.195
196704.000			-15.975			-3.195
196804.000			-15.975			-3.195
196905.000			-15.976			-3.195
197004.000			-15.976			-3.195
197103.000			-15.976			-3.195
197205.000			-15.976			-3.195
197304.000			-15.976			-3.195
197404.000			-15.976			-3.195
197505.000			-15.975			-3.195
197604.000			-15.975			-3.195
197704.000			-15.975			-3.195
197805.000			-15.975			-3.195
197904.000			-15.974			-3.195
198004.000			-15.973			-3.195
198105.000			-15.973			-3.195
198203.000			-15.972			-3.194
198304.000			-15.973			-3.195
198405.000			-15.974			-3.195
198504.000			-15.973			-3.195
198605.000			-15.973			-3.195
198704.000			-15.972			-3.194
198804.000			-15.972			-3.194
198905.000			-15.972			-3.194
199004.000			-15.972			-3.194
199103.000			-15.972			-3.194
199205.000			-15.972			-3.194
199303.000			-15.972			-3.194
199404.000			-15.970			-3.194
199505.000			-15.971			-3.194
199604.000			-15.971			-3.194
199704.000			-15.970			-3.194
199805.000			-15.970			-3.194
199904.000			-15.970			-3.194
200004.000			-15.970			-3.194
200105.000			-15.970			-3.194
200203.000			-15.971			-3.194
200304.000			-15.970			-3.194
200405.000			-15.969			-3.194
200504.000			-15.968			-3.194
200604.000			-15.969			-3.194
200705.000			-15.969			-3.194
200804.000			-15.968			-3.194
200904.000			-15.969			-3.194
201005.000			-15.969			-3.194
201103.000			-15.968			-3.194
201204.000			-15.967			-3.193
201305.000			-15.967			-3.193
201404.000			-15.967			-3.193
201504.000			-15.967			-3.193
201604.000			-15.967			-3.193
201704.000			-15.966			-3.193
201805.000			-15.966			-3.193
201904.000			-15.967			-3.193
202003.000			-15.966			-3.193
202105.000			-15.967			-3.193
202204.000			-15.966			-3.193
202304.000			-15.965			-3.193
202405.000			-15.965			-3.193
202504.000			-15.965			-3.193
202604.000			-15.965			-3.193
202705.000			-15.965			-3.193
202804.000			-15.965			-3.193
202903.000			-15.966			-3.193
203005.000			-15.965			-3.193
203104.000			-15.965			-3.193
203204.000			-15.964			-3.193
203305.000			-15.964			-3.193
203404.000			-15.964			-3.193
203504.000			-15.963			-3.193
203605.000			-15.963			-3.193
203704.000			-15.963			-3.193
203803.000			-15.964			-3.193
203905.000			-15.964			-3.193
204004.000			-15.963			-3.193
204104.000			-15.963			-3.193
204205.000			-15.962			-3.192
204304.000			-15.961			-3.192
204404.000			-15.962			-3.192
204505.000			-15.962			-3.192
204604.000			-15.962			-3.192
204703.000			-15.961			-3.192
204805.000			-15.961			-3.192
204904.000			-15.961			-3.192
205005.000			-15.961			-3.192
205104.000			-15.960			-3.192
205204.000			-15.961			-3.192
205305.000			-15.960			-3.192
205404.000			-15.960			-3.192
205504.000			-15.960			-3.192
205604.000			-15.959			-3.192
205704.000			-15.960			-3.192
205804.000			-15.959			-3.192
205905.000			-15.959			-3.192
206004.000			-15.959			-3.192
206104.000			-15.960			-3.192
206205.000			-15.959			-3.192
206304.000			-15.959			-3.192
206404.000			-15.958			-3.192
206504.000			-15.957			-3.191
206604.000			-15.957			-3.191
206704.000			-15.957			-3.191
206805.000			-15.957			-3.191
206904.000			-15.958			-3.192
207004.000			-15.957			-3.191
207105.000			-15.956			-3.191
207204.000			-15.957			-3.191
207304.000			-15.956			-3.191
207404.000			-15.956			-3.191
207504.000			-15.955			-3.191
207604.000			-15.955			-3.191
207705.000			-15.956			-3.191
207804.000			-15.955			-3.191
207904.000			-15.954			-3.191
208005.000			-15.955			-3.191
208104.000			-15.956			-3.191
208205.000			-15.955			-3.191
208303.000			-15.955			-3.191
208404.000			-15.954			-3.191
208504.000			-15.954			-3.191
208604.000			-15.954			-3.191
208704.000			-15.955			-3.191
208805.000			-15.954			-3.191
208904.000			-15.954			-3.191
209004.000			-15.954			-3.191
209105.000			-15.954			-3.191
209204.000			-15.952			-3.190
209304.000			-15.953			-3.191
209404.000			-15.954			-3.191
209504.000			-15.953			-3.191
209604.000			-15.952			-3.190
209705.000			-15.952			-3.190
209804.000			-15.952			-3.190
209904.000			-15.951			-3.190
210005.000			-15.952			-3.190
210104.000			-15.952			-3.190
210204.000			-15.952			-3.190
210304.000			-15.951			-3.190
210404.000			-15.951			-3.190
210504.000			-15.950			-3.190
210605.000			-15.951			-3.190
210704.000			-15.950			-3.190
210804.000			-15.949			-3.190
210905.000			-15.950			-3.190
211004.000			-15.950			-3.190
211104.000			-15.949			-3.190
211203.000			-15.949			-3.190
211304.000			-15.949			-3.190
211405.000			-15.949			-3.190
211504.000			-15.948			-3.190
211604.000			-15.948			-3.190
211705.000			-15.948			-3.190
211804.000			-15.949			-3.190
211904.000			-15.948			-3.190
212005.000			-15.948			-3.190
212103.000			-15.947			-3.189
212204.000			-15.947			-3.189
212305.000			-15.948			-3.190
212404.000			-15.946			-3.189
212504.000			-15.946			-3.189
212605.000			-15.947			-3.189
212704.000			-15.946			-3.189
212804.000			-15.947			-3.189
212905.000			-15.946			-3.189
213003.000			-15.946			-3.189
213104.000			-15.946			-3.189
213205.000			-15.946			-3.189
213304.000			-15.946			-3.189
213404.000			-15.946			-3.189
213505.000			-15.946			-3.189
213604.000			-15.945			-3.189
213704.000			-15.945			-3.189
213805.000			-15.945			-3.189
213903.000			-15.944			-3.189
214004.000			-15.944			-3.189
214105.000			-15.944			-3.189
214204.000			-15.945			-3.189
214304.000			-15.944			-3.189
214404.000			-15.943			-3.189
214504.000			-15.944			-3.189
214605.000			-15.943			-3.189
214704.000			-15.944			-3.189
214803.000			-15.944			-3.189
214905.000			-15.943			-3.189
215004.000			-15.942			-3.188
215104.000			-15.942			-3.188
215205.000			-15.942			-3.188
215304.000			-15.942			-3.188
215404.000			-15.941			-3.188
215505.000			-15.942			-3.188
215604.000			-15.942			-3.188
215703.000			-15.941			-3.188
215805.000			-15.941			-3.188
215904.000			-15.941			-3.188
216004.000			-15.940			-3.188
216105.000			-15.940			-3.188
216204.000			-15.940			-3.188
216304.000			-15.939			-3.188
216405.000			-15.940			-3.188
216504.000			-15.939			-3.188
216603.000			-15.939			-3.188
216705.000			-15.940			-3.188
216804.000			-15.940			-3.188
216904.000			-15.940			-3.188
217005.000			-15.938			-3.188
217104.000			-15.938			-3.188
217204.000			-15.939			-3.188
217305.000			-15.939			-3.188
217404.000			-15.938			-3.188
217503.000			-15.938			-3.188
217605.000			-15.938			-3.188
217703.000			-15.937			-3.187
217805.000			-15.937			-3.187
217904.000			-15.937			-3.187
218004.000			-15.938			-3.188
218105.000			-15.938			-3.188
218204.000			-15.937			-3.187
218304.000			-15.936			-3.187
218404.000			-15.935			-3.187
218504.000			-15.935			-3.187
218603.000			-15.936			-3.187
218705.000			-15.937			-3.187
218804.000			-15.936			-3.187
218904.000			-15.935			-3.187
219005.000			-15.935			-3.187
219104.000			-15.935			-3.187
219204.000			-15.935			-3.187
219304.000			-15.934			-3.187
219404.000			-15.934			-3.187
219503.000			-15.935			-3.187
219605.000			-15.934			-3.187
219704.000			-15.934			-3.187
219804.000			-15.933			-3.187
219905.000			-15.932			-3.186
220004.000			-15.933			-3.187
220104.000			-15.933			-3.187
220205.000			-15.933			-3.187
220304.000			-15.933			-3.187
220403.000			-15.933			-3.187
220505.000			-15.931			-3.186
220604.000			-15.933			-3.187
220704.000			-15.933			-3.187
220805.000			-15.932			-3.186
220904.000			-15.931			-3.186
221005.000			-15.932			-3.186
221103.000			-15.932			-3.186
221204.000			-15.930			-3.186
221304.000			-15.930			-3.186
221404.000			-15.930			-3.186
221504.000			-15.931			-3.186
221605.000			-15.930			-3.186
221704.000			-15.931			-3.186
221804.000			-15.930			-3.186
221905.000			-15.929			-3.186
222003.000			-15.931			-3.186
222104.000			-15.930			-3.186
222205.000			-15.930			-3.186
222304.000			-15.929			-3.186
222404.000			-15.929			-3.186
222505.000			-15.928			-3.186
222604.000			-15.929			-3.186
222704.000			-15.930			-3.186
222805.000			-15.929			-3.186
222903.000			-15.928			-3.186
223004.000			-15.928			-3.186
223104.000			-15.928			-3.186
223204.000			-15.929			-3.186
223304.000			-15.929			-3.186
223405.000			-15.928			-3.186
223504.000			-15.928			-3.186
223604.000			-15.927			-3.185
223705.000			-15.927			-3.185
223803.000			-15.927			-3.185
223904.000			-15.928			-3.186
224003.000			-15.928			-3.186
224104.000			-15.926			-3.185
224205.000			-15.925			-3.185
224304.000			-15.925			-3.185
224404.000			-15.926			-3.185
224505.000			-15.926			-3.185
224604.000			-15.926			-3.185
224703.000			-15.926			-3.185
224805.000			-15.925			-3.185
224903.000			-15.924			-3.185
225004.000			-15.925			-3.185
225105.000			-15.925			-3.185
225204.000			-15.924			-3.185
225304.000			-15.924			-3.185
225405.000			-15.925			-3.185
225504.000			-15.924			-3.185
225603.000			-15.923			-3.185
225705.000			-15.923			-3.185
225803.000			-15.922			-3.184
225904.000			-15.922			-3.184
226005.000			-15.922			-3.184
226104.000			-15.922			-3.184
226204.000			-15.922			-3.184
226305.000			-15.923			-3.185
226404.000			-15.922			-3.184
226503.000			-15.923			-3.185
226605.000			-15.923			-3.185
226703.000			-15.921			-3.184
226804.000			-15.920			-3.184
226905.000			-15.920			-3.184
227004.000			-15.921			-3.184
227104.000			-15.921			-3.184
227204.000			-15.921			-3.184
227304.000			-15.920			-3.184
227404.000			-15.919			-3.184
227504.000			-15.919			-3.184
227603.000			-15.919			-3.184
227705.000			-15.921			-3.184
227804.000			-15.920			-3.184
227904.000			-15.919			-3.184
228005.000			-15.919			-3.184
228104.000			-15.918			-3.184
228204.000			-15.918			-3.184
228304.000			-15.918			-3.184
228404.000			-15.919			-3.184
228503.000			-15.918			-3.184
228605.000			-15.918			-3.184
228704.000			-15.918			-3.184
228804.000			-15.918			-3.184
228905.000			-15.916			-3.183
229004.000			-15.916			-3.183
229104.000			-15.916			-3.183
229205.000			-15.916			-3.183
229304.000			-15.916			-3.183
229403.000			-15.916			-3.183
229505.000			-15.914			-3.183
229604.000			-15.913			-3.183
229704.000			-15.914			-3.183
229805.000			-15.915			-3.183
229904.000			-15.913			-3.183
230004.000			-15.913			-3.183
230105.000			-15.912			-3.182
230204.000			-15.912			-3.182
230303.000			-15.912			-3.182
230405.000			-15.912			-3.182
230504.000			-15.912			-3.182
230605.000			-15.912			-3.182
230704.000			-15.911			-3.182
230804.000			-15.911			-3.182
230905.000			-15.911			-3.182
231004.000			-15.911			-3.182
231104.000			-15.911			-3.182
231204.000			-15.911			-3.182
231304.000			-15.910			-3.182
231404.000			-15.911			-3.182
231505.000			-15.912			-3.182
231604.000			-15.911			-3.182
231704.000			-15.911			-3.182
231805.000			-15.911			-3.182
231903.000			-15.910			-3.182
232004.000			-15.911			-3.182
232104.000			-15.910			-3.182
232204.000			-15.910			-3.182
232304.000			-15.910			-3.182
232405.000			-15.910			-3.182
232504.000			-15.910			-3.182
232604.000			-15.910			-3.182
232705.000			-15.910			-3.182
232803.000			-15.910			-3.182
232904.000			-15.910			-3.182
233004.000			-15.911			-3.182
233104.000			-15.911			-3.182
233204.000			-15.910			-3.182
233305.000			-15.909			-3.182
233404.000			-15.908			-3.182
233504.000			-15.909			-3.182
233605.000			-15.910			-3.182
233703.000			-15.909			-3.182
233805.000			-15.908			-3.182
233904.000			-15.908			-3.182
234004.000			-15.909			-3.182
234105.000			-15.909			-3.182
234204.000			-15.908			-3.182
234304.000			-15.908			-3.182
234405.000			-15.908			-3.182
234504.000			-15.908			-3.182
234603.000			-15.908			-3.182
234705.000			-15.907			-3.181
234803.000			-15.907			-3.181
234904.000			-15.908			-3.182
235005.000			-15.907			-3.181
235104.000			-15.906			-3.181
235204.000			-15.907			-3.181
235305.000			-15.907			-3.181
235404.000			-15.906			-3.181
235503.000			-15.906			-3.181
235605.000			-15.907			-3.181
235703.000			-15.906			-3.181
235804.000			-15.905			-3.181
235905.000			-15.904			-3.181
236004.000			-15.905			-3.181
236104.000			-15.904			-3.181
236205.000			-15.905			-3.181
236304.000			-15.905			-3.181
236403.000			-15.904			-3.181
236505.000			-15.905			-3.181
236603.000			-15.905			-3.181
236704.000			-15.904			-3.181
236805.000			-15.904			-3.181
236904.000			-15.904			-3.181
237005.000			-15.903			-3.181
237104.000			-15.903			-3.181
237204.000			-15.903			-3.181
237304.000			-15.904			-3.181
237404.000			-15.904			-3.181
237503.000			-15.902			-3.180
237605.000			-15.902			-3.180
237704.000			-15.903			-3.181
237804.000			-15.903			-3.181
237905.000			-15.902			-3.180
238004.000			-15.903			-3.181
238104.000			-15.902			-3.180
238204.000			-15.902			-3.180
238304.000			-15.903			-3.181
238403.000			-15.902			-3.180
238505.000			-15.902			-3.180
238604.000			-15.901			-3.180
238704.000			-15.901			-3.180
238805.000			-15.901			-3.180
238904.000			-15.902			-3.180
239004.000			-15.902			-3.180
239104.000			-15.900			-3.180
239204.000			-15.900			-3.180
239304.000			-15.900			-3.180
239405.000			-15.900			-3.180
239504.000			-15.900			-3.180
239604.000			-15.900			-3.180
239705.000			-15.901			-3.180
239804.000			-15.900			-3.180
239904.000			-15.900			-3.180
240003.000			-15.900			-3.180
240104.000			-15.900			-3.180
240204.000			-15.899			-3.180
240304.000			-15.899			-3.180
240404.000			-15.899			-3.180
240505.000			-15.899			-3.180
240604.000			-15.899			-3.180
240704.000			-15.899			-3.180
240805.000			-15.898			-3.180
240904.000			-15.898			-3.180
241004.000			-15.897			-3.179
241104.000			-15.897			-3.179
241204.000			-15.897			-3.179
241304.000			-15.898			-3.180
241405.000			-15.897			-3.179
241504.000			-15.897			-3.179
241604.000			-15.897			-3.179
241705.000			-15.897			-3.179
241804.000			-15.897			-3.179
241904.000			-15.898			-3.180
242004.000			-15.897			-3.179
242104.000			-15.896			-3.179
242204.000			-15.897			-3.179
242305.000			-15.896			-3.179
242404.000			-15.895			-3.179
242504.000			-15.896			-3.179
242605.000			-15.897			-3.179
242704.000			-15.897			-3.179
242804.000			-15.895			-3.179
242904.000			-15.894			-3.179
243004.000			-15.894			-3.179
243103.000			-15.894			-3.179
243205.000			-15.895			-3.179
243304.000			-15.896			-3.179
243405.000			-15.895			-3.179
243504.000			-15.895			-3.179
243604.000			-15.894			-3.179
243705.000			-15.894			-3.179
243804.000			-15.894			-3.179
243904.000			-15.894			-3.179
244004.000			-15.894			-3.179
244104.000			-15.894			-3.179
244204.000			-15.893			-3.179
244305.000			-15.893			-3.179
244404.000			-15.892			-3.178
244504.000			-15.892			-3.178
244605.000			-15.892			-3.178
244704.000			-15.892			-3.178
244804.000			-15.892			-3.178
244904.000			-15.892			-3.178
245004.000			-15.892			-3.178
245104.000			-15.891			-3.178
245205.000			-15.891			-3.178
245304.000			-15.891			-3.178
245404.000			-15.891			-3.178
245505.000			-15.891			-3.178
245604.000			-15.891			-3.178
245704.000			-15.891			-3.178
245804.000			-15.890			-3.178
245904.000			-15.890			-3.178
246004.000			-15.889			-3.178
246105.000			-15.889			-3.178
246204.000			-15.890			-3.178
246304.000			-15.890			-3.178
246405.000			-15.889			-3.178
246504.000			-15.889			-3.178
246605.000			-15.890			-3.178
246704.000			-15.889			-3.178
246804.000			-15.888			-3.178
246904.000			-15.888			-3.178
247004.000			-15.888			-3.178
247104.000			-15.887			-3.177
247205.000			-15.887			-3.177
247304.000			-15.888			-3.178
247404.000			-15.888			-3.178
247505.000			-15.888			-3.178
247604.000			-15.887			-3.177
247704.000			-15.887			-3.177
247804.000			-15.887			-3.177
247904.000			-15.887			-3.177
248003.000			-15.887			-3.177
248105.000			-15.886			-3.177
248204.000			-15.886			-3.177
248304.000			-15.887			-3.177
248405.000			-15.887			-3.177
248504.000			-15.887			-3.177
248604.000			-15.887			-3.177
248704.000			-15.887			-3.177
248804.000			-15.886			-3.177
248903.000			-15.887			-3.177
249005.000			-15.887			-3.177
249104.000			-15.886			-3.177
249204.000			-15.884			-3.177
249305.000			-15.884			-3.177
249404.000			-15.885			-3.177
249504.000			-15.886			-3.177
249604.000			-15.886			-3.177
249704.000			-15.884			-3.177
249804.000			-15.884			-3.177
249904.000			-15.883			-3.177
250003.000			-15.884			-3.177
250105.000			-15.884			-3.177
250204.000			-15.884			-3.177
250304.000			-15.884			-3.177
250405.000			-15.884			-3.177
250504.000			-15.883			-3.177
250604.000			-15.883			-3.177
250704.000			-15.884			-3.177
250804.000			-15.882			-3.176
250903.000			-15.882			-3.176
251005.000			-15.883			-3.177
251104.000			-15.882			-3.176
251204.000			-15.882			-3.176
251305.000			-15.882			-3.176
251404.000			-15.883			-3.177
251504.000			-15.882			-3.176
251604.000			-15.881			-3.176
251704.000			-15.881			-3.176
251803.000			-15.880			-3.176
251905.000			-15.881			-3.176
252004.000			-15.881			-3.176
252104.000			-15.879			-3.176
252205.000			-15.880			-3.176
252304.000			-15.881			-3.176
252404.000			-15.881			-3.176
252504.000			-15.879			-3.176
252604.000			-15.879			-3.176
252703.000			-15.879			-3.176
252805.000			-15.879			-3.176
252904.000			-15.879			-3.176
253005.000			-15.879			-3.176
253104.000			-15.879			-3.176
253204.000			-15.879			-3.176
253305.000			-15.879			-3.176
253404.000			-15.879			-3.176
253504.000			-15.879			-3.176
253604.000			-15.877			-3.175
253704.000			-15.877			-3.175
253803.000			-15.878			-3.176
253905.000			-15.877			-3.175
254004.000			-15.877			-3.175
254104.000			-15.877			-3.175
254205.000			-15.878			-3.176
254304.000			-15.878			-3.176
254404.000			-15.876			-3.175
254505.000			-15.877			-3.175
254604.000			-15.876			-3.175
254703.000			-15.876			-3.175
254805.000			-15.877			-3.175
254904.000			-15.877			-3.175
255004.000			-15.877			-3.175
255105.000			-15.876			-3.175
255204.000			-15.876			-3.175
255304.000			-15.875			-3.175
255405.000			-15.875			-3.175
255504.000			-15.876			-3.175
255603.000			-15.875			-3.175
255705.000			-15.875			-3.175
255804.000			-15.874			-3.175
255904.000			-15.874			-3.175
256005.000			-15.874			-3.175
256104.000			-15.874			-3.175
256205.000			-15.874			-3.175
256304.000			-15.874			-3.175
256404.000			-15.874			-3.175
256504.000			-15.873			-3.175
256604.000			-15.874			-3.175
256703.000			-15.873			-3.175
256805.000			-15.874			-3.175
256904.000			-15.874			-3.175
257004.000			-15.873			-3.175
257105.000			-15.873			-3.175
257204.000			-15.873			-3.175
257304.000			-15.873			-3.175
257404.000			-15.872			-3.174
257504.000			-15.872			-3.174
257603.000			-15.872			-3.174
257705.000			-15.873			-3.175
257804.000			-15.872			-3.174
257904.000			-15.871			-3.174
258005.000			-15.871			-3.174
258104.000			-15.871			-3.174
258204.000			-15.870			-3.174
258305.000			-15.870			-3.174
258404.000			-15.870			-3.174
258503.000			-15.871			-3.174
258605.000			-15.871			-3.174
258704.000			-15.870			-3.174
258804.000			-15.869			-3.174
258905.000			-15.869			-3.174
259004.000			-15.869			-3.174
259104.000			-15.869			-3.174
259204.000			-15.869			-3.174
259304.000			-15.869			-3.174
259404.000			-15.870			-3.174
259504.000			-15.871			-3.174
259603.000			-15.868			-3.174
259705.000			-15.869			-3.174
259804.000			-15.869			-3.174
259904.000			-15.869			-3.174
260005.000			-15.868			-3.174
260104.000			-15.867			-3.173
260204.000			-15.867			-3.173
260305.000			-15.868			-3.174
260404.000			-15.867			-3.173
260503.000			-15.867			-3.173
260605.000			-15.867			-3.173
260704.000			-15.867			-3.173
260804.000			-15.867			-3.173
260905.000			-15.866			-3.173
261004.000			-15.866			-3.173
261104.000			-15.866			-3.173
261205.000			-15.866			-3.173
261304.000			-15.865			-3.173
261403.000			-15.865			-3.173
261505.000			-15.866			-3.173
261603.000			-15.866			-3.173
261704.000			-15.864			-3.173
261805.000			-15.865			-3.173
261904.000			-15.865			-3.173
262004.000			-15.866			-3.173
262105.000			-15.865			-3.173
262204.000			-15.864			-3.173
262303.000			-15.864			-3.173
262405.000			-15.865			-3.173
262503.000			-15.864			-3.173
262605.000			-15.864			-3.173
262704.000			-15.864			-3.173
262804.000			-15.863			-3.173
262905.000			-15.863			-3.173
263004.000			-15.864			-3.173
263104.000			-15.864			-3.173
263204.000			-15.863			-3.173
263304.000			-15.862			-3.172
263403.000			-15.862			-3.172
263505.000			-15.861			-3.172
263604.000			-15.861			-3.172
263704.000			-15.861			-3.172
263805.000			-15.862			-3.172
263904.000			-15.863			-3.173
264004.000			-15.861			-3.172
264105.000			-15.861			-3.172
264204.000			-15.861			-3.172
264303.000			-15.860			-3.172
264405.000			-15.861			-3.172
264504.000			-15.861			-3.172
264604.000			-15.861			-3.172
264705.000			-15.861			-3.172
264804.000			-15.861			-3.172
264904.000			-15.861			-3.172
265005.000			-15.860			-3.172
265104.000			-15.860			-3.172
265203.000			-15.860			-3.172
265305.000			-15.861			-3.172
265404.000			-15.860			-3.172
265504.000			-15.858			-3.172
265605.000			-15.858			-3.172
265704.000			-15.859			-3.172
265805.000			-15.859			-3.172
265904.000			-15.859			-3.172
266004.000			-15.859			-3.172
266104.000			-15.858			-3.172
266204.000			-15.859			-3.172
266303.000			-15.859			-3.172
266405.000			-15.858			-3.172
266504.000			-15.858			-3.172
266604.000			-15.858			-3.172
266705.000			-15.858			-3.172
266804.000			-15.857			-3.171
266904.000			-15.857			-3.171
267005.000			-15.856			-3.171
267104.000			-15.856			-3.171
267203.000			-15.857			-3.171
267305.000			-15.856			-3.171
267404.000			-15.856			-3.171
267504.000			-15.856			-3.171
267605.000			-15.857			-3.171
267704.000			-15.856			-3.171
267804.000			-15.856			-3.171
267905.000			-15.855			-3.171
268004.000			-15.855			-3.171
268103.000			-15.856			-3.171
268205.000			-15.856			-3.171
268303.000			-15.856			-3.171
268404.000			-15.856			-3.171
268505.000			-15.856			-3.171
268604.000			-15.855			-3.171
268704.000			-15.854			-3.171
268804.000			-15.854			-3.171
268904.000			-15.854			-3.171
269005.000			-15.855			-3.171
269104.000			-15.855			-3.171
269203.000			-15.855			-3.171
269305.000			-15.854			-3.171
269404.000			-15.855			-3.171
269504.000			-15.854			-3.171
269605.000			-15.853			-3.171
269704.000			-15.853			-3.171
269804.000			-15.852			-3.170
269905.000			-15.853			-3.171
270004.000			-15.853			-3.171
270103.000			-15.852			-3.170
270205.000			-15.851			-3.170
270304.000			-15.851			-3.170
270404.000			-15.852			-3.170
270505.000			-15.852			-3.170
270604.000			-15.851			-3.170
270704.000			-15.850			-3.170
270805.000			-15.850			-3.170
270904.000			-15.849			-3.170
271003.000			-15.849			-3.170
271105.000			-15.849			-3.170
271204.000			-15.849			-3.170
271304.000			-15.849			-3.170
271405.000			-15.849			-3.170
271504.000			-15.849			-3.170
271604.000			-15.849			-3.170
271705.000			-15.849			-3.170
271804.000			-15.848			-3.170
271903.000			-15.848			-3.170
272005.000			-15.846			-3.169
272103.000			-15.845			-3.169
272205.000			-15.846			-3.169
272304.000			-15.847			-3.169
272404.000			-15.847			-3.169
272505.000			-15.847			-3.169
272604.000			-15.846			-3.169
272704.000			-15.844			-3.169
272804.000			-15.845			-3.169
272904.000			-15.845			-3.169
273003.000			-15.845			-3.169
273105.000			-15.844			-3.169
273204.000			-15.844			-3.169
273304.000			-15.844			-3.169
273405.000			-15.845			-3.169
273504.000			-15.844			-3.169
273604.000			-15.844			-3.169
273704.000			-15.844			-3.169
273804.000			-15.843			-3.169
273903.000			-15.843			-3.169
274005.000			-15.843			-3.169
274104.000			-15.843			-3.169
274204.000			-15.843			-3.169
274305.000			-15.843			-3.169
274404.000			-15.843			-3.169
274504.000			-15.843			-3.169
274604.000			-15.843			-3.169
274704.000			-15.842			-3.168
274803.000			-15.842			-3.168
274905.000			-15.843			-3.169
275004.000			-15.842			-3.168
275104.000			-15.842			-3.168
275205.000			-15.842			-3.168
275304.000			-15.842			-3.168
275405.000			-15.842			-3.168
275504.000			-15.842			-3.168
275604.000			-15.841			-3.168
275704.000			-15.841			-3.168
275804.000			-15.842			-3.168
275904.000			-15.842			-3.168
276005.000			-15.841			-3.168
276104.000			-15.841			-3.168
276204.000			-15.840			-3.168
276305.000			-15.840			-3.168
276404.000			-15.841			-3.168
276504.000			-15.842			-3.168
276604.000			-15.841			-3.168
276704.000			-15.840			-3.168
276804.000			-15.839			-3.168
276905.000			-15.839			-3.168
277004.000			-15.840			-3.168
277104.000			-15.839			-3.168
277205.000			-15.839			-3.168
277304.000			-15.840			-3.168
277404.000			-15.839			-3.168
277504.000			-15.838			-3.168
277604.000			-15.838			-3.168
277703.000			-15.838			-3.168
277805.000			-15.838			-3.168
277904.000			-15.838			-3.168
278004.000			-15.838			-3.168
278105.000			-15.839			-3.168
278204.000			-15.839			-3.168
278304.000			-15.838			-3.168
278404.000			-15.838			-3.168
278504.000			-15.838			-3.168
278604.000			-15.838			-3.168
278704.000			-15.838			-3.168
278803.000			-15.838			-3.168
278905.000			-15.839			-3.168
279004.000			-15.839			-3.168
279104.000			-15.838			-3.168
279205.000			-15.837			-3.167
279304.000			-15.837			-3.167
279404.000			-15.837			-3.167
279505.000			-15.837			-3.167
279604.000			-15.837			-3.167
279703.000			-15.837			-3.167
279805.000			-15.837			-3.167
279904.000			-15.836			-3.167
280004.000			-15.837			-3.167
280105.000			-15.836			-3.167
280204.000			-15.837			-3.167
280304.000			-15.837			-3.167
280405.000			-15.837			-3.167
280504.000			-15.836			-3.167
280603.000			-15.836			-3.167
280705.000			-15.837			-3.167
280804.000			-15.837			-3.167
280904.000			-15.837			-3.167
281005.000			-15.838			-3.168
281104.000			-15.837			-3.167
281204.000			-15.836			-3.167
281305.000			-15.836			-3.167
281404.000			-15.838			-3.168
281503.000			-15.836			-3.167
281605.000			-15.835			-3.167
281703.000			-15.837			-3.167
281805.000			-15.837			-3.167
281904.000			-15.835			-3.167
282004.000			-15.835			-3.167
282105.000			-15.835			-3.167
282204.000			-15.835			-3.167
282304.000			-15.833			-3.167
282404.000			-15.834			-3.167
282504.000			-15.835			-3.167
282603.000			-15.835			-3.167
282705.000			-15.835			-3.167
282804.000			-15.834			-3.167
282904.000			-15.835			-3.167
283005.000			-15.834			-3.167
283104.000			-15.834			-3.167
283204.000			-15.835			-3.167
283305.000			-15.834			-3.167
283404.000			-15.834			-3.167
283503.000			-15.835			-3.167
283605.000			-15.834			-3.167
283704.000			-15.832			-3.166
283804.000			-15.833			-3.167
283905.000			-15.833			-3.167
284004.000			-15.832			-3.166
284104.000			-15.832			-3.166
284205.000			-15.833			-3.167
284304.000			-15.832			-3.166
284403.000			-15.833			-3.167
284505.000			-15.833			-3.167
284604.000			-15.832			-3.166
284704.000			-15.832			-3.166
284805.000			-15.832			-3.166
284904.000			-15.832			-3.166
285005.000			-15.832			-3.166
285104.000			-15.831			-3.166
285204.000			-15.832			-3.166
285304.000			-15.831			-3.166
285404.000			-15.831			-3.166
285504.000			-15.830			-3.166
285605.000			-15.831			-3.166
285704.000			-15.829			-3.166
285804.000			-15.830			-3.166
285905.000			-15.831			-3.166
286004.000			-15.831			-3.166
286104.000			-15.831			-3.166
286204.000			-15.830			-3.166
286304.000			-15.830			-3.166
286404.000			-15.831			-3.166
286505.000			-15.831			-3.166
286604.000			-15.830			-3.166
286704.000			-15.829			-3.166
286805.000			-15.830			-3.166
286904.000			-15.829			-3.166
287004.000			-15.829			-3.166
287104.000			-15.829			-3.166
287204.000			-15.829			-3.166
287304.000			-15.830			-3.166
287405.000			-15.830			-3.166
287504.000			-15.829			-3.166
287604.000			-15.829			-3.166
287705.000			-15.829			-3.166
287804.000			-15.828			-3.166
287904.000			-15.829			-3.166
288003.000			-15.828			-3.166
288104.000			-15.828			-3.166
288204.000			-15.827			-3.165
288304.000			-15.827			-3.165
288404.000			-15.827			-3.165
288505.000			-15.827			-3.165
288604.000			-15.826			-3.165
288704.000			-15.826			-3.165
288805.000			-15.826			-3.165
288904.000			-15.827			-3.165
289004.000			-15.827			-3.165
289104.000			-15.826			-3.165
289204.000			-15.826			-3.165
289304.000			-15.826			-3.165
289405.000			-15.825			-3.165
289504.000			-15.825			-3.165
289604.000			-15.826			-3.165
289705.000			-15.827			-3.165
289804.000			-15.826			-3.165
289904.000			-15.826			-3.165
290004.000			-15.825			-3.165
290104.000			-15.825			-3.165
290203.000			-15.825			-3.165
290305.000			-15.824			-3.165
290404.000			-15.824			-3.165
290504.000			-15.824			-3.165
290605.000			-15.823			-3.165
290704.000			-15.824			-3.165
290804.000			-15.823			-3.165
290904.000			-15.823			-3.165
291004.000			-15.824			-3.165
291104.000			-15.824			-3.165
291204.000			-15.823			-3.165
291304.000			-15.822			-3.164
291405.000			-15.822			-3.164
291504.000			-15.822			-3.164
291604.000			-15.821			-3.164
291705.000			-15.822			-3.164
291803.000			-15.822			-3.164
291904.000			-15.823			-3.165
292004.000			-15.823			-3.165
292104.000			-15.822			-3.164
292204.000			-15.821			-3.164
292305.000			-15.820			-3.164
292404.000			-15.821			-3.164
292504.000			-15.820			-3.164
292605.000			-15.820			-3.164
292703.000			-15.821			-3.164
292804.000			-15.821			-3.164
292904.000			-15.821			-3.164
293004.000			-15.820			-3.164
293104.000			-15.821			-3.164
293205.000			-15.820			-3.164
293304.000			-15.820			-3.164
293404.000			-15.820			-3.164
293505.000			-15.820			-3.164
293603.000			-15.819			-3.164
293704.000			-15.820			-3.164
293804.000			-15.819			-3.164
293904.000			-15.819			-3.164
294004.000			-15.820			-3.164
294105.000			-15.819			-3.164
294204.000			-15.818			-3.164
294304.000			-15.819			-3.164
294405.000			-15.817			-3.163
294503.000			-15.818			-3.164
294605.000			-15.818			-3.164
294703.000			-15.817			-3.163
294804.000			-15.817			-3.163
294905.000			-15.817			-3.163
295004.000			-15.817			-3.163
295104.000			-15.817			-3.163
295205.000			-15.817			-3.163
295304.000			-15.817			-3.163
295404.000			-15.818			-3.164
295505.000			-15.818			-3.164
295603.000			-15.817			-3.163
295704.000			-15.817			-3.163
295805.000			-15.817			-3.163
295904.000			-15.817			-3.163
296004.000			-15.817			-3.163
296105.000			-15.815			-3.163
296204.000			-15.815			-3.163
296304.000			-15.816			-3.163
296405.000			-15.817			-3.163
296503.000			-15.817			-3.163
296604.000			-15.816			-3.163
296704.000			-15.816			-3.163
296804.000			-15.816			-3.163
296904.000			-15.816			-3.163
297005.000			-15.816			-3.163
297104.000			-15.817			-3.163
297204.000			-15.816			-3.163
297305.000			-15.815			-3.163
297403.000			-15.816			-3.163
297504.000			-15.816			-3.163
297603.000			-15.815			-3.163
297704.000			-15.816			-3.163
297805.000			-15.815			-3.163
297904.000			-15.815			-3.163
298004.000			-15.815			-3.163
298105.000			-15.814			-3.163
298204.000			-15.814			-3.163
298304.000			-15.814			-3.163
298405.000			-15.814			-3.163
298503.000			-15.814			-3.163
298604.000			-15.815			-3.163
298705.000			-15.815			-3.163
298804.000			-15.814			-3.163
298904.000			-15.813			-3.163
299005.000			-15.813			-3.163
299104.000			-15.812			-3.162
299204.000			-15.813			-3.163
299305.000			-15.814			-3.163
299403.000			-15.813			-3.163
299504.000			-15.813			-3.163
299604.000			-15.813			-3.163
299704.000			-15.812			-3.162
299804.000			-15.812			-3.162
299905.000			-15.812			-3.162
