# Acquired on 10/01/2024 12:15:37 
# SPIDER: Creep_-3mm_07714532C-1
# CREEP MEASUREMENT

# time [ms]		force [N]		stiffness [N/mm]
1.000			2.862			-0.954
101.000			3.225			-1.075
201.000			3.384			-1.128
300.000			3.407			-1.136
400.000			3.378			-1.126
501.000			3.366			-1.122
600.000			3.358			-1.119
700.000			3.350			-1.117
802.000			3.342			-1.114
900.000			3.335			-1.112
1000.000			3.328			-1.109
1101.000			3.323			-1.108
1200.000			3.315			-1.105
1300.000			3.311			-1.104
1401.000			3.307			-1.102
1501.000			3.303			-1.101
1601.000			3.299			-1.100
1701.000			3.295			-1.098
1800.000			3.292			-1.097
1900.000			3.288			-1.096
2001.000			3.285			-1.095
2100.000			3.280			-1.093
2201.000			3.278			-1.093
2302.000			3.277			-1.092
2400.000			3.275			-1.092
2500.000			3.272			-1.091
2601.000			3.269			-1.090
2700.000			3.267			-1.089
2800.000			3.265			-1.088
2900.000			3.263			-1.088
3001.000			3.261			-1.087
3102.000			3.259			-1.086
3200.000			3.257			-1.086
3300.000			3.254			-1.085
3401.000			3.252			-1.084
3500.000			3.250			-1.083
3600.000			3.249			-1.083
3702.000			3.248			-1.083
3801.000			3.246			-1.082
3900.000			3.245			-1.082
4001.000			3.243			-1.081
4100.000			3.240			-1.080
4200.000			3.240			-1.080
4301.000			3.238			-1.079
4401.000			3.236			-1.079
4501.000			3.235			-1.078
4601.000			3.234			-1.078
4700.000			3.233			-1.078
4800.000			3.231			-1.077
4901.000			3.229			-1.076
5000.000			3.228			-1.076
5100.000			3.227			-1.076
5202.000			3.227			-1.076
5301.000			3.225			-1.075
5400.000			3.225			-1.075
5501.000			3.223			-1.074
5600.000			3.222			-1.074
5700.000			3.221			-1.074
5801.000			3.220			-1.073
5901.000			3.219			-1.073
6002.000			3.218			-1.073
6100.000			3.217			-1.072
6200.000			3.216			-1.072
6301.000			3.214			-1.071
6400.000			3.214			-1.071
6500.000			3.214			-1.071
6602.000			3.213			-1.071
6701.000			3.211			-1.070
6800.000			3.211			-1.070
6901.000			3.211			-1.070
7000.000			3.208			-1.069
7100.000			3.207			-1.069
7201.000			3.208			-1.069
7300.000			3.207			-1.069
7401.000			3.206			-1.069
7502.000			3.204			-1.068
7600.000			3.204			-1.068
7700.000			3.204			-1.068
7801.000			3.202			-1.067
7900.000			3.202			-1.067
8000.000			3.201			-1.067
8102.000			3.200			-1.067
8201.000			3.200			-1.067
8300.000			3.199			-1.066
8401.000			3.198			-1.066
8500.000			3.197			-1.066
8600.000			3.195			-1.065
8701.000			3.195			-1.065
8800.000			3.195			-1.065
8901.000			3.195			-1.065
9002.000			3.194			-1.065
9100.000			3.192			-1.064
9200.000			3.191			-1.064
9300.000			3.191			-1.064
9400.000			3.192			-1.064
9501.000			3.191			-1.064
9601.000			3.190			-1.063
9701.000			3.190			-1.063
9801.000			3.190			-1.063
9900.000			3.188			-1.063
10000.000			3.187			-1.062
10101.000			3.186			-1.062
10200.000			3.185			-1.062
10300.000			3.185			-1.062
10402.000			3.186			-1.062
10501.000			3.186			-1.062
10600.000			3.183			-1.061
10701.000			3.183			-1.061
10800.000			3.182			-1.061
10900.000			3.182			-1.061
11001.000			3.182			-1.061
11100.000			3.181			-1.060
11201.000			3.180			-1.060
11302.000			3.180			-1.060
11400.000			3.179			-1.060
11500.000			3.178			-1.059
11601.000			3.177			-1.059
11700.000			3.176			-1.059
11800.000			3.176			-1.059
11902.000			3.176			-1.059
12001.000			3.175			-1.058
12100.000			3.174			-1.058
12201.000			3.175			-1.058
12300.000			3.174			-1.058
12400.000			3.174			-1.058
12500.000			3.173			-1.058
12600.000			3.172			-1.057
12702.000			3.172			-1.057
12801.000			3.171			-1.057
12900.000			3.171			-1.057
13001.000			3.171			-1.057
13100.000			3.171			-1.057
13200.000			3.170			-1.057
13301.000			3.170			-1.057
13400.000			3.169			-1.056
13501.000			3.169			-1.056
13602.000			3.167			-1.056
13700.000			3.166			-1.055
13800.000			3.167			-1.056
13901.000			3.166			-1.055
14000.000			3.166			-1.055
14100.000			3.167			-1.056
14201.000			3.165			-1.055
14301.000			3.166			-1.055
14401.000			3.165			-1.055
14501.000			3.164			-1.055
14600.000			3.164			-1.055
14700.000			3.164			-1.055
14801.000			3.163			-1.054
14900.000			3.162			-1.054
15001.000			3.163			-1.054
15102.000			3.162			-1.054
15201.000			3.161			-1.054
15300.000			3.160			-1.053
15401.000			3.160			-1.053
15500.000			3.159			-1.053
15600.000			3.160			-1.053
15700.000			3.159			-1.053
15801.000			3.159			-1.053
15902.000			3.158			-1.053
16001.000			3.159			-1.053
16100.000			3.158			-1.053
16201.000			3.158			-1.053
16300.000			3.158			-1.053
16400.000			3.157			-1.052
16501.000			3.156			-1.052
16601.000			3.156			-1.052
16701.000			3.156			-1.052
16801.000			3.156			-1.052
16900.000			3.156			-1.052
17000.000			3.156			-1.052
17101.000			3.155			-1.052
17200.000			3.156			-1.052
17300.000			3.155			-1.052
17402.000			3.154			-1.051
17501.000			3.153			-1.051
17600.000			3.153			-1.051
17701.000			3.153			-1.051
17800.000			3.154			-1.051
17900.000			3.152			-1.051
18001.000			3.151			-1.050
18100.000			3.151			-1.050
18201.000			3.150			-1.050
18302.000			3.151			-1.050
18400.000			3.150			-1.050
18500.000			3.151			-1.050
18601.000			3.150			-1.050
18700.000			3.150			-1.050
18800.000			3.150			-1.050
18902.000			3.150			-1.050
19001.000			3.149			-1.050
19101.000			3.148			-1.049
19200.000			3.148			-1.049
19300.000			3.149			-1.050
19401.000			3.147			-1.049
19500.000			3.147			-1.049
19600.000			3.146			-1.049
19702.000			3.146			-1.049
19801.000			3.146			-1.049
19900.000			3.146			-1.049
20001.000			3.146			-1.049
20100.000			3.145			-1.048
20200.000			3.144			-1.048
20301.000			3.144			-1.048
20400.000			3.144			-1.048
20501.000			3.144			-1.048
20602.000			3.144			-1.048
20700.000			3.144			-1.048
20800.000			3.143			-1.048
20901.000			3.142			-1.047
21000.000			3.142			-1.047
21100.000			3.143			-1.048
21202.000			3.142			-1.047
21301.000			3.142			-1.047
21400.000			3.142			-1.047
21501.000			3.140			-1.047
21600.000			3.140			-1.047
21700.000			3.140			-1.047
21801.000			3.139			-1.046
21900.000			3.139			-1.046
22002.000			3.139			-1.046
22101.000			3.140			-1.047
22200.000			3.139			-1.046
22301.000			3.139			-1.046
22400.000			3.138			-1.046
22500.000			3.139			-1.046
22601.000			3.138			-1.046
22700.000			3.137			-1.046
22801.000			3.138			-1.046
22902.000			3.139			-1.046
23000.000			3.137			-1.046
23100.000			3.138			-1.046
23201.000			3.138			-1.046
23300.000			3.139			-1.046
23400.000			3.140			-1.047
23502.000			3.139			-1.046
23601.000			3.137			-1.046
23700.000			3.138			-1.046
23801.000			3.138			-1.046
23900.000			3.138			-1.046
24000.000			3.137			-1.046
24101.000			3.137			-1.046
24200.000			3.137			-1.046
24301.000			3.136			-1.045
24402.000			3.136			-1.045
24500.000			3.136			-1.045
24600.000			3.135			-1.045
24701.000			3.134			-1.045
24800.000			3.134			-1.045
24900.000			3.135			-1.045
25001.000			3.135			-1.045
25101.000			3.133			-1.044
25202.000			3.134			-1.045
25300.000			3.133			-1.044
25400.000			3.133			-1.044
25501.000			3.133			-1.044
25600.000			3.133			-1.044
25700.000			3.132			-1.044
25801.000			3.131			-1.044
25901.000			3.131			-1.044
26001.000			3.131			-1.044
26101.000			3.131			-1.044
26200.000			3.130			-1.043
26300.000			3.130			-1.043
26401.000			3.130			-1.043
26500.000			3.129			-1.043
26601.000			3.129			-1.043
26702.000			3.129			-1.043
26800.000			3.129			-1.043
26900.000			3.129			-1.043
27001.000			3.128			-1.043
27100.000			3.129			-1.043
27200.000			3.128			-1.043
27301.000			3.129			-1.043
27401.000			3.129			-1.043
27501.000			3.129			-1.043
27601.000			3.129			-1.043
27700.000			3.129			-1.043
27800.000			3.128			-1.043
27901.000			3.128			-1.043
28000.000			3.128			-1.043
28100.000			3.128			-1.043
28202.000			3.128			-1.043
28301.000			3.127			-1.042
28400.000			3.127			-1.042
28500.000			3.127			-1.042
28600.000			3.127			-1.042
28701.000			3.127			-1.042
28800.000			3.126			-1.042
28900.000			3.126			-1.042
29002.000			3.126			-1.042
29101.000			3.126			-1.042
29200.000			3.126			-1.042
29301.000			3.127			-1.042
29400.000			3.125			-1.042
29500.000			3.124			-1.041
29601.000			3.123			-1.041
29701.000			3.125			-1.042
29801.000			3.124			-1.041
29901.000			3.123			-1.041
30000.000			3.124			-1.041
30100.000			3.123			-1.041
30201.000			3.123			-1.041
30300.000			3.122			-1.041
30400.000			3.121			-1.040
30502.000			3.121			-1.040
30601.000			3.121			-1.040
30700.000			3.121			-1.040
30801.000			3.120			-1.040
30900.000			3.120			-1.040
31000.000			3.120			-1.040
31101.000			3.120			-1.040
31201.000			3.120			-1.040
31301.000			3.120			-1.040
31401.000			3.120			-1.040
31500.000			3.120			-1.040
31600.000			3.119			-1.040
31700.000			3.120			-1.040
31800.000			3.120			-1.040
31901.000			3.118			-1.039
32001.000			3.117			-1.039
32101.000			3.117			-1.039
32201.000			3.118			-1.039
32300.000			3.117			-1.039
32400.000			3.118			-1.039
32501.000			3.118			-1.039
32600.000			3.117			-1.039
32700.000			3.116			-1.039
32802.000			3.117			-1.039
32901.000			3.116			-1.039
33000.000			3.115			-1.038
33101.000			3.116			-1.039
33200.000			3.115			-1.038
33300.000			3.115			-1.038
33401.000			3.115			-1.038
33501.000			3.116			-1.039
33601.000			3.116			-1.039
33701.000			3.115			-1.038
33800.000			3.115			-1.038
33900.000			3.115			-1.038
34001.000			3.115			-1.038
34100.000			3.115			-1.038
34200.000			3.114			-1.038
34302.000			3.114			-1.038
34401.000			3.114			-1.038
34500.000			3.113			-1.038
34601.000			3.113			-1.038
34700.000			3.113			-1.038
34800.000			3.113			-1.038
34900.000			3.112			-1.037
35001.000			3.113			-1.038
35102.000			3.113			-1.038
35200.000			3.112			-1.037
35300.000			3.110			-1.037
35401.000			3.111			-1.037
35500.000			3.111			-1.037
35600.000			3.110			-1.037
35702.000			3.111			-1.037
35801.000			3.111			-1.037
35901.000			3.111			-1.037
36001.000			3.111			-1.037
36100.000			3.110			-1.037
36200.000			3.110			-1.037
36301.000			3.110			-1.037
36400.000			3.110			-1.037
36501.000			3.110			-1.037
36602.000			3.110			-1.037
36700.000			3.110			-1.037
36800.000			3.109			-1.036
36901.000			3.109			-1.036
37000.000			3.109			-1.036
37100.000			3.109			-1.036
37201.000			3.108			-1.036
37301.000			3.108			-1.036
37401.000			3.108			-1.036
37501.000			3.107			-1.036
37600.000			3.108			-1.036
37700.000			3.109			-1.036
37801.000			3.108			-1.036
37900.000			3.108			-1.036
38000.000			3.107			-1.036
38102.000			3.107			-1.036
38200.000			3.108			-1.036
38301.000			3.107			-1.036
38400.000			3.106			-1.035
38500.000			3.106			-1.035
38601.000			3.105			-1.035
38700.000			3.105			-1.035
38801.000			3.105			-1.035
38902.000			3.105			-1.035
39000.000			3.106			-1.035
39100.000			3.105			-1.035
39201.000			3.105			-1.035
39300.000			3.105			-1.035
39400.000			3.105			-1.035
39501.000			3.105			-1.035
39601.000			3.105			-1.035
39701.000			3.103			-1.034
39801.000			3.103			-1.034
39900.000			3.104			-1.035
40000.000			3.105			-1.035
40101.000			3.104			-1.035
40200.000			3.104			-1.035
40300.000			3.105			-1.035
40402.000			3.104			-1.035
40501.000			3.105			-1.035
40600.000			3.104			-1.035
40701.000			3.104			-1.035
40800.000			3.103			-1.034
40900.000			3.103			-1.034
41001.000			3.103			-1.034
41101.000			3.103			-1.034
41202.000			3.102			-1.034
41300.000			3.103			-1.034
41400.000			3.102			-1.034
41501.000			3.101			-1.034
41600.000			3.100			-1.033
41700.000			3.101			-1.034
41802.000			3.103			-1.034
41901.000			3.102			-1.034
42000.000			3.101			-1.034
42101.000			3.102			-1.034
42200.000			3.103			-1.034
42300.000			3.102			-1.034
42401.000			3.101			-1.034
42500.000			3.102			-1.034
42601.000			3.101			-1.034
42702.000			3.101			-1.034
42800.000			3.101			-1.034
42900.000			3.099			-1.033
43001.000			3.099			-1.033
43100.000			3.099			-1.033
43200.000			3.100			-1.033
43301.000			3.098			-1.033
43401.000			3.098			-1.033
43501.000			3.099			-1.033
43601.000			3.099			-1.033
43700.000			3.099			-1.033
43800.000			3.100			-1.033
43901.000			3.100			-1.033
44000.000			3.098			-1.033
44100.000			3.098			-1.033
44202.000			3.098			-1.033
44301.000			3.098			-1.033
44400.000			3.098			-1.033
44500.000			3.098			-1.033
44600.000			3.097			-1.032
44701.000			3.097			-1.032
44800.000			3.097			-1.032
44900.000			3.097			-1.032
45002.000			3.097			-1.032
45101.000			3.096			-1.032
45200.000			3.097			-1.032
45301.000			3.097			-1.032
45400.000			3.096			-1.032
45500.000			3.096			-1.032
45601.000			3.096			-1.032
45701.000			3.096			-1.032
45801.000			3.096			-1.032
45902.000			3.096			-1.032
46000.000			3.096			-1.032
46100.000			3.095			-1.032
46201.000			3.095			-1.032
46300.000			3.095			-1.032
46400.000			3.095			-1.032
46502.000			3.095			-1.032
46601.000			3.094			-1.031
46700.000			3.094			-1.031
46801.000			3.094			-1.031
46900.000			3.093			-1.031
47000.000			3.094			-1.031
47101.000			3.093			-1.031
47200.000			3.094			-1.031
47301.000			3.093			-1.031
47402.000			3.094			-1.031
47500.000			3.093			-1.031
47600.000			3.093			-1.031
47700.000			3.093			-1.031
47800.000			3.093			-1.031
47901.000			3.093			-1.031
48000.000			3.092			-1.031
48101.000			3.092			-1.031
48202.000			3.092			-1.031
48300.000			3.093			-1.031
48400.000			3.094			-1.031
48501.000			3.093			-1.031
48600.000			3.092			-1.031
48700.000			3.091			-1.030
48801.000			3.091			-1.030
48901.000			3.091			-1.030
49001.000			3.092			-1.031
49101.000			3.091			-1.030
49200.000			3.091			-1.030
49300.000			3.092			-1.031
49401.000			3.092			-1.031
49500.000			3.091			-1.030
49600.000			3.092			-1.031
49702.000			3.091			-1.030
49801.000			3.091			-1.030
49900.000			3.090			-1.030
50001.000			3.090			-1.030
50100.000			3.091			-1.030
50200.000			3.091			-1.030
50301.000			3.091			-1.030
50401.000			3.092			-1.031
50501.000			3.091			-1.030
50601.000			3.092			-1.031
50700.000			3.091			-1.030
50800.000			3.091			-1.030
50900.000			3.091			-1.030
51000.000			3.091			-1.030
51101.000			3.092			-1.031
51201.000			3.091			-1.030
51301.000			3.091			-1.030
51401.000			3.091			-1.030
51500.000			3.091			-1.030
51600.000			3.091			-1.030
51701.000			3.091			-1.030
51800.000			3.090			-1.030
51900.000			3.090			-1.030
52002.000			3.090			-1.030
52101.000			3.090			-1.030
52200.000			3.090			-1.030
52301.000			3.090			-1.030
52400.000			3.090			-1.030
52500.000			3.091			-1.030
52601.000			3.090			-1.030
52701.000			3.089			-1.030
52801.000			3.088			-1.029
52901.000			3.088			-1.029
53000.000			3.088			-1.029
53100.000			3.089			-1.030
53201.000			3.089			-1.030
53300.000			3.088			-1.029
53400.000			3.087			-1.029
53502.000			3.088			-1.029
53601.000			3.088			-1.029
53700.000			3.089			-1.030
53801.000			3.088			-1.029
53900.000			3.086			-1.029
54000.000			3.086			-1.029
54100.000			3.087			-1.029
54200.000			3.087			-1.029
54302.000			3.086			-1.029
54401.000			3.085			-1.028
54500.000			3.086			-1.029
54601.000			3.086			-1.029
54700.000			3.085			-1.028
54800.000			3.085			-1.028
54901.000			3.086			-1.029
55000.000			3.085			-1.028
55101.000			3.084			-1.028
55202.000			3.084			-1.028
55300.000			3.085			-1.028
55400.000			3.085			-1.028
55501.000			3.084			-1.028
55600.000			3.085			-1.028
55700.000			3.084			-1.028
55801.000			3.084			-1.028
55901.000			3.084			-1.028
56001.000			3.084			-1.028
56101.000			3.084			-1.028
56200.000			3.084			-1.028
56300.000			3.083			-1.028
56401.000			3.083			-1.028
56500.000			3.083			-1.028
56600.000			3.083			-1.028
56702.000			3.082			-1.027
56801.000			3.083			-1.028
56900.000			3.083			-1.028
57001.000			3.081			-1.027
57100.000			3.082			-1.027
57200.000			3.082			-1.027
57300.000			3.082			-1.027
57400.000			3.082			-1.027
57502.000			3.081			-1.027
57601.000			3.081			-1.027
57700.000			3.083			-1.028
57801.000			3.083			-1.028
57900.000			3.081			-1.027
58000.000			3.081			-1.027
58101.000			3.082			-1.027
58201.000			3.081			-1.027
58301.000			3.081			-1.027
58402.000			3.081			-1.027
58500.000			3.081			-1.027
58600.000			3.080			-1.027
58701.000			3.081			-1.027
58800.000			3.081			-1.027
58900.000			3.081			-1.027
59002.000			3.081			-1.027
59101.000			3.081			-1.027
59200.000			3.080			-1.027
59301.000			3.080			-1.027
59400.000			3.080			-1.027
59500.000			3.079			-1.026
59601.000			3.079			-1.026
59700.000			3.080			-1.027
59801.000			3.080			-1.027
59902.000			3.079			-1.026
60000.000			3.078			-1.026
60100.000			3.078			-1.026
60201.000			3.079			-1.026
60300.000			3.079			-1.026
60400.000			3.080			-1.027
60500.000			3.080			-1.027
60601.000			3.080			-1.027
60702.000			3.079			-1.026
60800.000			3.079			-1.026
60900.000			3.078			-1.026
61001.000			3.078			-1.026
61100.000			3.078			-1.026
61200.000			3.079			-1.026
61301.000			3.079			-1.026
61401.000			3.079			-1.026
61501.000			3.078			-1.026
61601.000			3.077			-1.026
61700.000			3.077			-1.026
61800.000			3.078			-1.026
61901.000			3.078			-1.026
62000.000			3.078			-1.026
62100.000			3.078			-1.026
62202.000			3.078			-1.026
62301.000			3.077			-1.026
62400.000			3.076			-1.025
62501.000			3.077			-1.026
62600.000			3.077			-1.026
62700.000			3.077			-1.026
62801.000			3.076			-1.025
62900.000			3.076			-1.025
63001.000			3.076			-1.025
63102.000			3.077			-1.026
63200.000			3.077			-1.026
63300.000			3.077			-1.026
63401.000			3.076			-1.025
63500.000			3.076			-1.025
63600.000			3.075			-1.025
63702.000			3.076			-1.025
63801.000			3.075			-1.025
63902.000			3.076			-1.025
64000.000			3.077			-1.026
64100.000			3.076			-1.025
64201.000			3.075			-1.025
64300.000			3.075			-1.025
64400.000			3.075			-1.025
64502.000			3.075			-1.025
64601.000			3.074			-1.025
64700.000			3.074			-1.025
64801.000			3.075			-1.025
64900.000			3.075			-1.025
65000.000			3.075			-1.025
65101.000			3.075			-1.025
65200.000			3.074			-1.025
65301.000			3.075			-1.025
65402.000			3.075			-1.025
65500.000			3.075			-1.025
65600.000			3.075			-1.025
65701.000			3.075			-1.025
65800.000			3.075			-1.025
65900.000			3.074			-1.025
66001.000			3.073			-1.024
66101.000			3.074			-1.025
66201.000			3.074			-1.025
66301.000			3.074			-1.025
66400.000			3.074			-1.025
66500.000			3.074			-1.025
66601.000			3.073			-1.024
66700.000			3.073			-1.024
66800.000			3.073			-1.024
66902.000			3.073			-1.024
67001.000			3.073			-1.024
67101.000			3.072			-1.024
67200.000			3.073			-1.024
67300.000			3.072			-1.024
67401.000			3.072			-1.024
67500.000			3.072			-1.024
67600.000			3.072			-1.024
67702.000			3.073			-1.024
67801.000			3.073			-1.024
67900.000			3.072			-1.024
68001.000			3.072			-1.024
68100.000			3.072			-1.024
68200.000			3.071			-1.024
68301.000			3.071			-1.024
68400.000			3.071			-1.024
68501.000			3.071			-1.024
68602.000			3.071			-1.024
68700.000			3.072			-1.024
68800.000			3.071			-1.024
68901.000			3.072			-1.024
69000.000			3.071			-1.024
69100.000			3.071			-1.024
69201.000			3.071			-1.024
69301.000			3.070			-1.023
69401.000			3.071			-1.024
69501.000			3.070			-1.023
69600.000			3.071			-1.024
69700.000			3.071			-1.024
69801.000			3.070			-1.023
69900.000			3.070			-1.023
70000.000			3.071			-1.024
70102.000			3.070			-1.023
70201.000			3.069			-1.023
70301.000			3.070			-1.023
70400.000			3.070			-1.023
70500.000			3.070			-1.023
70601.000			3.069			-1.023
70700.000			3.071			-1.024
70800.000			3.070			-1.023
70902.000			3.069			-1.023
71001.000			3.070			-1.023
71100.000			3.069			-1.023
71201.000			3.069			-1.023
71300.000			3.070			-1.023
71400.000			3.070			-1.023
71501.000			3.069			-1.023
71600.000			3.070			-1.023
71701.000			3.069			-1.023
71802.000			3.069			-1.023
71900.000			3.068			-1.023
72000.000			3.068			-1.023
72101.000			3.068			-1.023
72200.000			3.069			-1.023
72300.000			3.069			-1.023
72401.000			3.068			-1.023
72501.000			3.068			-1.023
72601.000			3.067			-1.022
72701.000			3.067			-1.022
72800.000			3.068			-1.023
72900.000			3.068			-1.023
73001.000			3.069			-1.023
73100.000			3.068			-1.023
73200.000			3.068			-1.023
73302.000			3.068			-1.023
73401.000			3.069			-1.023
73501.000			3.067			-1.022
73600.000			3.068			-1.023
73700.000			3.069			-1.023
73801.000			3.068			-1.023
73900.000			3.067			-1.022
74000.000			3.067			-1.022
74102.000			3.068			-1.023
74201.000			3.067			-1.022
74300.000			3.066			-1.022
74401.000			3.066			-1.022
74500.000			3.066			-1.022
74600.000			3.065			-1.022
74701.000			3.065			-1.022
74800.000			3.067			-1.022
74901.000			3.066			-1.022
75002.000			3.067			-1.022
75100.000			3.067			-1.022
75200.000			3.066			-1.022
75301.000			3.065			-1.022
75400.000			3.065			-1.022
75500.000			3.065			-1.022
75601.000			3.065			-1.022
75701.000			3.065			-1.022
75801.000			3.065			-1.022
75901.000			3.065			-1.022
76000.000			3.066			-1.022
76100.000			3.065			-1.022
76201.000			3.065			-1.022
76300.000			3.065			-1.022
76400.000			3.065			-1.022
76502.000			3.065			-1.022
76601.000			3.064			-1.021
76701.000			3.063			-1.021
76800.000			3.064			-1.021
76900.000			3.063			-1.021
77001.000			3.064			-1.021
77100.000			3.064			-1.021
77200.000			3.064			-1.021
77302.000			3.064			-1.021
77401.000			3.065			-1.022
77500.000			3.064			-1.021
77601.000			3.064			-1.021
77700.000			3.064			-1.021
77800.000			3.064			-1.021
77901.000			3.064			-1.021
78000.000			3.063			-1.021
78101.000			3.063			-1.021
78202.000			3.063			-1.021
78300.000			3.062			-1.021
78400.000			3.062			-1.021
78501.000			3.062			-1.021
78600.000			3.062			-1.021
78700.000			3.063			-1.021
78801.000			3.063			-1.021
78901.000			3.063			-1.021
79001.000			3.063			-1.021
79101.000			3.063			-1.021
79200.000			3.062			-1.021
79300.000			3.061			-1.020
79401.000			3.062			-1.021
79500.000			3.062			-1.021
79600.000			3.061			-1.020
79702.000			3.062			-1.021
79801.000			3.061			-1.020
79901.000			3.062			-1.021
80000.000			3.063			-1.021
80100.000			3.063			-1.021
80201.000			3.064			-1.021
80300.000			3.063			-1.021
80400.000			3.062			-1.021
80502.000			3.062			-1.021
80601.000			3.061			-1.020
80700.000			3.061			-1.020
80801.000			3.062			-1.021
80900.000			3.062			-1.021
81000.000			3.061			-1.020
81101.000			3.062			-1.021
81201.000			3.062			-1.021
81301.000			3.062			-1.021
81401.000			3.061			-1.020
81500.000			3.061			-1.020
81600.000			3.062			-1.021
81701.000			3.061			-1.020
81800.000			3.061			-1.020
81900.000			3.061			-1.020
82002.000			3.062			-1.021
82101.000			3.061			-1.020
82200.000			3.061			-1.020
82301.000			3.062			-1.021
82400.000			3.060			-1.020
82500.000			3.060			-1.020
82601.000			3.060			-1.020
82700.000			3.061			-1.020
82802.000			3.061			-1.020
82901.000			3.060			-1.020
83000.000			3.060			-1.020
83101.000			3.060			-1.020
83200.000			3.059			-1.020
83300.000			3.059			-1.020
83401.000			3.059			-1.020
83500.000			3.060			-1.020
83601.000			3.060			-1.020
83702.000			3.060			-1.020
83800.000			3.060			-1.020
83900.000			3.060			-1.020
84001.000			3.059			-1.020
84100.000			3.059			-1.020
84200.000			3.059			-1.020
84301.000			3.059			-1.020
84401.000			3.059			-1.020
84501.000			3.059			-1.020
84601.000			3.060			-1.020
84700.000			3.060			-1.020
84800.000			3.061			-1.020
84901.000			3.060			-1.020
85000.000			3.059			-1.020
85100.000			3.059			-1.020
85202.000			3.059			-1.020
85301.000			3.059			-1.020
85400.000			3.060			-1.020
85501.000			3.060			-1.020
85600.000			3.060			-1.020
85700.000			3.060			-1.020
85801.000			3.060			-1.020
85900.000			3.061			-1.020
86002.000			3.061			-1.020
86101.000			3.061			-1.020
86200.000			3.060			-1.020
86301.000			3.061			-1.020
86400.000			3.060			-1.020
86500.000			3.060			-1.020
86601.000			3.059			-1.020
86700.000			3.060			-1.020
86801.000			3.060			-1.020
86902.000			3.060			-1.020
87000.000			3.058			-1.019
87100.000			3.059			-1.020
87201.000			3.060			-1.020
87300.000			3.061			-1.020
87400.000			3.061			-1.020
87501.000			3.060			-1.020
87601.000			3.059			-1.020
87701.000			3.058			-1.019
87801.000			3.059			-1.020
87900.000			3.059			-1.020
88000.000			3.059			-1.020
88101.000			3.060			-1.020
88200.000			3.059			-1.020
88300.000			3.058			-1.019
88402.000			3.058			-1.019
88501.000			3.058			-1.019
88600.000			3.059			-1.020
88701.000			3.059			-1.020
88800.000			3.058			-1.019
88900.000			3.058			-1.019
89001.000			3.058			-1.019
89100.000			3.058			-1.019
89200.000			3.058			-1.019
89302.000			3.057			-1.019
89401.000			3.058			-1.019
89501.000			3.058			-1.019
89600.000			3.058			-1.019
89700.000			3.058			-1.019
89801.000			3.057			-1.019
89900.000			3.057			-1.019
90000.000			3.056			-1.019
90102.000			3.057			-1.019
90201.000			3.058			-1.019
90300.000			3.058			-1.019
90401.000			3.058			-1.019
90500.000			3.056			-1.019
90600.000			3.056			-1.019
90701.000			3.056			-1.019
90800.000			3.056			-1.019
90901.000			3.056			-1.019
91002.000			3.056			-1.019
91100.000			3.056			-1.019
91200.000			3.057			-1.019
91301.000			3.056			-1.019
91400.000			3.056			-1.019
91500.000			3.056			-1.019
91601.000			3.056			-1.019
91701.000			3.056			-1.019
91801.000			3.055			-1.018
91901.000			3.056			-1.019
92000.000			3.056			-1.019
92100.000			3.056			-1.019
92201.000			3.056			-1.019
92300.000			3.055			-1.018
92400.000			3.054			-1.018
92502.000			3.055			-1.018
92601.000			3.054			-1.018
92701.000			3.053			-1.018
92800.000			3.055			-1.018
92900.000			3.054			-1.018
93001.000			3.054			-1.018
93100.000			3.055			-1.018
93200.000			3.055			-1.018
93302.000			3.053			-1.018
93401.000			3.053			-1.018
93500.000			3.053			-1.018
93601.000			3.053			-1.018
93700.000			3.053			-1.018
93800.000			3.053			-1.018
93901.000			3.053			-1.018
94001.000			3.053			-1.018
94101.000			3.053			-1.018
94201.000			3.053			-1.018
94300.000			3.053			-1.018
94400.000			3.053			-1.018
94501.000			3.052			-1.017
94600.000			3.052			-1.017
94700.000			3.052			-1.017
94802.000			3.051			-1.017
94901.000			3.051			-1.017
95000.000			3.052			-1.017
95101.000			3.052			-1.017
95200.000			3.052			-1.017
95300.000			3.051			-1.017
95401.000			3.050			-1.017
95500.000			3.050			-1.017
95602.000			3.051			-1.017
95701.000			3.051			-1.017
95800.000			3.051			-1.017
95901.000			3.050			-1.017
96000.000			3.051			-1.017
96100.000			3.050			-1.017
96201.000			3.050			-1.017
96300.000			3.051			-1.017
96401.000			3.050			-1.017
96502.000			3.051			-1.017
96600.000			3.050			-1.017
96700.000			3.049			-1.016
96801.000			3.050			-1.017
96900.000			3.051			-1.017
97000.000			3.051			-1.017
97101.000			3.050			-1.017
97201.000			3.050			-1.017
97301.000			3.050			-1.017
97401.000			3.050			-1.017
97500.000			3.049			-1.016
97600.000			3.050			-1.017
97701.000			3.049			-1.016
97800.000			3.049			-1.016
97900.000			3.049			-1.016
98001.000			3.049			-1.016
98101.000			3.050			-1.017
98201.000			3.050			-1.017
98301.000			3.049			-1.016
98400.000			3.050			-1.017
98500.000			3.051			-1.017
98601.000			3.049			-1.016
98700.000			3.048			-1.016
98800.000			3.048			-1.016
98902.000			3.049			-1.016
99001.000			3.048			-1.016
99101.000			3.048			-1.016
99200.000			3.049			-1.016
99300.000			3.050			-1.017
99401.000			3.050			-1.017
99500.000			3.049			-1.016
99600.000			3.049			-1.016
99702.000			3.048			-1.016
99801.000			3.049			-1.016
99900.000			3.049			-1.016
100001.000			3.049			-1.016
100100.000			3.050			-1.017
100200.000			3.050			-1.017
100301.000			3.049			-1.016
100400.000			3.049			-1.016
100501.000			3.048			-1.016
100602.000			3.048			-1.016
100701.000			3.048			-1.016
100800.000			3.047			-1.016
100901.000			3.047			-1.016
101000.000			3.048			-1.016
101100.000			3.048			-1.016
101201.000			3.048			-1.016
101301.000			3.048			-1.016
101401.000			3.047			-1.016
101502.000			3.047			-1.016
101600.000			3.047			-1.016
101700.000			3.047			-1.016
101801.000			3.047			-1.016
101900.000			3.048			-1.016
102000.000			3.048			-1.016
102100.000			3.047			-1.016
102201.000			3.048			-1.016
102302.000			3.047			-1.016
102400.000			3.047			-1.016
102500.000			3.047			-1.016
102601.000			3.047			-1.016
102700.000			3.047			-1.016
102800.000			3.047			-1.016
102901.000			3.047			-1.016
103001.000			3.047			-1.016
103101.000			3.047			-1.016
103201.000			3.046			-1.015
103300.000			3.046			-1.015
103400.000			3.047			-1.016
103501.000			3.047			-1.016
103600.000			3.046			-1.015
103700.000			3.047			-1.016
103802.000			3.048			-1.016
103901.000			3.047			-1.016
104000.000			3.046			-1.015
104101.000			3.047			-1.016
104200.000			3.046			-1.015
104300.000			3.046			-1.015
104401.000			3.047			-1.016
104500.000			3.046			-1.015
104601.000			3.047			-1.016
104702.000			3.048			-1.016
104800.000			3.046			-1.015
104900.000			3.046			-1.015
105001.000			3.047			-1.016
105100.000			3.046			-1.015
105200.000			3.046			-1.015
105300.000			3.046			-1.015
105401.000			3.045			-1.015
105502.000			3.045			-1.015
105600.000			3.046			-1.015
105700.000			3.046			-1.015
105801.000			3.046			-1.015
105900.000			3.046			-1.015
106000.000			3.046			-1.015
106101.000			3.047			-1.016
106201.000			3.046			-1.015
106301.000			3.046			-1.015
106401.000			3.045			-1.015
106500.000			3.046			-1.015
106600.000			3.046			-1.015
106701.000			3.045			-1.015
106800.000			3.045			-1.015
106900.000			3.046			-1.015
107002.000			3.045			-1.015
107101.000			3.045			-1.015
107200.000			3.044			-1.015
107301.000			3.043			-1.014
107400.000			3.045			-1.015
107500.000			3.045			-1.015
107601.000			3.045			-1.015
107700.000			3.045			-1.015
107801.000			3.044			-1.015
107902.000			3.045			-1.015
108000.000			3.045			-1.015
108100.000			3.044			-1.015
108201.000			3.044			-1.015
108300.000			3.044			-1.015
108400.000			3.045			-1.015
108500.000			3.045			-1.015
108601.000			3.044			-1.015
108702.000			3.043			-1.014
108801.000			3.045			-1.015
108900.000			3.045			-1.015
109001.000			3.043			-1.014
109100.000			3.043			-1.014
109200.000			3.044			-1.015
109301.000			3.044			-1.015
109401.000			3.043			-1.014
109501.000			3.044			-1.015
109602.000			3.044			-1.015
109700.000			3.044			-1.015
109800.000			3.044			-1.015
109901.000			3.044			-1.015
110000.000			3.043			-1.014
110100.000			3.045			-1.015
110201.000			3.044			-1.015
110301.000			3.044			-1.015
110401.000			3.043			-1.014
110501.000			3.043			-1.014
110600.000			3.044			-1.015
110700.000			3.044			-1.015
110801.000			3.045			-1.015
110900.000			3.044			-1.015
111000.000			3.043			-1.014
111102.000			3.044			-1.015
111201.000			3.045			-1.015
111300.000			3.044			-1.015
111401.000			3.043			-1.014
111500.000			3.043			-1.014
111600.000			3.042			-1.014
111700.000			3.042			-1.014
111801.000			3.042			-1.014
111902.000			3.042			-1.014
112001.000			3.042			-1.014
112100.000			3.043			-1.014
112201.000			3.043			-1.014
112300.000			3.042			-1.014
112400.000			3.042			-1.014
112501.000			3.041			-1.014
112601.000			3.042			-1.014
112701.000			3.042			-1.014
112801.000			3.042			-1.014
112900.000			3.042			-1.014
113000.000			3.042			-1.014
113101.000			3.041			-1.014
113200.000			3.042			-1.014
113300.000			3.041			-1.014
113402.000			3.040			-1.013
113501.000			3.041			-1.014
113600.000			3.042			-1.014
113701.000			3.041			-1.014
113800.000			3.040			-1.013
113900.000			3.040			-1.013
114001.000			3.040			-1.013
114100.000			3.041			-1.014
114201.000			3.042			-1.014
114302.000			3.040			-1.013
114400.000			3.040			-1.013
114500.000			3.041			-1.014
114601.000			3.040			-1.013
114700.000			3.040			-1.013
114800.000			3.039			-1.013
114900.000			3.039			-1.013
115001.000			3.039			-1.013
115102.000			3.038			-1.013
115200.000			3.040			-1.013
115300.000			3.040			-1.013
115401.000			3.038			-1.013
115500.000			3.038			-1.013
115600.000			3.039			-1.013
115701.000			3.039			-1.013
115801.000			3.039			-1.013
115901.000			3.039			-1.013
116001.000			3.039			-1.013
116100.000			3.038			-1.013
116200.000			3.038			-1.013
116301.000			3.038			-1.013
116400.000			3.038			-1.013
116500.000			3.038			-1.013
116602.000			3.038			-1.013
116701.000			3.038			-1.013
116800.000			3.038			-1.013
116901.000			3.038			-1.013
117000.000			3.038			-1.013
117100.000			3.037			-1.012
117201.000			3.037			-1.012
117300.000			3.038			-1.013
117401.000			3.038			-1.013
117502.000			3.038			-1.013
117601.000			3.038			-1.013
117700.000			3.038			-1.013
117801.000			3.038			-1.013
117900.000			3.039			-1.013
118000.000			3.038			-1.013
118100.000			3.038			-1.013
118200.000			3.038			-1.013
118302.000			3.038			-1.013
118401.000			3.038			-1.013
118500.000			3.037			-1.012
118601.000			3.037			-1.012
118700.000			3.037			-1.012
118800.000			3.036			-1.012
118901.000			3.036			-1.012
119000.000			3.037			-1.012
119101.000			3.036			-1.012
119202.000			3.037			-1.012
119300.000			3.038			-1.013
119400.000			3.038			-1.013
119501.000			3.037			-1.012
119600.000			3.036			-1.012
119700.000			3.036			-1.012
119801.000			3.037			-1.012
119901.000			3.037			-1.012
120001.000			3.037			-1.012
120102.000			3.038			-1.013
120200.000			3.038			-1.013
120300.000			3.037			-1.012
120401.000			3.036			-1.012
120500.000			3.036			-1.012
120600.000			3.035			-1.012
120702.000			3.035			-1.012
120801.000			3.036			-1.012
120901.000			3.035			-1.012
121001.000			3.035			-1.012
121100.000			3.035			-1.012
121200.000			3.035			-1.012
121300.000			3.036			-1.012
121400.000			3.036			-1.012
121501.000			3.036			-1.012
121601.000			3.036			-1.012
121701.000			3.036			-1.012
121801.000			3.036			-1.012
121900.000			3.036			-1.012
122000.000			3.036			-1.012
122101.000			3.036			-1.012
122200.000			3.035			-1.012
122300.000			3.034			-1.011
122402.000			3.035			-1.012
122501.000			3.035			-1.012
122600.000			3.037			-1.012
122701.000			3.036			-1.012
122800.000			3.035			-1.012
122900.000			3.035			-1.012
123001.000			3.035			-1.012
123100.000			3.035			-1.012
123201.000			3.035			-1.012
123302.000			3.034			-1.011
123400.000			3.034			-1.011
123500.000			3.034			-1.011
123601.000			3.034			-1.011
123700.000			3.034			-1.011
123800.000			3.034			-1.011
123902.000			3.034			-1.011
124001.000			3.034			-1.011
124101.000			3.033			-1.011
124201.000			3.034			-1.011
124300.000			3.034			-1.011
124400.000			3.033			-1.011
124500.000			3.033			-1.011
124600.000			3.034			-1.011
124701.000			3.034			-1.011
124801.000			3.033			-1.011
124901.000			3.033			-1.011
125001.000			3.034			-1.011
125100.000			3.034			-1.011
125200.000			3.033			-1.011
125301.000			3.034			-1.011
125400.000			3.034			-1.011
125500.000			3.033			-1.011
125602.000			3.034			-1.011
125701.000			3.033			-1.011
125800.000			3.033			-1.011
125901.000			3.033			-1.011
126000.000			3.034			-1.011
126100.000			3.033			-1.011
126201.000			3.034			-1.011
126300.000			3.033			-1.011
126401.000			3.033			-1.011
126502.000			3.033			-1.011
126600.000			3.033			-1.011
126700.000			3.033			-1.011
126801.000			3.032			-1.011
126900.000			3.033			-1.011
127000.000			3.033			-1.011
127101.000			3.034			-1.011
127201.000			3.032			-1.011
127301.000			3.032			-1.011
127401.000			3.033			-1.011
127500.000			3.034			-1.011
127600.000			3.033			-1.011
127700.000			3.032			-1.011
127800.000			3.031			-1.010
127901.000			3.031			-1.010
128001.000			3.031			-1.010
128101.000			3.032			-1.011
128201.000			3.033			-1.011
128300.000			3.033			-1.011
128400.000			3.032			-1.011
128501.000			3.033			-1.011
128600.000			3.032			-1.011
128700.000			3.032			-1.011
128802.000			3.032			-1.011
128901.000			3.032			-1.011
129001.000			3.032			-1.011
129101.000			3.032			-1.011
129200.000			3.032			-1.011
129300.000			3.031			-1.010
129401.000			3.032			-1.011
129500.000			3.032			-1.011
129600.000			3.032			-1.011
129702.000			3.031			-1.010
129801.000			3.031			-1.010
129900.000			3.032			-1.011
130001.000			3.033			-1.011
130100.000			3.031			-1.010
130200.000			3.031			-1.010
130301.000			3.032			-1.011
130401.000			3.031			-1.010
130501.000			3.030			-1.010
130602.000			3.030			-1.010
130700.000			3.030			-1.010
130800.000			3.031			-1.010
130900.000			3.031			-1.010
131000.000			3.032			-1.011
131101.000			3.032			-1.011
131201.000			3.030			-1.010
131301.000			3.030			-1.010
131402.000			3.030			-1.010
131500.000			3.029			-1.010
131600.000			3.029			-1.010
131701.000			3.029			-1.010
131800.000			3.031			-1.010
131900.000			3.031			-1.010
132001.000			3.031			-1.010
132101.000			3.031			-1.010
132201.000			3.031			-1.010
132301.000			3.030			-1.010
132400.000			3.031			-1.010
132500.000			3.031			-1.010
132601.000			3.030			-1.010
132700.000			3.029			-1.010
132800.000			3.030			-1.010
132901.000			3.028			-1.009
133001.000			3.029			-1.010
133101.000			3.030			-1.010
133201.000			3.030			-1.010
133300.000			3.030			-1.010
133400.000			3.031			-1.010
133501.000			3.030			-1.010
133600.000			3.029			-1.010
133700.000			3.029			-1.010
133802.000			3.030			-1.010
133901.000			3.029			-1.010
134002.000			3.029			-1.010
134100.000			3.030			-1.010
134200.000			3.029			-1.010
134301.000			3.030			-1.010
134400.000			3.029			-1.010
134500.000			3.029			-1.010
134601.000			3.029			-1.010
134701.000			3.030			-1.010
134801.000			3.029			-1.010
134902.000			3.029			-1.010
135000.000			3.029			-1.010
135100.000			3.029			-1.010
135201.000			3.029			-1.010
135300.000			3.029			-1.010
135400.000			3.028			-1.009
135501.000			3.029			-1.010
135601.000			3.028			-1.009
135701.000			3.028			-1.009
135802.000			3.029			-1.010
135900.000			3.029			-1.010
136000.000			3.029			-1.010
136101.000			3.028			-1.009
136200.000			3.028			-1.009
136300.000			3.028			-1.009
136401.000			3.029			-1.010
136501.000			3.029			-1.010
136601.000			3.028			-1.009
136702.000			3.029			-1.010
136800.000			3.029			-1.010
136900.000			3.028			-1.009
137001.000			3.028			-1.009
137100.000			3.027			-1.009
137200.000			3.028			-1.009
137300.000			3.028			-1.009
137401.000			3.028			-1.009
137502.000			3.028			-1.009
137601.000			3.028			-1.009
137700.000			3.028			-1.009
137801.000			3.027			-1.009
137900.000			3.026			-1.009
138000.000			3.027			-1.009
138101.000			3.028			-1.009
138200.000			3.028			-1.009
138301.000			3.027			-1.009
138402.000			3.027			-1.009
138501.000			3.027			-1.009
138600.000			3.027			-1.009
138701.000			3.027			-1.009
138800.000			3.027			-1.009
138900.000			3.027			-1.009
139001.000			3.027			-1.009
139100.000			3.027			-1.009
139201.000			3.028			-1.009
139302.000			3.028			-1.009
139401.000			3.027			-1.009
139500.000			3.027			-1.009
139601.000			3.027			-1.009
139700.000			3.026			-1.009
139800.000			3.026			-1.009
139901.000			3.026			-1.009
140000.000			3.027			-1.009
140101.000			3.027			-1.009
140202.000			3.027			-1.009
140301.000			3.027			-1.009
140400.000			3.028			-1.009
140500.000			3.027			-1.009
140600.000			3.026			-1.009
140701.000			3.026			-1.009
140800.000			3.027			-1.009
140900.000			3.027			-1.009
141002.000			3.027			-1.009
141101.000			3.027			-1.009
141200.000			3.027			-1.009
141301.000			3.025			-1.008
141400.000			3.025			-1.008
141500.000			3.027			-1.009
141601.000			3.027			-1.009
141700.000			3.027			-1.009
141800.000			3.026			-1.009
141902.000			3.026			-1.009
142001.000			3.026			-1.009
142100.000			3.026			-1.009
142201.000			3.027			-1.009
142300.000			3.026			-1.009
142400.000			3.026			-1.009
142501.000			3.026			-1.009
142600.000			3.026			-1.009
142700.000			3.027			-1.009
142802.000			3.025			-1.008
142901.000			3.025			-1.008
143000.000			3.025			-1.008
143101.000			3.025			-1.008
143200.000			3.025			-1.008
143300.000			3.025			-1.008
143401.000			3.026			-1.009
143500.000			3.025			-1.008
143602.000			3.025			-1.008
143701.000			3.025			-1.008
143801.000			3.026			-1.009
143901.000			3.026			-1.009
144000.000			3.026			-1.009
144100.000			3.026			-1.009
144201.000			3.025			-1.008
144300.000			3.026			-1.009
144400.000			3.026			-1.009
144502.000			3.026			-1.009
144601.000			3.025			-1.008
144700.000			3.024			-1.008
144801.000			3.025			-1.008
144900.000			3.025			-1.008
145000.000			3.024			-1.008
145101.000			3.024			-1.008
145200.000			3.024			-1.008
145300.000			3.023			-1.008
145402.000			3.024			-1.008
145501.000			3.025			-1.008
145600.000			3.024			-1.008
145701.000			3.025			-1.008
145800.000			3.024			-1.008
145900.000			3.024			-1.008
146001.000			3.023			-1.008
146100.000			3.025			-1.008
146200.000			3.024			-1.008
146302.000			3.023			-1.008
146401.000			3.022			-1.007
146500.000			3.023			-1.008
146601.000			3.023			-1.008
146700.000			3.023			-1.008
146800.000			3.023			-1.008
146900.000			3.022			-1.007
147000.000			3.023			-1.008
147101.000			3.023			-1.008
147201.000			3.024			-1.008
147301.000			3.023			-1.008
147401.000			3.024			-1.008
147500.000			3.023			-1.008
147600.000			3.023			-1.008
147701.000			3.024			-1.008
147800.000			3.023			-1.008
147900.000			3.023			-1.008
148001.000			3.023			-1.008
148101.000			3.023			-1.008
148201.000			3.023			-1.008
148301.000			3.023			-1.008
148400.000			3.022			-1.007
148500.000			3.023			-1.008
148601.000			3.024			-1.008
148700.000			3.023			-1.008
148800.000			3.024			-1.008
148902.000			3.023			-1.008
149001.000			3.023			-1.008
149101.000			3.023			-1.008
149201.000			3.022			-1.007
149300.000			3.022			-1.007
149400.000			3.022			-1.007
149501.000			3.021			-1.007
149600.000			3.022			-1.007
149700.000			3.022			-1.007
149802.000			3.022			-1.007
149901.000			3.023			-1.008
150002.000			3.023			-1.008
150100.000			3.022			-1.007
150200.000			3.022			-1.007
150301.000			3.022			-1.007
150400.000			3.023			-1.008
150500.000			3.023			-1.008
150601.000			3.022			-1.007
150701.000			3.022			-1.007
150801.000			3.022			-1.007
150901.000			3.022			-1.007
151000.000			3.022			-1.007
151100.000			3.022			-1.007
151201.000			3.022			-1.007
151300.000			3.022			-1.007
151400.000			3.022			-1.007
151502.000			3.022			-1.007
151601.000			3.021			-1.007
151701.000			3.021			-1.007
151801.000			3.021			-1.007
151900.000			3.022			-1.007
152000.000			3.022			-1.007
152101.000			3.022			-1.007
152200.000			3.022			-1.007
152300.000			3.022			-1.007
152402.000			3.021			-1.007
152501.000			3.021			-1.007
152600.000			3.021			-1.007
152701.000			3.021			-1.007
152800.000			3.021			-1.007
152900.000			3.021			-1.007
153001.000			3.021			-1.007
153100.000			3.021			-1.007
153200.000			3.021			-1.007
153302.000			3.021			-1.007
153401.000			3.021			-1.007
153501.000			3.021			-1.007
153600.000			3.021			-1.007
153700.000			3.021			-1.007
153801.000			3.020			-1.007
153900.000			3.021			-1.007
154000.000			3.020			-1.007
154102.000			3.021			-1.007
154201.000			3.021			-1.007
154300.000			3.021			-1.007
154401.000			3.021			-1.007
154500.000			3.021			-1.007
154600.000			3.022			-1.007
154701.000			3.021			-1.007
154800.000			3.021			-1.007
154900.000			3.021			-1.007
155002.000			3.022			-1.007
155101.000			3.022			-1.007
155200.000			3.021			-1.007
155301.000			3.021			-1.007
155400.000			3.020			-1.007
155500.000			3.020			-1.007
155601.000			3.021			-1.007
155700.000			3.021			-1.007
155801.000			3.021			-1.007
155902.000			3.021			-1.007
156001.000			3.021			-1.007
156100.000			3.021			-1.007
156201.000			3.021			-1.007
156300.000			3.021			-1.007
156400.000			3.021			-1.007
156500.000			3.021			-1.007
156600.000			3.021			-1.007
156702.000			3.021			-1.007
156801.000			3.021			-1.007
156900.000			3.020			-1.007
157001.000			3.020			-1.007
157100.000			3.020			-1.007
157200.000			3.021			-1.007
157301.000			3.022			-1.007
157400.000			3.021			-1.007
157500.000			3.022			-1.007
157602.000			3.021			-1.007
157701.000			3.020			-1.007
157800.000			3.020			-1.007
157901.000			3.020			-1.007
158000.000			3.021			-1.007
158100.000			3.020			-1.007
158201.000			3.021			-1.007
158300.000			3.021			-1.007
158401.000			3.021			-1.007
158502.000			3.020			-1.007
158601.000			3.019			-1.006
158700.000			3.020			-1.007
158801.000			3.021			-1.007
158900.000			3.020			-1.007
159000.000			3.020			-1.007
159101.000			3.021			-1.007
159200.000			3.020			-1.007
159301.000			3.020			-1.007
159402.000			3.021			-1.007
159501.000			3.020			-1.007
159600.000			3.020			-1.007
159700.000			3.020			-1.007
159800.000			3.020			-1.007
159901.000			3.020			-1.007
160000.000			3.021			-1.007
160100.000			3.020			-1.007
160202.000			3.020			-1.007
160301.000			3.020			-1.007
160400.000			3.019			-1.006
160501.000			3.019			-1.006
160600.000			3.019			-1.006
160700.000			3.020			-1.007
160801.000			3.019			-1.006
160900.000			3.019			-1.006
161000.000			3.020			-1.007
161102.000			3.019			-1.006
161201.000			3.018			-1.006
161300.000			3.018			-1.006
161401.000			3.019			-1.006
161500.000			3.019			-1.006
161600.000			3.019			-1.006
161701.000			3.018			-1.006
161800.000			3.019			-1.006
161900.000			3.018			-1.006
162002.000			3.018			-1.006
162101.000			3.018			-1.006
162201.000			3.018			-1.006
162301.000			3.018			-1.006
162400.000			3.019			-1.006
162500.000			3.018			-1.006
162601.000			3.019			-1.006
162700.000			3.019			-1.006
162800.000			3.019			-1.006
162902.000			3.018			-1.006
163001.000			3.018			-1.006
163101.000			3.018			-1.006
163200.000			3.018			-1.006
163300.000			3.017			-1.006
163401.000			3.017			-1.006
163500.000			3.018			-1.006
163600.000			3.017			-1.006
163701.000			3.017			-1.006
163801.000			3.017			-1.006
163901.000			3.017			-1.006
164001.000			3.017			-1.006
164100.000			3.018			-1.006
164200.000			3.018			-1.006
164301.000			3.017			-1.006
164400.000			3.016			-1.005
164500.000			3.018			-1.006
164601.000			3.017			-1.006
164701.000			3.018			-1.006
164801.000			3.017			-1.006
164901.000			3.017			-1.006
165000.000			3.017			-1.006
165100.000			3.017			-1.006
165201.000			3.016			-1.005
165300.000			3.016			-1.005
165400.000			3.016			-1.005
165501.000			3.016			-1.005
165601.000			3.017			-1.006
165701.000			3.015			-1.005
165801.000			3.015			-1.005
165900.000			3.016			-1.005
166000.000			3.016			-1.005
166100.000			3.016			-1.005
166200.000			3.015			-1.005
166301.000			3.015			-1.005
166400.000			3.016			-1.005
166501.000			3.016			-1.005
166602.000			3.015			-1.005
166700.000			3.015			-1.005
166800.000			3.015			-1.005
166901.000			3.015			-1.005
167000.000			3.015			-1.005
167100.000			3.015			-1.005
167201.000			3.015			-1.005
167300.000			3.015			-1.005
167401.000			3.015			-1.005
167502.000			3.015			-1.005
167600.000			3.015			-1.005
167700.000			3.015			-1.005
167801.000			3.015			-1.005
167900.000			3.015			-1.005
168000.000			3.014			-1.005
168101.000			3.015			-1.005
168200.000			3.015			-1.005
168301.000			3.014			-1.005
168402.000			3.014			-1.005
168500.000			3.014			-1.005
168600.000			3.014			-1.005
168701.000			3.013			-1.004
168800.000			3.013			-1.004
168900.000			3.013			-1.004
169001.000			3.014			-1.005
169100.000			3.013			-1.004
169202.000			3.015			-1.005
169301.000			3.014			-1.005
169401.000			3.014			-1.005
169501.000			3.014			-1.005
169600.000			3.015			-1.005
169700.000			3.015			-1.005
169801.000			3.014			-1.005
169900.000			3.014			-1.005
170000.000			3.014			-1.005
170102.000			3.013			-1.004
170201.000			3.013			-1.004
170300.000			3.013			-1.004
170401.000			3.014			-1.005
170500.000			3.014			-1.005
170600.000			3.014			-1.005
170701.000			3.012			-1.004
170800.000			3.013			-1.004
170900.000			3.013			-1.004
171002.000			3.013			-1.004
171101.000			3.014			-1.005
171200.000			3.013			-1.004
171301.000			3.014			-1.005
171400.000			3.014			-1.005
171500.000			3.014			-1.005
171601.000			3.014			-1.005
171700.000			3.014			-1.005
171800.000			3.013			-1.004
171902.000			3.012			-1.004
172001.000			3.012			-1.004
172100.000			3.012			-1.004
172201.000			3.012			-1.004
172300.000			3.013			-1.004
172400.000			3.014			-1.005
172500.000			3.013			-1.004
172600.000			3.013			-1.004
172702.000			3.013			-1.004
172801.000			3.013			-1.004
172901.000			3.013			-1.004
173001.000			3.013			-1.004
173100.000			3.014			-1.005
173200.000			3.013			-1.004
173301.000			3.012			-1.004
173400.000			3.012			-1.004
173500.000			3.012			-1.004
173602.000			3.013			-1.004
173701.000			3.014			-1.005
173800.000			3.013			-1.004
173901.000			3.013			-1.004
174000.000			3.012			-1.004
174100.000			3.012			-1.004
174201.000			3.012			-1.004
174300.000			3.013			-1.004
174401.000			3.012			-1.004
174502.000			3.012			-1.004
174601.000			3.012			-1.004
174700.000			3.011			-1.004
174801.000			3.012			-1.004
174900.000			3.012			-1.004
175000.000			3.012			-1.004
175101.000			3.012			-1.004
175200.000			3.013			-1.004
175301.000			3.012			-1.004
175402.000			3.012			-1.004
175500.000			3.011			-1.004
175600.000			3.011			-1.004
175700.000			3.011			-1.004
175800.000			3.013			-1.004
175901.000			3.011			-1.004
176000.000			3.011			-1.004
176100.000			3.012			-1.004
176202.000			3.012			-1.004
176301.000			3.011			-1.004
176400.000			3.011			-1.004
176501.000			3.011			-1.004
176600.000			3.012			-1.004
176700.000			3.012			-1.004
176801.000			3.010			-1.003
176900.000			3.010			-1.003
177001.000			3.011			-1.004
177102.000			3.012			-1.004
177201.000			3.011			-1.004
177300.000			3.010			-1.003
177401.000			3.011			-1.004
177500.000			3.012			-1.004
177600.000			3.012			-1.004
177701.000			3.012			-1.004
177800.000			3.011			-1.004
177901.000			3.010			-1.003
178002.000			3.010			-1.003
178101.000			3.011			-1.004
178200.000			3.011			-1.004
178301.000			3.011			-1.004
178400.000			3.011			-1.004
178500.000			3.010			-1.003
178601.000			3.010			-1.003
178700.000			3.010			-1.003
178802.000			3.010			-1.003
178901.000			3.010			-1.003
179001.000			3.011			-1.004
179101.000			3.010			-1.003
179200.000			3.011			-1.004
179300.000			3.011			-1.004
179401.000			3.011			-1.004
179500.000			3.010			-1.003
179600.000			3.009			-1.003
179702.000			3.009			-1.003
179801.000			3.010			-1.003
179901.000			3.011			-1.004
180001.000			3.012			-1.004
180100.000			3.009			-1.003
180200.000			3.009			-1.003
180301.000			3.010			-1.003
180400.000			3.010			-1.003
180500.000			3.010			-1.003
180601.000			3.010			-1.003
180701.000			3.010			-1.003
180801.000			3.009			-1.003
180901.000			3.010			-1.003
181000.000			3.010			-1.003
181100.000			3.010			-1.003
181201.000			3.010			-1.003
181300.000			3.010			-1.003
181400.000			3.010			-1.003
181501.000			3.010			-1.003
181601.000			3.010			-1.003
181701.000			3.010			-1.003
181801.000			3.010			-1.003
181900.000			3.010			-1.003
182000.000			3.010			-1.003
182100.000			3.009			-1.003
182200.000			3.010			-1.003
182301.000			3.010			-1.003
182400.000			3.008			-1.003
182501.000			3.009			-1.003
182602.000			3.010			-1.003
182700.000			3.010			-1.003
182800.000			3.010			-1.003
182901.000			3.011			-1.004
183000.000			3.009			-1.003
183100.000			3.010			-1.003
183201.000			3.011			-1.004
183301.000			3.010			-1.003
183401.000			3.010			-1.003
183502.000			3.010			-1.003
183600.000			3.009			-1.003
183700.000			3.009			-1.003
183801.000			3.011			-1.004
183900.000			3.010			-1.003
184000.000			3.010			-1.003
184101.000			3.010			-1.003
184200.000			3.010			-1.003
184301.000			3.011			-1.004
184402.000			3.011			-1.004
184500.000			3.010			-1.003
184600.000			3.010			-1.003
184701.000			3.010			-1.003
184800.000			3.011			-1.004
184900.000			3.010			-1.003
185001.000			3.009			-1.003
185101.000			3.009			-1.003
185202.000			3.009			-1.003
185301.000			3.010			-1.003
185400.000			3.010			-1.003
185501.000			3.010			-1.003
185600.000			3.010			-1.003
185700.000			3.010			-1.003
185801.000			3.010			-1.003
185900.000			3.009			-1.003
186000.000			3.010			-1.003
186102.000			3.010			-1.003
186201.000			3.010			-1.003
186300.000			3.009			-1.003
186401.000			3.009			-1.003
186500.000			3.008			-1.003
186600.000			3.008			-1.003
186701.000			3.009			-1.003
186800.000			3.010			-1.003
186900.000			3.009			-1.003
187002.000			3.008			-1.003
187101.000			3.009			-1.003
187200.000			3.009			-1.003
187301.000			3.009			-1.003
187400.000			3.009			-1.003
187500.000			3.009			-1.003
187601.000			3.008			-1.003
187700.000			3.008			-1.003
187800.000			3.009			-1.003
187902.000			3.010			-1.003
188001.000			3.009			-1.003
188100.000			3.009			-1.003
188201.000			3.009			-1.003
188300.000			3.009			-1.003
188400.000			3.009			-1.003
188500.000			3.009			-1.003
188600.000			3.010			-1.003
188701.000			3.009			-1.003
188801.000			3.009			-1.003
188901.000			3.011			-1.004
189001.000			3.010			-1.003
189100.000			3.010			-1.003
189200.000			3.011			-1.004
189301.000			3.011			-1.004
189400.000			3.011			-1.004
189500.000			3.011			-1.004
189601.000			3.011			-1.004
189701.000			3.011			-1.004
189801.000			3.011			-1.004
189901.000			3.011			-1.004
190000.000			3.011			-1.004
190100.000			3.010			-1.003
190201.000			3.010			-1.003
190300.000			3.011			-1.004
190400.000			3.009			-1.003
190501.000			3.010			-1.003
190601.000			3.010			-1.003
190701.000			3.010			-1.003
190801.000			3.011			-1.004
190900.000			3.011			-1.004
191000.000			3.010			-1.003
191101.000			3.011			-1.004
191200.000			3.011			-1.004
191300.000			3.009			-1.003
191401.000			3.009			-1.003
191501.000			3.009			-1.003
191602.000			3.009			-1.003
191700.000			3.010			-1.003
191800.000			3.010			-1.003
191901.000			3.011			-1.004
192000.000			3.010			-1.003
192100.000			3.009			-1.003
192201.000			3.008			-1.003
192300.000			3.008			-1.003
192401.000			3.009			-1.003
192502.000			3.009			-1.003
192600.000			3.008			-1.003
192700.000			3.009			-1.003
192801.000			3.009			-1.003
192900.000			3.009			-1.003
193000.000			3.009			-1.003
193101.000			3.009			-1.003
193200.000			3.008			-1.003
193301.000			3.008			-1.003
193402.000			3.008			-1.003
193500.000			3.008			-1.003
193600.000			3.008			-1.003
193701.000			3.008			-1.003
193800.000			3.008			-1.003
193900.000			3.008			-1.003
194001.000			3.009			-1.003
194100.000			3.008			-1.003
194201.000			3.007			-1.002
194302.000			3.009			-1.003
194400.000			3.009			-1.003
194500.000			3.008			-1.003
194601.000			3.008			-1.003
194700.000			3.007			-1.002
194800.000			3.008			-1.003
194900.000			3.008			-1.003
195000.000			3.008			-1.003
195102.000			3.008			-1.003
195201.000			3.008			-1.003
195300.000			3.007			-1.002
195401.000			3.007			-1.002
195500.000			3.007			-1.002
195600.000			3.008			-1.003
195701.000			3.008			-1.003
195800.000			3.007			-1.002
195900.000			3.008			-1.003
196002.000			3.008			-1.003
196101.000			3.008			-1.003
196200.000			3.007			-1.002
196301.000			3.007			-1.002
196400.000			3.006			-1.002
196500.000			3.007			-1.002
196601.000			3.006			-1.002
196700.000			3.006			-1.002
196800.000			3.007			-1.002
196902.000			3.007			-1.002
197001.000			3.007			-1.002
197100.000			3.007			-1.002
197201.000			3.007			-1.002
197300.000			3.008			-1.003
197400.000			3.009			-1.003
197501.000			3.008			-1.003
197600.000			3.007			-1.002
197700.000			3.007			-1.002
197802.000			3.007			-1.002
197901.000			3.006			-1.002
198000.000			3.007			-1.002
198100.000			3.007			-1.002
198200.000			3.007			-1.002
198301.000			3.008			-1.003
198400.000			3.007			-1.002
198500.000			3.007			-1.002
198601.000			3.007			-1.002
198701.000			3.006			-1.002
198801.000			3.007			-1.002
198902.000			3.007			-1.002
199000.000			3.007			-1.002
199100.000			3.007			-1.002
199201.000			3.006			-1.002
199300.000			3.007			-1.002
199400.000			3.006			-1.002
199501.000			3.006			-1.002
199600.000			3.006			-1.002
199701.000			3.006			-1.002
199802.000			3.006			-1.002
199900.000			3.005			-1.002
200000.000			3.005			-1.002
200101.000			3.005			-1.002
200200.000			3.005			-1.002
200300.000			3.006			-1.002
200401.000			3.006			-1.002
200500.000			3.006			-1.002
200601.000			3.006			-1.002
200702.000			3.005			-1.002
200800.000			3.005			-1.002
200900.000			3.005			-1.002
201001.000			3.005			-1.002
201100.000			3.005			-1.002
201200.000			3.004			-1.001
201300.000			3.004			-1.001
201401.000			3.004			-1.001
201502.000			3.004			-1.001
201600.000			3.004			-1.001
201700.000			3.005			-1.002
201801.000			3.004			-1.001
201900.000			3.004			-1.001
202000.000			3.005			-1.002
202101.000			3.004			-1.001
202201.000			3.004			-1.001
202301.000			3.004			-1.001
202402.000			3.004			-1.001
202500.000			3.004			-1.001
202600.000			3.005			-1.002
202701.000			3.005			-1.002
202800.000			3.003			-1.001
202900.000			3.003			-1.001
203001.000			3.004			-1.001
203101.000			3.004			-1.001
203201.000			3.003			-1.001
203301.000			3.004			-1.001
203400.000			3.003			-1.001
203500.000			3.003			-1.001
203601.000			3.004			-1.001
203700.000			3.004			-1.001
203800.000			3.004			-1.001
203902.000			3.003			-1.001
204001.000			3.004			-1.001
204100.000			3.004			-1.001
204201.000			3.002			-1.001
204300.000			3.002			-1.001
204400.000			3.002			-1.001
204500.000			3.003			-1.001
204600.000			3.003			-1.001
204701.000			3.003			-1.001
204801.000			3.003			-1.001
204901.000			3.003			-1.001
205001.000			3.003			-1.001
205100.000			3.003			-1.001
205200.000			3.003			-1.001
205301.000			3.003			-1.001
205400.000			3.003			-1.001
205500.000			3.003			-1.001
205602.000			3.003			-1.001
205701.000			3.003			-1.001
205800.000			3.003			-1.001
205901.000			3.002			-1.001
206000.000			3.002			-1.001
206100.000			3.002			-1.001
206201.000			3.002			-1.001
206300.000			3.001			-1.000
206400.000			3.001			-1.000
206502.000			3.001			-1.000
206601.000			3.002			-1.001
206700.000			3.002			-1.001
206801.000			3.002			-1.001
206900.000			3.001			-1.000
207000.000			3.000			-1.000
207101.000			3.002			-1.001
207200.000			3.001			-1.000
207301.000			3.001			-1.000
207402.000			3.001			-1.000
207501.000			3.001			-1.000
207600.000			3.001			-1.000
207700.000			3.001			-1.000
207800.000			3.002			-1.001
207901.000			3.001			-1.000
208000.000			3.000			-1.000
208100.000			3.000			-1.000
208202.000			3.000			-1.000
208301.000			3.001			-1.000
208401.000			3.002			-1.001
208501.000			3.001			-1.000
208600.000			3.000			-1.000
208700.000			3.000			-1.000
208801.000			3.002			-1.001
208900.000			3.000			-1.000
209000.000			2.999			-1.000
209102.000			3.000			-1.000
209201.000			3.001			-1.000
209300.000			3.001			-1.000
209401.000			3.001			-1.000
209500.000			3.001			-1.000
209600.000			3.001			-1.000
209701.000			3.000			-1.000
209800.000			3.000			-1.000
209900.000			3.001			-1.000
210002.000			3.001			-1.000
210101.000			3.002			-1.001
210200.000			3.003			-1.001
210301.000			3.003			-1.001
210400.000			3.003			-1.001
210500.000			3.001			-1.000
210601.000			3.002			-1.001
210700.000			3.003			-1.001
210802.000			3.002			-1.001
210901.000			3.003			-1.001
211001.000			3.002			-1.001
211101.000			3.002			-1.001
211200.000			3.002			-1.001
211300.000			3.002			-1.001
211401.000			3.002			-1.001
211500.000			3.002			-1.001
211600.000			3.002			-1.001
211702.000			3.002			-1.001
211801.000			3.002			-1.001
211900.000			3.003			-1.001
212001.000			3.003			-1.001
212100.000			3.003			-1.001
212200.000			3.003			-1.001
212301.000			3.003			-1.001
212400.000			3.003			-1.001
212501.000			3.002			-1.001
212602.000			3.002			-1.001
212700.000			3.002			-1.001
212800.000			3.002			-1.001
212901.000			3.003			-1.001
213000.000			3.002			-1.001
213100.000			3.001			-1.000
213201.000			3.002			-1.001
213301.000			3.002			-1.001
213401.000			3.002			-1.001
213502.000			3.002			-1.001
213600.000			3.002			-1.001
213700.000			3.001			-1.000
213801.000			3.001			-1.000
213900.000			3.001			-1.000
214000.000			3.001			-1.000
214100.000			3.001			-1.000
214201.000			3.001			-1.000
214302.000			3.001			-1.000
214400.000			3.001			-1.000
214500.000			3.001			-1.000
214601.000			3.000			-1.000
214700.000			3.000			-1.000
214800.000			3.001			-1.000
214901.000			3.000			-1.000
215001.000			3.000			-1.000
215101.000			2.999			-1.000
215202.000			3.000			-1.000
215300.000			3.000			-1.000
215400.000			2.999			-1.000
215501.000			2.999			-1.000
215600.000			2.999			-1.000
215700.000			2.999			-1.000
215801.000			2.999			-1.000
215901.000			2.999			-1.000
216001.000			2.999			-1.000
216102.000			2.999			-1.000
216200.000			2.999			-1.000
216300.000			2.998			-0.999
216401.000			2.998			-0.999
216500.000			2.998			-0.999
216600.000			2.998			-0.999
216701.000			2.997			-0.999
216800.000			2.998			-0.999
216901.000			2.997			-0.999
217002.000			2.997			-0.999
217101.000			2.998			-0.999
217200.000			2.998			-0.999
217300.000			2.996			-0.999
217400.000			2.996			-0.999
217501.000			2.996			-0.999
217600.000			2.997			-0.999
217700.000			2.997			-0.999
217801.000			2.997			-0.999
217901.000			2.997			-0.999
218001.000			2.997			-0.999
218101.000			2.996			-0.999
218200.000			2.996			-0.999
218300.000			2.996			-0.999
218401.000			2.995			-0.998
218500.000			2.995			-0.998
218600.000			2.996			-0.999
218701.000			2.996			-0.999
218801.000			2.995			-0.998
218901.000			2.995			-0.998
219002.000			2.996			-0.999
219100.000			2.995			-0.998
219200.000			2.996			-0.999
219301.000			2.995			-0.998
219400.000			2.995			-0.998
219500.000			2.995			-0.998
219601.000			2.994			-0.998
219700.000			2.995			-0.998
219801.000			2.994			-0.998
219902.000			2.996			-0.999
220001.000			2.996			-0.999
220100.000			2.995			-0.998
220201.000			2.995			-0.998
220300.000			2.996			-0.999
220400.000			2.996			-0.999
220500.000			2.995			-0.998
220600.000			2.996			-0.999
220701.000			2.996			-0.999
220801.000			2.996			-0.999
220901.000			2.995			-0.998
221001.000			2.996			-0.999
221100.000			2.996			-0.999
221200.000			2.995			-0.998
221301.000			2.996			-0.999
221400.000			2.996			-0.999
221500.000			2.996			-0.999
221601.000			2.995			-0.998
221701.000			2.995			-0.998
221801.000			2.995			-0.998
221902.000			2.995			-0.998
222000.000			2.995			-0.998
222100.000			2.995			-0.998
222201.000			2.995			-0.998
222300.000			2.995			-0.998
222400.000			2.995			-0.998
222501.000			2.995			-0.998
222601.000			2.995			-0.998
222701.000			2.996			-0.999
222802.000			2.996			-0.999
222900.000			2.995			-0.998
223000.000			2.996			-0.999
223101.000			2.996			-0.999
223200.000			2.996			-0.999
223300.000			2.996			-0.999
223401.000			2.996			-0.999
223501.000			2.996			-0.999
223602.000			2.996			-0.999
223701.000			2.997			-0.999
223800.000			2.996			-0.999
223901.000			2.997			-0.999
224000.000			2.997			-0.999
224100.000			2.997			-0.999
224201.000			2.996			-0.999
224300.000			2.996			-0.999
224400.000			2.998			-0.999
224502.000			2.997			-0.999
224601.000			2.997			-0.999
224701.000			2.997			-0.999
224801.000			2.998			-0.999
224900.000			2.997			-0.999
225000.000			2.997			-0.999
225101.000			2.997			-0.999
225200.000			2.996			-0.999
225300.000			2.997			-0.999
225401.000			2.997			-0.999
225501.000			2.998			-0.999
225601.000			2.998			-0.999
225701.000			2.997			-0.999
225800.000			2.997			-0.999
225900.000			2.997			-0.999
226001.000			2.996			-0.999
226100.000			2.996			-0.999
226200.000			2.997			-0.999
226301.000			2.996			-0.999
226401.000			2.996			-0.999
226501.000			2.998			-0.999
226602.000			2.998			-0.999
226700.000			2.997			-0.999
226800.000			2.997			-0.999
226900.000			2.997			-0.999
227000.000			2.997			-0.999
227101.000			2.997			-0.999
227200.000			2.997			-0.999
227300.000			2.997			-0.999
227402.000			2.998			-0.999
227501.000			2.996			-0.999
227601.000			2.998			-0.999
227701.000			2.997			-0.999
227800.000			2.997			-0.999
227900.000			2.996			-0.999
228001.000			2.996			-0.999
228100.000			2.997			-0.999
228200.000			2.996			-0.999
228301.000			2.995			-0.998
228401.000			2.995			-0.998
228501.000			2.996			-0.999
228601.000			2.996			-0.999
228700.000			2.996			-0.999
228800.000			2.996			-0.999
228901.000			2.997			-0.999
229000.000			2.996			-0.999
229100.000			2.996			-0.999
229201.000			2.996			-0.999
229300.000			2.996			-0.999
229401.000			2.997			-0.999
229502.000			2.997			-0.999
229601.000			2.997			-0.999
229700.000			2.996			-0.999
229801.000			2.997			-0.999
229900.000			2.997			-0.999
230000.000			2.996			-0.999
230100.000			2.995			-0.998
230200.000			2.996			-0.999
230301.000			2.996			-0.999
230401.000			2.995			-0.998
230501.000			2.996			-0.999
230601.000			2.997			-0.999
230700.000			2.995			-0.998
230800.000			2.995			-0.998
230901.000			2.996			-0.999
231000.000			2.996			-0.999
231100.000			2.996			-0.999
231201.000			2.996			-0.999
231301.000			2.995			-0.998
231401.000			2.995			-0.998
231501.000			2.995			-0.998
231600.000			2.995			-0.998
231700.000			2.995			-0.998
231801.000			2.994			-0.998
231900.000			2.995			-0.998
232000.000			2.996			-0.999
232101.000			2.996			-0.999
232201.000			2.995			-0.998
232301.000			2.995			-0.998
232401.000			2.994			-0.998
232500.000			2.994			-0.998
232600.000			2.996			-0.999
232701.000			2.995			-0.998
232800.000			2.995			-0.998
232900.000			2.994			-0.998
233001.000			2.995			-0.998
233101.000			2.995			-0.998
233202.000			2.994			-0.998
233301.000			2.995			-0.998
233400.000			2.994			-0.998
233501.000			2.994			-0.998
233600.000			2.994			-0.998
233700.000			2.995			-0.998
233801.000			2.994			-0.998
233900.000			2.993			-0.998
234000.000			2.994			-0.998
234102.000			2.993			-0.998
234201.000			2.994			-0.998
234300.000			2.994			-0.998
234401.000			2.994			-0.998
234500.000			2.993			-0.998
234600.000			2.994			-0.998
234701.000			2.994			-0.998
234800.000			2.993			-0.998
234900.000			2.993			-0.998
235002.000			2.993			-0.998
235101.000			2.992			-0.997
235201.000			2.993			-0.998
235301.000			2.994			-0.998
235400.000			2.994			-0.998
235500.000			2.994			-0.998
235601.000			2.993			-0.998
235700.000			2.994			-0.998
235800.000			2.994			-0.998
235902.000			2.993			-0.998
236001.000			2.992			-0.997
236101.000			2.993			-0.998
236201.000			2.994			-0.998
236300.000			2.992			-0.997
236400.000			2.992			-0.997
236500.000			2.993			-0.998
236600.000			2.991			-0.997
236701.000			2.992			-0.997
236800.000			2.993			-0.998
236901.000			2.992			-0.997
237002.000			2.992			-0.997
237101.000			2.992			-0.997
237200.000			2.993			-0.998
237301.000			2.991			-0.997
237400.000			2.991			-0.997
237500.000			2.992			-0.997
237601.000			2.991			-0.997
237700.000			2.991			-0.997
237800.000			2.992			-0.997
237902.000			2.991			-0.997
238001.000			2.992			-0.997
238100.000			2.991			-0.997
238201.000			2.990			-0.997
238300.000			2.990			-0.997
238400.000			2.991			-0.997
238501.000			2.991			-0.997
238600.000			2.991			-0.997
238700.000			2.991			-0.997
238802.000			2.990			-0.997
238901.000			2.990			-0.997
239001.000			2.991			-0.997
239101.000			2.991			-0.997
239200.000			2.991			-0.997
239300.000			2.990			-0.997
239401.000			2.990			-0.997
239500.000			2.990			-0.997
239600.000			2.990			-0.997
239700.000			2.991			-0.997
239801.000			2.990			-0.997
239902.000			2.990			-0.997
240000.000			2.990			-0.997
240100.000			2.990			-0.997
240201.000			2.990			-0.997
240300.000			2.990			-0.997
240400.000			2.990			-0.997
240501.000			2.990			-0.997
240600.000			2.989			-0.996
240701.000			2.989			-0.996
240802.000			2.990			-0.997
240901.000			2.990			-0.997
241000.000			2.991			-0.997
241101.000			2.990			-0.997
241200.000			2.989			-0.996
241300.000			2.990			-0.997
241401.000			2.990			-0.997
241500.000			2.990			-0.997
241600.000			2.990			-0.997
241702.000			2.989			-0.996
241801.000			2.988			-0.996
241900.000			2.988			-0.996
242001.000			2.989			-0.996
242100.000			2.990			-0.997
242200.000			2.990			-0.997
242301.000			2.990			-0.997
242400.000			2.989			-0.996
242500.000			2.989			-0.996
242602.000			2.989			-0.996
242701.000			2.989			-0.996
242802.000			2.989			-0.996
242900.000			2.990			-0.997
243000.000			2.989			-0.996
243101.000			2.988			-0.996
243200.000			2.989			-0.996
243300.000			2.990			-0.997
243401.000			2.989			-0.996
243500.000			2.989			-0.996
243601.000			2.989			-0.996
243702.000			2.989			-0.996
243801.000			2.989			-0.996
243900.000			2.989			-0.996
244001.000			2.988			-0.996
244100.000			2.988			-0.996
244200.000			2.989			-0.996
244301.000			2.988			-0.996
244400.000			2.988			-0.996
244500.000			2.988			-0.996
244602.000			2.988			-0.996
244701.000			2.988			-0.996
244800.000			2.989			-0.996
244901.000			2.989			-0.996
245000.000			2.988			-0.996
245100.000			2.988			-0.996
245201.000			2.989			-0.996
245300.000			2.989			-0.996
245400.000			2.988			-0.996
245502.000			2.989			-0.996
245601.000			2.987			-0.996
245701.000			2.987			-0.996
245801.000			2.987			-0.996
245900.000			2.987			-0.996
246000.000			2.987			-0.996
246100.000			2.989			-0.996
246200.000			2.989			-0.996
246301.000			2.989			-0.996
246400.000			2.988			-0.996
246501.000			2.987			-0.996
246602.000			2.988			-0.996
246701.000			2.989			-0.996
246800.000			2.988			-0.996
246901.000			2.987			-0.996
247000.000			2.987			-0.996
247100.000			2.989			-0.996
247201.000			2.988			-0.996
247300.000			2.988			-0.996
247400.000			2.988			-0.996
247502.000			2.986			-0.995
247601.000			2.987			-0.996
247701.000			2.988			-0.996
247801.000			2.987			-0.996
247900.000			2.986			-0.995
248000.000			2.986			-0.995
248101.000			2.986			-0.995
248200.000			2.987			-0.996
248300.000			2.987			-0.996
248401.000			2.987			-0.996
248501.000			2.987			-0.996
248601.000			2.987			-0.996
248701.000			2.987			-0.996
248800.000			2.987			-0.996
248900.000			2.987			-0.996
249001.000			2.987			-0.996
249100.000			2.986			-0.995
249200.000			2.987			-0.996
249300.000			2.986			-0.995
249401.000			2.987			-0.996
249502.000			2.987			-0.996
249601.000			2.987			-0.996
249700.000			2.987			-0.996
249801.000			2.987			-0.996
249900.000			2.987			-0.996
250000.000			2.986			-0.995
250101.000			2.986			-0.995
250200.000			2.986			-0.995
250300.000			2.986			-0.995
250402.000			2.987			-0.996
250501.000			2.987			-0.996
250601.000			2.987			-0.996
250701.000			2.987			-0.996
250800.000			2.986			-0.995
250900.000			2.985			-0.995
251001.000			2.987			-0.996
251100.000			2.986			-0.995
251200.000			2.986			-0.995
251301.000			2.986			-0.995
251401.000			2.986			-0.995
251501.000			2.986			-0.995
251601.000			2.986			-0.995
251700.000			2.987			-0.996
251800.000			2.987			-0.996
251901.000			2.986			-0.995
252000.000			2.986			-0.995
252100.000			2.986			-0.995
252201.000			2.987			-0.996
252301.000			2.986			-0.995
252402.000			2.985			-0.995
252501.000			2.985			-0.995
252600.000			2.986			-0.995
252701.000			2.987			-0.996
252800.000			2.986			-0.995
252900.000			2.986			-0.995
253001.000			2.986			-0.995
253100.000			2.986			-0.995
253200.000			2.986			-0.995
253302.000			2.986			-0.995
253401.000			2.986			-0.995
253501.000			2.986			-0.995
253601.000			2.987			-0.996
253700.000			2.986			-0.995
253800.000			2.986			-0.995
253901.000			2.986			-0.995
254000.000			2.986			-0.995
254100.000			2.987			-0.996
254201.000			2.985			-0.995
254301.000			2.986			-0.995
254401.000			2.986			-0.995
254501.000			2.987			-0.996
254600.000			2.986			-0.995
254700.000			2.986			-0.995
254801.000			2.985			-0.995
254900.000			2.985			-0.995
255000.000			2.985			-0.995
255101.000			2.985			-0.995
255200.000			2.986			-0.995
255301.000			2.986			-0.995
255402.000			2.986			-0.995
255500.000			2.987			-0.996
255600.000			2.987			-0.996
255700.000			2.986			-0.995
255800.000			2.985			-0.995
255901.000			2.985			-0.995
256000.000			2.985			-0.995
256100.000			2.986			-0.995
256202.000			2.986			-0.995
256301.000			2.986			-0.995
256401.000			2.986			-0.995
256501.000			2.987			-0.996
256600.000			2.985			-0.995
256700.000			2.985			-0.995
256801.000			2.986			-0.995
256900.000			2.985			-0.995
257000.000			2.985			-0.995
257101.000			2.985			-0.995
257201.000			2.984			-0.995
257301.000			2.986			-0.995
257401.000			2.985			-0.995
257500.000			2.985			-0.995
257600.000			2.984			-0.995
257701.000			2.985			-0.995
257800.000			2.986			-0.995
257900.000			2.985			-0.995
258001.000			2.986			-0.995
258100.000			2.985			-0.995
258201.000			2.984			-0.995
258302.000			2.984			-0.995
258400.000			2.985			-0.995
258500.000			2.986			-0.995
258601.000			2.986			-0.995
258700.000			2.985			-0.995
258800.000			2.984			-0.995
258900.000			2.984			-0.995
259000.000			2.985			-0.995
259102.000			2.985			-0.995
259201.000			2.984			-0.995
259301.000			2.984			-0.995
259401.000			2.985			-0.995
259500.000			2.985			-0.995
259600.000			2.985			-0.995
259701.000			2.985			-0.995
259800.000			2.985			-0.995
259900.000			2.985			-0.995
260001.000			2.984			-0.995
260101.000			2.984			-0.995
260201.000			2.984			-0.995
260302.000			2.985			-0.995
260400.000			2.985			-0.995
260500.000			2.984			-0.995
260601.000			2.984			-0.995
260700.000			2.984			-0.995
260800.000			2.985			-0.995
260901.000			2.984			-0.995
261001.000			2.984			-0.995
261101.000			2.984			-0.995
261202.000			2.985			-0.995
261300.000			2.984			-0.995
261400.000			2.983			-0.994
261501.000			2.984			-0.995
261600.000			2.984			-0.995
261700.000			2.984			-0.995
261801.000			2.985			-0.995
261900.000			2.985			-0.995
262002.000			2.984			-0.995
262101.000			2.984			-0.995
262201.000			2.983			-0.994
262301.000			2.982			-0.994
262400.000			2.983			-0.994
262500.000			2.983			-0.994
262601.000			2.984			-0.995
262700.000			2.984			-0.995
262800.000			2.983			-0.994
262901.000			2.984			-0.995
263001.000			2.984			-0.995
263101.000			2.983			-0.994
263201.000			2.983			-0.994
263300.000			2.984			-0.995
263400.000			2.983			-0.994
263501.000			2.983			-0.994
263600.000			2.985			-0.995
263700.000			2.985			-0.995
263801.000			2.984			-0.995
263901.000			2.985			-0.995
264001.000			2.984			-0.995
264101.000			2.984			-0.995
264200.000			2.985			-0.995
264300.000			2.984			-0.995
264401.000			2.984			-0.995
264500.000			2.984			-0.995
264600.000			2.983			-0.994
264701.000			2.983			-0.994
264801.000			2.983			-0.994
264901.000			2.983			-0.994
265002.000			2.983			-0.994
265100.000			2.983			-0.994
265200.000			2.983			-0.994
265300.000			2.982			-0.994
265400.000			2.982			-0.994
265501.000			2.983			-0.994
265600.000			2.984			-0.995
265700.000			2.983			-0.994
265802.000			2.984			-0.995
265901.000			2.984			-0.995
266000.000			2.985			-0.995
266101.000			2.984			-0.995
266200.000			2.984			-0.995
266300.000			2.985			-0.995
266401.000			2.985			-0.995
266500.000			2.984			-0.995
266600.000			2.984			-0.995
266702.000			2.985			-0.995
266801.000			2.985			-0.995
266901.000			2.984			-0.995
267001.000			2.985			-0.995
267100.000			2.985			-0.995
267200.000			2.984			-0.995
267301.000			2.984			-0.995
267400.000			2.984			-0.995
267500.000			2.985			-0.995
267601.000			2.985			-0.995
267701.000			2.985			-0.995
267801.000			2.984			-0.995
267901.000			2.985			-0.995
268000.000			2.984			-0.995
268100.000			2.984			-0.995
268201.000			2.984			-0.995
268300.000			2.984			-0.995
268400.000			2.985			-0.995
268500.000			2.985			-0.995
268600.000			2.984			-0.995
268702.000			2.985			-0.995
268801.000			2.985			-0.995
268900.000			2.984			-0.995
269001.000			2.985			-0.995
269100.000			2.985			-0.995
269200.000			2.985			-0.995
269301.000			2.985			-0.995
269400.000			2.984			-0.995
269500.000			2.984			-0.995
269602.000			2.984			-0.995
269701.000			2.984			-0.995
269801.000			2.984			-0.995
269901.000			2.985			-0.995
270000.000			2.985			-0.995
270100.000			2.985			-0.995
270201.000			2.985			-0.995
270300.000			2.984			-0.995
270400.000			2.984			-0.995
270501.000			2.984			-0.995
270601.000			2.984			-0.995
270701.000			2.985			-0.995
270801.000			2.984			-0.995
270900.000			2.984			-0.995
271000.000			2.985			-0.995
271101.000			2.985			-0.995
271200.000			2.985			-0.995
271300.000			2.984			-0.995
271401.000			2.984			-0.995
271501.000			2.984			-0.995
271602.000			2.984			-0.995
271701.000			2.984			-0.995
271800.000			2.984			-0.995
271901.000			2.984			-0.995
272000.000			2.984			-0.995
272100.000			2.983			-0.994
272201.000			2.982			-0.994
272300.000			2.983			-0.994
272400.000			2.984			-0.995
272502.000			2.984			-0.995
272601.000			2.984			-0.995
272700.000			2.983			-0.994
272801.000			2.983			-0.994
272900.000			2.983			-0.994
273000.000			2.983			-0.994
273101.000			2.983			-0.994
273200.000			2.983			-0.994
273300.000			2.983			-0.994
273402.000			2.982			-0.994
273501.000			2.983			-0.994
273601.000			2.982			-0.994
273701.000			2.983			-0.994
273800.000			2.983			-0.994
273900.000			2.983			-0.994
274001.000			2.983			-0.994
274100.000			2.984			-0.995
274200.000			2.983			-0.994
274301.000			2.982			-0.994
274401.000			2.982			-0.994
274501.000			2.982			-0.994
274601.000			2.983			-0.994
274700.000			2.981			-0.994
274800.000			2.982			-0.994
274900.000			2.982			-0.994
275000.000			2.981			-0.994
275101.000			2.982			-0.994
275200.000			2.982			-0.994
275301.000			2.982			-0.994
275402.000			2.981			-0.994
275501.000			2.982			-0.994
275600.000			2.981			-0.994
275701.000			2.981			-0.994
275800.000			2.980			-0.993
275900.000			2.980			-0.993
276001.000			2.980			-0.993
276100.000			2.981			-0.994
276200.000			2.982			-0.994
276302.000			2.981			-0.994
276401.000			2.980			-0.993
276500.000			2.980			-0.993
276601.000			2.980			-0.993
276700.000			2.981			-0.994
276800.000			2.981			-0.994
276901.000			2.980			-0.993
277000.000			2.981			-0.994
277100.000			2.980			-0.993
277202.000			2.980			-0.993
277301.000			2.979			-0.993
277401.000			2.980			-0.993
277501.000			2.980			-0.993
277600.000			2.980			-0.993
277700.000			2.980			-0.993
277801.000			2.980			-0.993
277900.000			2.980			-0.993
278000.000			2.980			-0.993
278100.000			2.980			-0.993
278201.000			2.979			-0.993
278302.000			2.979			-0.993
278401.000			2.980			-0.993
278500.000			2.979			-0.993
278601.000			2.979			-0.993
278700.000			2.979			-0.993
278800.000			2.980			-0.993
278901.000			2.980			-0.993
279000.000			2.979			-0.993
279100.000			2.978			-0.993
279202.000			2.979			-0.993
279301.000			2.979			-0.993
279401.000			2.978			-0.993
279501.000			2.979			-0.993
279600.000			2.980			-0.993
279700.000			2.979			-0.993
279801.000			2.979			-0.993
279900.000			2.979			-0.993
280000.000			2.980			-0.993
280101.000			2.980			-0.993
280201.000			2.980			-0.993
280301.000			2.979			-0.993
280402.000			2.979			-0.993
280500.000			2.978			-0.993
280600.000			2.978			-0.993
280701.000			2.979			-0.993
280800.000			2.979			-0.993
280900.000			2.979			-0.993
281001.000			2.978			-0.993
281100.000			2.979			-0.993
281202.000			2.979			-0.993
281301.000			2.980			-0.993
281400.000			2.979			-0.993
281501.000			2.979			-0.993
281600.000			2.978			-0.993
281700.000			2.978			-0.993
281801.000			2.979			-0.993
281900.000			2.979			-0.993
282000.000			2.979			-0.993
282101.000			2.978			-0.993
282201.000			2.977			-0.992
282301.000			2.977			-0.992
282401.000			2.978			-0.993
282500.000			2.977			-0.992
282600.000			2.977			-0.992
282701.000			2.978			-0.993
282800.000			2.977			-0.992
282900.000			2.977			-0.992
283001.000			2.977			-0.992
283101.000			2.978			-0.993
283201.000			2.978			-0.993
283302.000			2.978			-0.993
283400.000			2.978			-0.993
283500.000			2.979			-0.993
283601.000			2.977			-0.992
283700.000			2.978			-0.993
283800.000			2.978			-0.993
283901.000			2.978			-0.993
284000.000			2.977			-0.992
284101.000			2.978			-0.993
284202.000			2.978			-0.993
284300.000			2.978			-0.993
284400.000			2.978			-0.993
284500.000			2.977			-0.992
284600.000			2.977			-0.992
284701.000			2.978			-0.993
284800.000			2.978			-0.993
284900.000			2.977			-0.992
285001.000			2.977			-0.992
285101.000			2.978			-0.993
285201.000			2.978			-0.993
285301.000			2.978			-0.993
285400.000			2.977			-0.992
285500.000			2.977			-0.992
285601.000			2.978			-0.993
285700.000			2.977			-0.992
285800.000			2.977			-0.992
285901.000			2.978			-0.993
286001.000			2.978			-0.993
286101.000			2.977			-0.992
286202.000			2.977			-0.992
286300.000			2.978			-0.993
286400.000			2.978			-0.993
286501.000			2.978			-0.993
286600.000			2.977			-0.992
286700.000			2.977			-0.992
286801.000			2.977			-0.992
286900.000			2.977			-0.992
287001.000			2.977			-0.992
287102.000			2.977			-0.992
287201.000			2.977			-0.992
287300.000			2.977			-0.992
287401.000			2.976			-0.992
287500.000			2.977			-0.992
287600.000			2.976			-0.992
287700.000			2.977			-0.992
287800.000			2.978			-0.993
287901.000			2.977			-0.992
288001.000			2.976			-0.992
288101.000			2.976			-0.992
288202.000			2.976			-0.992
288300.000			2.977			-0.992
288400.000			2.977			-0.992
288501.000			2.977			-0.992
288600.000			2.977			-0.992
288700.000			2.977			-0.992
288801.000			2.977			-0.992
288900.000			2.976			-0.992
289001.000			2.976			-0.992
289102.000			2.976			-0.992
289201.000			2.977			-0.992
289300.000			2.977			-0.992
289401.000			2.977			-0.992
289500.000			2.977			-0.992
289600.000			2.976			-0.992
289701.000			2.976			-0.992
289800.000			2.976			-0.992
289900.000			2.976			-0.992
290002.000			2.975			-0.992
290101.000			2.977			-0.992
290201.000			2.977			-0.992
290301.000			2.976			-0.992
290400.000			2.975			-0.992
290500.000			2.976			-0.992
290601.000			2.977			-0.992
290700.000			2.976			-0.992
290800.000			2.976			-0.992
290900.000			2.976			-0.992
291001.000			2.975			-0.992
291102.000			2.976			-0.992
291200.000			2.976			-0.992
291300.000			2.975			-0.992
291401.000			2.977			-0.992
291500.000			2.976			-0.992
291600.000			2.976			-0.992
291701.000			2.977			-0.992
291800.000			2.977			-0.992
291900.000			2.977			-0.992
292002.000			2.977			-0.992
292101.000			2.976			-0.992
292200.000			2.976			-0.992
292301.000			2.975			-0.992
292400.000			2.975			-0.992
292500.000			2.976			-0.992
292601.000			2.976			-0.992
292700.000			2.976			-0.992
292800.000			2.976			-0.992
292902.000			2.977			-0.992
293001.000			2.976			-0.992
293100.000			2.976			-0.992
293201.000			2.975			-0.992
293300.000			2.975			-0.992
293400.000			2.976			-0.992
293501.000			2.976			-0.992
293600.000			2.975			-0.992
293700.000			2.976			-0.992
293801.000			2.975			-0.992
293901.000			2.976			-0.992
294002.000			2.976			-0.992
294100.000			2.976			-0.992
294200.000			2.975			-0.992
294301.000			2.975			-0.992
294400.000			2.974			-0.991
294500.000			2.976			-0.992
294601.000			2.976			-0.992
294700.000			2.975			-0.992
294801.000			2.976			-0.992
294902.000			2.976			-0.992
295001.000			2.976			-0.992
295100.000			2.975			-0.992
295201.000			2.975			-0.992
295300.000			2.974			-0.991
295400.000			2.975			-0.992
295501.000			2.975			-0.992
295600.000			2.975			-0.992
295700.000			2.975			-0.992
295802.000			2.975			-0.992
295901.000			2.976			-0.992
296001.000			2.976			-0.992
296101.000			2.975			-0.992
296200.000			2.975			-0.992
296300.000			2.975			-0.992
296401.000			2.975			-0.992
296500.000			2.975			-0.992
296600.000			2.975			-0.992
296701.000			2.974			-0.991
296801.000			2.975			-0.992
296901.000			2.974			-0.991
297001.000			2.973			-0.991
297100.000			2.974			-0.991
297200.000			2.975			-0.992
297300.000			2.974			-0.991
297400.000			2.974			-0.991
297501.000			2.974			-0.991
297600.000			2.975			-0.992
297701.000			2.974			-0.991
297802.000			2.974			-0.991
297901.000			2.976			-0.992
298000.000			2.975			-0.992
298101.000			2.975			-0.992
298200.000			2.975			-0.992
298300.000			2.975			-0.992
298401.000			2.975			-0.992
298500.000			2.975			-0.992
298600.000			2.975			-0.992
298702.000			2.974			-0.991
298801.000			2.975			-0.992
298901.000			2.975			-0.992
299001.000			2.974			-0.991
299100.000			2.975			-0.992
299200.000			2.975			-0.992
299301.000			2.975			-0.992
299400.000			2.974			-0.991
299500.000			2.974			-0.991
299601.000			2.974			-0.991
299701.000			2.974			-0.991
299801.000			2.974			-0.991
299902.000			2.974			-0.991
