# Acquired on 08/01/2024 17:41:58 
# SPIDER: Creep_6mm_07714532C-1
# CREEP MEASUREMENT

# time [ms]		force [N]		stiffness [N/mm]
0.000			-8.296			-1.383
101.000			-8.863			-1.477
201.000			-9.092			-1.515
300.000			-9.104			-1.517
401.000			-9.060			-1.510
500.000			-8.998			-1.500
600.000			-8.974			-1.496
701.000			-8.954			-1.492
800.000			-8.935			-1.489
901.000			-8.918			-1.486
1001.000			-8.902			-1.484
1100.000			-8.889			-1.481
1200.000			-8.865			-1.477
1301.000			-8.854			-1.476
1400.000			-8.844			-1.474
1500.000			-8.834			-1.472
1602.000			-8.825			-1.471
1701.000			-8.816			-1.469
1800.000			-8.807			-1.468
1901.000			-8.792			-1.465
2000.000			-8.784			-1.464
2100.000			-8.778			-1.463
2200.000			-8.771			-1.462
2300.000			-8.764			-1.461
2402.000			-8.758			-1.460
2501.000			-8.752			-1.459
2600.000			-8.740			-1.457
2701.000			-8.734			-1.456
2800.000			-8.730			-1.455
2900.000			-8.723			-1.454
3001.000			-8.717			-1.453
3100.000			-8.712			-1.452
3201.000			-8.709			-1.451
3302.000			-8.704			-1.451
3400.000			-8.697			-1.449
3500.000			-8.692			-1.449
3601.000			-8.687			-1.448
3700.000			-8.683			-1.447
3800.000			-8.678			-1.446
3902.000			-8.675			-1.446
4001.000			-8.672			-1.445
4100.000			-8.664			-1.444
4201.000			-8.660			-1.443
4300.000			-8.656			-1.443
4400.000			-8.653			-1.442
4501.000			-8.649			-1.442
4600.000			-8.646			-1.441
4701.000			-8.642			-1.440
4802.000			-8.637			-1.440
4900.000			-8.635			-1.439
5000.000			-8.631			-1.438
5101.000			-8.628			-1.438
5200.000			-8.625			-1.438
5300.000			-8.622			-1.437
5402.000			-8.619			-1.436
5501.000			-8.614			-1.436
5601.000			-8.611			-1.435
5700.000			-8.607			-1.435
5800.000			-8.605			-1.434
5901.000			-8.602			-1.434
6000.000			-8.600			-1.433
6100.000			-8.597			-1.433
6202.000			-8.592			-1.432
6301.000			-8.591			-1.432
6400.000			-8.588			-1.431
6501.000			-8.586			-1.431
6600.000			-8.583			-1.430
6700.000			-8.580			-1.430
6801.000			-8.578			-1.430
6900.000			-8.575			-1.429
7001.000			-8.571			-1.429
7102.000			-8.569			-1.428
7200.000			-8.566			-1.428
7300.000			-8.565			-1.427
7401.000			-8.563			-1.427
7500.000			-8.562			-1.427
7600.000			-8.559			-1.426
7702.000			-8.555			-1.426
7801.000			-8.553			-1.426
7900.000			-8.550			-1.425
8001.000			-8.548			-1.425
8100.000			-8.546			-1.424
8200.000			-8.544			-1.424
8301.000			-8.543			-1.424
8400.000			-8.539			-1.423
8502.000			-8.538			-1.423
8601.000			-8.536			-1.423
8700.000			-8.533			-1.422
8801.000			-8.532			-1.422
8900.000			-8.531			-1.422
9000.000			-8.529			-1.421
9101.000			-8.526			-1.421
9200.000			-8.524			-1.421
9301.000			-8.522			-1.420
9402.000			-8.521			-1.420
9500.000			-8.519			-1.420
9600.000			-8.517			-1.420
9701.000			-8.515			-1.419
9800.000			-8.515			-1.419
9900.000			-8.511			-1.418
10001.000			-8.510			-1.418
10101.000			-8.508			-1.418
10201.000			-8.507			-1.418
10301.000			-8.505			-1.417
10400.000			-8.503			-1.417
10500.000			-8.502			-1.417
10601.000			-8.499			-1.416
10700.000			-8.497			-1.416
10800.000			-8.496			-1.416
10902.000			-8.495			-1.416
11001.000			-8.494			-1.416
11100.000			-8.491			-1.415
11201.000			-8.490			-1.415
11300.000			-8.487			-1.415
11400.000			-8.486			-1.414
11501.000			-8.485			-1.414
11601.000			-8.483			-1.414
11702.000			-8.481			-1.414
11801.000			-8.481			-1.414
11900.000			-8.480			-1.413
12001.000			-8.477			-1.413
12100.000			-8.476			-1.413
12200.000			-8.475			-1.412
12301.000			-8.474			-1.412
12401.000			-8.472			-1.412
12501.000			-8.469			-1.412
12601.000			-8.468			-1.411
12700.000			-8.467			-1.411
12800.000			-8.464			-1.411
12901.000			-8.462			-1.410
13000.000			-8.462			-1.410
13100.000			-8.462			-1.410
13202.000			-8.460			-1.410
13301.000			-8.459			-1.410
13400.000			-8.458			-1.410
13501.000			-8.455			-1.409
13600.000			-8.454			-1.409
13700.000			-8.454			-1.409
13801.000			-8.452			-1.409
13900.000			-8.452			-1.409
14001.000			-8.450			-1.408
14102.000			-8.448			-1.408
14200.000			-8.447			-1.408
14300.000			-8.446			-1.408
14401.000			-8.445			-1.407
14500.000			-8.444			-1.407
14600.000			-8.442			-1.407
14701.000			-8.441			-1.407
14801.000			-8.440			-1.407
14902.000			-8.438			-1.406
15000.000			-8.437			-1.406
15100.000			-8.436			-1.406
15201.000			-8.435			-1.406
15300.000			-8.434			-1.406
15400.000			-8.433			-1.405
15501.000			-8.431			-1.405
15601.000			-8.428			-1.405
15701.000			-8.428			-1.405
15801.000			-8.426			-1.404
15900.000			-8.426			-1.404
16000.000			-8.426			-1.404
16101.000			-8.424			-1.404
16200.000			-8.424			-1.404
16300.000			-8.422			-1.404
16402.000			-8.422			-1.404
16501.000			-8.420			-1.403
16600.000			-8.419			-1.403
16701.000			-8.417			-1.403
16800.000			-8.416			-1.403
16900.000			-8.415			-1.403
17001.000			-8.413			-1.402
17101.000			-8.414			-1.402
17201.000			-8.413			-1.402
17301.000			-8.410			-1.402
17400.000			-8.410			-1.402
17500.000			-8.410			-1.402
17601.000			-8.409			-1.402
17700.000			-8.408			-1.401
17800.000			-8.407			-1.401
17902.000			-8.405			-1.401
18001.000			-8.404			-1.401
18100.000			-8.404			-1.401
18200.000			-8.403			-1.400
18300.000			-8.402			-1.400
18401.000			-8.401			-1.400
18500.000			-8.400			-1.400
18600.000			-8.399			-1.400
18702.000			-8.397			-1.399
18801.000			-8.396			-1.399
18900.000			-8.395			-1.399
19001.000			-8.394			-1.399
19100.000			-8.394			-1.399
19200.000			-8.393			-1.399
19301.000			-8.393			-1.399
19400.000			-8.392			-1.399
19501.000			-8.391			-1.398
19602.000			-8.389			-1.398
19700.000			-8.387			-1.398
19800.000			-8.387			-1.398
19901.000			-8.386			-1.398
20000.000			-8.385			-1.398
20100.000			-8.383			-1.397
20201.000			-8.382			-1.397
20301.000			-8.383			-1.397
20401.000			-8.381			-1.397
20501.000			-8.381			-1.397
20600.000			-8.380			-1.397
20700.000			-8.378			-1.396
20801.000			-8.377			-1.396
20900.000			-8.376			-1.396
21000.000			-8.376			-1.396
21102.000			-8.377			-1.396
21201.000			-8.375			-1.396
21300.000			-8.374			-1.396
21400.000			-8.372			-1.395
21500.000			-8.372			-1.395
21601.000			-8.372			-1.395
21700.000			-8.372			-1.395
21800.000			-8.370			-1.395
21902.000			-8.369			-1.395
22001.000			-8.369			-1.395
22100.000			-8.367			-1.394
22201.000			-8.366			-1.394
22300.000			-8.365			-1.394
22400.000			-8.365			-1.394
22501.000			-8.365			-1.394
22600.000			-8.363			-1.394
22701.000			-8.362			-1.394
22802.000			-8.362			-1.394
22900.000			-8.361			-1.393
23000.000			-8.360			-1.393
23101.000			-8.360			-1.393
23200.000			-8.358			-1.393
23300.000			-8.357			-1.393
23402.000			-8.356			-1.393
23501.000			-8.355			-1.393
23600.000			-8.354			-1.392
23701.000			-8.354			-1.392
23800.000			-8.354			-1.392
23900.000			-8.353			-1.392
24001.000			-8.351			-1.392
24100.000			-8.351			-1.392
24201.000			-8.351			-1.392
24302.000			-8.349			-1.392
24400.000			-8.347			-1.391
24500.000			-8.347			-1.391
24600.000			-8.347			-1.391
24700.000			-8.347			-1.391
24801.000			-8.347			-1.391
24900.000			-8.346			-1.391
25001.000			-8.345			-1.391
25102.000			-8.343			-1.391
25200.000			-8.342			-1.390
25300.000			-8.342			-1.390
25401.000			-8.342			-1.390
25500.000			-8.341			-1.390
25600.000			-8.340			-1.390
25701.000			-8.340			-1.390
25801.000			-8.338			-1.390
25901.000			-8.337			-1.390
26001.000			-8.337			-1.389
26100.000			-8.336			-1.389
26200.000			-8.336			-1.389
26301.000			-8.335			-1.389
26400.000			-8.335			-1.389
26500.000			-8.334			-1.389
26602.000			-8.332			-1.389
26701.000			-8.331			-1.388
26800.000			-8.331			-1.388
26901.000			-8.330			-1.388
27000.000			-8.330			-1.388
27100.000			-8.330			-1.388
27201.000			-8.329			-1.388
27301.000			-8.328			-1.388
27401.000			-8.328			-1.388
27502.000			-8.327			-1.388
27600.000			-8.327			-1.388
27700.000			-8.325			-1.388
27800.000			-8.325			-1.388
27900.000			-8.324			-1.387
28001.000			-8.323			-1.387
28100.000			-8.322			-1.387
28201.000			-8.322			-1.387
28302.000			-8.320			-1.387
28400.000			-8.320			-1.387
28500.000			-8.321			-1.387
28601.000			-8.320			-1.387
28700.000			-8.318			-1.386
28800.000			-8.318			-1.386
28902.000			-8.318			-1.386
29001.000			-8.317			-1.386
29101.000			-8.316			-1.386
29201.000			-8.315			-1.386
29300.000			-8.315			-1.386
29400.000			-8.315			-1.386
29501.000			-8.313			-1.386
29600.000			-8.312			-1.385
29701.000			-8.312			-1.385
29802.000			-8.312			-1.385
29901.000			-8.311			-1.385
30000.000			-8.311			-1.385
30101.000			-8.310			-1.385
30200.000			-8.309			-1.385
30300.000			-8.308			-1.385
30401.000			-8.308			-1.385
30501.000			-8.307			-1.384
30601.000			-8.306			-1.384
30701.000			-8.306			-1.384
30800.000			-8.305			-1.384
30900.000			-8.305			-1.384
31000.000			-8.304			-1.384
31100.000			-8.304			-1.384
31201.000			-8.304			-1.384
31301.000			-8.303			-1.384
31401.000			-8.302			-1.384
31501.000			-8.301			-1.383
31600.000			-8.300			-1.383
31700.000			-8.300			-1.383
31801.000			-8.300			-1.383
31900.000			-8.299			-1.383
32001.000			-8.298			-1.383
32102.000			-8.297			-1.383
32201.000			-8.296			-1.383
32300.000			-8.296			-1.383
32401.000			-8.296			-1.383
32500.000			-8.297			-1.383
32600.000			-8.296			-1.383
32701.000			-8.294			-1.382
32801.000			-8.294			-1.382
32901.000			-8.294			-1.382
33001.000			-8.293			-1.382
33100.000			-8.293			-1.382
33200.000			-8.292			-1.382
33301.000			-8.292			-1.382
33400.000			-8.291			-1.382
33500.000			-8.290			-1.382
33602.000			-8.290			-1.382
33701.000			-8.289			-1.381
33800.000			-8.288			-1.381
33901.000			-8.287			-1.381
34000.000			-8.287			-1.381
34100.000			-8.286			-1.381
34200.000			-8.286			-1.381
34300.000			-8.286			-1.381
34402.000			-8.283			-1.381
34501.000			-8.284			-1.381
34600.000			-8.284			-1.381
34701.000			-8.283			-1.381
34800.000			-8.282			-1.380
34900.000			-8.281			-1.380
35001.000			-8.282			-1.380
35100.000			-8.282			-1.380
35201.000			-8.279			-1.380
35302.000			-8.279			-1.380
35400.000			-8.280			-1.380
35500.000			-8.279			-1.380
35601.000			-8.279			-1.380
35700.000			-8.279			-1.380
35800.000			-8.278			-1.380
35901.000			-8.277			-1.379
36001.000			-8.276			-1.379
36101.000			-8.275			-1.379
36201.000			-8.275			-1.379
36300.000			-8.275			-1.379
36400.000			-8.275			-1.379
36501.000			-8.274			-1.379
36600.000			-8.273			-1.379
36700.000			-8.272			-1.379
36802.000			-8.272			-1.379
36901.000			-8.271			-1.378
37000.000			-8.271			-1.378
37101.000			-8.271			-1.378
37200.000			-8.271			-1.378
37300.000			-8.270			-1.378
37400.000			-8.269			-1.378
37500.000			-8.267			-1.378
37602.000			-8.267			-1.378
37701.000			-8.268			-1.378
37800.000			-8.267			-1.378
37901.000			-8.266			-1.378
38000.000			-8.267			-1.378
38100.000			-8.265			-1.378
38201.000			-8.264			-1.377
38300.000			-8.264			-1.377
38401.000			-8.265			-1.377
38502.000			-8.264			-1.377
38600.000			-8.263			-1.377
38700.000			-8.263			-1.377
38801.000			-8.262			-1.377
38900.000			-8.261			-1.377
39000.000			-8.261			-1.377
39101.000			-8.261			-1.377
39201.000			-8.260			-1.377
39301.000			-8.260			-1.377
39401.000			-8.260			-1.377
39500.000			-8.257			-1.376
39600.000			-8.257			-1.376
39701.000			-8.258			-1.376
39800.000			-8.257			-1.376
39900.000			-8.256			-1.376
40002.000			-8.257			-1.376
40101.000			-8.256			-1.376
40200.000			-8.255			-1.376
40301.000			-8.255			-1.376
40400.000			-8.255			-1.376
40500.000			-8.254			-1.376
40600.000			-8.254			-1.376
40700.000			-8.253			-1.376
40802.000			-8.252			-1.375
40901.000			-8.252			-1.375
41000.000			-8.250			-1.375
41101.000			-8.250			-1.375
41200.000			-8.251			-1.375
41300.000			-8.251			-1.375
41401.000			-8.250			-1.375
41501.000			-8.250			-1.375
41601.000			-8.250			-1.375
41702.000			-8.248			-1.375
41800.000			-8.247			-1.374
41900.000			-8.247			-1.374
42001.000			-8.246			-1.374
42100.000			-8.247			-1.374
42200.000			-8.246			-1.374
42301.000			-8.246			-1.374
42401.000			-8.244			-1.374
42500.000			-8.244			-1.374
42601.000			-8.244			-1.374
42700.000			-8.245			-1.374
42800.000			-8.244			-1.374
42901.000			-8.243			-1.374
43000.000			-8.242			-1.374
43101.000			-8.241			-1.374
43202.000			-8.241			-1.374
43300.000			-8.240			-1.373
43400.000			-8.240			-1.373
43501.000			-8.240			-1.373
43600.000			-8.240			-1.373
43700.000			-8.239			-1.373
43800.000			-8.239			-1.373
43901.000			-8.238			-1.373
44002.000			-8.238			-1.373
44100.000			-8.238			-1.373
44200.000			-8.238			-1.373
44301.000			-8.236			-1.373
44400.000			-8.236			-1.373
44500.000			-8.237			-1.373
44601.000			-8.235			-1.373
44701.000			-8.235			-1.373
44801.000			-8.234			-1.372
44901.000			-8.234			-1.372
45000.000			-8.233			-1.372
45100.000			-8.232			-1.372
45201.000			-8.233			-1.372
45300.000			-8.232			-1.372
45400.000			-8.232			-1.372
45502.000			-8.231			-1.372
45601.000			-8.230			-1.372
45700.000			-8.230			-1.372
45801.000			-8.231			-1.372
45900.000			-8.231			-1.372
46000.000			-8.230			-1.372
46101.000			-8.228			-1.371
46201.000			-8.229			-1.371
46301.000			-8.229			-1.371
46401.000			-8.228			-1.371
46500.000			-8.227			-1.371
46600.000			-8.227			-1.371
46701.000			-8.226			-1.371
46800.000			-8.226			-1.371
46900.000			-8.225			-1.371
47002.000			-8.224			-1.371
47101.000			-8.223			-1.371
47201.000			-8.223			-1.371
47300.000			-8.223			-1.370
47400.000			-8.223			-1.370
47501.000			-8.223			-1.371
47600.000			-8.223			-1.371
47700.000			-8.223			-1.370
47802.000			-8.222			-1.370
47901.000			-8.222			-1.370
48000.000			-8.222			-1.370
48101.000			-8.221			-1.370
48200.000			-8.220			-1.370
48300.000			-8.220			-1.370
48401.000			-8.220			-1.370
48500.000			-8.219			-1.370
48601.000			-8.218			-1.370
48702.000			-8.218			-1.370
48800.000			-8.218			-1.370
48900.000			-8.218			-1.370
49001.000			-8.217			-1.369
49100.000			-8.216			-1.369
49200.000			-8.216			-1.369
49301.000			-8.215			-1.369
49401.000			-8.216			-1.369
49501.000			-8.215			-1.369
49601.000			-8.215			-1.369
49700.000			-8.214			-1.369
49800.000			-8.213			-1.369
49901.000			-8.213			-1.369
50000.000			-8.213			-1.369
50100.000			-8.213			-1.369
50202.000			-8.213			-1.369
50301.000			-8.211			-1.369
50401.000			-8.211			-1.369
50500.000			-8.211			-1.369
50600.000			-8.211			-1.368
50701.000			-8.211			-1.368
50800.000			-8.211			-1.368
50901.000			-8.210			-1.368
51002.000			-8.210			-1.368
51100.000			-8.209			-1.368
51200.000			-8.209			-1.368
51301.000			-8.207			-1.368
51400.000			-8.207			-1.368
51500.000			-8.207			-1.368
51601.000			-8.208			-1.368
51701.000			-8.207			-1.368
51801.000			-8.206			-1.368
51901.000			-8.206			-1.368
52000.000			-8.205			-1.368
52100.000			-8.205			-1.368
52201.000			-8.205			-1.367
52300.000			-8.205			-1.367
52400.000			-8.205			-1.367
52502.000			-8.203			-1.367
52601.000			-8.204			-1.367
52700.000			-8.203			-1.367
52801.000			-8.203			-1.367
52900.000			-8.203			-1.367
53000.000			-8.202			-1.367
53101.000			-8.201			-1.367
53201.000			-8.201			-1.367
53302.000			-8.201			-1.367
53400.000			-8.200			-1.367
53500.000			-8.200			-1.367
53601.000			-8.199			-1.367
53700.000			-8.199			-1.367
53800.000			-8.199			-1.366
53901.000			-8.199			-1.366
54001.000			-8.198			-1.366
54101.000			-8.198			-1.366
54201.000			-8.198			-1.366
54300.000			-8.198			-1.366
54400.000			-8.196			-1.366
54501.000			-8.196			-1.366
54600.000			-8.196			-1.366
54700.000			-8.196			-1.366
54802.000			-8.197			-1.366
54901.000			-8.196			-1.366
55000.000			-8.195			-1.366
55101.000			-8.194			-1.366
55200.000			-8.195			-1.366
55300.000			-8.194			-1.366
55401.000			-8.194			-1.366
55500.000			-8.193			-1.365
55601.000			-8.192			-1.365
55702.000			-8.192			-1.365
55800.000			-8.191			-1.365
55900.000			-8.192			-1.365
56001.000			-8.191			-1.365
56100.000			-8.192			-1.365
56200.000			-8.191			-1.365
56301.000			-8.190			-1.365
56401.000			-8.189			-1.365
56502.000			-8.189			-1.365
56600.000			-8.188			-1.365
56700.000			-8.188			-1.365
56801.000			-8.188			-1.365
56900.000			-8.188			-1.365
57000.000			-8.188			-1.365
57101.000			-8.187			-1.365
57201.000			-8.188			-1.365
57301.000			-8.187			-1.365
57401.000			-8.186			-1.364
57500.000			-8.186			-1.364
57600.000			-8.186			-1.364
57701.000			-8.187			-1.364
57800.000			-8.187			-1.365
57900.000			-8.185			-1.364
58002.000			-8.185			-1.364
58101.000			-8.185			-1.364
58200.000			-8.184			-1.364
58301.000			-8.183			-1.364
58400.000			-8.183			-1.364
58500.000			-8.184			-1.364
58601.000			-8.183			-1.364
58700.000			-8.182			-1.364
58801.000			-8.181			-1.364
58902.000			-8.182			-1.364
59001.000			-8.182			-1.364
59100.000			-8.181			-1.363
59201.000			-8.180			-1.363
59300.000			-8.181			-1.364
59400.000			-8.181			-1.363
59501.000			-8.180			-1.363
59601.000			-8.180			-1.363
59702.000			-8.179			-1.363
59801.000			-8.178			-1.363
59900.000			-8.178			-1.363
60001.000			-8.178			-1.363
60100.000			-8.178			-1.363
60200.000			-8.178			-1.363
60301.000			-8.178			-1.363
60401.000			-8.178			-1.363
60501.000			-8.176			-1.363
60601.000			-8.176			-1.363
60700.000			-8.176			-1.363
60800.000			-8.175			-1.363
60901.000			-8.175			-1.363
61000.000			-8.175			-1.363
61100.000			-8.175			-1.363
61202.000			-8.174			-1.362
61301.000			-8.174			-1.362
61400.000			-8.174			-1.362
61501.000			-8.173			-1.362
61600.000			-8.173			-1.362
61700.000			-8.173			-1.362
61801.000			-8.173			-1.362
61900.000			-8.173			-1.362
62001.000			-8.172			-1.362
62102.000			-8.172			-1.362
62200.000			-8.171			-1.362
62300.000			-8.171			-1.362
62401.000			-8.171			-1.362
62500.000			-8.171			-1.362
62600.000			-8.170			-1.362
62701.000			-8.170			-1.362
62801.000			-8.169			-1.362
62902.000			-8.169			-1.361
63000.000			-8.169			-1.361
63100.000			-8.169			-1.362
63201.000			-8.170			-1.362
63300.000			-8.169			-1.362
63400.000			-8.168			-1.361
63501.000			-8.168			-1.361
63601.000			-8.168			-1.361
63701.000			-8.167			-1.361
63801.000			-8.167			-1.361
63900.000			-8.166			-1.361
64000.000			-8.167			-1.361
64101.000			-8.165			-1.361
64200.000			-8.164			-1.361
64300.000			-8.165			-1.361
64402.000			-8.165			-1.361
64501.000			-8.165			-1.361
64600.000			-8.164			-1.361
64701.000			-8.164			-1.361
64800.000			-8.164			-1.361
64900.000			-8.164			-1.361
65001.000			-8.164			-1.361
65101.000			-8.164			-1.361
65201.000			-8.163			-1.360
65302.000			-8.162			-1.360
65400.000			-8.162			-1.360
65500.000			-8.161			-1.360
65601.000			-8.160			-1.360
65700.000			-8.160			-1.360
65800.000			-8.161			-1.360
65902.000			-8.160			-1.360
66001.000			-8.160			-1.360
66102.000			-8.159			-1.360
66200.000			-8.159			-1.360
66300.000			-8.159			-1.360
66401.000			-8.159			-1.360
66500.000			-8.158			-1.360
66600.000			-8.158			-1.360
66701.000			-8.158			-1.360
66801.000			-8.160			-1.360
66901.000			-8.158			-1.360
67001.000			-8.158			-1.360
67100.000			-8.156			-1.359
67200.000			-8.155			-1.359
67301.000			-8.157			-1.359
67400.000			-8.156			-1.359
67500.000			-8.156			-1.359
67602.000			-8.156			-1.359
67701.000			-8.155			-1.359
67800.000			-8.155			-1.359
67901.000			-8.154			-1.359
68000.000			-8.155			-1.359
68100.000			-8.156			-1.359
68201.000			-8.156			-1.359
68300.000			-8.154			-1.359
68401.000			-8.152			-1.359
68502.000			-8.153			-1.359
68600.000			-8.153			-1.359
68700.000			-8.153			-1.359
68801.000			-8.152			-1.359
68900.000			-8.152			-1.359
69000.000			-8.152			-1.359
69101.000			-8.152			-1.359
69201.000			-8.151			-1.359
69302.000			-8.151			-1.358
69400.000			-8.149			-1.358
69500.000			-8.149			-1.358
69601.000			-8.149			-1.358
69700.000			-8.150			-1.358
69800.000			-8.149			-1.358
69901.000			-8.149			-1.358
70001.000			-8.150			-1.358
70101.000			-8.149			-1.358
70202.000			-8.148			-1.358
70300.000			-8.148			-1.358
70400.000			-8.148			-1.358
70501.000			-8.148			-1.358
70600.000			-8.147			-1.358
70700.000			-8.147			-1.358
70801.000			-8.147			-1.358
70901.000			-8.146			-1.358
71001.000			-8.147			-1.358
71101.000			-8.146			-1.358
71200.000			-8.145			-1.358
71300.000			-8.145			-1.357
71401.000			-8.145			-1.357
71500.000			-8.145			-1.358
71601.000			-8.145			-1.358
71702.000			-8.144			-1.357
71800.000			-8.144			-1.357
71900.000			-8.144			-1.357
72001.000			-8.143			-1.357
72100.000			-8.143			-1.357
72200.000			-8.143			-1.357
72301.000			-8.143			-1.357
72401.000			-8.143			-1.357
72502.000			-8.142			-1.357
72600.000			-8.142			-1.357
72700.000			-8.141			-1.357
72801.000			-8.141			-1.357
72900.000			-8.140			-1.357
73000.000			-8.140			-1.357
73101.000			-8.141			-1.357
73201.000			-8.141			-1.357
73301.000			-8.141			-1.357
73401.000			-8.139			-1.357
73500.000			-8.139			-1.357
73600.000			-8.140			-1.357
73701.000			-8.140			-1.357
73800.000			-8.139			-1.357
73900.000			-8.138			-1.356
74002.000			-8.138			-1.356
74101.000			-8.138			-1.356
74200.000			-8.137			-1.356
74301.000			-8.137			-1.356
74400.000			-8.136			-1.356
74500.000			-8.137			-1.356
74601.000			-8.137			-1.356
74700.000			-8.137			-1.356
74801.000			-8.136			-1.356
74902.000			-8.136			-1.356
75000.000			-8.136			-1.356
75100.000			-8.136			-1.356
75201.000			-8.136			-1.356
75300.000			-8.135			-1.356
75400.000			-8.135			-1.356
75501.000			-8.134			-1.356
75601.000			-8.134			-1.356
75702.000			-8.133			-1.355
75800.000			-8.133			-1.355
75900.000			-8.133			-1.356
76001.000			-8.132			-1.355
76100.000			-8.132			-1.355
76200.000			-8.132			-1.355
76301.000			-8.132			-1.355
76401.000			-8.132			-1.355
76501.000			-8.131			-1.355
76601.000			-8.131			-1.355
76700.000			-8.131			-1.355
76800.000			-8.130			-1.355
76901.000			-8.130			-1.355
77000.000			-8.130			-1.355
77100.000			-8.129			-1.355
77202.000			-8.130			-1.355
77301.000			-8.130			-1.355
77400.000			-8.130			-1.355
77501.000			-8.129			-1.355
77600.000			-8.128			-1.355
77700.000			-8.129			-1.355
77801.000			-8.128			-1.355
77900.000			-8.127			-1.354
78001.000			-8.126			-1.354
78102.000			-8.128			-1.355
78200.000			-8.128			-1.355
78300.000			-8.126			-1.354
78401.000			-8.127			-1.354
78500.000			-8.127			-1.355
78600.000			-8.125			-1.354
78701.000			-8.126			-1.354
78801.000			-8.124			-1.354
78902.000			-8.125			-1.354
79000.000			-8.126			-1.354
79100.000			-8.126			-1.354
79201.000			-8.125			-1.354
79300.000			-8.124			-1.354
79400.000			-8.125			-1.354
79501.000			-8.124			-1.354
79601.000			-8.124			-1.354
79701.000			-8.123			-1.354
79801.000			-8.122			-1.354
79900.000			-8.122			-1.354
80000.000			-8.123			-1.354
80101.000			-8.124			-1.354
80200.000			-8.123			-1.354
80300.000			-8.122			-1.354
80402.000			-8.123			-1.354
80501.000			-8.122			-1.354
80600.000			-8.121			-1.353
80701.000			-8.121			-1.353
80800.000			-8.121			-1.353
80900.000			-8.122			-1.354
81001.000			-8.121			-1.354
81100.000			-8.120			-1.353
81201.000			-8.119			-1.353
81302.000			-8.119			-1.353
81400.000			-8.119			-1.353
81500.000			-8.118			-1.353
81601.000			-8.119			-1.353
81700.000			-8.119			-1.353
81800.000			-8.118			-1.353
81901.000			-8.118			-1.353
82001.000			-8.118			-1.353
82102.000			-8.118			-1.353
82200.000			-8.117			-1.353
82300.000			-8.118			-1.353
82401.000			-8.117			-1.353
82500.000			-8.117			-1.353
82600.000			-8.117			-1.353
82701.000			-8.116			-1.353
82801.000			-8.115			-1.352
82901.000			-8.116			-1.353
83001.000			-8.116			-1.353
83100.000			-8.115			-1.352
83200.000			-8.114			-1.352
83301.000			-8.115			-1.352
83400.000			-8.114			-1.352
83500.000			-8.114			-1.352
83602.000			-8.114			-1.352
83701.000			-8.114			-1.352
83800.000			-8.114			-1.352
83901.000			-8.114			-1.352
84000.000			-8.113			-1.352
84100.000			-8.113			-1.352
84201.000			-8.113			-1.352
84300.000			-8.112			-1.352
84401.000			-8.112			-1.352
84502.000			-8.112			-1.352
84600.000			-8.112			-1.352
84700.000			-8.112			-1.352
84801.000			-8.111			-1.352
84900.000			-8.111			-1.352
85000.000			-8.112			-1.352
85101.000			-8.110			-1.352
85201.000			-8.110			-1.352
85302.000			-8.111			-1.352
85400.000			-8.110			-1.352
85500.000			-8.110			-1.352
85601.000			-8.110			-1.352
85700.000			-8.110			-1.352
85800.000			-8.109			-1.352
85901.000			-8.108			-1.351
86001.000			-8.108			-1.351
86101.000			-8.108			-1.351
86201.000			-8.108			-1.351
86300.000			-8.108			-1.351
86400.000			-8.107			-1.351
86501.000			-8.107			-1.351
86600.000			-8.107			-1.351
86700.000			-8.107			-1.351
86802.000			-8.107			-1.351
86901.000			-8.107			-1.351
87000.000			-8.106			-1.351
87101.000			-8.107			-1.351
87200.000			-8.106			-1.351
87300.000			-8.107			-1.351
87401.000			-8.106			-1.351
87500.000			-8.105			-1.351
87601.000			-8.106			-1.351
87702.000			-8.106			-1.351
87800.000			-8.105			-1.351
87900.000			-8.105			-1.351
88001.000			-8.105			-1.351
88100.000			-8.104			-1.351
88200.000			-8.104			-1.351
88301.000			-8.104			-1.351
88401.000			-8.104			-1.351
88502.000			-8.104			-1.351
88600.000			-8.104			-1.351
88700.000			-8.102			-1.350
88801.000			-8.102			-1.350
88900.000			-8.102			-1.350
89000.000			-8.102			-1.350
89101.000			-8.103			-1.350
89201.000			-8.102			-1.350
89301.000			-8.102			-1.350
89401.000			-8.102			-1.350
89500.000			-8.101			-1.350
89600.000			-8.101			-1.350
89701.000			-8.100			-1.350
89800.000			-8.100			-1.350
89900.000			-8.101			-1.350
90002.000			-8.101			-1.350
90101.000			-8.100			-1.350
90200.000			-8.101			-1.350
90301.000			-8.100			-1.350
90400.000			-8.099			-1.350
90500.000			-8.099			-1.350
90601.000			-8.099			-1.350
90700.000			-8.099			-1.350
90801.000			-8.098			-1.350
90902.000			-8.098			-1.350
91000.000			-8.098			-1.350
91100.000			-8.097			-1.350
91201.000			-8.098			-1.350
91300.000			-8.098			-1.350
91400.000			-8.098			-1.350
91501.000			-8.096			-1.349
91601.000			-8.096			-1.349
91702.000			-8.097			-1.349
91800.000			-8.097			-1.349
91900.000			-8.096			-1.349
92001.000			-8.096			-1.349
92100.000			-8.095			-1.349
92200.000			-8.096			-1.349
92301.000			-8.094			-1.349
92401.000			-8.094			-1.349
92501.000			-8.095			-1.349
92601.000			-8.094			-1.349
92700.000			-8.094			-1.349
92800.000			-8.095			-1.349
92901.000			-8.094			-1.349
93000.000			-8.093			-1.349
93100.000			-8.093			-1.349
93202.000			-8.092			-1.349
93301.000			-8.093			-1.349
93400.000			-8.093			-1.349
93501.000			-8.093			-1.349
93600.000			-8.093			-1.349
93700.000			-8.092			-1.349
93801.000			-8.092			-1.349
93900.000			-8.091			-1.349
94001.000			-8.091			-1.349
94102.000			-8.092			-1.349
94200.000			-8.091			-1.348
94300.000			-8.091			-1.348
94401.000			-8.091			-1.348
94500.000			-8.090			-1.348
94600.000			-8.090			-1.348
94701.000			-8.090			-1.348
94801.000			-8.090			-1.348
94902.000			-8.090			-1.348
95000.000			-8.090			-1.348
95100.000			-8.089			-1.348
95201.000			-8.089			-1.348
95300.000			-8.089			-1.348
95400.000			-8.088			-1.348
95501.000			-8.088			-1.348
95601.000			-8.089			-1.348
95701.000			-8.089			-1.348
95801.000			-8.088			-1.348
95900.000			-8.088			-1.348
96000.000			-8.087			-1.348
96101.000			-8.086			-1.348
96200.000			-8.086			-1.348
96300.000			-8.086			-1.348
96402.000			-8.087			-1.348
96501.000			-8.086			-1.348
96601.000			-8.086			-1.348
96701.000			-8.086			-1.348
96800.000			-8.085			-1.348
96900.000			-8.085			-1.348
97001.000			-8.084			-1.347
97100.000			-8.084			-1.347
97200.000			-8.084			-1.347
97302.000			-8.084			-1.347
97401.000			-8.085			-1.348
97500.000			-8.084			-1.347
97601.000			-8.083			-1.347
97700.000			-8.084			-1.347
97800.000			-8.084			-1.347
97901.000			-8.083			-1.347
98000.000			-8.083			-1.347
98102.000			-8.084			-1.347
98201.000			-8.082			-1.347
98300.000			-8.081			-1.347
98401.000			-8.082			-1.347
98500.000			-8.081			-1.347
98600.000			-8.081			-1.347
98701.000			-8.081			-1.347
98800.000			-8.081			-1.347
98900.000			-8.080			-1.347
99002.000			-8.081			-1.347
99101.000			-8.081			-1.347
99200.000			-8.081			-1.347
99301.000			-8.081			-1.347
99400.000			-8.080			-1.347
99500.000			-8.080			-1.347
99601.000			-8.080			-1.347
99700.000			-8.080			-1.347
99801.000			-8.078			-1.346
99902.000			-8.079			-1.347
100000.000			-8.079			-1.346
100100.000			-8.078			-1.346
100201.000			-8.079			-1.347
100300.000			-8.079			-1.346
100400.000			-8.079			-1.347
100501.000			-8.078			-1.346
100601.000			-8.077			-1.346
100701.000			-8.078			-1.346
100801.000			-8.078			-1.346
100900.000			-8.078			-1.346
101000.000			-8.076			-1.346
101101.000			-8.077			-1.346
101200.000			-8.077			-1.346
101300.000			-8.076			-1.346
101402.000			-8.077			-1.346
101501.000			-8.077			-1.346
101601.000			-8.076			-1.346
101700.000			-8.076			-1.346
101800.000			-8.077			-1.346
101901.000			-8.076			-1.346
102000.000			-8.075			-1.346
102100.000			-8.074			-1.346
102202.000			-8.075			-1.346
102301.000			-8.075			-1.346
102401.000			-8.074			-1.346
102501.000			-8.075			-1.346
102600.000			-8.074			-1.346
102700.000			-8.073			-1.345
102801.000			-8.073			-1.346
102900.000			-8.073			-1.346
103000.000			-8.073			-1.345
103102.000			-8.073			-1.346
103201.000			-8.073			-1.345
103300.000			-8.072			-1.345
103401.000			-8.072			-1.345
103500.000			-8.073			-1.345
103600.000			-8.073			-1.345
103701.000			-8.072			-1.345
103800.000			-8.071			-1.345
103901.000			-8.071			-1.345
104002.000			-8.070			-1.345
104100.000			-8.070			-1.345
104200.000			-8.070			-1.345
104301.000			-8.071			-1.345
104400.000			-8.071			-1.345
104500.000			-8.072			-1.345
104600.000			-8.070			-1.345
104701.000			-8.070			-1.345
104802.000			-8.070			-1.345
104900.000			-8.069			-1.345
105000.000			-8.070			-1.345
105101.000			-8.069			-1.345
105200.000			-8.070			-1.345
105300.000			-8.069			-1.345
105401.000			-8.068			-1.345
105501.000			-8.067			-1.345
105601.000			-8.069			-1.345
105701.000			-8.068			-1.345
105800.000			-8.067			-1.345
105900.000			-8.067			-1.345
106001.000			-8.067			-1.345
106100.000			-8.067			-1.345
106200.000			-8.067			-1.345
106301.000			-8.066			-1.344
106401.000			-8.066			-1.344
106501.000			-8.066			-1.344
106601.000			-8.066			-1.344
106700.000			-8.065			-1.344
106800.000			-8.065			-1.344
106901.000			-8.065			-1.344
107000.000			-8.065			-1.344
107100.000			-8.065			-1.344
107202.000			-8.065			-1.344
107301.000			-8.065			-1.344
107400.000			-8.065			-1.344
107501.000			-8.064			-1.344
107600.000			-8.063			-1.344
107700.000			-8.064			-1.344
107800.000			-8.065			-1.344
107900.000			-8.065			-1.344
108002.000			-8.063			-1.344
108101.000			-8.063			-1.344
108200.000			-8.063			-1.344
108301.000			-8.063			-1.344
108400.000			-8.063			-1.344
108500.000			-8.062			-1.344
108601.000			-8.062			-1.344
108700.000			-8.062			-1.344
108801.000			-8.062			-1.344
108902.000			-8.064			-1.344
109001.000			-8.062			-1.344
109100.000			-8.062			-1.344
109201.000			-8.062			-1.344
109300.000			-8.062			-1.344
109400.000			-8.061			-1.343
109501.000			-8.061			-1.344
109600.000			-8.061			-1.343
109701.000			-8.061			-1.344
109802.000			-8.061			-1.344
109900.000			-8.061			-1.344
110000.000			-8.060			-1.343
110101.000			-8.060			-1.343
110200.000			-8.060			-1.343
110300.000			-8.059			-1.343
110401.000			-8.058			-1.343
110501.000			-8.059			-1.343
110601.000			-8.060			-1.343
110701.000			-8.059			-1.343
110800.000			-8.058			-1.343
110900.000			-8.058			-1.343
111000.000			-8.058			-1.343
111100.000			-8.058			-1.343
111201.000			-8.058			-1.343
111301.000			-8.058			-1.343
111401.000			-8.057			-1.343
111501.000			-8.057			-1.343
111600.000			-8.058			-1.343
111700.000			-8.057			-1.343
111801.000			-8.057			-1.343
111900.000			-8.057			-1.343
112000.000			-8.056			-1.343
112102.000			-8.056			-1.343
112201.000			-8.057			-1.343
112300.000			-8.055			-1.343
112401.000			-8.055			-1.342
112500.000			-8.055			-1.342
112600.000			-8.055			-1.343
112701.000			-8.056			-1.343
112800.000			-8.056			-1.343
112900.000			-8.056			-1.343
113002.000			-8.055			-1.343
113101.000			-8.055			-1.342
113200.000			-8.055			-1.343
113301.000			-8.054			-1.342
113400.000			-8.053			-1.342
113500.000			-8.053			-1.342
113601.000			-8.054			-1.342
113701.000			-8.054			-1.342
113801.000			-8.054			-1.342
113902.000			-8.053			-1.342
114000.000			-8.053			-1.342
114100.000			-8.054			-1.342
114200.000			-8.053			-1.342
114300.000			-8.053			-1.342
114401.000			-8.052			-1.342
114500.000			-8.052			-1.342
114601.000			-8.053			-1.342
114702.000			-8.053			-1.342
114800.000			-8.052			-1.342
114900.000			-8.053			-1.342
115001.000			-8.051			-1.342
115100.000			-8.050			-1.342
115200.000			-8.051			-1.342
115301.000			-8.051			-1.342
115401.000			-8.051			-1.342
115501.000			-8.050			-1.342
115601.000			-8.050			-1.342
115700.000			-8.050			-1.342
115800.000			-8.050			-1.342
115901.000			-8.049			-1.342
116000.000			-8.049			-1.341
116100.000			-8.050			-1.342
116202.000			-8.049			-1.342
116301.000			-8.048			-1.341
116400.000			-8.047			-1.341
116501.000			-8.048			-1.341
116600.000			-8.048			-1.341
116700.000			-8.048			-1.341
116801.000			-8.048			-1.341
116900.000			-8.048			-1.341
117001.000			-8.047			-1.341
117102.000			-8.048			-1.341
117200.000			-8.047			-1.341
117300.000			-8.046			-1.341
117400.000			-8.045			-1.341
117500.000			-8.046			-1.341
117601.000			-8.047			-1.341
117700.000			-8.047			-1.341
117800.000			-8.046			-1.341
117902.000			-8.046			-1.341
118001.000			-8.046			-1.341
118100.000			-8.046			-1.341
118201.000			-8.045			-1.341
118300.000			-8.045			-1.341
118400.000			-8.045			-1.341
118501.000			-8.044			-1.341
118600.000			-8.044			-1.341
118701.000			-8.046			-1.341
118802.000			-8.045			-1.341
118900.000			-8.045			-1.341
119000.000			-8.045			-1.341
119101.000			-8.044			-1.341
119200.000			-8.044			-1.341
119300.000			-8.044			-1.341
119401.000			-8.044			-1.341
119501.000			-8.044			-1.341
119601.000			-8.043			-1.341
119701.000			-8.044			-1.341
119800.000			-8.043			-1.340
119900.000			-8.043			-1.340
120001.000			-8.042			-1.340
120100.000			-8.041			-1.340
120200.000			-8.041			-1.340
120301.000			-8.042			-1.340
120401.000			-8.043			-1.340
120502.000			-8.042			-1.340
120600.000			-8.042			-1.340
120700.000			-8.042			-1.340
120801.000			-8.041			-1.340
120900.000			-8.040			-1.340
121000.000			-8.041			-1.340
121101.000			-8.041			-1.340
121201.000			-8.041			-1.340
121301.000			-8.041			-1.340
121401.000			-8.040			-1.340
121500.000			-8.040			-1.340
121600.000			-8.039			-1.340
121701.000			-8.040			-1.340
121800.000			-8.040			-1.340
121900.000			-8.040			-1.340
122002.000			-8.038			-1.340
122101.000			-8.038			-1.340
122200.000			-8.038			-1.340
122301.000			-8.038			-1.340
122400.000			-8.038			-1.340
122500.000			-8.038			-1.340
122601.000			-8.037			-1.339
122700.000			-8.037			-1.340
122801.000			-8.039			-1.340
122902.000			-8.038			-1.340
123000.000			-8.039			-1.340
123100.000			-8.038			-1.340
123201.000			-8.037			-1.340
123300.000			-8.037			-1.339
123400.000			-8.037			-1.340
123501.000			-8.036			-1.339
123601.000			-8.037			-1.339
123702.000			-8.036			-1.339
123801.000			-8.036			-1.339
123900.000			-8.036			-1.339
124001.000			-8.035			-1.339
124100.000			-8.035			-1.339
124200.000			-8.037			-1.339
124301.000			-8.036			-1.339
124400.000			-8.035			-1.339
124501.000			-8.035			-1.339
124602.000			-8.034			-1.339
124700.000			-8.034			-1.339
124800.000			-8.034			-1.339
124901.000			-8.033			-1.339
125000.000			-8.033			-1.339
125100.000			-8.034			-1.339
125201.000			-8.033			-1.339
125301.000			-8.033			-1.339
125401.000			-8.033			-1.339
125501.000			-8.033			-1.339
125600.000			-8.033			-1.339
125700.000			-8.033			-1.339
125801.000			-8.033			-1.339
125900.000			-8.034			-1.339
126000.000			-8.034			-1.339
126102.000			-8.033			-1.339
126201.000			-8.032			-1.339
126300.000			-8.033			-1.339
126401.000			-8.031			-1.339
126500.000			-8.031			-1.339
126600.000			-8.032			-1.339
126701.000			-8.032			-1.339
126800.000			-8.032			-1.339
126902.000			-8.032			-1.339
127001.000			-8.032			-1.339
127101.000			-8.031			-1.338
127201.000			-8.032			-1.339
127300.000			-8.031			-1.338
127400.000			-8.031			-1.339
127501.000			-8.032			-1.339
127600.000			-8.030			-1.338
127700.000			-8.030			-1.338
127802.000			-8.030			-1.338
127901.000			-8.029			-1.338
128000.000			-8.030			-1.338
128101.000			-8.030			-1.338
128200.000			-8.030			-1.338
128300.000			-8.031			-1.339
128401.000			-8.030			-1.338
128500.000			-8.030			-1.338
128601.000			-8.028			-1.338
128702.000			-8.028			-1.338
128801.000			-8.028			-1.338
128900.000			-8.029			-1.338
129001.000			-8.029			-1.338
129100.000			-8.028			-1.338
129200.000			-8.028			-1.338
129301.000			-8.027			-1.338
129400.000			-8.027			-1.338
129501.000			-8.027			-1.338
129602.000			-8.027			-1.338
129700.000			-8.028			-1.338
129800.000			-8.027			-1.338
129901.000			-8.027			-1.338
130000.000			-8.026			-1.338
130100.000			-8.027			-1.338
130200.000			-8.028			-1.338
130301.000			-8.026			-1.338
130402.000			-8.026			-1.338
130500.000			-8.026			-1.338
130600.000			-8.025			-1.338
130701.000			-8.026			-1.338
130800.000			-8.026			-1.338
130900.000			-8.026			-1.338
131001.000			-8.026			-1.338
131101.000			-8.025			-1.338
131201.000			-8.025			-1.338
131301.000			-8.025			-1.338
131400.000			-8.025			-1.337
131500.000			-8.024			-1.337
131601.000			-8.024			-1.337
131700.000			-8.024			-1.337
131800.000			-8.024			-1.337
131901.000			-8.023			-1.337
132001.000			-8.023			-1.337
132101.000			-8.025			-1.337
132201.000			-8.023			-1.337
132300.000			-8.023			-1.337
132400.000			-8.024			-1.337
132501.000			-8.024			-1.337
132600.000			-8.023			-1.337
132700.000			-8.023			-1.337
132801.000			-8.022			-1.337
132901.000			-8.023			-1.337
133001.000			-8.022			-1.337
133101.000			-8.023			-1.337
133200.000			-8.021			-1.337
133300.000			-8.021			-1.337
133400.000			-8.021			-1.337
133500.000			-8.021			-1.337
133601.000			-8.022			-1.337
133701.000			-8.021			-1.337
133801.000			-8.021			-1.337
133902.000			-8.022			-1.337
134000.000			-8.022			-1.337
134100.000			-8.021			-1.337
134201.000			-8.021			-1.337
134300.000			-8.021			-1.337
134400.000			-8.020			-1.337
134501.000			-8.020			-1.337
134601.000			-8.019			-1.337
134701.000			-8.020			-1.337
134802.000			-8.020			-1.337
134900.000			-8.021			-1.337
135000.000			-8.020			-1.337
135101.000			-8.019			-1.336
135200.000			-8.019			-1.337
135300.000			-8.019			-1.337
135401.000			-8.019			-1.336
135501.000			-8.019			-1.336
135601.000			-8.019			-1.336
135701.000			-8.019			-1.336
135800.000			-8.017			-1.336
135900.000			-8.018			-1.336
136001.000			-8.018			-1.336
136100.000			-8.019			-1.336
136200.000			-8.019			-1.336
136301.000			-8.019			-1.336
136401.000			-8.018			-1.336
136502.000			-8.018			-1.336
136601.000			-8.017			-1.336
136700.000			-8.017			-1.336
136801.000			-8.018			-1.336
136900.000			-8.017			-1.336
137000.000			-8.017			-1.336
137101.000			-8.016			-1.336
137200.000			-8.016			-1.336
137301.000			-8.016			-1.336
137402.000			-8.016			-1.336
137501.000			-8.015			-1.336
137600.000			-8.016			-1.336
137701.000			-8.016			-1.336
137800.000			-8.015			-1.336
137900.000			-8.016			-1.336
138001.000			-8.016			-1.336
138100.000			-8.016			-1.336
138201.000			-8.015			-1.336
138302.000			-8.014			-1.336
138400.000			-8.015			-1.336
138500.000			-8.015			-1.336
138601.000			-8.015			-1.336
138700.000			-8.014			-1.336
138800.000			-8.014			-1.336
138901.000			-8.013			-1.336
139000.000			-8.014			-1.336
139101.000			-8.014			-1.336
139202.000			-8.014			-1.336
139301.000			-8.014			-1.336
139400.000			-8.013			-1.335
139501.000			-8.014			-1.336
139600.000			-8.012			-1.335
139700.000			-8.012			-1.335
139800.000			-8.012			-1.335
139900.000			-8.012			-1.335
140002.000			-8.012			-1.335
140101.000			-8.013			-1.335
140200.000			-8.012			-1.335
140301.000			-8.012			-1.335
140400.000			-8.012			-1.335
140500.000			-8.012			-1.335
140601.000			-8.012			-1.335
140700.000			-8.011			-1.335
140800.000			-8.012			-1.335
140902.000			-8.011			-1.335
141001.000			-8.011			-1.335
141100.000			-8.011			-1.335
141201.000			-8.011			-1.335
141300.000			-8.011			-1.335
141400.000			-8.010			-1.335
141501.000			-8.009			-1.335
141600.000			-8.010			-1.335
141701.000			-8.009			-1.335
141802.000			-8.009			-1.335
141901.000			-8.010			-1.335
142000.000			-8.010			-1.335
142101.000			-8.009			-1.335
142200.000			-8.009			-1.335
142300.000			-8.010			-1.335
142401.000			-8.008			-1.335
142500.000			-8.008			-1.335
142601.000			-8.008			-1.335
142702.000			-8.008			-1.335
142800.000			-8.008			-1.335
142900.000			-8.009			-1.335
143000.000			-8.009			-1.335
143100.000			-8.008			-1.335
143201.000			-8.008			-1.335
143300.000			-8.008			-1.335
143400.000			-8.007			-1.334
143502.000			-8.006			-1.334
143601.000			-8.006			-1.334
143700.000			-8.007			-1.335
143801.000			-8.008			-1.335
143900.000			-8.007			-1.335
144000.000			-8.007			-1.335
144101.000			-8.007			-1.334
144200.000			-8.007			-1.334
144300.000			-8.006			-1.334
144402.000			-8.007			-1.335
144501.000			-8.006			-1.334
144600.000			-8.006			-1.334
144701.000			-8.006			-1.334
144800.000			-8.006			-1.334
144900.000			-8.007			-1.334
145001.000			-8.005			-1.334
145100.000			-8.004			-1.334
145200.000			-8.006			-1.334
145302.000			-8.005			-1.334
145401.000			-8.004			-1.334
145500.000			-8.005			-1.334
145601.000			-8.005			-1.334
145700.000			-8.004			-1.334
145800.000			-8.003			-1.334
145901.000			-8.004			-1.334
146000.000			-8.004			-1.334
146100.000			-8.005			-1.334
146202.000			-8.004			-1.334
146301.000			-8.004			-1.334
146401.000			-8.004			-1.334
146500.000			-8.003			-1.334
146600.000			-8.003			-1.334
146701.000			-8.003			-1.334
146800.000			-8.002			-1.334
146900.000			-8.003			-1.334
147001.000			-8.002			-1.334
147101.000			-8.001			-1.334
147201.000			-8.002			-1.334
147301.000			-8.002			-1.334
147400.000			-8.001			-1.334
147500.000			-8.002			-1.334
147601.000			-8.002			-1.334
147700.000			-8.001			-1.334
147800.000			-8.001			-1.334
147902.000			-8.000			-1.333
148001.000			-8.000			-1.333
148101.000			-8.002			-1.334
148201.000			-8.001			-1.334
148300.000			-8.000			-1.333
148400.000			-8.000			-1.333
148501.000			-8.000			-1.333
148600.000			-7.999			-1.333
148700.000			-8.000			-1.333
148801.000			-8.000			-1.333
148901.000			-8.001			-1.333
149001.000			-8.000			-1.333
149101.000			-7.999			-1.333
149200.000			-8.000			-1.333
149300.000			-7.999			-1.333
149400.000			-7.998			-1.333
149500.000			-7.999			-1.333
149601.000			-7.998			-1.333
149700.000			-7.999			-1.333
149800.000			-7.999			-1.333
149902.000			-7.998			-1.333
150001.000			-7.998			-1.333
150101.000			-7.998			-1.333
150201.000			-7.997			-1.333
150300.000			-7.997			-1.333
150400.000			-7.996			-1.333
150501.000			-7.997			-1.333
150600.000			-7.996			-1.333
150700.000			-7.996			-1.333
150801.000			-7.997			-1.333
150901.000			-7.998			-1.333
151001.000			-7.997			-1.333
151101.000			-7.997			-1.333
151200.000			-7.997			-1.333
151300.000			-7.997			-1.333
151401.000			-7.996			-1.333
151500.000			-7.997			-1.333
151600.000			-7.997			-1.333
151701.000			-7.996			-1.333
151800.000			-7.997			-1.333
151901.000			-7.996			-1.333
152002.000			-7.996			-1.333
152100.000			-7.996			-1.333
152200.000			-7.995			-1.332
152301.000			-7.995			-1.332
152400.000			-7.995			-1.333
152500.000			-7.994			-1.332
152600.000			-7.995			-1.333
152700.000			-7.994			-1.332
152802.000			-7.994			-1.332
152901.000			-7.994			-1.332
153001.000			-7.994			-1.332
153101.000			-7.994			-1.332
153200.000			-7.994			-1.332
153300.000			-7.993			-1.332
153401.000			-7.992			-1.332
153500.000			-7.992			-1.332
153600.000			-7.993			-1.332
153701.000			-7.993			-1.332
153801.000			-7.993			-1.332
153901.000			-7.993			-1.332
154002.000			-7.992			-1.332
154100.000			-7.993			-1.332
154200.000			-7.992			-1.332
154301.000			-7.992			-1.332
154400.000			-7.992			-1.332
154500.000			-7.991			-1.332
154601.000			-7.991			-1.332
154700.000			-7.991			-1.332
154801.000			-7.991			-1.332
154902.000			-7.991			-1.332
155001.000			-7.991			-1.332
155100.000			-7.991			-1.332
155201.000			-7.991			-1.332
155300.000			-7.992			-1.332
155400.000			-7.992			-1.332
155501.000			-7.991			-1.332
155600.000			-7.990			-1.332
155700.000			-7.990			-1.332
155802.000			-7.990			-1.332
155901.000			-7.990			-1.332
156002.000			-7.989			-1.332
156100.000			-7.990			-1.332
156200.000			-7.990			-1.332
156301.000			-7.990			-1.332
156400.000			-7.990			-1.332
156500.000			-7.990			-1.332
156601.000			-7.990			-1.332
156700.000			-7.989			-1.332
156800.000			-7.990			-1.332
156902.000			-7.990			-1.332
157001.000			-7.990			-1.332
157100.000			-7.989			-1.331
157201.000			-7.988			-1.331
157300.000			-7.988			-1.331
157400.000			-7.988			-1.331
157501.000			-7.989			-1.332
157600.000			-7.989			-1.331
157700.000			-7.988			-1.331
157801.000			-7.989			-1.331
157901.000			-7.989			-1.331
158001.000			-7.987			-1.331
158101.000			-7.987			-1.331
158200.000			-7.986			-1.331
158300.000			-7.988			-1.331
158401.000			-7.987			-1.331
158500.000			-7.987			-1.331
158600.000			-7.988			-1.331
158701.000			-7.987			-1.331
158800.000			-7.987			-1.331
158902.000			-7.986			-1.331
159001.000			-7.987			-1.331
159100.000			-7.986			-1.331
159201.000			-7.986			-1.331
159300.000			-7.985			-1.331
159400.000			-7.985			-1.331
159501.000			-7.985			-1.331
159600.000			-7.985			-1.331
159700.000			-7.985			-1.331
159801.000			-7.984			-1.331
159901.000			-7.985			-1.331
160001.000			-7.986			-1.331
160101.000			-7.985			-1.331
160200.000			-7.985			-1.331
160300.000			-7.985			-1.331
160401.000			-7.985			-1.331
160500.000			-7.985			-1.331
160600.000			-7.984			-1.331
160701.000			-7.984			-1.331
160801.000			-7.985			-1.331
160901.000			-7.984			-1.331
161002.000			-7.983			-1.330
161100.000			-7.983			-1.330
161200.000			-7.984			-1.331
161301.000			-7.984			-1.331
161400.000			-7.984			-1.331
161500.000			-7.983			-1.331
161601.000			-7.983			-1.331
161700.000			-7.984			-1.331
161801.000			-7.983			-1.331
161902.000			-7.983			-1.330
162001.000			-7.982			-1.330
162100.000			-7.981			-1.330
162200.000			-7.983			-1.330
162300.000			-7.982			-1.330
162401.000			-7.982			-1.330
162500.000			-7.983			-1.330
162600.000			-7.982			-1.330
162702.000			-7.982			-1.330
162801.000			-7.982			-1.330
162901.000			-7.981			-1.330
163001.000			-7.981			-1.330
163100.000			-7.981			-1.330
163200.000			-7.982			-1.330
163301.000			-7.981			-1.330
163400.000			-7.981			-1.330
163500.000			-7.981			-1.330
163601.000			-7.981			-1.330
163701.000			-7.980			-1.330
163801.000			-7.981			-1.330
163901.000			-7.981			-1.330
164000.000			-7.980			-1.330
164100.000			-7.980			-1.330
164201.000			-7.980			-1.330
164300.000			-7.980			-1.330
164400.000			-7.979			-1.330
164501.000			-7.979			-1.330
164600.000			-7.979			-1.330
164701.000			-7.980			-1.330
164802.000			-7.980			-1.330
164900.000			-7.980			-1.330
165000.000			-7.979			-1.330
165101.000			-7.980			-1.330
165200.000			-7.979			-1.330
165300.000			-7.980			-1.330
165400.000			-7.979			-1.330
165500.000			-7.979			-1.330
165601.000			-7.978			-1.330
165701.000			-7.979			-1.330
165801.000			-7.979			-1.330
165901.000			-7.978			-1.330
166000.000			-7.977			-1.330
166100.000			-7.976			-1.329
166201.000			-7.978			-1.330
166300.000			-7.978			-1.330
166400.000			-7.977			-1.329
166501.000			-7.978			-1.330
166600.000			-7.978			-1.330
166701.000			-7.977			-1.329
166802.000			-7.976			-1.329
166901.000			-7.978			-1.330
167001.000			-7.977			-1.330
167101.000			-7.977			-1.329
167200.000			-7.976			-1.329
167300.000			-7.975			-1.329
167401.000			-7.975			-1.329
167500.000			-7.977			-1.329
167600.000			-7.977			-1.330
167701.000			-7.976			-1.329
167801.000			-7.977			-1.329
167901.000			-7.976			-1.329
168001.000			-7.976			-1.329
168100.000			-7.976			-1.329
168200.000			-7.977			-1.329
168301.000			-7.976			-1.329
168400.000			-7.976			-1.329
168500.000			-7.976			-1.329
168600.000			-7.975			-1.329
168700.000			-7.975			-1.329
168802.000			-7.975			-1.329
168901.000			-7.975			-1.329
169001.000			-7.974			-1.329
169101.000			-7.973			-1.329
169200.000			-7.974			-1.329
169300.000			-7.974			-1.329
169401.000			-7.974			-1.329
169500.000			-7.974			-1.329
169600.000			-7.973			-1.329
169701.000			-7.973			-1.329
169801.000			-7.973			-1.329
169901.000			-7.974			-1.329
170001.000			-7.973			-1.329
170100.000			-7.973			-1.329
170200.000			-7.973			-1.329
170301.000			-7.973			-1.329
170400.000			-7.973			-1.329
170500.000			-7.973			-1.329
170601.000			-7.973			-1.329
170701.000			-7.973			-1.329
170801.000			-7.973			-1.329
170902.000			-7.972			-1.329
171000.000			-7.972			-1.329
171100.000			-7.972			-1.329
171201.000			-7.972			-1.329
171300.000			-7.972			-1.329
171400.000			-7.972			-1.329
171501.000			-7.972			-1.329
171600.000			-7.972			-1.329
171702.000			-7.971			-1.329
171801.000			-7.970			-1.328
171901.000			-7.971			-1.328
172001.000			-7.970			-1.328
172100.000			-7.970			-1.328
172200.000			-7.971			-1.328
172301.000			-7.972			-1.329
172400.000			-7.970			-1.328
172500.000			-7.970			-1.328
172601.000			-7.970			-1.328
172701.000			-7.971			-1.328
172801.000			-7.970			-1.328
172901.000			-7.969			-1.328
173000.000			-7.969			-1.328
173100.000			-7.970			-1.328
173201.000			-7.969			-1.328
173300.000			-7.970			-1.328
173400.000			-7.970			-1.328
173501.000			-7.969			-1.328
173600.000			-7.970			-1.328
173701.000			-7.970			-1.328
173802.000			-7.969			-1.328
173900.000			-7.970			-1.328
174000.000			-7.969			-1.328
174101.000			-7.969			-1.328
174200.000			-7.969			-1.328
174300.000			-7.969			-1.328
174401.000			-7.969			-1.328
174500.000			-7.968			-1.328
174600.000			-7.968			-1.328
174702.000			-7.968			-1.328
174801.000			-7.968			-1.328
174900.000			-7.967			-1.328
175000.000			-7.968			-1.328
175100.000			-7.968			-1.328
175201.000			-7.967			-1.328
175300.000			-7.967			-1.328
175400.000			-7.967			-1.328
175501.000			-7.967			-1.328
175601.000			-7.966			-1.328
175701.000			-7.966			-1.328
175802.000			-7.966			-1.328
175900.000			-7.967			-1.328
176000.000			-7.966			-1.328
176101.000			-7.965			-1.328
176200.000			-7.966			-1.328
176300.000			-7.965			-1.328
176401.000			-7.965			-1.328
176500.000			-7.965			-1.327
176601.000			-7.964			-1.327
176702.000			-7.965			-1.327
176801.000			-7.965			-1.327
176900.000			-7.966			-1.328
177001.000			-7.966			-1.328
177100.000			-7.966			-1.328
177200.000			-7.965			-1.328
177301.000			-7.965			-1.327
177400.000			-7.965			-1.327
177500.000			-7.965			-1.327
177602.000			-7.965			-1.327
177701.000			-7.965			-1.327
177801.000			-7.964			-1.327
177901.000			-7.964			-1.327
178000.000			-7.964			-1.327
178100.000			-7.964			-1.327
178200.000			-7.964			-1.327
178300.000			-7.964			-1.327
178401.000			-7.963			-1.327
178500.000			-7.962			-1.327
178601.000			-7.963			-1.327
178702.000			-7.964			-1.327
178801.000			-7.964			-1.327
178900.000			-7.964			-1.327
179001.000			-7.964			-1.327
179100.000			-7.963			-1.327
179200.000			-7.962			-1.327
179301.000			-7.962			-1.327
179400.000			-7.962			-1.327
179500.000			-7.962			-1.327
179602.000			-7.962			-1.327
179701.000			-7.961			-1.327
179801.000			-7.962			-1.327
179901.000			-7.962			-1.327
180000.000			-7.962			-1.327
180100.000			-7.961			-1.327
180201.000			-7.961			-1.327
180300.000			-7.961			-1.327
180400.000			-7.961			-1.327
180501.000			-7.960			-1.327
180601.000			-7.959			-1.327
180701.000			-7.961			-1.327
180801.000			-7.960			-1.327
180900.000			-7.961			-1.327
181000.000			-7.961			-1.327
181101.000			-7.959			-1.327
181200.000			-7.959			-1.327
181300.000			-7.960			-1.327
181400.000			-7.960			-1.327
181500.000			-7.959			-1.327
181602.000			-7.958			-1.326
181701.000			-7.958			-1.326
181800.000			-7.959			-1.327
181901.000			-7.961			-1.327
182000.000			-7.960			-1.327
182100.000			-7.958			-1.326
182201.000			-7.958			-1.326
182300.000			-7.958			-1.326
182400.000			-7.958			-1.326
182502.000			-7.958			-1.326
182601.000			-7.957			-1.326
182701.000			-7.957			-1.326
182801.000			-7.957			-1.326
182900.000			-7.958			-1.326
183000.000			-7.957			-1.326
183101.000			-7.957			-1.326
183200.000			-7.957			-1.326
183300.000			-7.957			-1.326
183401.000			-7.957			-1.326
183501.000			-7.957			-1.326
183601.000			-7.956			-1.326
183702.000			-7.956			-1.326
183800.000			-7.955			-1.326
183900.000			-7.957			-1.326
184001.000			-7.955			-1.326
184100.000			-7.955			-1.326
184200.000			-7.956			-1.326
184301.000			-7.955			-1.326
184400.000			-7.955			-1.326
184502.000			-7.955			-1.326
184601.000			-7.955			-1.326
184701.000			-7.955			-1.326
184801.000			-7.954			-1.326
184900.000			-7.954			-1.326
185000.000			-7.954			-1.326
185101.000			-7.954			-1.326
185200.000			-7.953			-1.326
185300.000			-7.953			-1.326
185401.000			-7.954			-1.326
185501.000			-7.953			-1.326
185601.000			-7.954			-1.326
185701.000			-7.954			-1.326
185800.000			-7.953			-1.326
185900.000			-7.954			-1.326
186001.000			-7.953			-1.326
186100.000			-7.954			-1.326
186200.000			-7.953			-1.326
186301.000			-7.954			-1.326
186401.000			-7.953			-1.326
186501.000			-7.953			-1.325
186602.000			-7.952			-1.325
186700.000			-7.952			-1.325
186800.000			-7.952			-1.325
186901.000			-7.953			-1.326
187000.000			-7.953			-1.326
187100.000			-7.953			-1.325
187201.000			-7.952			-1.325
187300.000			-7.954			-1.326
187401.000			-7.953			-1.326
187502.000			-7.952			-1.325
187601.000			-7.952			-1.325
187700.000			-7.952			-1.325
187800.000			-7.951			-1.325
187900.000			-7.953			-1.325
188001.000			-7.953			-1.325
188100.000			-7.953			-1.326
188200.000			-7.953			-1.325
188301.000			-7.951			-1.325
188401.000			-7.951			-1.325
188501.000			-7.951			-1.325
188602.000			-7.951			-1.325
188700.000			-7.951			-1.325
188800.000			-7.951			-1.325
188901.000			-7.950			-1.325
189000.000			-7.951			-1.325
189100.000			-7.950			-1.325
189201.000			-7.951			-1.325
189300.000			-7.951			-1.325
189401.000			-7.950			-1.325
189502.000			-7.950			-1.325
189601.000			-7.949			-1.325
189700.000			-7.950			-1.325
189801.000			-7.951			-1.325
189900.000			-7.952			-1.325
190000.000			-7.952			-1.325
190101.000			-7.950			-1.325
190200.000			-7.950			-1.325
190300.000			-7.950			-1.325
190402.000			-7.950			-1.325
190501.000			-7.950			-1.325
190600.000			-7.950			-1.325
190701.000			-7.949			-1.325
190800.000			-7.949			-1.325
190900.000			-7.949			-1.325
191000.000			-7.948			-1.325
191100.000			-7.948			-1.325
191201.000			-7.948			-1.325
191301.000			-7.949			-1.325
191401.000			-7.949			-1.325
191502.000			-7.947			-1.325
191600.000			-7.948			-1.325
191700.000			-7.948			-1.325
191801.000			-7.948			-1.325
191900.000			-7.948			-1.325
192000.000			-7.948			-1.325
192101.000			-7.947			-1.325
192200.000			-7.946			-1.324
192301.000			-7.946			-1.324
192402.000			-7.946			-1.324
192501.000			-7.946			-1.324
192600.000			-7.946			-1.324
192701.000			-7.947			-1.324
192800.000			-7.946			-1.324
192900.000			-7.946			-1.324
193001.000			-7.945			-1.324
193100.000			-7.945			-1.324
193200.000			-7.946			-1.324
193302.000			-7.946			-1.324
193401.000			-7.944			-1.324
193501.000			-7.944			-1.324
193601.000			-7.945			-1.324
193700.000			-7.946			-1.324
193800.000			-7.945			-1.324
193901.000			-7.944			-1.324
194000.000			-7.944			-1.324
194100.000			-7.945			-1.324
194200.000			-7.946			-1.324
194301.000			-7.945			-1.324
194402.000			-7.945			-1.324
194500.000			-7.944			-1.324
194600.000			-7.944			-1.324
194701.000			-7.945			-1.324
194800.000			-7.944			-1.324
194900.000			-7.942			-1.324
195001.000			-7.943			-1.324
195100.000			-7.944			-1.324
195200.000			-7.943			-1.324
195302.000			-7.943			-1.324
195401.000			-7.944			-1.324
195500.000			-7.944			-1.324
195601.000			-7.944			-1.324
195700.000			-7.944			-1.324
195800.000			-7.943			-1.324
195901.000			-7.943			-1.324
196000.000			-7.943			-1.324
196100.000			-7.943			-1.324
196202.000			-7.943			-1.324
196301.000			-7.943			-1.324
196401.000			-7.944			-1.324
196501.000			-7.944			-1.324
196600.000			-7.943			-1.324
196700.000			-7.943			-1.324
196801.000			-7.942			-1.324
196900.000			-7.943			-1.324
197000.000			-7.942			-1.324
197101.000			-7.942			-1.324
197201.000			-7.942			-1.324
197302.000			-7.942			-1.324
197401.000			-7.941			-1.324
197500.000			-7.942			-1.324
197601.000			-7.942			-1.324
197700.000			-7.942			-1.324
197800.000			-7.942			-1.324
197901.000			-7.941			-1.324
198000.000			-7.940			-1.323
198100.000			-7.941			-1.323
198202.000			-7.941			-1.323
198301.000			-7.941			-1.323
198400.000			-7.941			-1.323
198501.000			-7.941			-1.323
198600.000			-7.940			-1.323
198700.000			-7.940			-1.323
198801.000			-7.940			-1.323
198900.000			-7.940			-1.323
199000.000			-7.940			-1.323
199101.000			-7.939			-1.323
199201.000			-7.939			-1.323
199301.000			-7.940			-1.323
199401.000			-7.939			-1.323
199500.000			-7.941			-1.323
199600.000			-7.939			-1.323
199701.000			-7.940			-1.323
199800.000			-7.940			-1.323
199900.000			-7.939			-1.323
200001.000			-7.939			-1.323
200100.000			-7.938			-1.323
200201.000			-7.939			-1.323
200302.000			-7.939			-1.323
200400.000			-7.939			-1.323
200500.000			-7.939			-1.323
200600.000			-7.939			-1.323
200700.000			-7.939			-1.323
200801.000			-7.938			-1.323
200900.000			-7.938			-1.323
201000.000			-7.939			-1.323
201102.000			-7.940			-1.323
201201.000			-7.939			-1.323
201301.000			-7.938			-1.323
201401.000			-7.937			-1.323
201500.000			-7.938			-1.323
201600.000			-7.938			-1.323
201701.000			-7.938			-1.323
201800.000			-7.937			-1.323
201900.000			-7.936			-1.323
202001.000			-7.937			-1.323
202101.000			-7.937			-1.323
202201.000			-7.937			-1.323
202301.000			-7.937			-1.323
202400.000			-7.936			-1.323
202500.000			-7.937			-1.323
202601.000			-7.936			-1.323
202700.000			-7.936			-1.323
202800.000			-7.936			-1.323
202901.000			-7.936			-1.323
203001.000			-7.937			-1.323
203101.000			-7.936			-1.323
203201.000			-7.935			-1.322
203300.000			-7.936			-1.323
203400.000			-7.936			-1.323
203501.000			-7.936			-1.323
203600.000			-7.935			-1.323
203700.000			-7.936			-1.323
203800.000			-7.935			-1.323
203901.000			-7.935			-1.323
204002.000			-7.935			-1.322
204101.000			-7.935			-1.322
204200.000			-7.935			-1.323
204301.000			-7.934			-1.322
204400.000			-7.935			-1.322
204500.000			-7.934			-1.322
204601.000			-7.934			-1.322
204700.000			-7.934			-1.322
204800.000			-7.935			-1.322
204902.000			-7.935			-1.322
205001.000			-7.936			-1.323
205100.000			-7.935			-1.323
205201.000			-7.934			-1.322
205300.000			-7.934			-1.322
205400.000			-7.934			-1.322
205501.000			-7.934			-1.322
205600.000			-7.933			-1.322
205700.000			-7.933			-1.322
205802.000			-7.932			-1.322
205901.000			-7.932			-1.322
206001.000			-7.933			-1.322
206101.000			-7.934			-1.322
206200.000			-7.932			-1.322
206300.000			-7.932			-1.322
206401.000			-7.932			-1.322
206500.000			-7.932			-1.322
206600.000			-7.933			-1.322
206702.000			-7.932			-1.322
206801.000			-7.932			-1.322
206902.000			-7.932			-1.322
207000.000			-7.931			-1.322
207100.000			-7.931			-1.322
207201.000			-7.931			-1.322
207300.000			-7.931			-1.322
207400.000			-7.932			-1.322
207501.000			-7.931			-1.322
207600.000			-7.931			-1.322
207701.000			-7.931			-1.322
207802.000			-7.931			-1.322
207900.000			-7.931			-1.322
208000.000			-7.930			-1.322
208101.000			-7.931			-1.322
208200.000			-7.932			-1.322
208300.000			-7.931			-1.322
208401.000			-7.931			-1.322
208500.000			-7.931			-1.322
208601.000			-7.930			-1.322
208702.000			-7.930			-1.322
208801.000			-7.930			-1.322
208900.000			-7.931			-1.322
209001.000			-7.930			-1.322
209100.000			-7.929			-1.322
209200.000			-7.930			-1.322
209301.000			-7.930			-1.322
209400.000			-7.930			-1.322
209500.000			-7.929			-1.321
209602.000			-7.929			-1.322
209701.000			-7.929			-1.321
209800.000			-7.929			-1.322
209901.000			-7.930			-1.322
210000.000			-7.930			-1.322
210100.000			-7.930			-1.322
210200.000			-7.929			-1.321
210300.000			-7.928			-1.321
210401.000			-7.928			-1.321
210501.000			-7.927			-1.321
210601.000			-7.928			-1.321
210702.000			-7.928			-1.321
210800.000			-7.928			-1.321
210900.000			-7.928			-1.321
211001.000			-7.927			-1.321
211100.000			-7.928			-1.321
211200.000			-7.928			-1.321
211301.000			-7.927			-1.321
211401.000			-7.927			-1.321
211501.000			-7.927			-1.321
211602.000			-7.926			-1.321
211700.000			-7.927			-1.321
211800.000			-7.926			-1.321
211901.000			-7.927			-1.321
212000.000			-7.927			-1.321
212100.000			-7.926			-1.321
212201.000			-7.926			-1.321
212300.000			-7.927			-1.321
212401.000			-7.927			-1.321
212502.000			-7.926			-1.321
212600.000			-7.926			-1.321
212700.000			-7.925			-1.321
212801.000			-7.926			-1.321
212900.000			-7.926			-1.321
213000.000			-7.925			-1.321
213101.000			-7.924			-1.321
213200.000			-7.925			-1.321
213302.000			-7.925			-1.321
213401.000			-7.926			-1.321
213501.000			-7.926			-1.321
213601.000			-7.924			-1.321
213700.000			-7.924			-1.321
213800.000			-7.924			-1.321
213901.000			-7.925			-1.321
214000.000			-7.924			-1.321
214100.000			-7.924			-1.321
214202.000			-7.924			-1.321
214301.000			-7.924			-1.321
214401.000			-7.924			-1.321
214501.000			-7.924			-1.321
214600.000			-7.924			-1.321
214700.000			-7.924			-1.321
214801.000			-7.925			-1.321
214900.000			-7.925			-1.321
215000.000			-7.925			-1.321
215101.000			-7.924			-1.321
215201.000			-7.924			-1.321
215301.000			-7.924			-1.321
215401.000			-7.923			-1.321
215500.000			-7.923			-1.321
215600.000			-7.923			-1.320
215701.000			-7.924			-1.321
215800.000			-7.924			-1.321
215900.000			-7.924			-1.321
216001.000			-7.923			-1.321
216101.000			-7.924			-1.321
216201.000			-7.923			-1.320
216301.000			-7.922			-1.320
216400.000			-7.923			-1.320
216500.000			-7.923			-1.320
216600.000			-7.923			-1.320
216700.000			-7.922			-1.320
216801.000			-7.923			-1.320
216900.000			-7.922			-1.320
217001.000			-7.922			-1.320
217102.000			-7.921			-1.320
217201.000			-7.921			-1.320
217300.000			-7.921			-1.320
217401.000			-7.921			-1.320
217500.000			-7.922			-1.320
217600.000			-7.921			-1.320
217701.000			-7.920			-1.320
217800.000			-7.921			-1.320
217901.000			-7.921			-1.320
218002.000			-7.921			-1.320
218101.000			-7.922			-1.320
218200.000			-7.921			-1.320
218301.000			-7.920			-1.320
218400.000			-7.920			-1.320
218500.000			-7.920			-1.320
218601.000			-7.920			-1.320
218700.000			-7.920			-1.320
218800.000			-7.920			-1.320
218902.000			-7.919			-1.320
219001.000			-7.920			-1.320
219100.000			-7.920			-1.320
219201.000			-7.921			-1.320
219300.000			-7.920			-1.320
219400.000			-7.920			-1.320
219501.000			-7.920			-1.320
219600.000			-7.920			-1.320
219700.000			-7.920			-1.320
219802.000			-7.921			-1.320
219901.000			-7.919			-1.320
220001.000			-7.919			-1.320
220100.000			-7.919			-1.320
220200.000			-7.919			-1.320
220301.000			-7.918			-1.320
220400.000			-7.918			-1.320
220500.000			-7.918			-1.320
220601.000			-7.919			-1.320
220701.000			-7.918			-1.320
220801.000			-7.918			-1.320
220902.000			-7.917			-1.320
221000.000			-7.917			-1.319
221100.000			-7.918			-1.320
221201.000			-7.917			-1.319
221300.000			-7.917			-1.319
221400.000			-7.917			-1.319
221501.000			-7.916			-1.319
221601.000			-7.917			-1.319
221701.000			-7.917			-1.320
221802.000			-7.916			-1.319
221900.000			-7.917			-1.320
222000.000			-7.917			-1.319
222101.000			-7.916			-1.319
222200.000			-7.916			-1.319
222300.000			-7.916			-1.319
222401.000			-7.916			-1.319
222500.000			-7.916			-1.319
222601.000			-7.916			-1.319
222702.000			-7.915			-1.319
222800.000			-7.916			-1.319
222900.000			-7.916			-1.319
223000.000			-7.916			-1.319
223100.000			-7.916			-1.319
223201.000			-7.916			-1.319
223300.000			-7.916			-1.319
223400.000			-7.916			-1.319
223502.000			-7.916			-1.319
223601.000			-7.916			-1.319
223701.000			-7.915			-1.319
223801.000			-7.915			-1.319
223900.000			-7.915			-1.319
224000.000			-7.915			-1.319
224101.000			-7.915			-1.319
224200.000			-7.914			-1.319
224300.000			-7.915			-1.319
224401.000			-7.915			-1.319
224501.000			-7.915			-1.319
224601.000			-7.914			-1.319
224701.000			-7.914			-1.319
224800.000			-7.915			-1.319
224900.000			-7.916			-1.319
225001.000			-7.916			-1.319
225100.000			-7.915			-1.319
225200.000			-7.914			-1.319
225301.000			-7.913			-1.319
225401.000			-7.913			-1.319
225501.000			-7.913			-1.319
225601.000			-7.914			-1.319
225700.000			-7.914			-1.319
225800.000			-7.914			-1.319
225901.000			-7.913			-1.319
226000.000			-7.913			-1.319
226100.000			-7.913			-1.319
226200.000			-7.913			-1.319
226301.000			-7.914			-1.319
226402.000			-7.913			-1.319
226500.000			-7.912			-1.319
226600.000			-7.912			-1.319
226701.000			-7.912			-1.319
226800.000			-7.912			-1.319
226900.000			-7.912			-1.319
227001.000			-7.913			-1.319
227100.000			-7.913			-1.319
227201.000			-7.913			-1.319
227302.000			-7.913			-1.319
227401.000			-7.912			-1.319
227500.000			-7.912			-1.319
227601.000			-7.913			-1.319
227700.000			-7.913			-1.319
227800.000			-7.912			-1.319
227901.000			-7.912			-1.319
228000.000			-7.913			-1.319
228100.000			-7.911			-1.319
228202.000			-7.911			-1.318
228301.000			-7.911			-1.318
228400.000			-7.912			-1.319
228501.000			-7.911			-1.318
228600.000			-7.911			-1.319
228700.000			-7.911			-1.319
228801.000			-7.911			-1.319
228900.000			-7.912			-1.319
229000.000			-7.911			-1.319
229102.000			-7.910			-1.318
229201.000			-7.910			-1.318
229300.000			-7.911			-1.319
229400.000			-7.912			-1.319
229500.000			-7.911			-1.318
229601.000			-7.911			-1.318
229700.000			-7.911			-1.319
229800.000			-7.911			-1.319
229901.000			-7.910			-1.318
230001.000			-7.911			-1.318
230101.000			-7.911			-1.318
230202.000			-7.910			-1.318
230300.000			-7.909			-1.318
230400.000			-7.910			-1.318
230501.000			-7.911			-1.318
230600.000			-7.910			-1.318
230700.000			-7.910			-1.318
230801.000			-7.910			-1.318
230901.000			-7.910			-1.318
231001.000			-7.909			-1.318
231102.000			-7.909			-1.318
231200.000			-7.910			-1.318
231300.000			-7.909			-1.318
231401.000			-7.910			-1.318
231500.000			-7.909			-1.318
231600.000			-7.910			-1.318
231701.000			-7.910			-1.318
231800.000			-7.909			-1.318
231901.000			-7.910			-1.318
232002.000			-7.910			-1.318
232100.000			-7.909			-1.318
232200.000			-7.909			-1.318
232301.000			-7.910			-1.318
232400.000			-7.910			-1.318
232500.000			-7.909			-1.318
232600.000			-7.908			-1.318
232700.000			-7.908			-1.318
232802.000			-7.908			-1.318
232901.000			-7.908			-1.318
233001.000			-7.907			-1.318
233101.000			-7.908			-1.318
233200.000			-7.907			-1.318
233300.000			-7.907			-1.318
233401.000			-7.907			-1.318
233500.000			-7.907			-1.318
233600.000			-7.907			-1.318
233701.000			-7.906			-1.318
233801.000			-7.907			-1.318
233901.000			-7.908			-1.318
234001.000			-7.906			-1.318
234100.000			-7.907			-1.318
234200.000			-7.907			-1.318
234301.000			-7.907			-1.318
234400.000			-7.906			-1.318
234500.000			-7.907			-1.318
234601.000			-7.907			-1.318
234701.000			-7.907			-1.318
234801.000			-7.907			-1.318
234901.000			-7.906			-1.318
235000.000			-7.906			-1.318
235100.000			-7.906			-1.318
235201.000			-7.906			-1.318
235300.000			-7.906			-1.318
235400.000			-7.907			-1.318
235501.000			-7.906			-1.318
235601.000			-7.905			-1.317
235702.000			-7.905			-1.318
235801.000			-7.906			-1.318
235900.000			-7.905			-1.318
236001.000			-7.905			-1.318
236100.000			-7.905			-1.318
236200.000			-7.905			-1.317
236301.000			-7.904			-1.317
236400.000			-7.904			-1.317
236500.000			-7.904			-1.317
236602.000			-7.904			-1.317
236701.000			-7.904			-1.317
236800.000			-7.904			-1.317
236901.000			-7.904			-1.317
237000.000			-7.904			-1.317
237100.000			-7.904			-1.317
237201.000			-7.903			-1.317
237300.000			-7.904			-1.317
237400.000			-7.904			-1.317
237502.000			-7.903			-1.317
237601.000			-7.902			-1.317
237700.000			-7.903			-1.317
237801.000			-7.904			-1.317
237900.000			-7.903			-1.317
238000.000			-7.902			-1.317
238101.000			-7.904			-1.317
238200.000			-7.904			-1.317
238300.000			-7.903			-1.317
238402.000			-7.904			-1.317
238501.000			-7.904			-1.317
238601.000			-7.903			-1.317
238701.000			-7.903			-1.317
238800.000			-7.903			-1.317
238900.000			-7.902			-1.317
239000.000			-7.902			-1.317
239100.000			-7.902			-1.317
239201.000			-7.903			-1.317
239300.000			-7.902			-1.317
239401.000			-7.902			-1.317
239502.000			-7.902			-1.317
239600.000			-7.902			-1.317
239700.000			-7.902			-1.317
239801.000			-7.901			-1.317
239900.000			-7.901			-1.317
240000.000			-7.901			-1.317
240101.000			-7.902			-1.317
240200.000			-7.900			-1.317
240301.000			-7.901			-1.317
240402.000			-7.901			-1.317
240501.000			-7.901			-1.317
240600.000			-7.901			-1.317
240701.000			-7.900			-1.317
240800.000			-7.900			-1.317
240900.000			-7.900			-1.317
241001.000			-7.900			-1.317
241100.000			-7.900			-1.317
241201.000			-7.900			-1.317
241302.000			-7.899			-1.317
241401.000			-7.899			-1.317
241500.000			-7.900			-1.317
241601.000			-7.900			-1.317
241700.000			-7.899			-1.317
241800.000			-7.900			-1.317
241901.000			-7.901			-1.317
242000.000			-7.900			-1.317
242100.000			-7.899			-1.317
242202.000			-7.899			-1.317
242301.000			-7.899			-1.317
242402.000			-7.899			-1.317
242500.000			-7.899			-1.317
242600.000			-7.899			-1.317
242701.000			-7.898			-1.316
242800.000			-7.898			-1.316
242900.000			-7.899			-1.317
243001.000			-7.899			-1.316
243100.000			-7.899			-1.317
243201.000			-7.899			-1.317
243302.000			-7.899			-1.316
243401.000			-7.899			-1.316
243500.000			-7.899			-1.316
243601.000			-7.899			-1.316
243700.000			-7.899			-1.316
243800.000			-7.898			-1.316
243901.000			-7.898			-1.316
244000.000			-7.898			-1.316
244100.000			-7.899			-1.316
244202.000			-7.898			-1.316
244301.000			-7.897			-1.316
244400.000			-7.897			-1.316
244501.000			-7.897			-1.316
244600.000			-7.898			-1.316
244700.000			-7.897			-1.316
244801.000			-7.897			-1.316
244900.000			-7.897			-1.316
245000.000			-7.897			-1.316
245101.000			-7.897			-1.316
245201.000			-7.897			-1.316
245302.000			-7.897			-1.316
245400.000			-7.898			-1.316
245500.000			-7.898			-1.316
245601.000			-7.897			-1.316
245700.000			-7.896			-1.316
245800.000			-7.896			-1.316
245901.000			-7.896			-1.316
246000.000			-7.896			-1.316
246100.000			-7.896			-1.316
246202.000			-7.897			-1.316
246301.000			-7.897			-1.316
246400.000			-7.897			-1.316
246501.000			-7.896			-1.316
246600.000			-7.895			-1.316
246700.000			-7.896			-1.316
246801.000			-7.895			-1.316
246900.000			-7.895			-1.316
247000.000			-7.895			-1.316
247101.000			-7.894			-1.316
247201.000			-7.895			-1.316
247301.000			-7.895			-1.316
247401.000			-7.896			-1.316
247500.000			-7.895			-1.316
247600.000			-7.894			-1.316
247701.000			-7.894			-1.316
247800.000			-7.894			-1.316
247900.000			-7.895			-1.316
248001.000			-7.894			-1.316
248101.000			-7.895			-1.316
248201.000			-7.895			-1.316
248302.000			-7.894			-1.316
248400.000			-7.895			-1.316
248500.000			-7.894			-1.316
248600.000			-7.894			-1.316
248700.000			-7.894			-1.316
248801.000			-7.894			-1.316
248900.000			-7.894			-1.316
249000.000			-7.894			-1.316
249102.000			-7.893			-1.316
249201.000			-7.893			-1.315
249301.000			-7.894			-1.316
249401.000			-7.895			-1.316
249500.000			-7.894			-1.316
249600.000			-7.894			-1.316
249701.000			-7.894			-1.316
249800.000			-7.893			-1.315
249900.000			-7.892			-1.315
250001.000			-7.894			-1.316
250101.000			-7.893			-1.315
250201.000			-7.892			-1.315
250302.000			-7.893			-1.315
250400.000			-7.893			-1.315
250500.000			-7.893			-1.316
250601.000			-7.893			-1.315
250700.000			-7.893			-1.315
250800.000			-7.893			-1.316
250901.000			-7.892			-1.315
251000.000			-7.893			-1.316
251101.000			-7.892			-1.315
251202.000			-7.892			-1.315
251301.000			-7.892			-1.315
251400.000			-7.892			-1.315
251501.000			-7.892			-1.315
251600.000			-7.892			-1.315
251700.000			-7.891			-1.315
251800.000			-7.891			-1.315
251900.000			-7.891			-1.315
252001.000			-7.891			-1.315
252101.000			-7.892			-1.315
252201.000			-7.892			-1.315
252301.000			-7.891			-1.315
252400.000			-7.891			-1.315
252500.000			-7.891			-1.315
252601.000			-7.891			-1.315
252700.000			-7.891			-1.315
252800.000			-7.891			-1.315
252901.000			-7.890			-1.315
253001.000			-7.890			-1.315
253101.000			-7.890			-1.315
253201.000			-7.890			-1.315
253300.000			-7.889			-1.315
253400.000			-7.889			-1.315
253501.000			-7.889			-1.315
253600.000			-7.889			-1.315
253700.000			-7.890			-1.315
253801.000			-7.890			-1.315
253900.000			-7.890			-1.315
254001.000			-7.890			-1.315
254102.000			-7.889			-1.315
254200.000			-7.888			-1.315
254300.000			-7.888			-1.315
254401.000			-7.888			-1.315
254500.000			-7.888			-1.315
254600.000			-7.889			-1.315
254701.000			-7.889			-1.315
254800.000			-7.889			-1.315
254900.000			-7.889			-1.315
255002.000			-7.888			-1.315
255101.000			-7.889			-1.315
255201.000			-7.888			-1.315
255300.000			-7.889			-1.315
255400.000			-7.889			-1.315
255501.000			-7.889			-1.315
255600.000			-7.889			-1.315
255700.000			-7.888			-1.315
255801.000			-7.888			-1.315
255901.000			-7.888			-1.315
256001.000			-7.888			-1.315
256102.000			-7.888			-1.315
256200.000			-7.888			-1.315
256300.000			-7.887			-1.314
256401.000			-7.886			-1.314
256500.000			-7.887			-1.315
256600.000			-7.887			-1.315
256701.000			-7.887			-1.314
256800.000			-7.887			-1.314
256901.000			-7.887			-1.315
257002.000			-7.887			-1.315
257101.000			-7.887			-1.314
257200.000			-7.887			-1.315
257301.000			-7.886			-1.314
257400.000			-7.887			-1.314
257500.000			-7.886			-1.314
257601.000			-7.886			-1.314
257700.000			-7.885			-1.314
257800.000			-7.886			-1.314
257902.000			-7.886			-1.314
258001.000			-7.886			-1.314
258102.000			-7.886			-1.314
258200.000			-7.887			-1.314
258300.000			-7.887			-1.314
258401.000			-7.887			-1.314
258500.000			-7.885			-1.314
258600.000			-7.885			-1.314
258701.000			-7.885			-1.314
258800.000			-7.885			-1.314
258901.000			-7.886			-1.314
259002.000			-7.886			-1.314
259101.000			-7.885			-1.314
259200.000			-7.885			-1.314
259301.000			-7.885			-1.314
259400.000			-7.885			-1.314
259500.000			-7.885			-1.314
259601.000			-7.886			-1.314
259700.000			-7.885			-1.314
259800.000			-7.885			-1.314
259902.000			-7.885			-1.314
260001.000			-7.885			-1.314
260101.000			-7.885			-1.314
260201.000			-7.883			-1.314
260300.000			-7.885			-1.314
260400.000			-7.885			-1.314
260501.000			-7.884			-1.314
260600.000			-7.884			-1.314
260700.000			-7.884			-1.314
260801.000			-7.884			-1.314
260901.000			-7.884			-1.314
261001.000			-7.882			-1.314
261101.000			-7.883			-1.314
261200.000			-7.883			-1.314
261300.000			-7.883			-1.314
261400.000			-7.883			-1.314
261500.000			-7.883			-1.314
261601.000			-7.883			-1.314
261700.000			-7.883			-1.314
261801.000			-7.883			-1.314
261902.000			-7.882			-1.314
262001.000			-7.882			-1.314
262100.000			-7.883			-1.314
262201.000			-7.883			-1.314
262300.000			-7.882			-1.314
262400.000			-7.882			-1.314
262501.000			-7.881			-1.314
262600.000			-7.882			-1.314
262700.000			-7.882			-1.314
262802.000			-7.882			-1.314
262901.000			-7.882			-1.314
263000.000			-7.881			-1.314
263101.000			-7.881			-1.314
263200.000			-7.882			-1.314
263300.000			-7.882			-1.314
263401.000			-7.882			-1.314
263500.000			-7.882			-1.314
263600.000			-7.882			-1.314
263702.000			-7.882			-1.314
263801.000			-7.882			-1.314
263901.000			-7.881			-1.314
264001.000			-7.881			-1.314
264100.000			-7.881			-1.314
264200.000			-7.881			-1.313
264301.000			-7.881			-1.313
264400.000			-7.880			-1.313
264500.000			-7.880			-1.313
264600.000			-7.881			-1.313
264701.000			-7.881			-1.314
264802.000			-7.880			-1.313
264901.000			-7.880			-1.313
265000.000			-7.880			-1.313
265101.000			-7.880			-1.313
265200.000			-7.879			-1.313
265300.000			-7.880			-1.313
265401.000			-7.880			-1.313
265500.000			-7.880			-1.313
265600.000			-7.880			-1.313
265702.000			-7.879			-1.313
265801.000			-7.879			-1.313
265901.000			-7.880			-1.313
266001.000			-7.880			-1.313
266100.000			-7.879			-1.313
266200.000			-7.879			-1.313
266301.000			-7.879			-1.313
266400.000			-7.880			-1.313
266500.000			-7.880			-1.313
266601.000			-7.880			-1.313
266701.000			-7.880			-1.313
266801.000			-7.879			-1.313
266901.000			-7.878			-1.313
267000.000			-7.878			-1.313
267100.000			-7.878			-1.313
267201.000			-7.879			-1.313
267300.000			-7.879			-1.313
267400.000			-7.879			-1.313
267501.000			-7.879			-1.313
267600.000			-7.878			-1.313
267702.000			-7.878			-1.313
267801.000			-7.879			-1.313
267901.000			-7.879			-1.313
268001.000			-7.878			-1.313
268100.000			-7.878			-1.313
268200.000			-7.878			-1.313
268301.000			-7.878			-1.313
268400.000			-7.877			-1.313
268500.000			-7.877			-1.313
268601.000			-7.876			-1.313
268701.000			-7.876			-1.313
268801.000			-7.877			-1.313
268902.000			-7.877			-1.313
269000.000			-7.878			-1.313
269100.000			-7.877			-1.313
269201.000			-7.878			-1.313
269300.000			-7.878			-1.313
269400.000			-7.876			-1.313
269501.000			-7.876			-1.313
269600.000			-7.876			-1.313
269701.000			-7.878			-1.313
269802.000			-7.877			-1.313
269901.000			-7.875			-1.313
270000.000			-7.875			-1.313
270101.000			-7.877			-1.313
270200.000			-7.877			-1.313
270300.000			-7.877			-1.313
270401.000			-7.876			-1.313
270500.000			-7.876			-1.313
270600.000			-7.876			-1.313
270702.000			-7.877			-1.313
270801.000			-7.877			-1.313
270902.000			-7.876			-1.313
271000.000			-7.875			-1.313
271100.000			-7.876			-1.313
271201.000			-7.877			-1.313
271300.000			-7.877			-1.313
271400.000			-7.876			-1.313
271501.000			-7.877			-1.313
271600.000			-7.876			-1.313
271701.000			-7.875			-1.313
271802.000			-7.876			-1.313
271900.000			-7.876			-1.313
272000.000			-7.876			-1.313
272101.000			-7.876			-1.313
272200.000			-7.875			-1.312
272300.000			-7.875			-1.313
272401.000			-7.876			-1.313
272500.000			-7.876			-1.313
272601.000			-7.876			-1.313
272702.000			-7.875			-1.312
272801.000			-7.874			-1.312
272900.000			-7.874			-1.312
273001.000			-7.875			-1.312
273100.000			-7.875			-1.312
273200.000			-7.874			-1.312
273301.000			-7.874			-1.312
273400.000			-7.873			-1.312
273500.000			-7.873			-1.312
273602.000			-7.874			-1.312
273701.000			-7.875			-1.313
273800.000			-7.875			-1.312
273901.000			-7.874			-1.312
274000.000			-7.874			-1.312
274100.000			-7.874			-1.312
274200.000			-7.872			-1.312
274300.000			-7.873			-1.312
274401.000			-7.873			-1.312
274500.000			-7.873			-1.312
274601.000			-7.872			-1.312
274702.000			-7.872			-1.312
274800.000			-7.873			-1.312
274900.000			-7.872			-1.312
275001.000			-7.872			-1.312
275100.000			-7.873			-1.312
275200.000			-7.873			-1.312
275301.000			-7.872			-1.312
275400.000			-7.872			-1.312
275501.000			-7.872			-1.312
275602.000			-7.872			-1.312
275701.000			-7.873			-1.312
275800.000			-7.873			-1.312
275901.000			-7.873			-1.312
276000.000			-7.873			-1.312
276100.000			-7.873			-1.312
276201.000			-7.872			-1.312
276300.000			-7.872			-1.312
276400.000			-7.871			-1.312
276502.000			-7.870			-1.312
276601.000			-7.871			-1.312
276700.000			-7.872			-1.312
276801.000			-7.871			-1.312
276900.000			-7.871			-1.312
277000.000			-7.872			-1.312
277101.000			-7.871			-1.312
277200.000			-7.870			-1.312
277300.000			-7.871			-1.312
277402.000			-7.871			-1.312
277501.000			-7.872			-1.312
277602.000			-7.870			-1.312
277700.000			-7.870			-1.312
277800.000			-7.871			-1.312
277901.000			-7.871			-1.312
278000.000			-7.870			-1.312
278100.000			-7.870			-1.312
278201.000			-7.871			-1.312
278300.000			-7.870			-1.312
278401.000			-7.871			-1.312
278502.000			-7.871			-1.312
278601.000			-7.871			-1.312
278700.000			-7.871			-1.312
278801.000			-7.870			-1.312
278900.000			-7.870			-1.312
279000.000			-7.870			-1.312
279101.000			-7.870			-1.312
279200.000			-7.869			-1.311
279300.000			-7.869			-1.312
279402.000			-7.870			-1.312
279501.000			-7.870			-1.312
279601.000			-7.869			-1.312
279701.000			-7.870			-1.312
279800.000			-7.869			-1.311
279900.000			-7.869			-1.311
280001.000			-7.868			-1.311
280100.000			-7.869			-1.311
280200.000			-7.869			-1.311
280301.000			-7.868			-1.311
280401.000			-7.869			-1.312
280502.000			-7.869			-1.312
280601.000			-7.870			-1.312
280700.000			-7.869			-1.312
280801.000			-7.869			-1.312
280900.000			-7.869			-1.312
281000.000			-7.869			-1.311
281101.000			-7.869			-1.311
281200.000			-7.869			-1.311
281300.000			-7.868			-1.311
281402.000			-7.866			-1.311
281501.000			-7.866			-1.311
281601.000			-7.866			-1.311
281701.000			-7.867			-1.311
281800.000			-7.868			-1.311
281900.000			-7.868			-1.311
282001.000			-7.868			-1.311
282100.000			-7.867			-1.311
282200.000			-7.868			-1.311
282301.000			-7.867			-1.311
282401.000			-7.866			-1.311
282501.000			-7.867			-1.311
282601.000			-7.867			-1.311
282700.000			-7.867			-1.311
282800.000			-7.867			-1.311
282901.000			-7.868			-1.311
283000.000			-7.868			-1.311
283100.000			-7.867			-1.311
283201.000			-7.867			-1.311
283301.000			-7.867			-1.311
283401.000			-7.867			-1.311
283502.000			-7.867			-1.311
283600.000			-7.867			-1.311
283700.000			-7.866			-1.311
283800.000			-7.866			-1.311
283900.000			-7.866			-1.311
284001.000			-7.867			-1.311
284100.000			-7.867			-1.311
284200.000			-7.866			-1.311
284302.000			-7.866			-1.311
284401.000			-7.866			-1.311
284501.000			-7.865			-1.311
284601.000			-7.866			-1.311
284700.000			-7.865			-1.311
284800.000			-7.865			-1.311
284901.000			-7.866			-1.311
285000.000			-7.866			-1.311
285100.000			-7.866			-1.311
285201.000			-7.865			-1.311
285301.000			-7.866			-1.311
285401.000			-7.866			-1.311
285501.000			-7.865			-1.311
285600.000			-7.865			-1.311
285700.000			-7.865			-1.311
285801.000			-7.865			-1.311
285900.000			-7.866			-1.311
286000.000			-7.865			-1.311
286101.000			-7.865			-1.311
286200.000			-7.865			-1.311
286301.000			-7.864			-1.311
286402.000			-7.863			-1.311
286500.000			-7.863			-1.310
286600.000			-7.864			-1.311
286701.000			-7.863			-1.311
286800.000			-7.864			-1.311
286900.000			-7.864			-1.311
287000.000			-7.864			-1.311
287100.000			-7.865			-1.311
287201.000			-7.864			-1.311
287301.000			-7.862			-1.310
287401.000			-7.863			-1.310
287501.000			-7.863			-1.311
287600.000			-7.864			-1.311
287700.000			-7.864			-1.311
287801.000			-7.865			-1.311
287900.000			-7.864			-1.311
288000.000			-7.864			-1.311
288101.000			-7.863			-1.311
288201.000			-7.862			-1.310
288301.000			-7.863			-1.311
288402.000			-7.864			-1.311
288500.000			-7.863			-1.311
288600.000			-7.863			-1.311
288701.000			-7.862			-1.310
288800.000			-7.862			-1.310
288900.000			-7.862			-1.310
289001.000			-7.863			-1.310
289100.000			-7.862			-1.310
289201.000			-7.864			-1.311
289302.000			-7.863			-1.311
289401.000			-7.863			-1.310
289500.000			-7.863			-1.311
289601.000			-7.862			-1.310
289700.000			-7.862			-1.310
289800.000			-7.862			-1.310
289901.000			-7.862			-1.310
290000.000			-7.863			-1.310
290100.000			-7.862			-1.310
290202.000			-7.862			-1.310
290301.000			-7.862			-1.310
290402.000			-7.861			-1.310
290500.000			-7.861			-1.310
290600.000			-7.861			-1.310
290701.000			-7.862			-1.310
290800.000			-7.861			-1.310
290900.000			-7.861			-1.310
291001.000			-7.862			-1.310
291100.000			-7.863			-1.310
291201.000			-7.862			-1.310
291302.000			-7.860			-1.310
291400.000			-7.862			-1.310
291500.000			-7.861			-1.310
291601.000			-7.860			-1.310
291700.000			-7.860			-1.310
291800.000			-7.860			-1.310
291901.000			-7.860			-1.310
292000.000			-7.860			-1.310
292101.000			-7.860			-1.310
292202.000			-7.860			-1.310
292301.000			-7.860			-1.310
292400.000			-7.860			-1.310
292501.000			-7.860			-1.310
292600.000			-7.861			-1.310
292700.000			-7.861			-1.310
292801.000			-7.860			-1.310
292900.000			-7.860			-1.310
293000.000			-7.858			-1.310
293102.000			-7.859			-1.310
293201.000			-7.858			-1.310
293302.000			-7.859			-1.310
293400.000			-7.859			-1.310
293500.000			-7.858			-1.310
293601.000			-7.859			-1.310
293700.000			-7.859			-1.310
293800.000			-7.858			-1.310
293901.000			-7.859			-1.310
294000.000			-7.859			-1.310
294101.000			-7.859			-1.310
294202.000			-7.858			-1.310
294301.000			-7.858			-1.310
294400.000			-7.859			-1.310
294501.000			-7.858			-1.310
294600.000			-7.858			-1.310
294700.000			-7.858			-1.310
294801.000			-7.857			-1.310
294900.000			-7.858			-1.310
295000.000			-7.858			-1.310
295102.000			-7.858			-1.310
295201.000			-7.859			-1.310
295301.000			-7.859			-1.310
295401.000			-7.858			-1.310
295500.000			-7.857			-1.310
295600.000			-7.858			-1.310
295701.000			-7.857			-1.309
295800.000			-7.858			-1.310
295900.000			-7.858			-1.310
296001.000			-7.858			-1.310
296101.000			-7.858			-1.310
296201.000			-7.858			-1.310
296302.000			-7.857			-1.310
296400.000			-7.857			-1.309
296500.000			-7.856			-1.309
296600.000			-7.857			-1.310
296700.000			-7.858			-1.310
296801.000			-7.857			-1.309
296900.000			-7.856			-1.309
297000.000			-7.857			-1.309
297102.000			-7.857			-1.309
297201.000			-7.857			-1.309
297301.000			-7.857			-1.310
297401.000			-7.857			-1.309
297500.000			-7.856			-1.309
297600.000			-7.856			-1.309
297701.000			-7.856			-1.309
297800.000			-7.856			-1.309
297900.000			-7.856			-1.309
298001.000			-7.857			-1.310
298101.000			-7.856			-1.309
298201.000			-7.856			-1.309
298302.000			-7.856			-1.309
298400.000			-7.856			-1.309
298500.000			-7.855			-1.309
298601.000			-7.856			-1.309
298700.000			-7.855			-1.309
298800.000			-7.854			-1.309
298901.000			-7.855			-1.309
299000.000			-7.855			-1.309
299101.000			-7.855			-1.309
299202.000			-7.854			-1.309
299301.000			-7.855			-1.309
299400.000			-7.855			-1.309
299501.000			-7.854			-1.309
299600.000			-7.853			-1.309
299700.000			-7.854			-1.309
299800.000			-7.855			-1.309
299900.000			-7.855			-1.309
