# Acquired on 29/01/2024 12:23:48 
# SPIDER: Creep_-7mm_HM077x145x38AA-2
# CREEP MEASUREMENT

# time [ms]		force [N]		stiffness [N/mm]
1.000			36.403			-5.200
104.000			37.033			-5.290
205.000			37.119			-5.303
304.000			37.006			-5.287
405.000			36.921			-5.274
503.000			36.856			-5.265
604.000			36.798			-5.257
705.000			36.703			-5.243
804.000			36.662			-5.237
904.000			36.626			-5.232
1005.000			36.593			-5.228
1104.000			36.561			-5.223
1203.000			36.532			-5.219
1305.000			36.504			-5.215
1404.000			36.453			-5.208
1504.000			36.430			-5.204
1605.000			36.409			-5.201
1703.000			36.387			-5.198
1804.000			36.367			-5.195
1905.000			36.348			-5.193
2004.000			36.328			-5.190
2104.000			36.293			-5.185
2205.000			36.276			-5.182
2304.000			36.260			-5.180
2403.000			36.244			-5.178
2505.000			36.229			-5.176
2604.000			36.215			-5.174
2704.000			36.201			-5.172
2805.000			36.186			-5.169
2904.000			36.161			-5.166
3004.000			36.148			-5.164
3104.000			36.134			-5.162
3204.000			36.122			-5.160
3304.000			36.111			-5.159
3405.000			36.099			-5.157
3504.000			36.089			-5.156
3603.000			36.066			-5.152
3704.000			36.056			-5.151
3804.000			36.045			-5.149
3905.000			36.035			-5.148
4004.000			36.026			-5.147
4104.000			36.015			-5.145
4205.000			36.005			-5.144
4303.000			35.987			-5.141
4404.000			35.978			-5.140
4505.000			35.969			-5.138
4604.000			35.961			-5.137
4704.000			35.953			-5.136
4805.000			35.943			-5.135
4904.000			35.935			-5.134
5003.000			35.919			-5.131
5105.000			35.910			-5.130
5204.000			35.903			-5.129
5304.000			35.896			-5.128
5405.000			35.888			-5.127
5503.000			35.881			-5.126
5604.000			35.874			-5.125
5705.000			35.859			-5.123
5804.000			35.852			-5.122
5904.000			35.845			-5.121
6005.000			35.838			-5.120
6104.000			35.832			-5.119
6203.000			35.826			-5.118
6305.000			35.819			-5.117
6404.000			35.812			-5.116
6504.000			35.799			-5.114
6605.000			35.792			-5.113
6704.000			35.787			-5.112
6805.000			35.780			-5.111
6903.000			35.773			-5.110
7004.000			35.768			-5.110
7105.000			35.762			-5.109
7204.000			35.751			-5.107
7304.000			35.745			-5.106
7405.000			35.740			-5.106
7504.000			35.734			-5.105
7603.000			35.729			-5.104
7705.000			35.724			-5.103
7804.000			35.718			-5.103
7904.000			35.708			-5.101
8005.000			35.702			-5.100
8103.000			35.697			-5.100
8204.000			35.692			-5.099
8305.000			35.686			-5.098
8404.000			35.681			-5.097
8504.000			35.676			-5.097
8605.000			35.667			-5.095
8704.000			35.662			-5.095
8803.000			35.657			-5.094
8905.000			35.652			-5.093
9004.000			35.647			-5.092
9104.000			35.643			-5.092
9205.000			35.638			-5.091
9304.000			35.633			-5.090
9404.000			35.624			-5.089
9504.000			35.620			-5.089
9604.000			35.616			-5.088
9704.000			35.611			-5.087
9805.000			35.606			-5.087
9904.000			35.602			-5.086
10005.000			35.600			-5.086
10104.000			35.590			-5.084
10203.000			35.586			-5.084
10305.000			35.582			-5.083
10404.000			35.577			-5.082
10504.000			35.573			-5.082
10605.000			35.569			-5.081
10704.000			35.565			-5.081
10804.000			35.557			-5.080
10904.000			35.553			-5.079
11004.000			35.549			-5.078
11104.000			35.545			-5.078
11205.000			35.542			-5.077
11304.000			35.537			-5.077
11403.000			35.534			-5.076
11505.000			35.526			-5.075
11604.000			35.522			-5.075
11704.000			35.517			-5.074
11805.000			35.514			-5.073
11904.000			35.511			-5.073
12004.000			35.508			-5.073
12104.000			35.503			-5.072
12204.000			35.500			-5.071
12304.000			35.494			-5.071
12405.000			35.490			-5.070
12504.000			35.486			-5.069
12604.000			35.484			-5.069
12705.000			35.480			-5.069
12803.000			35.477			-5.068
12904.000			35.473			-5.068
13005.000			35.467			-5.067
13104.000			35.462			-5.066
13205.000			35.458			-5.065
13304.000			35.456			-5.065
13404.000			35.453			-5.065
13504.000			35.450			-5.064
13604.000			35.446			-5.064
13704.000			35.439			-5.063
13805.000			35.437			-5.062
13904.000			35.433			-5.062
14004.000			35.430			-5.061
14105.000			35.426			-5.061
14203.000			35.423			-5.060
14304.000			35.420			-5.060
14405.000			35.415			-5.059
14504.000			35.412			-5.059
14604.000			35.408			-5.058
14704.000			35.405			-5.058
14804.000			35.402			-5.057
14904.000			35.399			-5.057
15005.000			35.396			-5.057
15104.000			35.391			-5.056
15204.000			35.389			-5.056
15305.000			35.385			-5.055
15403.000			35.382			-5.055
15504.000			35.380			-5.054
15605.000			35.376			-5.054
15704.000			35.373			-5.053
15804.000			35.370			-5.053
15905.000			35.364			-5.052
16004.000			35.361			-5.052
16103.000			35.360			-5.051
16205.000			35.357			-5.051
16304.000			35.354			-5.051
16405.000			35.351			-5.050
16504.000			35.349			-5.050
16604.000			35.343			-5.049
16705.000			35.340			-5.049
16803.000			35.338			-5.048
16904.000			35.335			-5.048
17005.000			35.332			-5.047
17104.000			35.330			-5.047
17204.000			35.327			-5.047
17305.000			35.321			-5.046
17404.000			35.319			-5.046
17503.000			35.316			-5.045
17605.000			35.314			-5.045
17704.000			35.312			-5.045
17804.000			35.310			-5.044
17905.000			35.307			-5.044
18004.000			35.302			-5.043
18104.000			35.299			-5.043
18204.000			35.297			-5.042
18304.000			35.295			-5.042
18404.000			35.292			-5.042
18505.000			35.289			-5.041
18604.000			35.287			-5.041
18704.000			35.286			-5.041
18805.000			35.279			-5.040
18903.000			35.278			-5.040
19004.000			35.275			-5.039
19105.000			35.272			-5.039
19204.000			35.269			-5.038
19304.000			35.267			-5.038
19405.000			35.266			-5.038
19504.000			35.261			-5.037
19603.000			35.260			-5.037
19704.000			35.257			-5.037
19804.000			35.254			-5.036
19905.000			35.252			-5.036
20004.000			35.250			-5.036
20104.000			35.247			-5.035
20205.000			35.243			-5.035
20303.000			35.240			-5.034
20404.000			35.238			-5.034
20505.000			35.236			-5.034
20604.000			35.234			-5.033
20704.000			35.233			-5.033
20804.000			35.230			-5.033
20904.000			35.225			-5.032
21004.000			35.223			-5.032
21105.000			35.220			-5.031
21204.000			35.218			-5.031
21304.000			35.216			-5.031
21405.000			35.215			-5.031
21503.000			35.213			-5.030
21604.000			35.211			-5.030
21705.000			35.207			-5.030
21804.000			35.203			-5.029
21904.000			35.202			-5.029
22005.000			35.201			-5.029
22104.000			35.199			-5.028
22203.000			35.196			-5.028
22305.000			35.193			-5.028
22404.000			35.192			-5.027
22504.000			35.189			-5.027
22605.000			35.186			-5.027
22703.000			35.184			-5.026
22805.000			35.182			-5.026
22904.000			35.179			-5.026
23004.000			35.178			-5.025
23105.000			35.174			-5.025
23204.000			35.172			-5.025
23304.000			35.170			-5.024
23404.000			35.168			-5.024
23504.000			35.166			-5.024
23604.000			35.165			-5.024
23705.000			35.162			-5.023
23804.000			35.158			-5.023
23904.000			35.156			-5.022
24005.000			35.153			-5.022
24103.000			35.152			-5.022
24204.000			35.150			-5.021
24305.000			35.148			-5.021
24404.000			35.145			-5.021
24504.000			35.144			-5.021
24605.000			35.140			-5.020
24704.000			35.139			-5.020
24803.000			35.137			-5.020
24905.000			35.136			-5.019
25004.000			35.134			-5.019
25104.000			35.133			-5.019
25205.000			35.131			-5.019
25304.000			35.127			-5.018
25404.000			35.124			-5.018
25504.000			35.123			-5.018
25604.000			35.121			-5.017
25704.000			35.119			-5.017
25805.000			35.117			-5.017
25904.000			35.116			-5.017
26003.000			35.113			-5.016
26104.000			35.109			-5.016
26204.000			35.106			-5.015
26305.000			35.106			-5.015
26404.000			35.104			-5.015
26504.000			35.104			-5.015
26605.000			35.102			-5.015
26703.000			35.099			-5.014
26804.000			35.096			-5.014
26905.000			35.094			-5.013
27004.000			35.094			-5.013
27104.000			35.091			-5.013
27205.000			35.090			-5.013
27304.000			35.088			-5.013
27403.000			35.086			-5.012
27505.000			35.083			-5.012
27604.000			35.081			-5.012
27704.000			35.079			-5.011
27805.000			35.078			-5.011
27904.000			35.076			-5.011
28004.000			35.074			-5.011
28104.000			35.072			-5.010
28204.000			35.070			-5.010
28304.000			35.067			-5.010
28405.000			35.065			-5.009
28504.000			35.065			-5.009
28604.000			35.063			-5.009
28705.000			35.060			-5.009
28803.000			35.059			-5.008
28904.000			35.057			-5.008
29005.000			35.055			-5.008
29104.000			35.052			-5.007
29205.000			35.051			-5.007
29304.000			35.050			-5.007
29404.000			35.049			-5.007
29504.000			35.046			-5.007
29604.000			35.044			-5.006
29704.000			35.042			-5.006
29805.000			35.040			-5.006
29904.000			35.039			-5.006
30004.000			35.037			-5.005
30105.000			35.035			-5.005
30204.000			35.034			-5.005
30304.000			35.031			-5.004
30405.000			35.029			-5.004
30504.000			35.028			-5.004
30604.000			35.027			-5.004
30704.000			35.025			-5.004
30804.000			35.024			-5.003
30904.000			35.022			-5.003
31005.000			35.020			-5.003
31104.000			35.018			-5.003
31204.000			35.015			-5.002
31305.000			35.014			-5.002
31403.000			35.013			-5.002
31504.000			35.012			-5.002
31605.000			35.009			-5.001
31704.000			35.008			-5.001
31804.000			35.005			-5.001
31905.000			35.004			-5.001
32004.000			35.003			-5.000
32103.000			35.001			-5.000
32205.000			35.000			-5.000
32304.000			34.998			-5.000
32405.000			34.996			-4.999
32504.000			34.993			-4.999
32604.000			34.991			-4.999
32705.000			34.990			-4.999
32803.000			34.989			-4.998
32904.000			34.988			-4.998
33005.000			34.986			-4.998
33104.000			34.985			-4.998
33204.000			34.982			-4.997
33305.000			34.981			-4.997
33404.000			34.978			-4.997
33503.000			34.977			-4.997
33605.000			34.976			-4.997
33704.000			34.975			-4.996
33804.000			34.974			-4.996
33905.000			34.972			-4.996
34004.000			34.970			-4.996
34104.000			34.969			-4.996
34204.000			34.966			-4.995
34304.000			34.965			-4.995
34404.000			34.964			-4.995
34505.000			34.963			-4.995
34604.000			34.961			-4.994
34704.000			34.959			-4.994
34805.000			34.958			-4.994
34903.000			34.955			-4.994
35004.000			34.953			-4.993
35105.000			34.951			-4.993
35204.000			34.951			-4.993
35304.000			34.950			-4.993
35405.000			34.947			-4.992
35504.000			34.947			-4.992
35603.000			34.946			-4.992
35704.000			34.944			-4.992
35804.000			34.942			-4.992
35905.000			34.942			-4.992
36004.000			34.941			-4.992
36104.000			34.936			-4.991
36205.000			34.935			-4.991
36303.000			34.935			-4.991
36404.000			34.934			-4.991
36505.000			34.932			-4.990
36604.000			34.930			-4.990
36704.000			34.930			-4.990
36804.000			34.928			-4.990
36904.000			34.926			-4.989
37003.000			34.924			-4.989
37105.000			34.923			-4.989
37204.000			34.922			-4.989
37304.000			34.922			-4.989
37405.000			34.920			-4.989
37503.000			34.918			-4.988
37604.000			34.917			-4.988
37705.000			34.915			-4.988
37804.000			34.912			-4.987
37904.000			34.911			-4.987
38005.000			34.910			-4.987
38104.000			34.909			-4.987
38203.000			34.908			-4.987
38305.000			34.906			-4.987
38404.000			34.904			-4.986
38504.000			34.902			-4.986
38605.000			34.902			-4.986
38704.000			34.900			-4.986
38805.000			34.899			-4.986
38903.000			34.898			-4.985
39004.000			34.895			-4.985
39104.000			34.894			-4.985
39204.000			34.892			-4.985
39304.000			34.891			-4.984
39405.000			34.890			-4.984
39504.000			34.888			-4.984
39604.000			34.888			-4.984
39705.000			34.887			-4.984
39803.000			34.885			-4.984
39904.000			34.883			-4.983
40005.000			34.882			-4.983
40104.000			34.881			-4.983
40204.000			34.879			-4.983
40305.000			34.878			-4.983
40404.000			34.878			-4.983
40503.000			34.876			-4.982
40605.000			34.874			-4.982
40704.000			34.873			-4.982
40804.000			34.871			-4.982
40905.000			34.870			-4.981
41004.000			34.870			-4.981
41104.000			34.869			-4.981
41204.000			34.866			-4.981
41304.000			34.865			-4.981
41404.000			34.864			-4.981
41505.000			34.863			-4.980
41604.000			34.861			-4.980
41704.000			34.861			-4.980
41805.000			34.859			-4.980
41903.000			34.856			-4.979
42005.000			34.855			-4.979
42104.000			34.854			-4.979
42204.000			34.853			-4.979
42305.000			34.852			-4.979
42404.000			34.850			-4.979
42504.000			34.849			-4.978
42604.000			34.847			-4.978
42704.000			34.846			-4.978
42804.000			34.846			-4.978
42905.000			34.845			-4.978
43004.000			34.843			-4.978
43103.000			34.843			-4.978
43205.000			34.841			-4.977
43304.000			34.839			-4.977
43404.000			34.837			-4.977
43505.000			34.836			-4.977
43604.000			34.834			-4.976
43704.000			34.834			-4.976
43804.000			34.833			-4.976
43904.000			34.832			-4.976
44003.000			34.832			-4.976
44105.000			34.828			-4.975
44204.000			34.827			-4.975
44304.000			34.827			-4.975
44405.000			34.826			-4.975
44503.000			34.825			-4.975
44604.000			34.823			-4.975
44705.000			34.822			-4.975
44804.000			34.820			-4.974
44904.000			34.819			-4.974
45005.000			34.818			-4.974
45104.000			34.817			-4.974
45203.000			34.816			-4.974
45304.000			34.815			-4.974
45403.000			34.814			-4.973
45505.000			34.811			-4.973
45604.000			34.809			-4.973
45704.000			34.809			-4.973
45805.000			34.808			-4.973
45903.000			34.808			-4.973
46004.000			34.807			-4.972
46105.000			34.805			-4.972
46204.000			34.804			-4.972
46304.000			34.802			-4.972
46405.000			34.800			-4.971
46504.000			34.800			-4.971
46603.000			34.798			-4.971
46705.000			34.797			-4.971
46804.000			34.797			-4.971
46904.000			34.796			-4.971
47005.000			34.794			-4.971
47104.000			34.792			-4.970
47204.000			34.791			-4.970
47304.000			34.792			-4.970
47404.000			34.791			-4.970
47503.000			34.789			-4.970
47605.000			34.788			-4.970
47704.000			34.787			-4.970
47804.000			34.784			-4.969
47905.000			34.783			-4.969
48004.000			34.783			-4.969
48104.000			34.782			-4.969
48204.000			34.782			-4.969
48304.000			34.780			-4.969
48405.000			34.777			-4.968
48504.000			34.776			-4.968
48604.000			34.775			-4.968
48705.000			34.775			-4.968
48804.000			34.774			-4.968
48903.000			34.773			-4.968
49005.000			34.772			-4.967
49104.000			34.771			-4.967
49204.000			34.769			-4.967
49305.000			34.767			-4.967
49404.000			34.767			-4.967
49504.000			34.766			-4.967
49604.000			34.765			-4.966
49704.000			34.764			-4.966
49804.000			34.763			-4.966
49905.000			34.761			-4.966
50004.000			34.761			-4.966
50104.000			34.759			-4.966
50205.000			34.757			-4.965
50303.000			34.757			-4.965
50404.000			34.756			-4.965
50505.000			34.756			-4.965
50604.000			34.753			-4.965
50704.000			34.752			-4.965
50804.000			34.752			-4.965
50904.000			34.750			-4.964
51003.000			34.748			-4.964
51105.000			34.747			-4.964
51204.000			34.747			-4.964
51304.000			34.744			-4.963
51405.000			34.744			-4.963
51503.000			34.742			-4.963
51605.000			34.742			-4.963
51704.000			34.742			-4.963
51804.000			34.740			-4.963
51905.000			34.739			-4.963
52004.000			34.737			-4.962
52104.000			34.737			-4.962
52204.000			34.735			-4.962
52304.000			34.734			-4.962
52404.000			34.734			-4.962
52505.000			34.733			-4.962
52604.000			34.732			-4.962
52704.000			34.730			-4.961
52805.000			34.729			-4.961
52903.000			34.727			-4.961
53004.000			34.726			-4.961
53105.000			34.726			-4.961
53204.000			34.725			-4.961
53304.000			34.724			-4.961
53405.000			34.724			-4.961
53504.000			34.721			-4.960
53603.000			34.720			-4.960
53705.000			34.720			-4.960
53804.000			34.719			-4.960
53904.000			34.719			-4.960
54005.000			34.717			-4.960
54104.000			34.715			-4.959
54204.000			34.714			-4.959
54304.000			34.713			-4.959
54404.000			34.712			-4.959
54504.000			34.712			-4.959
54605.000			34.711			-4.959
54704.000			34.710			-4.959
54805.000			34.709			-4.958
54904.000			34.709			-4.958
55003.000			34.707			-4.958
55105.000			34.705			-4.958
55204.000			34.704			-4.958
55304.000			34.703			-4.958
55405.000			34.702			-4.957
55504.000			34.702			-4.957
55604.000			34.701			-4.957
55704.000			34.699			-4.957
55804.000			34.698			-4.957
55904.000			34.697			-4.957
56005.000			34.696			-4.957
56104.000			34.696			-4.957
56204.000			34.694			-4.956
56305.000			34.694			-4.956
56403.000			34.692			-4.956
56504.000			34.692			-4.956
56605.000			34.690			-4.956
56704.000			34.689			-4.956
56804.000			34.689			-4.956
56905.000			34.688			-4.955
57004.000			34.686			-4.955
57103.000			34.686			-4.955
57205.000			34.685			-4.955
57304.000			34.685			-4.955
57404.000			34.683			-4.955
57505.000			34.682			-4.955
57604.000			34.681			-4.954
57704.000			34.681			-4.954
57804.000			34.677			-4.954
57904.000			34.678			-4.954
58005.000			34.678			-4.954
58104.000			34.676			-4.954
58204.000			34.675			-4.954
58305.000			34.675			-4.954
58404.000			34.673			-4.953
58503.000			34.673			-4.953
58605.000			34.672			-4.953
58704.000			34.672			-4.953
58804.000			34.670			-4.953
58905.000			34.669			-4.953
59004.000			34.667			-4.952
59104.000			34.667			-4.952
59204.000			34.667			-4.952
59304.000			34.664			-4.952
59404.000			34.665			-4.952
59505.000			34.663			-4.952
59604.000			34.662			-4.952
59704.000			34.661			-4.952
59805.000			34.660			-4.951
59903.000			34.659			-4.951
60004.000			34.658			-4.951
60105.000			34.656			-4.951
60204.000			34.656			-4.951
60304.000			34.655			-4.951
60405.000			34.654			-4.951
60504.000			34.654			-4.951
60603.000			34.653			-4.950
60705.000			34.652			-4.950
60804.000			34.651			-4.950
60904.000			34.650			-4.950
61005.000			34.649			-4.950
61104.000			34.648			-4.950
61205.000			34.646			-4.949
61303.000			34.645			-4.949
61404.000			34.645			-4.949
61505.000			34.643			-4.949
61604.000			34.643			-4.949
61704.000			34.642			-4.949
61804.000			34.642			-4.949
61904.000			34.641			-4.949
62003.000			34.640			-4.949
62105.000			34.639			-4.948
62204.000			34.639			-4.948
62304.000			34.637			-4.948
62405.000			34.636			-4.948
62503.000			34.636			-4.948
62604.000			34.635			-4.948
62705.000			34.633			-4.948
62804.000			34.632			-4.947
62904.000			34.632			-4.947
63005.000			34.632			-4.947
63104.000			34.630			-4.947
63203.000			34.629			-4.947
63305.000			34.628			-4.947
63404.000			34.627			-4.947
63504.000			34.625			-4.946
63605.000			34.624			-4.946
63704.000			34.624			-4.946
63804.000			34.624			-4.946
63904.000			34.623			-4.946
64004.000			34.621			-4.946
64104.000			34.621			-4.946
64205.000			34.620			-4.946
64304.000			34.618			-4.945
64405.000			34.617			-4.945
64504.000			34.616			-4.945
64603.000			34.616			-4.945
64705.000			34.616			-4.945
64804.000			34.615			-4.945
64904.000			34.614			-4.945
65005.000			34.612			-4.945
65104.000			34.611			-4.944
65204.000			34.611			-4.944
65304.000			34.611			-4.944
65404.000			34.610			-4.944
65504.000			34.609			-4.944
65605.000			34.609			-4.944
65704.000			34.608			-4.944
65804.000			34.606			-4.944
65905.000			34.605			-4.944
66003.000			34.604			-4.943
66104.000			34.604			-4.943
66205.000			34.603			-4.943
66304.000			34.602			-4.943
66404.000			34.602			-4.943
66505.000			34.601			-4.943
66604.000			34.600			-4.943
66703.000			34.598			-4.943
66805.000			34.598			-4.943
66904.000			34.598			-4.943
67004.000			34.597			-4.942
67105.000			34.596			-4.942
67204.000			34.594			-4.942
67304.000			34.594			-4.942
67404.000			34.593			-4.942
67504.000			34.592			-4.942
67605.000			34.591			-4.942
67704.000			34.591			-4.942
67804.000			34.590			-4.941
67905.000			34.589			-4.941
68004.000			34.589			-4.941
68103.000			34.587			-4.941
68205.000			34.586			-4.941
68304.000			34.585			-4.941
68404.000			34.586			-4.941
68505.000			34.585			-4.941
68604.000			34.583			-4.940
68704.000			34.582			-4.940
68804.000			34.581			-4.940
68904.000			34.580			-4.940
69004.000			34.579			-4.940
69105.000			34.579			-4.940
69204.000			34.577			-4.940
69304.000			34.577			-4.940
69405.000			34.575			-4.939
69504.000			34.575			-4.939
69604.000			34.575			-4.939
69704.000			34.575			-4.939
69804.000			34.574			-4.939
69904.000			34.573			-4.939
70005.000			34.572			-4.939
70104.000			34.571			-4.939
70204.000			34.570			-4.939
70305.000			34.569			-4.938
70403.000			34.568			-4.938
70504.000			34.567			-4.938
70605.000			34.566			-4.938
70704.000			34.566			-4.938
70805.000			34.566			-4.938
70904.000			34.564			-4.938
71004.000			34.563			-4.938
71104.000			34.563			-4.938
71204.000			34.562			-4.937
71304.000			34.562			-4.937
71405.000			34.561			-4.937
71504.000			34.558			-4.937
71604.000			34.557			-4.937
71705.000			34.558			-4.937
71803.000			34.557			-4.937
71904.000			34.557			-4.937
72005.000			34.555			-4.936
72104.000			34.554			-4.936
72204.000			34.553			-4.936
72305.000			34.553			-4.936
72404.000			34.551			-4.936
72503.000			34.552			-4.936
72605.000			34.551			-4.936
72704.000			34.550			-4.936
72804.000			34.549			-4.936
72905.000			34.549			-4.936
73004.000			34.548			-4.935
73104.000			34.546			-4.935
73204.000			34.546			-4.935
73304.000			34.546			-4.935
73404.000			34.544			-4.935
73505.000			34.544			-4.935
73604.000			34.543			-4.935
73704.000			34.542			-4.935
73805.000			34.542			-4.935
73903.000			34.540			-4.934
74005.000			34.539			-4.934
74104.000			34.539			-4.934
74204.000			34.538			-4.934
74305.000			34.536			-4.934
74404.000			34.535			-4.934
74504.000			34.535			-4.934
74604.000			34.535			-4.934
74704.000			34.535			-4.934
74804.000			34.533			-4.933
74905.000			34.533			-4.933
75004.000			34.533			-4.933
75104.000			34.532			-4.933
75205.000			34.530			-4.933
75303.000			34.529			-4.933
75404.000			34.529			-4.933
75505.000			34.528			-4.933
75604.000			34.528			-4.933
75704.000			34.527			-4.932
75805.000			34.526			-4.932
75904.000			34.526			-4.932
76003.000			34.523			-4.932
76105.000			34.523			-4.932
76204.000			34.523			-4.932
76304.000			34.523			-4.932
76405.000			34.522			-4.932
76504.000			34.521			-4.932
76604.000			34.518			-4.931
76704.000			34.518			-4.931
76804.000			34.517			-4.931
76904.000			34.517			-4.931
77005.000			34.517			-4.931
77104.000			34.517			-4.931
77205.000			34.516			-4.931
77304.000			34.515			-4.931
77403.000			34.515			-4.931
77505.000			34.513			-4.930
77604.000			34.512			-4.930
77704.000			34.511			-4.930
77805.000			34.510			-4.930
77904.000			34.511			-4.930
78004.000			34.509			-4.930
78104.000			34.508			-4.930
78204.000			34.508			-4.930
78304.000			34.507			-4.930
78405.000			34.506			-4.929
78504.000			34.506			-4.929
78604.000			34.505			-4.929
78705.000			34.504			-4.929
78803.000			34.503			-4.929
78904.000			34.503			-4.929
79005.000			34.503			-4.929
79104.000			34.501			-4.929
79204.000			34.501			-4.929
79305.000			34.500			-4.929
79404.000			34.500			-4.929
79503.000			34.498			-4.928
79605.000			34.497			-4.928
79704.000			34.497			-4.928
79804.000			34.496			-4.928
79905.000			34.495			-4.928
80004.000			34.495			-4.928
80104.000			34.494			-4.928
80204.000			34.493			-4.928
80304.000			34.492			-4.927
80405.000			34.493			-4.928
80504.000			34.492			-4.927
80604.000			34.491			-4.927
80705.000			34.490			-4.927
80804.000			34.489			-4.927
80903.000			34.489			-4.927
81005.000			34.488			-4.927
81104.000			34.488			-4.927
81204.000			34.485			-4.926
81305.000			34.485			-4.926
81404.000			34.485			-4.926
81504.000			34.485			-4.926
81604.000			34.483			-4.926
81704.000			34.483			-4.926
81804.000			34.482			-4.926
81905.000			34.481			-4.926
82004.000			34.480			-4.926
82104.000			34.480			-4.926
82205.000			34.479			-4.926
82303.000			34.479			-4.926
82404.000			34.478			-4.925
82505.000			34.478			-4.925
82604.000			34.477			-4.925
82704.000			34.476			-4.925
82805.000			34.475			-4.925
82904.000			34.473			-4.925
83003.000			34.473			-4.925
83105.000			34.472			-4.925
83204.000			34.471			-4.924
83304.000			34.471			-4.924
83405.000			34.470			-4.924
83504.000			34.470			-4.924
83605.000			34.469			-4.924
83703.000			34.468			-4.924
83804.000			34.468			-4.924
83905.000			34.468			-4.924
84004.000			34.466			-4.924
84104.000			34.465			-4.924
84205.000			34.464			-4.923
84304.000			34.464			-4.923
84403.000			34.465			-4.924
84505.000			34.464			-4.923
84604.000			34.463			-4.923
84704.000			34.461			-4.923
84805.000			34.461			-4.923
84904.000			34.460			-4.923
85004.000			34.459			-4.923
85104.000			34.459			-4.923
85204.000			34.458			-4.923
85304.000			34.457			-4.922
85405.000			34.457			-4.922
85504.000			34.456			-4.922
85604.000			34.456			-4.922
85705.000			34.455			-4.922
85803.000			34.455			-4.922
85904.000			34.454			-4.922
86005.000			34.452			-4.922
86104.000			34.452			-4.922
86204.000			34.453			-4.922
86305.000			34.453			-4.922
86404.000			34.451			-4.922
86503.000			34.450			-4.921
86605.000			34.450			-4.921
86704.000			34.449			-4.921
86805.000			34.449			-4.921
86904.000			34.447			-4.921
87004.000			34.446			-4.921
87105.000			34.445			-4.921
87204.000			34.445			-4.921
87304.000			34.444			-4.921
87404.000			34.443			-4.920
87504.000			34.442			-4.920
87604.000			34.442			-4.920
87705.000			34.441			-4.920
87804.000			34.441			-4.920
87904.000			34.441			-4.920
88005.000			34.440			-4.920
88103.000			34.440			-4.920
88204.000			34.437			-4.920
88305.000			34.436			-4.919
88404.000			34.436			-4.919
88504.000			34.437			-4.920
88605.000			34.436			-4.919
88704.000			34.434			-4.919
88803.000			34.434			-4.919
88905.000			34.434			-4.919
89004.000			34.434			-4.919
89104.000			34.433			-4.919
89205.000			34.432			-4.919
89304.000			34.431			-4.919
89404.000			34.430			-4.919
89504.000			34.430			-4.919
89604.000			34.429			-4.918
89704.000			34.428			-4.918
89805.000			34.428			-4.918
89904.000			34.427			-4.918
90005.000			34.427			-4.918
90104.000			34.428			-4.918
90203.000			34.426			-4.918
90305.000			34.424			-4.918
90404.000			34.423			-4.918
90504.000			34.423			-4.918
90605.000			34.423			-4.918
90704.000			34.422			-4.917
90804.000			34.422			-4.917
90904.000			34.421			-4.917
91004.000			34.420			-4.917
91104.000			34.419			-4.917
91205.000			34.420			-4.917
91304.000			34.419			-4.917
91404.000			34.418			-4.917
91505.000			34.416			-4.917
91603.000			34.416			-4.917
91704.000			34.416			-4.917
91805.000			34.414			-4.916
91904.000			34.414			-4.916
92004.000			34.415			-4.916
92105.000			34.414			-4.916
92204.000			34.413			-4.916
92303.000			34.412			-4.916
92405.000			34.412			-4.916
92504.000			34.410			-4.916
92604.000			34.410			-4.916
92705.000			34.409			-4.916
92804.000			34.408			-4.915
92904.000			34.408			-4.915
93004.000			34.408			-4.915
93104.000			34.408			-4.915
93205.000			34.407			-4.915
93304.000			34.405			-4.915
93404.000			34.405			-4.915
93505.000			34.404			-4.915
93604.000			34.403			-4.915
93703.000			34.404			-4.915
93805.000			34.404			-4.915
93904.000			34.402			-4.915
94004.000			34.401			-4.914
94105.000			34.401			-4.914
94204.000			34.400			-4.914
94304.000			34.399			-4.914
94404.000			34.399			-4.914
94504.000			34.399			-4.914
94604.000			34.398			-4.914
94705.000			34.397			-4.914
94804.000			34.395			-4.914
94904.000			34.395			-4.914
95005.000			34.395			-4.914
95103.000			34.394			-4.913
95204.000			34.394			-4.913
95305.000			34.394			-4.913
95404.000			34.392			-4.913
95504.000			34.392			-4.913
95605.000			34.391			-4.913
95704.000			34.390			-4.913
95803.000			34.390			-4.913
95905.000			34.391			-4.913
96004.000			34.389			-4.913
96104.000			34.387			-4.912
96205.000			34.388			-4.913
96304.000			34.388			-4.913
96405.000			34.388			-4.913
96503.000			34.387			-4.912
96604.000			34.385			-4.912
96705.000			34.384			-4.912
96804.000			34.384			-4.912
96904.000			34.383			-4.912
97005.000			34.381			-4.912
97104.000			34.382			-4.912
97203.000			34.382			-4.912
97305.000			34.381			-4.912
97404.000			34.380			-4.911
97504.000			34.379			-4.911
97605.000			34.379			-4.911
97704.000			34.379			-4.911
97804.000			34.379			-4.911
97904.000			34.378			-4.911
98004.000			34.377			-4.911
98103.000			34.376			-4.911
98205.000			34.376			-4.911
98304.000			34.375			-4.911
98404.000			34.374			-4.911
98505.000			34.374			-4.911
98604.000			34.373			-4.910
98704.000			34.373			-4.910
98804.000			34.372			-4.910
98904.000			34.372			-4.910
99004.000			34.370			-4.910
99105.000			34.370			-4.910
99204.000			34.370			-4.910
99304.000			34.370			-4.910
99405.000			34.369			-4.910
99503.000			34.368			-4.910
99605.000			34.367			-4.910
99704.000			34.367			-4.910
99804.000			34.366			-4.909
99905.000			34.365			-4.909
100004.000			34.365			-4.909
100104.000			34.365			-4.909
100204.000			34.363			-4.909
100304.000			34.363			-4.909
100404.000			34.363			-4.909
100505.000			34.362			-4.909
100604.000			34.361			-4.909
100704.000			34.361			-4.909
100805.000			34.360			-4.909
100903.000			34.360			-4.909
101004.000			34.359			-4.908
101105.000			34.359			-4.908
101204.000			34.358			-4.908
101304.000			34.357			-4.908
101405.000			34.357			-4.908
101504.000			34.356			-4.908
101603.000			34.355			-4.908
101705.000			34.355			-4.908
101804.000			34.354			-4.908
101904.000			34.354			-4.908
102005.000			34.353			-4.908
102104.000			34.352			-4.907
102204.000			34.352			-4.907
102305.000			34.352			-4.907
102404.000			34.351			-4.907
102503.000			34.350			-4.907
102605.000			34.350			-4.907
102704.000			34.349			-4.907
102805.000			34.349			-4.907
102904.000			34.349			-4.907
103004.000			34.348			-4.907
103105.000			34.347			-4.907
103203.000			34.347			-4.907
103304.000			34.346			-4.907
103405.000			34.345			-4.906
103504.000			34.344			-4.906
103604.000			34.344			-4.906
103705.000			34.343			-4.906
103804.000			34.343			-4.906
103903.000			34.343			-4.906
104005.000			34.342			-4.906
104104.000			34.341			-4.906
104204.000			34.341			-4.906
104305.000			34.340			-4.906
104404.000			34.339			-4.906
104504.000			34.339			-4.906
104604.000			34.340			-4.906
104704.000			34.339			-4.906
104804.000			34.337			-4.905
104905.000			34.337			-4.905
105004.000			34.336			-4.905
105104.000			34.335			-4.905
105205.000			34.335			-4.905
105303.000			34.335			-4.905
105404.000			34.334			-4.905
105505.000			34.334			-4.905
105604.000			34.332			-4.905
105704.000			34.332			-4.905
105805.000			34.332			-4.905
105904.000			34.331			-4.904
106003.000			34.330			-4.904
106104.000			34.329			-4.904
106204.000			34.328			-4.904
106305.000			34.328			-4.904
106404.000			34.327			-4.904
106504.000			34.327			-4.904
106605.000			34.327			-4.904
106703.000			34.327			-4.904
106804.000			34.326			-4.904
106905.000			34.326			-4.904
107004.000			34.324			-4.903
107104.000			34.324			-4.903
107205.000			34.324			-4.903
107304.000			34.324			-4.903
107403.000			34.323			-4.903
107505.000			34.322			-4.903
107604.000			34.322			-4.903
107704.000			34.322			-4.903
107805.000			34.322			-4.903
107904.000			34.322			-4.903
108004.000			34.320			-4.903
108104.000			34.320			-4.903
108204.000			34.320			-4.903
108304.000			34.317			-4.902
108405.000			34.318			-4.903
108504.000			34.317			-4.902
108604.000			34.316			-4.902
108705.000			34.316			-4.902
108803.000			34.315			-4.902
108904.000			34.314			-4.902
109005.000			34.314			-4.902
109104.000			34.313			-4.902
109205.000			34.312			-4.902
109304.000			34.312			-4.902
109404.000			34.312			-4.902
109504.000			34.312			-4.902
109604.000			34.311			-4.902
109703.000			34.311			-4.902
109805.000			34.309			-4.901
109904.000			34.309			-4.901
110004.000			34.310			-4.901
110105.000			34.309			-4.901
110204.000			34.307			-4.901
110304.000			34.306			-4.901
110404.000			34.307			-4.901
110504.000			34.307			-4.901
110604.000			34.306			-4.901
110705.000			34.304			-4.901
110804.000			34.304			-4.901
110904.000			34.304			-4.901
111005.000			34.303			-4.900
111103.000			34.303			-4.900
111204.000			34.302			-4.900
111305.000			34.301			-4.900
111404.000			34.301			-4.900
111504.000			34.301			-4.900
111605.000			34.299			-4.900
111704.000			34.298			-4.900
111803.000			34.299			-4.900
111905.000			34.299			-4.900
112004.000			34.297			-4.900
112104.000			34.296			-4.899
112205.000			34.297			-4.900
112304.000			34.297			-4.900
112405.000			34.295			-4.899
112503.000			34.295			-4.899
112604.000			34.296			-4.899
112705.000			34.295			-4.899
112804.000			34.294			-4.899
112904.000			34.293			-4.899
113005.000			34.292			-4.899
113104.000			34.291			-4.899
113203.000			34.292			-4.899
113305.000			34.292			-4.899
113404.000			34.291			-4.899
113504.000			34.290			-4.899
113605.000			34.290			-4.899
113704.000			34.290			-4.899
113804.000			34.290			-4.899
113904.000			34.289			-4.898
114004.000			34.287			-4.898
114103.000			34.287			-4.898
114205.000			34.287			-4.898
114304.000			34.286			-4.898
114404.000			34.286			-4.898
114505.000			34.285			-4.898
114604.000			34.285			-4.898
114704.000			34.285			-4.898
114804.000			34.284			-4.898
114904.000			34.282			-4.897
115004.000			34.282			-4.897
115105.000			34.283			-4.898
115204.000			34.282			-4.897
115304.000			34.281			-4.897
115405.000			34.281			-4.897
115503.000			34.281			-4.897
115605.000			34.279			-4.897
115704.000			34.279			-4.897
115804.000			34.279			-4.897
115905.000			34.278			-4.897
116004.000			34.277			-4.897
116104.000			34.277			-4.897
116204.000			34.276			-4.897
116304.000			34.276			-4.897
116404.000			34.276			-4.897
116505.000			34.276			-4.897
116604.000			34.275			-4.896
116704.000			34.274			-4.896
116805.000			34.274			-4.896
116903.000			34.274			-4.896
117004.000			34.273			-4.896
117105.000			34.271			-4.896
117204.000			34.271			-4.896
117304.000			34.271			-4.896
117405.000			34.271			-4.896
117504.000			34.270			-4.896
117603.000			34.270			-4.896
117705.000			34.269			-4.896
117803.000			34.268			-4.895
117904.000			34.268			-4.895
118005.000			34.266			-4.895
118104.000			34.266			-4.895
118204.000			34.266			-4.895
118305.000			34.266			-4.895
118404.000			34.266			-4.895
118503.000			34.265			-4.895
118605.000			34.264			-4.895
118704.000			34.264			-4.895
118805.000			34.264			-4.895
118904.000			34.264			-4.895
119004.000			34.262			-4.895
119105.000			34.262			-4.895
119203.000			34.261			-4.894
119304.000			34.260			-4.894
119405.000			34.259			-4.894
119504.000			34.259			-4.894
119604.000			34.258			-4.894
119705.000			34.258			-4.894
119804.000			34.258			-4.894
119903.000			34.257			-4.894
120005.000			34.257			-4.894
120103.000			34.257			-4.894
120204.000			34.257			-4.894
120305.000			34.256			-4.894
120404.000			34.255			-4.894
120504.000			34.254			-4.893
120605.000			34.255			-4.894
120704.000			34.254			-4.893
120803.000			34.254			-4.893
120905.000			34.253			-4.893
121004.000			34.252			-4.893
121104.000			34.252			-4.893
121205.000			34.252			-4.893
121304.000			34.251			-4.893
121404.000			34.250			-4.893
121504.000			34.250			-4.893
121604.000			34.249			-4.893
121704.000			34.248			-4.893
121805.000			34.247			-4.892
121904.000			34.248			-4.893
122005.000			34.247			-4.892
122104.000			34.246			-4.892
122203.000			34.246			-4.892
122305.000			34.245			-4.892
122404.000			34.245			-4.892
122504.000			34.245			-4.892
122605.000			34.245			-4.892
122704.000			34.244			-4.892
122804.000			34.242			-4.892
122904.000			34.242			-4.892
123004.000			34.241			-4.892
123104.000			34.241			-4.892
123205.000			34.240			-4.891
123304.000			34.240			-4.891
123404.000			34.240			-4.891
123505.000			34.240			-4.891
123603.000			34.239			-4.891
123704.000			34.238			-4.891
123805.000			34.239			-4.891
123904.000			34.239			-4.891
124004.000			34.238			-4.891
124105.000			34.238			-4.891
124204.000			34.237			-4.891
124303.000			34.236			-4.891
124405.000			34.234			-4.891
124504.000			34.235			-4.891
124604.000			34.234			-4.891
124705.000			34.234			-4.891
124804.000			34.234			-4.891
124904.000			34.234			-4.891
125004.000			34.232			-4.890
125104.000			34.231			-4.890
125205.000			34.230			-4.890
125304.000			34.231			-4.890
125404.000			34.231			-4.890
125505.000			34.231			-4.890
125604.000			34.230			-4.890
125703.000			34.229			-4.890
125805.000			34.228			-4.890
125904.000			34.228			-4.890
126004.000			34.228			-4.890
126105.000			34.227			-4.890
126204.000			34.227			-4.890
126304.000			34.226			-4.889
126404.000			34.226			-4.889
126504.000			34.225			-4.889
126603.000			34.225			-4.889
126705.000			34.224			-4.889
126804.000			34.224			-4.889
126904.000			34.223			-4.889
127005.000			34.224			-4.889
127104.000			34.223			-4.889
127204.000			34.221			-4.889
127304.000			34.221			-4.889
127404.000			34.221			-4.889
127504.000			34.221			-4.889
127605.000			34.220			-4.889
127704.000			34.221			-4.889
127804.000			34.219			-4.888
127905.000			34.217			-4.888
128003.000			34.218			-4.888
128104.000			34.217			-4.888
128205.000			34.217			-4.888
128304.000			34.216			-4.888
128405.000			34.215			-4.888
128504.000			34.216			-4.888
128604.000			34.217			-4.888
128704.000			34.215			-4.888
128804.000			34.214			-4.888
128904.000			34.213			-4.888
129005.000			34.214			-4.888
129104.000			34.214			-4.888
129204.000			34.213			-4.888
129305.000			34.212			-4.887
129403.000			34.211			-4.887
129504.000			34.212			-4.887
129605.000			34.211			-4.887
129704.000			34.211			-4.887
129804.000			34.210			-4.887
129905.000			34.210			-4.887
130004.000			34.209			-4.887
130103.000			34.209			-4.887
130205.000			34.208			-4.887
130304.000			34.208			-4.887
130404.000			34.206			-4.887
130505.000			34.207			-4.887
130604.000			34.208			-4.887
130704.000			34.206			-4.887
130804.000			34.205			-4.886
130904.000			34.204			-4.886
131004.000			34.204			-4.886
131105.000			34.203			-4.886
131204.000			34.202			-4.886
131304.000			34.201			-4.886
131405.000			34.201			-4.886
131503.000			34.201			-4.886
131605.000			34.201			-4.886
131704.000			34.201			-4.886
131804.000			34.201			-4.886
131905.000			34.201			-4.886
132004.000			34.200			-4.886
132104.000			34.199			-4.886
132205.000			34.198			-4.885
132304.000			34.198			-4.885
132403.000			34.198			-4.885
132505.000			34.198			-4.885
132604.000			34.198			-4.885
132704.000			34.197			-4.885
132805.000			34.197			-4.885
132904.000			34.196			-4.885
133004.000			34.195			-4.885
133105.000			34.195			-4.885
133204.000			34.194			-4.885
133303.000			34.194			-4.885
133405.000			34.194			-4.885
133504.000			34.194			-4.885
133604.000			34.193			-4.885
133705.000			34.194			-4.885
133804.000			34.192			-4.885
133904.000			34.191			-4.884
134004.000			34.191			-4.884
134104.000			34.191			-4.884
134203.000			34.189			-4.884
134305.000			34.190			-4.884
134404.000			34.189			-4.884
134504.000			34.189			-4.884
134605.000			34.188			-4.884
134704.000			34.188			-4.884
134805.000			34.187			-4.884
134903.000			34.187			-4.884
135004.000			34.186			-4.884
135104.000			34.185			-4.884
135204.000			34.185			-4.884
135304.000			34.184			-4.883
135405.000			34.184			-4.883
135504.000			34.184			-4.883
135604.000			34.183			-4.883
135705.000			34.184			-4.883
135803.000			34.182			-4.883
135904.000			34.183			-4.883
136004.000			34.183			-4.883
136104.000			34.181			-4.883
136204.000			34.181			-4.883
136305.000			34.181			-4.883
136404.000			34.180			-4.883
136504.000			34.180			-4.883
136605.000			34.178			-4.883
136703.000			34.178			-4.883
136804.000			34.179			-4.883
136905.000			34.179			-4.883
137004.000			34.178			-4.883
137104.000			34.177			-4.882
137205.000			34.177			-4.882
137304.000			34.177			-4.882
137404.000			34.176			-4.882
137505.000			34.174			-4.882
137603.000			34.174			-4.882
137704.000			34.174			-4.882
137805.000			34.174			-4.882
137904.000			34.174			-4.882
138005.000			34.172			-4.882
138104.000			34.173			-4.882
138204.000			34.172			-4.882
138305.000			34.172			-4.882
138404.000			34.172			-4.882
138503.000			34.171			-4.882
138605.000			34.170			-4.881
138704.000			34.169			-4.881
138804.000			34.169			-4.881
138905.000			34.169			-4.881
139004.000			34.169			-4.881
139104.000			34.169			-4.881
139205.000			34.168			-4.881
139304.000			34.167			-4.881
139404.000			34.167			-4.881
139505.000			34.166			-4.881
139603.000			34.165			-4.881
139704.000			34.166			-4.881
139805.000			34.165			-4.881
139904.000			34.164			-4.881
140004.000			34.163			-4.880
140105.000			34.164			-4.881
140204.000			34.163			-4.880
140303.000			34.163			-4.880
140405.000			34.162			-4.880
140503.000			34.162			-4.880
140604.000			34.162			-4.880
140705.000			34.162			-4.880
140804.000			34.161			-4.880
140904.000			34.160			-4.880
141005.000			34.160			-4.880
141104.000			34.160			-4.880
141203.000			34.160			-4.880
141304.000			34.160			-4.880
141404.000			34.159			-4.880
141505.000			34.158			-4.880
141604.000			34.157			-4.880
141704.000			34.157			-4.880
141805.000			34.156			-4.879
141904.000			34.156			-4.879
142004.000			34.156			-4.879
142104.000			34.155			-4.879
142204.000			34.155			-4.879
142304.000			34.154			-4.879
142405.000			34.153			-4.879
142504.000			34.153			-4.879
142604.000			34.152			-4.879
142705.000			34.151			-4.879
142804.000			34.152			-4.879
142904.000			34.152			-4.879
143004.000			34.152			-4.879
143104.000			34.150			-4.879
143204.000			34.150			-4.879
143305.000			34.150			-4.879
143404.000			34.151			-4.879
143504.000			34.150			-4.879
143605.000			34.148			-4.878
143703.000			34.149			-4.878
143804.000			34.149			-4.878
143904.000			34.148			-4.878
144004.000			34.148			-4.878
144104.000			34.148			-4.878
144205.000			34.147			-4.878
144304.000			34.146			-4.878
144405.000			34.146			-4.878
144504.000			34.145			-4.878
144603.000			34.146			-4.878
144705.000			34.145			-4.878
144804.000			34.144			-4.878
144904.000			34.143			-4.878
145005.000			34.144			-4.878
145104.000			34.143			-4.878
145204.000			34.142			-4.877
145305.000			34.141			-4.877
145404.000			34.141			-4.877
145503.000			34.141			-4.877
145605.000			34.141			-4.877
145704.000			34.140			-4.877
145804.000			34.140			-4.877
145905.000			34.139			-4.877
146004.000			34.138			-4.877
146104.000			34.139			-4.877
146205.000			34.139			-4.877
146304.000			34.137			-4.877
146403.000			34.136			-4.877
146505.000			34.136			-4.877
146604.000			34.137			-4.877
146704.000			34.136			-4.877
146805.000			34.135			-4.876
146904.000			34.134			-4.876
147004.000			34.134			-4.876
147104.000			34.134			-4.876
147204.000			34.134			-4.876
147303.000			34.134			-4.876
147405.000			34.133			-4.876
147504.000			34.133			-4.876
147605.000			34.131			-4.876
147704.000			34.132			-4.876
147804.000			34.132			-4.876
147905.000			34.131			-4.876
148003.000			34.131			-4.876
148104.000			34.130			-4.876
148204.000			34.130			-4.876
148304.000			34.129			-4.876
148404.000			34.130			-4.876
148505.000			34.129			-4.876
148604.000			34.129			-4.876
148704.000			34.128			-4.875
148805.000			34.127			-4.875
148903.000			34.126			-4.875
149004.000			34.126			-4.875
149104.000			34.127			-4.875
149204.000			34.126			-4.875
149304.000			34.125			-4.875
149405.000			34.125			-4.875
149504.000			34.124			-4.875
149604.000			34.124			-4.875
149705.000			34.124			-4.875
149803.000			34.124			-4.875
149904.000			34.123			-4.875
150004.000			34.122			-4.875
150104.000			34.122			-4.875
150204.000			34.122			-4.875
150305.000			34.121			-4.874
150404.000			34.121			-4.874
150504.000			34.121			-4.874
150605.000			34.120			-4.874
150703.000			34.119			-4.874
150805.000			34.118			-4.874
150904.000			34.118			-4.874
151004.000			34.118			-4.874
151105.000			34.118			-4.874
151204.000			34.117			-4.874
151304.000			34.117			-4.874
151405.000			34.117			-4.874
151504.000			34.117			-4.874
151603.000			34.116			-4.874
151705.000			34.115			-4.874
151804.000			34.115			-4.874
151904.000			34.115			-4.874
152005.000			34.114			-4.873
152104.000			34.114			-4.873
152204.000			34.113			-4.873
152304.000			34.113			-4.873
152404.000			34.113			-4.873
152503.000			34.112			-4.873
152605.000			34.112			-4.873
152704.000			34.112			-4.873
152804.000			34.111			-4.873
152905.000			34.110			-4.873
153004.000			34.110			-4.873
153104.000			34.109			-4.873
153204.000			34.110			-4.873
153304.000			34.109			-4.873
153404.000			34.109			-4.873
153505.000			34.109			-4.873
153604.000			34.108			-4.873
153704.000			34.109			-4.873
153805.000			34.107			-4.872
153904.000			34.106			-4.872
154005.000			34.106			-4.872
154103.000			34.107			-4.872
154204.000			34.106			-4.872
154305.000			34.106			-4.872
154404.000			34.105			-4.872
154504.000			34.104			-4.872
154605.000			34.103			-4.872
154704.000			34.103			-4.872
154803.000			34.103			-4.872
154905.000			34.103			-4.872
155004.000			34.102			-4.872
155104.000			34.102			-4.872
155205.000			34.102			-4.872
155304.000			34.101			-4.872
155404.000			34.101			-4.872
155505.000			34.101			-4.872
155604.000			34.101			-4.872
155703.000			34.100			-4.871
155805.000			34.100			-4.871
155904.000			34.100			-4.871
156004.000			34.098			-4.871
156105.000			34.099			-4.871
156204.000			34.098			-4.871
156304.000			34.098			-4.871
156405.000			34.097			-4.871
156504.000			34.097			-4.871
156603.000			34.098			-4.871
156705.000			34.097			-4.871
156804.000			34.095			-4.871
156904.000			34.096			-4.871
157005.000			34.095			-4.871
157104.000			34.094			-4.871
157205.000			34.093			-4.870
157304.000			34.094			-4.871
157404.000			34.093			-4.870
157504.000			34.093			-4.870
157604.000			34.093			-4.870
157703.000			34.092			-4.870
157805.000			34.092			-4.870
157904.000			34.092			-4.870
158004.000			34.091			-4.870
158105.000			34.090			-4.870
158204.000			34.090			-4.870
158304.000			34.090			-4.870
158404.000			34.090			-4.870
158504.000			34.089			-4.870
158604.000			34.088			-4.870
158705.000			34.088			-4.870
158804.000			34.088			-4.870
158904.000			34.087			-4.870
159005.000			34.087			-4.870
159104.000			34.087			-4.870
159204.000			34.087			-4.870
159304.000			34.086			-4.869
159404.000			34.086			-4.869
159503.000			34.087			-4.870
159605.000			34.085			-4.869
159704.000			34.084			-4.869
159804.000			34.084			-4.869
159905.000			34.084			-4.869
160004.000			34.084			-4.869
160104.000			34.084			-4.869
160204.000			34.083			-4.869
160304.000			34.082			-4.869
160403.000			34.082			-4.869
160504.000			34.083			-4.869
160604.000			34.082			-4.869
160705.000			34.082			-4.869
160804.000			34.081			-4.869
160904.000			34.080			-4.869
161005.000			34.081			-4.869
161103.000			34.080			-4.869
161204.000			34.079			-4.868
161304.000			34.078			-4.868
161404.000			34.078			-4.868
161504.000			34.077			-4.868
161605.000			34.078			-4.868
161704.000			34.077			-4.868
161804.000			34.077			-4.868
161905.000			34.077			-4.868
162003.000			34.076			-4.868
162104.000			34.075			-4.868
162204.000			34.076			-4.868
162304.000			34.076			-4.868
162404.000			34.075			-4.868
162505.000			34.074			-4.868
162604.000			34.073			-4.868
162704.000			34.073			-4.868
162805.000			34.073			-4.868
162903.000			34.072			-4.867
163004.000			34.073			-4.868
163104.000			34.073			-4.868
163204.000			34.071			-4.867
163304.000			34.070			-4.867
163405.000			34.071			-4.867
163504.000			34.070			-4.867
163605.000			34.070			-4.867
163704.000			34.070			-4.867
163803.000			34.070			-4.867
163905.000			34.069			-4.867
164004.000			34.068			-4.867
164104.000			34.068			-4.867
164205.000			34.069			-4.867
164304.000			34.069			-4.867
164404.000			34.068			-4.867
164505.000			34.067			-4.867
164604.000			34.066			-4.867
164703.000			34.066			-4.867
164805.000			34.065			-4.866
164904.000			34.065			-4.866
165004.000			34.065			-4.866
165105.000			34.066			-4.867
165204.000			34.065			-4.866
165304.000			34.064			-4.866
165405.000			34.063			-4.866
165504.000			34.063			-4.866
165603.000			34.063			-4.866
165705.000			34.062			-4.866
165804.000			34.063			-4.866
165904.000			34.062			-4.866
166005.000			34.061			-4.866
166104.000			34.060			-4.866
166204.000			34.061			-4.866
166305.000			34.061			-4.866
166404.000			34.060			-4.866
166503.000			34.059			-4.866
166605.000			34.059			-4.866
166704.000			34.058			-4.865
166805.000			34.058			-4.865
166904.000			34.058			-4.865
167004.000			34.058			-4.865
167105.000			34.057			-4.865
167204.000			34.058			-4.865
167304.000			34.058			-4.865
167404.000			34.057			-4.865
167504.000			34.057			-4.865
167604.000			34.057			-4.865
167705.000			34.056			-4.865
167804.000			34.055			-4.865
167904.000			34.056			-4.865
168005.000			34.055			-4.865
168104.000			34.054			-4.865
168204.000			34.054			-4.865
168304.000			34.054			-4.865
168404.000			34.054			-4.865
168504.000			34.053			-4.865
168605.000			34.053			-4.865
168704.000			34.052			-4.865
168804.000			34.052			-4.865
168905.000			34.051			-4.864
169004.000			34.050			-4.864
169104.000			34.050			-4.864
169204.000			34.050			-4.864
169304.000			34.050			-4.864
169404.000			34.049			-4.864
169505.000			34.049			-4.864
169604.000			34.049			-4.864
169704.000			34.047			-4.864
169805.000			34.047			-4.864
169904.000			34.047			-4.864
170005.000			34.047			-4.864
170103.000			34.047			-4.864
170204.000			34.047			-4.864
170305.000			34.046			-4.864
170404.000			34.045			-4.864
170504.000			34.044			-4.863
170605.000			34.045			-4.864
170704.000			34.044			-4.863
170803.000			34.044			-4.863
170905.000			34.044			-4.863
171004.000			34.043			-4.863
171104.000			34.043			-4.863
171205.000			34.042			-4.863
171304.000			34.042			-4.863
171404.000			34.041			-4.863
171505.000			34.040			-4.863
171604.000			34.040			-4.863
171703.000			34.041			-4.863
171805.000			34.041			-4.863
171904.000			34.040			-4.863
172004.000			34.039			-4.863
172105.000			34.039			-4.863
172204.000			34.039			-4.863
172304.000			34.037			-4.862
172404.000			34.037			-4.862
172504.000			34.037			-4.862
172603.000			34.037			-4.862
172705.000			34.038			-4.863
172804.000			34.037			-4.862
172904.000			34.037			-4.862
173005.000			34.036			-4.862
173104.000			34.036			-4.862
173205.000			34.036			-4.862
173303.000			34.035			-4.862
173404.000			34.034			-4.862
173504.000			34.035			-4.862
173604.000			34.034			-4.862
173704.000			34.033			-4.862
173805.000			34.033			-4.862
173904.000			34.032			-4.862
174004.000			34.031			-4.862
174105.000			34.032			-4.862
174203.000			34.032			-4.862
174304.000			34.032			-4.862
174405.000			34.030			-4.861
174504.000			34.030			-4.861
174604.000			34.031			-4.862
174705.000			34.030			-4.861
174804.000			34.031			-4.862
174904.000			34.030			-4.861
175005.000			34.029			-4.861
175103.000			34.027			-4.861
175204.000			34.027			-4.861
175305.000			34.027			-4.861
175404.000			34.027			-4.861
175504.000			34.027			-4.861
175605.000			34.027			-4.861
175704.000			34.026			-4.861
175803.000			34.026			-4.861
175905.000			34.027			-4.861
176003.000			34.026			-4.861
176104.000			34.026			-4.861
176205.000			34.024			-4.861
176304.000			34.024			-4.861
176405.000			34.024			-4.861
176504.000			34.024			-4.861
176604.000			34.024			-4.861
176704.000			34.023			-4.860
176804.000			34.023			-4.860
176903.000			34.023			-4.860
177005.000			34.022			-4.860
177104.000			34.021			-4.860
177204.000			34.021			-4.860
177305.000			34.021			-4.860
177404.000			34.021			-4.860
177504.000			34.020			-4.860
177604.000			34.019			-4.860
177704.000			34.019			-4.860
177803.000			34.019			-4.860
177905.000			34.019			-4.860
178004.000			34.018			-4.860
178104.000			34.018			-4.860
178205.000			34.018			-4.860
178304.000			34.018			-4.860
178404.000			34.017			-4.860
178504.000			34.016			-4.859
178604.000			34.016			-4.859
178703.000			34.017			-4.860
178805.000			34.016			-4.859
178904.000			34.016			-4.859
179004.000			34.016			-4.859
179105.000			34.015			-4.859
179204.000			34.015			-4.859
179304.000			34.015			-4.859
179404.000			34.014			-4.859
179504.000			34.014			-4.859
179603.000			34.014			-4.859
179704.000			34.013			-4.859
179804.000			34.012			-4.859
179905.000			34.012			-4.859
180004.000			34.012			-4.859
180104.000			34.012			-4.859
180205.000			34.012			-4.859
180303.000			34.010			-4.859
180404.000			34.010			-4.859
180505.000			34.009			-4.858
180604.000			34.009			-4.858
180704.000			34.009			-4.858
180805.000			34.009			-4.858
180904.000			34.009			-4.858
181004.000			34.009			-4.858
181105.000			34.008			-4.858
181203.000			34.007			-4.858
181304.000			34.008			-4.858
181405.000			34.007			-4.858
181504.000			34.007			-4.858
181604.000			34.007			-4.858
181705.000			34.006			-4.858
181804.000			34.006			-4.858
181903.000			34.005			-4.858
182005.000			34.005			-4.858
182103.000			34.005			-4.858
182204.000			34.005			-4.858
182305.000			34.004			-4.858
182404.000			34.005			-4.858
182504.000			34.005			-4.858
182605.000			34.004			-4.858
182704.000			34.002			-4.857
182803.000			34.003			-4.858
182904.000			34.003			-4.858
183004.000			34.002			-4.857
183105.000			34.001			-4.857
183204.000			34.002			-4.857
183304.000			34.001			-4.857
183405.000			34.000			-4.857
183504.000			34.001			-4.857
183604.000			34.001			-4.857
183704.000			33.999			-4.857
183804.000			34.000			-4.857
183904.000			33.998			-4.857
184005.000			33.998			-4.857
184104.000			33.997			-4.857
184204.000			33.997			-4.857
184305.000			33.997			-4.857
184404.000			33.998			-4.857
184504.000			33.997			-4.857
184604.000			33.997			-4.857
184704.000			33.997			-4.857
184803.000			33.997			-4.857
184905.000			33.997			-4.857
185004.000			33.996			-4.857
185104.000			33.994			-4.856
185205.000			33.993			-4.856
185304.000			33.994			-4.856
185404.000			33.994			-4.856
185504.000			33.994			-4.856
185604.000			33.992			-4.856
185703.000			33.992			-4.856
185805.000			33.993			-4.856
185904.000			33.993			-4.856
186005.000			33.992			-4.856
186104.000			33.991			-4.856
186204.000			33.991			-4.856
186305.000			33.992			-4.856
186404.000			33.991			-4.856
186504.000			33.990			-4.856
186604.000			33.989			-4.856
186704.000			33.990			-4.856
186804.000			33.989			-4.856
186905.000			33.989			-4.856
187004.000			33.988			-4.855
187104.000			33.988			-4.855
187205.000			33.988			-4.855
187304.000			33.988			-4.855
187404.000			33.988			-4.855
187505.000			33.988			-4.855
187604.000			33.987			-4.855
187703.000			33.987			-4.855
187805.000			33.986			-4.855
187904.000			33.986			-4.855
188004.000			33.986			-4.855
188105.000			33.985			-4.855
188204.000			33.984			-4.855
188304.000			33.985			-4.855
188405.000			33.984			-4.855
188504.000			33.984			-4.855
188603.000			33.984			-4.855
188705.000			33.984			-4.855
188803.000			33.983			-4.855
188904.000			33.982			-4.855
189005.000			33.982			-4.855
189104.000			33.982			-4.855
189205.000			33.983			-4.855
189304.000			33.982			-4.855
189404.000			33.981			-4.854
189505.000			33.981			-4.854
189604.000			33.981			-4.854
189703.000			33.980			-4.854
189805.000			33.980			-4.854
189903.000			33.979			-4.854
190004.000			33.979			-4.854
190105.000			33.979			-4.854
190204.000			33.978			-4.854
190304.000			33.977			-4.854
190405.000			33.977			-4.854
190504.000			33.976			-4.854
190604.000			33.978			-4.854
190705.000			33.977			-4.854
190803.000			33.975			-4.854
190904.000			33.975			-4.854
191005.000			33.975			-4.854
191104.000			33.974			-4.853
191204.000			33.975			-4.854
191305.000			33.976			-4.854
191404.000			33.974			-4.853
191504.000			33.973			-4.853
191605.000			33.973			-4.853
191703.000			33.973			-4.853
191804.000			33.973			-4.853
191904.000			33.973			-4.853
192004.000			33.972			-4.853
192104.000			33.971			-4.853
192205.000			33.971			-4.853
192304.000			33.971			-4.853
192405.000			33.971			-4.853
192504.000			33.970			-4.853
192603.000			33.970			-4.853
192705.000			33.970			-4.853
192803.000			33.970			-4.853
192904.000			33.969			-4.853
193005.000			33.969			-4.853
193104.000			33.968			-4.853
193204.000			33.968			-4.853
193305.000			33.968			-4.853
193404.000			33.968			-4.853
193504.000			33.967			-4.852
193605.000			33.968			-4.853
193703.000			33.967			-4.852
193804.000			33.967			-4.852
193905.000			33.967			-4.852
194004.000			33.966			-4.852
194104.000			33.966			-4.852
194205.000			33.965			-4.852
194304.000			33.964			-4.852
194404.000			33.963			-4.852
194505.000			33.963			-4.852
194603.000			33.964			-4.852
194704.000			33.964			-4.852
194804.000			33.963			-4.852
194904.000			33.962			-4.852
195004.000			33.962			-4.852
195105.000			33.962			-4.852
195204.000			33.961			-4.852
195304.000			33.961			-4.852
195405.000			33.961			-4.852
195503.000			33.961			-4.852
195605.000			33.961			-4.852
195703.000			33.961			-4.852
195804.000			33.960			-4.851
195905.000			33.960			-4.851
196004.000			33.960			-4.851
196104.000			33.959			-4.851
196205.000			33.958			-4.851
196304.000			33.958			-4.851
196404.000			33.959			-4.851
196505.000			33.958			-4.851
196603.000			33.958			-4.851
196704.000			33.958			-4.851
196804.000			33.958			-4.851
196904.000			33.958			-4.851
197004.000			33.958			-4.851
197105.000			33.956			-4.851
197204.000			33.955			-4.851
197304.000			33.955			-4.851
197405.000			33.956			-4.851
197504.000			33.956			-4.851
197604.000			33.955			-4.851
197704.000			33.955			-4.851
197804.000			33.955			-4.851
197904.000			33.954			-4.851
198005.000			33.953			-4.850
198104.000			33.953			-4.850
198204.000			33.952			-4.850
198305.000			33.951			-4.850
198404.000			33.951			-4.850
198504.000			33.952			-4.850
198604.000			33.951			-4.850
198704.000			33.951			-4.850
198803.000			33.952			-4.850
198904.000			33.951			-4.850
199004.000			33.949			-4.850
199105.000			33.949			-4.850
199204.000			33.949			-4.850
199304.000			33.949			-4.850
199405.000			33.948			-4.850
199504.000			33.948			-4.850
199604.000			33.948			-4.850
199704.000			33.948			-4.850
199804.000			33.948			-4.850
199903.000			33.947			-4.850
200005.000			33.947			-4.850
200104.000			33.946			-4.849
200204.000			33.946			-4.849
200305.000			33.946			-4.849
200404.000			33.945			-4.849
200504.000			33.946			-4.849
200604.000			33.946			-4.849
200704.000			33.944			-4.849
200803.000			33.944			-4.849
200905.000			33.944			-4.849
201004.000			33.944			-4.849
201104.000			33.944			-4.849
201205.000			33.943			-4.849
201304.000			33.942			-4.849
201404.000			33.942			-4.849
201504.000			33.942			-4.849
201604.000			33.942			-4.849
201704.000			33.942			-4.849
201805.000			33.942			-4.849
201904.000			33.942			-4.849
202005.000			33.941			-4.849
202104.000			33.941			-4.849
202204.000			33.940			-4.849
202305.000			33.940			-4.849
202403.000			33.940			-4.849
202504.000			33.939			-4.848
202605.000			33.939			-4.848
202704.000			33.939			-4.848
202804.000			33.938			-4.848
202905.000			33.937			-4.848
203004.000			33.938			-4.848
203103.000			33.938			-4.848
203205.000			33.936			-4.848
203303.000			33.936			-4.848
203404.000			33.938			-4.848
203505.000			33.938			-4.848
203604.000			33.936			-4.848
203704.000			33.937			-4.848
203805.000			33.936			-4.848
203904.000			33.934			-4.848
204004.000			33.933			-4.848
204105.000			33.934			-4.848
204203.000			33.935			-4.848
204304.000			33.934			-4.848
204405.000			33.934			-4.848
204504.000			33.933			-4.848
204604.000			33.933			-4.848
204705.000			33.933			-4.848
204804.000			33.934			-4.848
204903.000			33.933			-4.848
205005.000			33.932			-4.847
205103.000			33.931			-4.847
205205.000			33.931			-4.847
205304.000			33.931			-4.847
205404.000			33.932			-4.847
205505.000			33.931			-4.847
205604.000			33.930			-4.847
205704.000			33.930			-4.847
205804.000			33.929			-4.847
205904.000			33.929			-4.847
206003.000			33.929			-4.847
206105.000			33.928			-4.847
206204.000			33.928			-4.847
206304.000			33.927			-4.847
206405.000			33.927			-4.847
206504.000			33.927			-4.847
206604.000			33.927			-4.847
206704.000			33.926			-4.847
206804.000			33.926			-4.847
206903.000			33.926			-4.847
207005.000			33.926			-4.847
207104.000			33.925			-4.846
207204.000			33.924			-4.846
207305.000			33.924			-4.846
207404.000			33.923			-4.846
207504.000			33.924			-4.846
207604.000			33.925			-4.846
207704.000			33.925			-4.846
207803.000			33.924			-4.846
207905.000			33.922			-4.846
208004.000			33.922			-4.846
208104.000			33.923			-4.846
208205.000			33.921			-4.846
208304.000			33.921			-4.846
208405.000			33.922			-4.846
208503.000			33.922			-4.846
208604.000			33.920			-4.846
208705.000			33.920			-4.846
208804.000			33.919			-4.846
208904.000			33.919			-4.846
209005.000			33.919			-4.846
209104.000			33.920			-4.846
209204.000			33.919			-4.846
209305.000			33.919			-4.846
209403.000			33.919			-4.846
209504.000			33.919			-4.846
209605.000			33.919			-4.846
209704.000			33.917			-4.845
209804.000			33.917			-4.845
209905.000			33.918			-4.845
210004.000			33.917			-4.845
210104.000			33.917			-4.845
210205.000			33.916			-4.845
210303.000			33.916			-4.845
210404.000			33.915			-4.845
210505.000			33.914			-4.845
210604.000			33.914			-4.845
210704.000			33.914			-4.845
210805.000			33.914			-4.845
210904.000			33.914			-4.845
211004.000			33.914			-4.845
211105.000			33.914			-4.845
211203.000			33.913			-4.845
211304.000			33.911			-4.844
211405.000			33.911			-4.844
211504.000			33.912			-4.845
211605.000			33.911			-4.844
211704.000			33.911			-4.844
211804.000			33.911			-4.844
211904.000			33.911			-4.844
212004.000			33.910			-4.844
212104.000			33.910			-4.844
212205.000			33.910			-4.844
212304.000			33.910			-4.844
212404.000			33.909			-4.844
212505.000			33.909			-4.844
212604.000			33.909			-4.844
212704.000			33.909			-4.844
212804.000			33.909			-4.844
212904.000			33.908			-4.844
213003.000			33.907			-4.844
213105.000			33.908			-4.844
213204.000			33.907			-4.844
213304.000			33.906			-4.844
213405.000			33.907			-4.844
213504.000			33.907			-4.844
213604.000			33.907			-4.844
213704.000			33.905			-4.844
213804.000			33.906			-4.844
213904.000			33.905			-4.844
214005.000			33.904			-4.843
214104.000			33.904			-4.843
214204.000			33.904			-4.843
214305.000			33.903			-4.843
214404.000			33.903			-4.843
214504.000			33.903			-4.843
214604.000			33.904			-4.843
214704.000			33.902			-4.843
214805.000			33.902			-4.843
214904.000			33.902			-4.843
215004.000			33.902			-4.843
215105.000			33.901			-4.843
215204.000			33.902			-4.843
215303.000			33.901			-4.843
215405.000			33.900			-4.843
215503.000			33.900			-4.843
215604.000			33.900			-4.843
215705.000			33.899			-4.843
215804.000			33.899			-4.843
215904.000			33.900			-4.843
216005.000			33.899			-4.843
216104.000			33.898			-4.843
216204.000			33.898			-4.843
216305.000			33.898			-4.843
216403.000			33.898			-4.843
216504.000			33.897			-4.842
216605.000			33.897			-4.842
216704.000			33.897			-4.842
216804.000			33.897			-4.842
216905.000			33.897			-4.842
217004.000			33.897			-4.842
217104.000			33.896			-4.842
217205.000			33.895			-4.842
217303.000			33.894			-4.842
217404.000			33.894			-4.842
217504.000			33.895			-4.842
217604.000			33.894			-4.842
217704.000			33.893			-4.842
217805.000			33.893			-4.842
217904.000			33.893			-4.842
218005.000			33.893			-4.842
218104.000			33.892			-4.842
218203.000			33.893			-4.842
218305.000			33.892			-4.842
218403.000			33.892			-4.842
218504.000			33.891			-4.842
218605.000			33.891			-4.842
218704.000			33.891			-4.842
218804.000			33.891			-4.842
218905.000			33.891			-4.842
219004.000			33.891			-4.842
219104.000			33.890			-4.841
219205.000			33.889			-4.841
219303.000			33.889			-4.841
219404.000			33.889			-4.841
219505.000			33.888			-4.841
219604.000			33.888			-4.841
219704.000			33.888			-4.841
219805.000			33.887			-4.841
219904.000			33.887			-4.841
220004.000			33.887			-4.841
220105.000			33.887			-4.841
220203.000			33.888			-4.841
220304.000			33.887			-4.841
220404.000			33.887			-4.841
220504.000			33.886			-4.841
220604.000			33.886			-4.841
220705.000			33.886			-4.841
220804.000			33.886			-4.841
220904.000			33.886			-4.841
221005.000			33.884			-4.841
221103.000			33.885			-4.841
221205.000			33.885			-4.841
221303.000			33.884			-4.841
221404.000			33.882			-4.840
221505.000			33.883			-4.840
221604.000			33.883			-4.840
221704.000			33.882			-4.840
221805.000			33.883			-4.840
221904.000			33.882			-4.840
222003.000			33.882			-4.840
222105.000			33.882			-4.840
222203.000			33.882			-4.840
222304.000			33.882			-4.840
222405.000			33.881			-4.840
222504.000			33.880			-4.840
222604.000			33.880			-4.840
222705.000			33.879			-4.840
222804.000			33.879			-4.840
222903.000			33.880			-4.840
223005.000			33.880			-4.840
223103.000			33.877			-4.840
223204.000			33.878			-4.840
223305.000			33.878			-4.840
223404.000			33.878			-4.840
223504.000			33.878			-4.840
223605.000			33.876			-4.839
223704.000			33.877			-4.840
223804.000			33.877			-4.840
223905.000			33.877			-4.840
224003.000			33.876			-4.839
224104.000			33.876			-4.839
224205.000			33.877			-4.840
224304.000			33.876			-4.839
224405.000			33.875			-4.839
224504.000			33.875			-4.839
224604.000			33.874			-4.839
224705.000			33.874			-4.839
224804.000			33.874			-4.839
224903.000			33.873			-4.839
225005.000			33.873			-4.839
225104.000			33.873			-4.839
225204.000			33.873			-4.839
225305.000			33.873			-4.839
225404.000			33.873			-4.839
225504.000			33.872			-4.839
225605.000			33.871			-4.839
225704.000			33.871			-4.839
225803.000			33.870			-4.839
225905.000			33.870			-4.839
226004.000			33.870			-4.839
226104.000			33.869			-4.838
226205.000			33.869			-4.838
226304.000			33.869			-4.838
226404.000			33.869			-4.838
226505.000			33.869			-4.838
226604.000			33.869			-4.838
226703.000			33.869			-4.838
226805.000			33.868			-4.838
226904.000			33.868			-4.838
227004.000			33.868			-4.838
227105.000			33.869			-4.838
227204.000			33.869			-4.838
227304.000			33.868			-4.838
227405.000			33.867			-4.838
227504.000			33.865			-4.838
227603.000			33.864			-4.838
227704.000			33.865			-4.838
227803.000			33.865			-4.838
227905.000			33.864			-4.838
228004.000			33.864			-4.838
228104.000			33.864			-4.838
228205.000			33.865			-4.838
228304.000			33.864			-4.838
228404.000			33.864			-4.838
228505.000			33.863			-4.838
228604.000			33.863			-4.838
228703.000			33.862			-4.837
228805.000			33.862			-4.837
228904.000			33.862			-4.837
229004.000			33.861			-4.837
229105.000			33.861			-4.837
229204.000			33.861			-4.837
229304.000			33.861			-4.837
229405.000			33.860			-4.837
229504.000			33.861			-4.837
229603.000			33.860			-4.837
229705.000			33.860			-4.837
229804.000			33.859			-4.837
229904.000			33.859			-4.837
230005.000			33.859			-4.837
230104.000			33.859			-4.837
230204.000			33.858			-4.837
230305.000			33.857			-4.837
230404.000			33.857			-4.837
230503.000			33.857			-4.837
230605.000			33.856			-4.837
230703.000			33.856			-4.837
230805.000			33.857			-4.837
230904.000			33.856			-4.837
231004.000			33.856			-4.837
231105.000			33.855			-4.836
231204.000			33.856			-4.837
231304.000			33.856			-4.837
231404.000			33.855			-4.836
231504.000			33.855			-4.836
231603.000			33.855			-4.836
231705.000			33.855			-4.836
231804.000			33.855			-4.836
231904.000			33.855			-4.836
232005.000			33.853			-4.836
232104.000			33.852			-4.836
232204.000			33.852			-4.836
232304.000			33.851			-4.836
232404.000			33.851			-4.836
232504.000			33.851			-4.836
232605.000			33.851			-4.836
232704.000			33.851			-4.836
232804.000			33.851			-4.836
232905.000			33.850			-4.836
233004.000			33.852			-4.836
233104.000			33.852			-4.836
233204.000			33.852			-4.836
233304.000			33.850			-4.836
233404.000			33.850			-4.836
233505.000			33.850			-4.836
233604.000			33.850			-4.836
233704.000			33.850			-4.836
233805.000			33.850			-4.836
233904.000			33.848			-4.835
234005.000			33.846			-4.835
234103.000			33.846			-4.835
234204.000			33.846			-4.835
234305.000			33.846			-4.835
234404.000			33.845			-4.835
234504.000			33.845			-4.835
234605.000			33.844			-4.835
234704.000			33.846			-4.835
234804.000			33.845			-4.835
234905.000			33.844			-4.835
235003.000			33.845			-4.835
235104.000			33.844			-4.835
235205.000			33.844			-4.835
235304.000			33.843			-4.835
235404.000			33.844			-4.835
235505.000			33.844			-4.835
235604.000			33.844			-4.835
235704.000			33.843			-4.835
235805.000			33.842			-4.835
235903.000			33.842			-4.835
236004.000			33.842			-4.835
236105.000			33.842			-4.835
236204.000			33.842			-4.835
236304.000			33.842			-4.835
236405.000			33.842			-4.835
236504.000			33.842			-4.835
236604.000			33.841			-4.834
236705.000			33.841			-4.834
236803.000			33.840			-4.834
236904.000			33.840			-4.834
237004.000			33.840			-4.834
237104.000			33.839			-4.834
237205.000			33.839			-4.834
237304.000			33.839			-4.834
237404.000			33.838			-4.834
237505.000			33.838			-4.834
237604.000			33.838			-4.834
237703.000			33.838			-4.834
237805.000			33.839			-4.834
237903.000			33.838			-4.834
238004.000			33.837			-4.834
238105.000			33.837			-4.834
238204.000			33.837			-4.834
238304.000			33.837			-4.834
238405.000			33.837			-4.834
238504.000			33.836			-4.834
238604.000			33.835			-4.834
238705.000			33.835			-4.834
238803.000			33.835			-4.834
238904.000			33.835			-4.834
239005.000			33.836			-4.834
239104.000			33.834			-4.833
239204.000			33.834			-4.833
239305.000			33.833			-4.833
239404.000			33.833			-4.833
239504.000			33.833			-4.833
239605.000			33.832			-4.833
239703.000			33.831			-4.833
239804.000			33.833			-4.833
239905.000			33.831			-4.833
240004.000			33.832			-4.833
240104.000			33.832			-4.833
240205.000			33.832			-4.833
240304.000			33.831			-4.833
240405.000			33.832			-4.833
240504.000			33.830			-4.833
240603.000			33.829			-4.833
240705.000			33.830			-4.833
240804.000			33.830			-4.833
240904.000			33.830			-4.833
241005.000			33.829			-4.833
241104.000			33.829			-4.833
241204.000			33.829			-4.833
241305.000			33.827			-4.832
241404.000			33.827			-4.832
241503.000			33.827			-4.832
241605.000			33.827			-4.832
241704.000			33.827			-4.832
241804.000			33.827			-4.832
241905.000			33.826			-4.832
242004.000			33.828			-4.833
242104.000			33.826			-4.832
242205.000			33.826			-4.832
242304.000			33.825			-4.832
242403.000			33.824			-4.832
242505.000			33.825			-4.832
242604.000			33.826			-4.832
242704.000			33.825			-4.832
242805.000			33.825			-4.832
242904.000			33.825			-4.832
243004.000			33.824			-4.832
243105.000			33.823			-4.832
243204.000			33.823			-4.832
243303.000			33.823			-4.832
243405.000			33.823			-4.832
243504.000			33.823			-4.832
243605.000			33.823			-4.832
243704.000			33.822			-4.832
243804.000			33.822			-4.832
243905.000			33.822			-4.832
244004.000			33.821			-4.832
244104.000			33.821			-4.832
244204.000			33.822			-4.832
244304.000			33.820			-4.831
244404.000			33.820			-4.831
244505.000			33.821			-4.832
244604.000			33.820			-4.831
244704.000			33.820			-4.831
244805.000			33.819			-4.831
244904.000			33.819			-4.831
245004.000			33.819			-4.831
245104.000			33.819			-4.831
245204.000			33.819			-4.831
245304.000			33.819			-4.831
245405.000			33.818			-4.831
245504.000			33.818			-4.831
245604.000			33.816			-4.831
245705.000			33.816			-4.831
245804.000			33.817			-4.831
245904.000			33.817			-4.831
246004.000			33.816			-4.831
246104.000			33.816			-4.831
246204.000			33.815			-4.831
246305.000			33.815			-4.831
246404.000			33.814			-4.831
246504.000			33.814			-4.831
246605.000			33.815			-4.831
246704.000			33.814			-4.831
246805.000			33.813			-4.830
246903.000			33.814			-4.831
247004.000			33.814			-4.831
247105.000			33.813			-4.830
247204.000			33.813			-4.830
247304.000			33.812			-4.830
247405.000			33.813			-4.830
247504.000			33.813			-4.830
247604.000			33.813			-4.830
247705.000			33.812			-4.830
247803.000			33.811			-4.830
247904.000			33.810			-4.830
248005.000			33.811			-4.830
248104.000			33.810			-4.830
248204.000			33.810			-4.830
248305.000			33.811			-4.830
248404.000			33.811			-4.830
248504.000			33.810			-4.830
248605.000			33.809			-4.830
248703.000			33.809			-4.830
248804.000			33.809			-4.830
248905.000			33.808			-4.830
249004.000			33.809			-4.830
249104.000			33.808			-4.830
249205.000			33.808			-4.830
249304.000			33.809			-4.830
249404.000			33.807			-4.830
249505.000			33.807			-4.830
249603.000			33.807			-4.830
249704.000			33.805			-4.829
249804.000			33.805			-4.829
249904.000			33.806			-4.829
250005.000			33.805			-4.829
250104.000			33.805			-4.829
250204.000			33.805			-4.829
250305.000			33.804			-4.829
250404.000			33.804			-4.829
250503.000			33.804			-4.829
250605.000			33.803			-4.829
250704.000			33.803			-4.829
250804.000			33.803			-4.829
250905.000			33.803			-4.829
251004.000			33.804			-4.829
251104.000			33.804			-4.829
251205.000			33.803			-4.829
251304.000			33.803			-4.829
251403.000			33.802			-4.829
251505.000			33.801			-4.829
251604.000			33.802			-4.829
251704.000			33.802			-4.829
251805.000			33.801			-4.829
251904.000			33.801			-4.829
252004.000			33.802			-4.829
252104.000			33.800			-4.829
252204.000			33.800			-4.829
252303.000			33.800			-4.829
252405.000			33.800			-4.829
252504.000			33.799			-4.828
252604.000			33.799			-4.828
252705.000			33.798			-4.828
252804.000			33.798			-4.828
252904.000			33.798			-4.828
253005.000			33.798			-4.828
253104.000			33.797			-4.828
253203.000			33.797			-4.828
253304.000			33.797			-4.828
253404.000			33.797			-4.828
253505.000			33.796			-4.828
253604.000			33.796			-4.828
253704.000			33.796			-4.828
253805.000			33.796			-4.828
253904.000			33.795			-4.828
254004.000			33.794			-4.828
254104.000			33.794			-4.828
254204.000			33.795			-4.828
254303.000			33.795			-4.828
254405.000			33.795			-4.828
254504.000			33.794			-4.828
254604.000			33.794			-4.828
254705.000			33.793			-4.828
254804.000			33.794			-4.828
254904.000			33.793			-4.828
255004.000			33.793			-4.828
255104.000			33.793			-4.828
255203.000			33.794			-4.828
255305.000			33.792			-4.827
255404.000			33.793			-4.828
255504.000			33.792			-4.827
255605.000			33.791			-4.827
255704.000			33.792			-4.827
255804.000			33.790			-4.827
255905.000			33.789			-4.827
256004.000			33.790			-4.827
256103.000			33.791			-4.827
256205.000			33.790			-4.827
256304.000			33.790			-4.827
256405.000			33.790			-4.827
256504.000			33.789			-4.827
256604.000			33.789			-4.827
256705.000			33.790			-4.827
256804.000			33.790			-4.827
256904.000			33.789			-4.827
257004.000			33.788			-4.827
257104.000			33.788			-4.827
257203.000			33.788			-4.827
257305.000			33.788			-4.827
257404.000			33.787			-4.827
257504.000			33.788			-4.827
257605.000			33.786			-4.827
257704.000			33.786			-4.827
257804.000			33.786			-4.827
257905.000			33.787			-4.827
258004.000			33.786			-4.827
258103.000			33.785			-4.826
258205.000			33.786			-4.827
258304.000			33.785			-4.826
258404.000			33.784			-4.826
258505.000			33.785			-4.826
258604.000			33.785			-4.826
258704.000			33.784			-4.826
258805.000			33.783			-4.826
258904.000			33.783			-4.826
259003.000			33.782			-4.826
259105.000			33.783			-4.826
259203.000			33.783			-4.826
259304.000			33.783			-4.826
259405.000			33.783			-4.826
259504.000			33.783			-4.826
259605.000			33.781			-4.826
259704.000			33.780			-4.826
259804.000			33.781			-4.826
259905.000			33.782			-4.826
260004.000			33.782			-4.826
260103.000			33.780			-4.826
260205.000			33.781			-4.826
260304.000			33.781			-4.826
260404.000			33.780			-4.826
260505.000			33.779			-4.826
260604.000			33.779			-4.826
260704.000			33.778			-4.825
260805.000			33.779			-4.826
260904.000			33.779			-4.826
261003.000			33.778			-4.825
261105.000			33.777			-4.825
261204.000			33.777			-4.825
261304.000			33.777			-4.825
261405.000			33.777			-4.825
261504.000			33.776			-4.825
261604.000			33.777			-4.825
261705.000			33.777			-4.825
261804.000			33.776			-4.825
261903.000			33.776			-4.825
262005.000			33.774			-4.825
262104.000			33.775			-4.825
262204.000			33.776			-4.825
262305.000			33.775			-4.825
262404.000			33.775			-4.825
262504.000			33.774			-4.825
262605.000			33.774			-4.825
262704.000			33.773			-4.825
262803.000			33.773			-4.825
262904.000			33.774			-4.825
263003.000			33.773			-4.825
263105.000			33.773			-4.825
263204.000			33.773			-4.825
263304.000			33.772			-4.825
263405.000			33.772			-4.825
263504.000			33.772			-4.825
263604.000			33.772			-4.825
263704.000			33.771			-4.824
263804.000			33.771			-4.824
263903.000			33.771			-4.824
264005.000			33.770			-4.824
264104.000			33.770			-4.824
264204.000			33.770			-4.824
264305.000			33.770			-4.824
264404.000			33.770			-4.824
264504.000			33.769			-4.824
264604.000			33.769			-4.824
264704.000			33.769			-4.824
264803.000			33.769			-4.824
264905.000			33.768			-4.824
265004.000			33.769			-4.824
265104.000			33.768			-4.824
265205.000			33.768			-4.824
265304.000			33.768			-4.824
265404.000			33.767			-4.824
265504.000			33.767			-4.824
265604.000			33.767			-4.824
265703.000			33.767			-4.824
265805.000			33.768			-4.824
265904.000			33.766			-4.824
266005.000			33.766			-4.824
266104.000			33.766			-4.824
266204.000			33.766			-4.824
266305.000			33.766			-4.824
266404.000			33.765			-4.824
266504.000			33.765			-4.824
266604.000			33.764			-4.823
266704.000			33.764			-4.823
266804.000			33.764			-4.823
266905.000			33.764			-4.823
267004.000			33.765			-4.824
267104.000			33.764			-4.823
267205.000			33.763			-4.823
267304.000			33.763			-4.823
267404.000			33.763			-4.823
267504.000			33.762			-4.823
267604.000			33.762			-4.823
267704.000			33.762			-4.823
267805.000			33.762			-4.823
267904.000			33.761			-4.823
268004.000			33.760			-4.823
268105.000			33.761			-4.823
268204.000			33.762			-4.823
268304.000			33.761			-4.823
268404.000			33.761			-4.823
268504.000			33.760			-4.823
268603.000			33.760			-4.823
268705.000			33.759			-4.823
268804.000			33.758			-4.823
268904.000			33.759			-4.823
269005.000			33.759			-4.823
269104.000			33.759			-4.823
269205.000			33.759			-4.823
269304.000			33.758			-4.823
269404.000			33.758			-4.823
269504.000			33.758			-4.823
269604.000			33.757			-4.822
269704.000			33.757			-4.822
269805.000			33.756			-4.822
269904.000			33.756			-4.822
270004.000			33.756			-4.822
270105.000			33.755			-4.822
270204.000			33.756			-4.822
270304.000			33.755			-4.822
270404.000			33.756			-4.822
270504.000			33.755			-4.822
270603.000			33.755			-4.822
270705.000			33.755			-4.822
270804.000			33.755			-4.822
270904.000			33.754			-4.822
271005.000			33.754			-4.822
271104.000			33.753			-4.822
271204.000			33.753			-4.822
271304.000			33.755			-4.822
271404.000			33.754			-4.822
271503.000			33.753			-4.822
271605.000			33.753			-4.822
271704.000			33.751			-4.822
271804.000			33.752			-4.822
271905.000			33.752			-4.822
272004.000			33.751			-4.822
272104.000			33.750			-4.821
272204.000			33.750			-4.821
272304.000			33.751			-4.822
272405.000			33.750			-4.821
272504.000			33.750			-4.821
272604.000			33.750			-4.821
272705.000			33.750			-4.821
272804.000			33.749			-4.821
272904.000			33.749			-4.821
273005.000			33.750			-4.821
273103.000			33.751			-4.822
273204.000			33.749			-4.821
273305.000			33.748			-4.821
273404.000			33.747			-4.821
273504.000			33.747			-4.821
273605.000			33.748			-4.821
273704.000			33.748			-4.821
273804.000			33.747			-4.821
273905.000			33.747			-4.821
274003.000			33.747			-4.821
274104.000			33.746			-4.821
274204.000			33.746			-4.821
274304.000			33.746			-4.821
274404.000			33.745			-4.821
274505.000			33.746			-4.821
274604.000			33.745			-4.821
274704.000			33.745			-4.821
274805.000			33.745			-4.821
274903.000			33.745			-4.821
275004.000			33.744			-4.821
275104.000			33.743			-4.820
275204.000			33.743			-4.820
275304.000			33.744			-4.821
275405.000			33.744			-4.821
275504.000			33.743			-4.820
275605.000			33.742			-4.820
275704.000			33.742			-4.820
275804.000			33.743			-4.820
275905.000			33.744			-4.821
276003.000			33.743			-4.820
276104.000			33.741			-4.820
276205.000			33.741			-4.820
276304.000			33.741			-4.820
276404.000			33.742			-4.820
276505.000			33.742			-4.820
276604.000			33.741			-4.820
276704.000			33.740			-4.820
276805.000			33.741			-4.820
276903.000			33.741			-4.820
277004.000			33.740			-4.820
277105.000			33.740			-4.820
277204.000			33.740			-4.820
277304.000			33.740			-4.820
277405.000			33.739			-4.820
277504.000			33.737			-4.820
277604.000			33.738			-4.820
277705.000			33.738			-4.820
277803.000			33.738			-4.820
277904.000			33.738			-4.820
278005.000			33.738			-4.820
278104.000			33.737			-4.820
278204.000			33.737			-4.820
278305.000			33.737			-4.820
278404.000			33.736			-4.819
278504.000			33.736			-4.819
278605.000			33.736			-4.819
278703.000			33.736			-4.819
278805.000			33.737			-4.820
278904.000			33.736			-4.819
279004.000			33.735			-4.819
279105.000			33.735			-4.819
279204.000			33.734			-4.819
279304.000			33.734			-4.819
279405.000			33.734			-4.819
279504.000			33.734			-4.819
279603.000			33.734			-4.819
279705.000			33.733			-4.819
279803.000			33.733			-4.819
279904.000			33.733			-4.819
280005.000			33.733			-4.819
280104.000			33.732			-4.819
280204.000			33.733			-4.819
280305.000			33.732			-4.819
280404.000			33.732			-4.819
280503.000			33.732			-4.819
280605.000			33.732			-4.819
280704.000			33.731			-4.819
280804.000			33.730			-4.819
280905.000			33.730			-4.819
281004.000			33.730			-4.819
281104.000			33.730			-4.819
281205.000			33.729			-4.818
281304.000			33.729			-4.818
281403.000			33.730			-4.819
281505.000			33.731			-4.819
281604.000			33.730			-4.819
281704.000			33.729			-4.818
281805.000			33.729			-4.818
281904.000			33.729			-4.818
282005.000			33.729			-4.818
282104.000			33.728			-4.818
282204.000			33.727			-4.818
282304.000			33.728			-4.818
282404.000			33.728			-4.818
282503.000			33.727			-4.818
282605.000			33.727			-4.818
282704.000			33.727			-4.818
282804.000			33.726			-4.818
282905.000			33.726			-4.818
283004.000			33.726			-4.818
283104.000			33.726			-4.818
283204.000			33.727			-4.818
283304.000			33.725			-4.818
283403.000			33.726			-4.818
283505.000			33.725			-4.818
283604.000			33.724			-4.818
283704.000			33.724			-4.818
283805.000			33.724			-4.818
283904.000			33.724			-4.818
284004.000			33.724			-4.818
284104.000			33.723			-4.818
284204.000			33.723			-4.818
284303.000			33.723			-4.818
284405.000			33.724			-4.818
284504.000			33.723			-4.818
284604.000			33.723			-4.818
284705.000			33.723			-4.818
284804.000			33.722			-4.817
284904.000			33.721			-4.817
285004.000			33.722			-4.817
285104.000			33.721			-4.817
285203.000			33.721			-4.817
285304.000			33.721			-4.817
285404.000			33.720			-4.817
285505.000			33.720			-4.817
285604.000			33.721			-4.817
285704.000			33.720			-4.817
285805.000			33.720			-4.817
285904.000			33.720			-4.817
286004.000			33.719			-4.817
286104.000			33.720			-4.817
286204.000			33.719			-4.817
286304.000			33.718			-4.817
286405.000			33.718			-4.817
286504.000			33.717			-4.817
286604.000			33.718			-4.817
286705.000			33.719			-4.817
286804.000			33.718			-4.817
286904.000			33.717			-4.817
287004.000			33.717			-4.817
287104.000			33.717			-4.817
287204.000			33.716			-4.817
287305.000			33.716			-4.817
287404.000			33.716			-4.817
287504.000			33.717			-4.817
287605.000			33.716			-4.817
287704.000			33.715			-4.816
287804.000			33.716			-4.817
287904.000			33.715			-4.816
288004.000			33.714			-4.816
288104.000			33.715			-4.816
288205.000			33.715			-4.816
288304.000			33.714			-4.816
288405.000			33.713			-4.816
288504.000			33.714			-4.816
288604.000			33.713			-4.816
288705.000			33.713			-4.816
288803.000			33.712			-4.816
288904.000			33.713			-4.816
289004.000			33.713			-4.816
289104.000			33.713			-4.816
289204.000			33.712			-4.816
289305.000			33.711			-4.816
289404.000			33.710			-4.816
289504.000			33.711			-4.816
289605.000			33.711			-4.816
289703.000			33.710			-4.816
289804.000			33.710			-4.816
289904.000			33.711			-4.816
290004.000			33.710			-4.816
290104.000			33.710			-4.816
290205.000			33.709			-4.816
290304.000			33.709			-4.816
290404.000			33.709			-4.816
290505.000			33.709			-4.816
290603.000			33.708			-4.815
290704.000			33.708			-4.815
290804.000			33.708			-4.815
290904.000			33.709			-4.816
291004.000			33.708			-4.815
291105.000			33.707			-4.815
291204.000			33.707			-4.815
291304.000			33.707			-4.815
291405.000			33.707			-4.815
291503.000			33.707			-4.815
291605.000			33.707			-4.815
291703.000			33.707			-4.815
291804.000			33.707			-4.815
291905.000			33.706			-4.815
292004.000			33.705			-4.815
292104.000			33.705			-4.815
292205.000			33.706			-4.815
292304.000			33.706			-4.815
292403.000			33.705			-4.815
292505.000			33.704			-4.815
292604.000			33.703			-4.815
292704.000			33.704			-4.815
292805.000			33.704			-4.815
292904.000			33.703			-4.815
293004.000			33.703			-4.815
293105.000			33.703			-4.815
293204.000			33.704			-4.815
293303.000			33.704			-4.815
293405.000			33.702			-4.815
293504.000			33.702			-4.815
293604.000			33.702			-4.815
293705.000			33.702			-4.815
293804.000			33.702			-4.815
293904.000			33.702			-4.815
294005.000			33.701			-4.814
294104.000			33.701			-4.814
294203.000			33.699			-4.814
294305.000			33.699			-4.814
294404.000			33.700			-4.814
294504.000			33.701			-4.814
294605.000			33.700			-4.814
294704.000			33.700			-4.814
294805.000			33.700			-4.814
294904.000			33.699			-4.814
295004.000			33.699			-4.814
295104.000			33.699			-4.814
295204.000			33.698			-4.814
295303.000			33.699			-4.814
295405.000			33.698			-4.814
295504.000			33.698			-4.814
295604.000			33.698			-4.814
295705.000			33.699			-4.814
295804.000			33.697			-4.814
295904.000			33.697			-4.814
296005.000			33.697			-4.814
296104.000			33.696			-4.814
296203.000			33.697			-4.814
296305.000			33.697			-4.814
296404.000			33.696			-4.814
296504.000			33.696			-4.814
296605.000			33.695			-4.814
296704.000			33.695			-4.814
296804.000			33.695			-4.814
296905.000			33.695			-4.814
297004.000			33.695			-4.814
297103.000			33.694			-4.813
297205.000			33.694			-4.813
297303.000			33.694			-4.813
297404.000			33.695			-4.814
297505.000			33.695			-4.814
297604.000			33.695			-4.814
297704.000			33.693			-4.813
297805.000			33.694			-4.813
297904.000			33.693			-4.813
298005.000			33.692			-4.813
298104.000			33.693			-4.813
298203.000			33.692			-4.813
298305.000			33.692			-4.813
298404.000			33.692			-4.813
298504.000			33.692			-4.813
298605.000			33.691			-4.813
298704.000			33.692			-4.813
298804.000			33.690			-4.813
298905.000			33.690			-4.813
299004.000			33.690			-4.813
299103.000			33.690			-4.813
299205.000			33.690			-4.813
299303.000			33.689			-4.813
299404.000			33.690			-4.813
299505.000			33.690			-4.813
299604.000			33.689			-4.813
299704.000			33.689			-4.813
299805.000			33.689			-4.813
299904.000			33.689			-4.813
