# Acquired on 08/01/2024 12:36:09 
# SPIDER: Creep_-2mm_07714532B-2
# CREEP MEASUREMENT

# time [ms]		force [N]		stiffness [N/mm]
1.000			3.993			-1.996
101.000			4.989			-2.494
202.000			5.595			-2.798
300.000			5.576			-2.788
400.000			5.550			-2.775
501.000			5.531			-2.765
600.000			5.516			-2.758
700.000			5.502			-2.751
802.000			5.491			-2.745
901.000			5.472			-2.736
1000.000			5.464			-2.732
1101.000			5.456			-2.728
1200.000			5.449			-2.725
1300.000			5.443			-2.722
1401.000			5.438			-2.719
1500.000			5.432			-2.716
1602.000			5.428			-2.714
1701.000			5.418			-2.709
1800.000			5.414			-2.707
1901.000			5.409			-2.705
2000.000			5.406			-2.703
2100.000			5.403			-2.701
2201.000			5.399			-2.699
2301.000			5.396			-2.698
2401.000			5.388			-2.694
2501.000			5.386			-2.693
2600.000			5.383			-2.691
2700.000			5.380			-2.690
2801.000			5.378			-2.689
2900.000			5.375			-2.687
3000.000			5.372			-2.686
3102.000			5.368			-2.684
3201.000			5.365			-2.683
3300.000			5.363			-2.682
3401.000			5.362			-2.681
3500.000			5.360			-2.680
3600.000			5.357			-2.678
3701.000			5.355			-2.678
3801.000			5.351			-2.676
3901.000			5.350			-2.675
4002.000			5.347			-2.674
4100.000			5.347			-2.673
4200.000			5.345			-2.673
4301.000			5.343			-2.671
4400.000			5.342			-2.671
4500.000			5.341			-2.670
4602.000			5.337			-2.669
4701.000			5.335			-2.667
4800.000			5.333			-2.666
4900.000			5.331			-2.666
5000.000			5.331			-2.665
5101.000			5.330			-2.665
5200.000			5.329			-2.665
5301.000			5.326			-2.663
5402.000			5.324			-2.662
5500.000			5.323			-2.661
5600.000			5.322			-2.661
5701.000			5.321			-2.660
5800.000			5.319			-2.659
5900.000			5.318			-2.659
6001.000			5.316			-2.658
6101.000			5.315			-2.657
6201.000			5.314			-2.657
6301.000			5.312			-2.656
6400.000			5.310			-2.655
6500.000			5.310			-2.655
6601.000			5.309			-2.654
6700.000			5.308			-2.654
6801.000			5.307			-2.654
6902.000			5.305			-2.652
7000.000			5.304			-2.652
7100.000			5.303			-2.651
7201.000			5.302			-2.651
7300.000			5.301			-2.651
7400.000			5.301			-2.650
7502.000			5.300			-2.650
7601.000			5.299			-2.649
7701.000			5.298			-2.649
7801.000			5.297			-2.649
7900.000			5.296			-2.648
8000.000			5.293			-2.647
8100.000			5.293			-2.646
8200.000			5.292			-2.646
8302.000			5.291			-2.645
8401.000			5.290			-2.645
8500.000			5.289			-2.645
8601.000			5.289			-2.645
8700.000			5.288			-2.644
8800.000			5.288			-2.644
8901.000			5.286			-2.643
9000.000			5.286			-2.643
9101.000			5.285			-2.643
9202.000			5.285			-2.642
9300.000			5.283			-2.642
9400.000			5.283			-2.642
9501.000			5.283			-2.641
9600.000			5.282			-2.641
9700.000			5.280			-2.640
9801.000			5.280			-2.640
9901.000			5.279			-2.639
10001.000			5.278			-2.639
10101.000			5.277			-2.639
10200.000			5.277			-2.639
10300.000			5.277			-2.639
10401.000			5.275			-2.637
10500.000			5.275			-2.638
10600.000			5.274			-2.637
10702.000			5.274			-2.637
10801.000			5.274			-2.637
10900.000			5.272			-2.636
11001.000			5.272			-2.636
11100.000			5.270			-2.635
11200.000			5.269			-2.635
11300.000			5.269			-2.634
11401.000			5.268			-2.634
11502.000			5.268			-2.634
11600.000			5.267			-2.633
11700.000			5.266			-2.633
11801.000			5.267			-2.633
11900.000			5.266			-2.633
12000.000			5.265			-2.633
12101.000			5.264			-2.632
12201.000			5.262			-2.631
12301.000			5.262			-2.631
12401.000			5.262			-2.631
12500.000			5.262			-2.631
12600.000			5.261			-2.630
12701.000			5.261			-2.631
12800.000			5.260			-2.630
12900.000			5.260			-2.630
13002.000			5.259			-2.630
13101.000			5.258			-2.629
13200.000			5.258			-2.629
13301.000			5.256			-2.628
13400.000			5.256			-2.628
13500.000			5.256			-2.628
13601.000			5.256			-2.628
13701.000			5.255			-2.627
13801.000			5.254			-2.627
13902.000			5.253			-2.627
14000.000			5.253			-2.626
14100.000			5.253			-2.626
14201.000			5.253			-2.627
14300.000			5.253			-2.626
14400.000			5.252			-2.626
14502.000			5.251			-2.625
14601.000			5.251			-2.625
14701.000			5.250			-2.625
14800.000			5.250			-2.625
14900.000			5.249			-2.625
15001.000			5.248			-2.624
15100.000			5.248			-2.624
15200.000			5.247			-2.624
15302.000			5.247			-2.624
15401.000			5.247			-2.623
15500.000			5.247			-2.623
15601.000			5.245			-2.622
15700.000			5.243			-2.622
15800.000			5.243			-2.622
15901.000			5.244			-2.622
16000.000			5.244			-2.622
16101.000			5.243			-2.621
16202.000			5.242			-2.621
16300.000			5.241			-2.620
16400.000			5.241			-2.621
16501.000			5.241			-2.620
16600.000			5.240			-2.620
16700.000			5.241			-2.620
16801.000			5.240			-2.620
16901.000			5.239			-2.620
17001.000			5.240			-2.620
17101.000			5.238			-2.619
17200.000			5.237			-2.618
17300.000			5.238			-2.619
17401.000			5.238			-2.619
17500.000			5.238			-2.619
17600.000			5.237			-2.619
17702.000			5.237			-2.618
17801.000			5.236			-2.618
17901.000			5.235			-2.618
18000.000			5.234			-2.617
18100.000			5.235			-2.617
18201.000			5.235			-2.618
18300.000			5.234			-2.617
18400.000			5.233			-2.617
18502.000			5.233			-2.616
18601.000			5.233			-2.616
18700.000			5.232			-2.616
18801.000			5.233			-2.616
18900.000			5.232			-2.616
19000.000			5.232			-2.616
19101.000			5.230			-2.615
19201.000			5.231			-2.615
19301.000			5.231			-2.615
19401.000			5.230			-2.615
19500.000			5.230			-2.615
19600.000			5.230			-2.615
19701.000			5.228			-2.614
19800.000			5.228			-2.614
19900.000			5.227			-2.614
20002.000			5.227			-2.614
20101.000			5.227			-2.614
20200.000			5.227			-2.613
20301.000			5.227			-2.613
20400.000			5.227			-2.613
20500.000			5.227			-2.613
20601.000			5.225			-2.613
20700.000			5.225			-2.612
20802.000			5.225			-2.612
20901.000			5.224			-2.612
21000.000			5.224			-2.612
21101.000			5.225			-2.612
21200.000			5.225			-2.612
21300.000			5.224			-2.612
21401.000			5.224			-2.612
21501.000			5.223			-2.611
21601.000			5.223			-2.611
21701.000			5.222			-2.611
21800.000			5.221			-2.611
21900.000			5.221			-2.611
22001.000			5.221			-2.611
22100.000			5.221			-2.611
22200.000			5.221			-2.611
22302.000			5.221			-2.611
22401.000			5.221			-2.610
22500.000			5.221			-2.611
22601.000			5.222			-2.611
22700.000			5.221			-2.610
22800.000			5.219			-2.609
22901.000			5.219			-2.609
23000.000			5.219			-2.610
23101.000			5.219			-2.610
23202.000			5.219			-2.609
23300.000			5.218			-2.609
23400.000			5.217			-2.609
23501.000			5.217			-2.609
23600.000			5.217			-2.608
23700.000			5.216			-2.608
23802.000			5.217			-2.608
23901.000			5.216			-2.608
24000.000			5.215			-2.607
24100.000			5.214			-2.607
24200.000			5.214			-2.607
24301.000			5.214			-2.607
24400.000			5.214			-2.607
24500.000			5.215			-2.607
24602.000			5.215			-2.608
24701.000			5.214			-2.607
24800.000			5.212			-2.606
24901.000			5.212			-2.606
25000.000			5.212			-2.606
25100.000			5.213			-2.606
25201.000			5.212			-2.606
25300.000			5.212			-2.606
25401.000			5.212			-2.606
25502.000			5.211			-2.606
25600.000			5.211			-2.605
25700.000			5.211			-2.606
25801.000			5.212			-2.606
25900.000			5.211			-2.605
26000.000			5.210			-2.605
26102.000			5.210			-2.605
26201.000			5.209			-2.604
26301.000			5.208			-2.604
26401.000			5.208			-2.604
26500.000			5.208			-2.604
26600.000			5.208			-2.604
26701.000			5.208			-2.604
26800.000			5.208			-2.604
26901.000			5.208			-2.604
27002.000			5.208			-2.604
27100.000			5.208			-2.604
27200.000			5.208			-2.604
27300.000			5.207			-2.604
27400.000			5.206			-2.603
27501.000			5.206			-2.603
27600.000			5.206			-2.603
27701.000			5.206			-2.603
27802.000			5.205			-2.603
27900.000			5.206			-2.603
28000.000			5.206			-2.603
28101.000			5.204			-2.602
28200.000			5.204			-2.602
28300.000			5.204			-2.602
28401.000			5.204			-2.602
28501.000			5.204			-2.602
28601.000			5.203			-2.602
28701.000			5.203			-2.602
28800.000			5.204			-2.602
28900.000			5.202			-2.601
29001.000			5.202			-2.601
29100.000			5.203			-2.601
29201.000			5.202			-2.601
29302.000			5.202			-2.601
29400.000			5.201			-2.601
29500.000			5.201			-2.600
29601.000			5.201			-2.600
29700.000			5.201			-2.600
29800.000			5.200			-2.600
29901.000			5.201			-2.601
30001.000			5.200			-2.600
30101.000			5.200			-2.600
30201.000			5.201			-2.600
30300.000			5.201			-2.600
30400.000			5.200			-2.600
30500.000			5.199			-2.600
30600.000			5.198			-2.599
30701.000			5.199			-2.599
30801.000			5.199			-2.599
30901.000			5.199			-2.599
31001.000			5.198			-2.599
31100.000			5.198			-2.599
31200.000			5.198			-2.599
31301.000			5.197			-2.599
31400.000			5.196			-2.598
31500.000			5.197			-2.598
31602.000			5.198			-2.599
31701.000			5.197			-2.598
31800.000			5.196			-2.598
31901.000			5.196			-2.598
32000.000			5.196			-2.598
32100.000			5.195			-2.598
32201.000			5.195			-2.598
32300.000			5.195			-2.598
32401.000			5.196			-2.598
32502.000			5.195			-2.598
32600.000			5.194			-2.597
32700.000			5.194			-2.597
32801.000			5.195			-2.597
32900.000			5.195			-2.597
33000.000			5.194			-2.597
33102.000			5.194			-2.597
33201.000			5.194			-2.597
33300.000			5.193			-2.597
33401.000			5.194			-2.597
33500.000			5.193			-2.597
33600.000			5.193			-2.597
33700.000			5.193			-2.597
33800.000			5.193			-2.596
33902.000			5.192			-2.596
34001.000			5.192			-2.596
34100.000			5.191			-2.596
34201.000			5.191			-2.596
34300.000			5.191			-2.596
34400.000			5.191			-2.595
34501.000			5.191			-2.595
34600.000			5.190			-2.595
34701.000			5.190			-2.595
34802.000			5.190			-2.595
34900.000			5.190			-2.595
35000.000			5.190			-2.595
35101.000			5.190			-2.595
35200.000			5.189			-2.595
35300.000			5.189			-2.595
35401.000			5.189			-2.595
35501.000			5.189			-2.594
35601.000			5.189			-2.594
35701.000			5.188			-2.594
35800.000			5.188			-2.594
35900.000			5.188			-2.594
36001.000			5.188			-2.594
36100.000			5.188			-2.594
36200.000			5.188			-2.594
36302.000			5.187			-2.594
36401.000			5.186			-2.593
36500.000			5.186			-2.593
36601.000			5.187			-2.593
36700.000			5.186			-2.593
36800.000			5.186			-2.593
36900.000			5.187			-2.593
37000.000			5.186			-2.593
37102.000			5.186			-2.593
37201.000			5.185			-2.593
37300.000			5.185			-2.592
37401.000			5.185			-2.593
37500.000			5.185			-2.592
37600.000			5.185			-2.592
37701.000			5.184			-2.592
37800.000			5.184			-2.592
37901.000			5.184			-2.592
38002.000			5.184			-2.592
38100.000			5.184			-2.592
38200.000			5.184			-2.592
38301.000			5.184			-2.592
38400.000			5.184			-2.592
38500.000			5.183			-2.591
38601.000			5.182			-2.591
38701.000			5.182			-2.591
38801.000			5.183			-2.592
38901.000			5.182			-2.591
39000.000			5.182			-2.591
39100.000			5.181			-2.591
39201.000			5.181			-2.590
39300.000			5.181			-2.591
39400.000			5.181			-2.591
39502.000			5.181			-2.590
39601.000			5.181			-2.590
39700.000			5.181			-2.591
39801.000			5.181			-2.590
39900.000			5.181			-2.590
40000.000			5.181			-2.591
40100.000			5.180			-2.590
40200.000			5.180			-2.590
40302.000			5.180			-2.590
40401.000			5.179			-2.589
40500.000			5.179			-2.589
40601.000			5.179			-2.590
40700.000			5.178			-2.589
40800.000			5.178			-2.589
40901.000			5.179			-2.590
41001.000			5.178			-2.589
41101.000			5.179			-2.589
41201.000			5.180			-2.590
41300.000			5.178			-2.589
41400.000			5.177			-2.589
41501.000			5.178			-2.589
41600.000			5.178			-2.589
41700.000			5.177			-2.588
41802.000			5.177			-2.588
41901.000			5.178			-2.589
42000.000			5.177			-2.588
42101.000			5.177			-2.588
42200.000			5.177			-2.589
42300.000			5.177			-2.588
42401.000			5.177			-2.589
42500.000			5.177			-2.588
42601.000			5.176			-2.588
42702.000			5.175			-2.587
42800.000			5.175			-2.588
42900.000			5.176			-2.588
43001.000			5.175			-2.588
43100.000			5.174			-2.587
43200.000			5.174			-2.587
43300.000			5.175			-2.587
43401.000			5.175			-2.587
43502.000			5.175			-2.588
43600.000			5.175			-2.587
43700.000			5.174			-2.587
43801.000			5.174			-2.587
43900.000			5.174			-2.587
44000.000			5.174			-2.587
44101.000			5.174			-2.587
44201.000			5.174			-2.587
44301.000			5.174			-2.587
44401.000			5.173			-2.586
44500.000			5.172			-2.586
44600.000			5.172			-2.586
44701.000			5.172			-2.586
44800.000			5.172			-2.586
44900.000			5.172			-2.586
45002.000			5.173			-2.587
45101.000			5.173			-2.586
45200.000			5.172			-2.586
45301.000			5.172			-2.586
45400.000			5.172			-2.586
45500.000			5.171			-2.586
45601.000			5.171			-2.585
45701.000			5.172			-2.586
45801.000			5.171			-2.586
45901.000			5.170			-2.585
46000.000			5.170			-2.585
46100.000			5.171			-2.586
46201.000			5.170			-2.585
46300.000			5.170			-2.585
46400.000			5.170			-2.585
46502.000			5.170			-2.585
46601.000			5.169			-2.585
46701.000			5.169			-2.585
46800.000			5.169			-2.585
46900.000			5.169			-2.585
47001.000			5.169			-2.585
47100.000			5.169			-2.585
47200.000			5.169			-2.584
47302.000			5.168			-2.584
47401.000			5.168			-2.584
47500.000			5.168			-2.584
47601.000			5.168			-2.584
47700.000			5.168			-2.584
47800.000			5.168			-2.584
47901.000			5.167			-2.584
48000.000			5.167			-2.584
48100.000			5.167			-2.584
48202.000			5.166			-2.583
48301.000			5.168			-2.584
48400.000			5.168			-2.584
48501.000			5.168			-2.584
48600.000			5.168			-2.584
48700.000			5.168			-2.584
48801.000			5.167			-2.583
48901.000			5.166			-2.583
49001.000			5.166			-2.583
49102.000			5.165			-2.583
49200.000			5.165			-2.583
49300.000			5.164			-2.582
49401.000			5.165			-2.582
49500.000			5.166			-2.583
49600.000			5.166			-2.583
49700.000			5.164			-2.582
49801.000			5.164			-2.582
49902.000			5.165			-2.583
50000.000			5.165			-2.582
50100.000			5.165			-2.582
50201.000			5.164			-2.582
50300.000			5.165			-2.582
50400.000			5.165			-2.582
50502.000			5.164			-2.582
50601.000			5.164			-2.582
50701.000			5.163			-2.582
50801.000			5.163			-2.582
50900.000			5.164			-2.582
51000.000			5.163			-2.582
51101.000			5.164			-2.582
51200.000			5.163			-2.581
51301.000			5.163			-2.581
51402.000			5.162			-2.581
51500.000			5.163			-2.582
51600.000			5.164			-2.582
51701.000			5.164			-2.582
51800.000			5.164			-2.582
51900.000			5.162			-2.581
52001.000			5.163			-2.581
52101.000			5.162			-2.581
52201.000			5.162			-2.581
52301.000			5.162			-2.581
52400.000			5.162			-2.581
52500.000			5.162			-2.581
52601.000			5.161			-2.581
52700.000			5.161			-2.580
52800.000			5.162			-2.581
52902.000			5.162			-2.581
53001.000			5.161			-2.580
53101.000			5.160			-2.580
53200.000			5.162			-2.581
53300.000			5.161			-2.581
53401.000			5.160			-2.580
53500.000			5.161			-2.580
53601.000			5.161			-2.580
53702.000			5.160			-2.580
53800.000			5.160			-2.580
53900.000			5.161			-2.580
54001.000			5.160			-2.580
54100.000			5.158			-2.579
54200.000			5.159			-2.580
54301.000			5.159			-2.580
54401.000			5.159			-2.580
54501.000			5.160			-2.580
54601.000			5.159			-2.580
54700.000			5.159			-2.579
54800.000			5.158			-2.579
54901.000			5.159			-2.580
55000.000			5.159			-2.580
55100.000			5.159			-2.579
55202.000			5.158			-2.579
55301.000			5.158			-2.579
55400.000			5.159			-2.579
55501.000			5.159			-2.579
55600.000			5.159			-2.579
55700.000			5.159			-2.579
55801.000			5.158			-2.579
55900.000			5.158			-2.579
56002.000			5.159			-2.579
56101.000			5.158			-2.579
56200.000			5.159			-2.579
56301.000			5.158			-2.579
56400.000			5.157			-2.578
56500.000			5.157			-2.579
56601.000			5.157			-2.579
56700.000			5.158			-2.579
56801.000			5.158			-2.579
56902.000			5.157			-2.578
57000.000			5.157			-2.579
57100.000			5.157			-2.579
57201.000			5.157			-2.579
57300.000			5.157			-2.578
57400.000			5.157			-2.579
57501.000			5.158			-2.579
57601.000			5.157			-2.579
57701.000			5.156			-2.578
57801.000			5.156			-2.578
57900.000			5.155			-2.578
58000.000			5.155			-2.577
58101.000			5.156			-2.578
58200.000			5.156			-2.578
58300.000			5.156			-2.578
58402.000			5.155			-2.577
58501.000			5.155			-2.577
58600.000			5.155			-2.577
58701.000			5.155			-2.577
58800.000			5.155			-2.578
58900.000			5.156			-2.578
59001.000			5.156			-2.578
59100.000			5.154			-2.577
59202.000			5.154			-2.577
59301.000			5.154			-2.577
59400.000			5.154			-2.577
59501.000			5.153			-2.577
59600.000			5.153			-2.577
59700.000			5.153			-2.577
59801.000			5.153			-2.577
59900.000			5.155			-2.577
60001.000			5.155			-2.578
60102.000			5.154			-2.577
60200.000			5.153			-2.576
60300.000			5.153			-2.577
60401.000			5.154			-2.577
60500.000			5.154			-2.577
60600.000			5.154			-2.577
60702.000			5.154			-2.577
60801.000			5.153			-2.577
60900.000			5.152			-2.576
61001.000			5.152			-2.576
61100.000			5.153			-2.576
61200.000			5.153			-2.577
61301.000			5.152			-2.576
61400.000			5.151			-2.576
61501.000			5.152			-2.576
61602.000			5.153			-2.576
61700.000			5.152			-2.576
61800.000			5.151			-2.576
61901.000			5.152			-2.576
62000.000			5.151			-2.575
62100.000			5.152			-2.576
62201.000			5.151			-2.576
62301.000			5.151			-2.576
62402.000			5.151			-2.575
62500.000			5.150			-2.575
62600.000			5.151			-2.575
62701.000			5.150			-2.575
62800.000			5.152			-2.576
62900.000			5.152			-2.576
63002.000			5.151			-2.576
63101.000			5.151			-2.576
63200.000			5.151			-2.576
63301.000			5.150			-2.575
63400.000			5.150			-2.575
63500.000			5.150			-2.575
63601.000			5.149			-2.575
63700.000			5.149			-2.575
63801.000			5.149			-2.575
63902.000			5.149			-2.575
64000.000			5.148			-2.574
64100.000			5.148			-2.574
64201.000			5.149			-2.575
64300.000			5.148			-2.574
64400.000			5.148			-2.574
64501.000			5.148			-2.574
64601.000			5.149			-2.574
64701.000			5.149			-2.575
64801.000			5.149			-2.575
64900.000			5.149			-2.574
65000.000			5.149			-2.574
65101.000			5.149			-2.574
65200.000			5.150			-2.575
65300.000			5.149			-2.574
65402.000			5.148			-2.574
65501.000			5.148			-2.574
65600.000			5.148			-2.574
65700.000			5.147			-2.574
65800.000			5.148			-2.574
65901.000			5.147			-2.574
66000.000			5.148			-2.574
66100.000			5.147			-2.573
66202.000			5.146			-2.573
66301.000			5.146			-2.573
66400.000			5.148			-2.574
66501.000			5.147			-2.573
66600.000			5.146			-2.573
66700.000			5.146			-2.573
66801.000			5.147			-2.573
66900.000			5.146			-2.573
67001.000			5.146			-2.573
67102.000			5.146			-2.573
67200.000			5.146			-2.573
67300.000			5.146			-2.573
67401.000			5.146			-2.573
67500.000			5.146			-2.573
67600.000			5.146			-2.573
67701.000			5.145			-2.573
67801.000			5.145			-2.572
67901.000			5.145			-2.573
68001.000			5.145			-2.572
68100.000			5.145			-2.572
68200.000			5.145			-2.572
68301.000			5.144			-2.572
68400.000			5.145			-2.572
68500.000			5.145			-2.572
68601.000			5.145			-2.573
68701.000			5.146			-2.573
68802.000			5.146			-2.573
68900.000			5.145			-2.572
69000.000			5.145			-2.572
69101.000			5.145			-2.572
69200.000			5.145			-2.573
69300.000			5.144			-2.572
69401.000			5.144			-2.572
69501.000			5.144			-2.572
69601.000			5.145			-2.572
69701.000			5.144			-2.572
69800.000			5.144			-2.572
69900.000			5.144			-2.572
70001.000			5.144			-2.572
70100.000			5.142			-2.571
70200.000			5.142			-2.571
70302.000			5.143			-2.572
70401.000			5.143			-2.571
70500.000			5.143			-2.571
70601.000			5.142			-2.571
70700.000			5.141			-2.570
70800.000			5.143			-2.572
70901.000			5.143			-2.571
71001.000			5.142			-2.571
71101.000			5.142			-2.571
71201.000			5.143			-2.571
71300.000			5.142			-2.571
71400.000			5.142			-2.571
71501.000			5.141			-2.571
71600.000			5.141			-2.571
71700.000			5.143			-2.571
71802.000			5.143			-2.571
71901.000			5.142			-2.571
72000.000			5.143			-2.571
72100.000			5.143			-2.571
72200.000			5.142			-2.571
72301.000			5.142			-2.571
72400.000			5.142			-2.571
72500.000			5.140			-2.570
72602.000			5.141			-2.571
72701.000			5.141			-2.571
72800.000			5.141			-2.571
72901.000			5.140			-2.570
73000.000			5.141			-2.570
73100.000			5.141			-2.570
73201.000			5.140			-2.570
73300.000			5.140			-2.570
73401.000			5.140			-2.570
73502.000			5.140			-2.570
73600.000			5.140			-2.570
73700.000			5.140			-2.570
73801.000			5.140			-2.570
73900.000			5.140			-2.570
74000.000			5.140			-2.570
74101.000			5.139			-2.570
74201.000			5.139			-2.569
74301.000			5.139			-2.569
74401.000			5.139			-2.569
74500.000			5.138			-2.569
74600.000			5.139			-2.570
74701.000			5.140			-2.570
74800.000			5.139			-2.569
74900.000			5.138			-2.569
75002.000			5.139			-2.569
75101.000			5.139			-2.569
75200.000			5.139			-2.570
75300.000			5.139			-2.570
75400.000			5.139			-2.569
75501.000			5.139			-2.570
75600.000			5.139			-2.569
75700.000			5.138			-2.569
75801.000			5.138			-2.569
75901.000			5.139			-2.569
76001.000			5.138			-2.569
76101.000			5.138			-2.569
76200.000			5.138			-2.569
76300.000			5.138			-2.569
76401.000			5.138			-2.569
76500.000			5.138			-2.569
76600.000			5.138			-2.569
76702.000			5.138			-2.569
76801.000			5.136			-2.568
76900.000			5.136			-2.568
77001.000			5.137			-2.569
77100.000			5.137			-2.568
77200.000			5.137			-2.568
77301.000			5.137			-2.569
77400.000			5.137			-2.568
77501.000			5.137			-2.568
77602.000			5.137			-2.568
77700.000			5.136			-2.568
77800.000			5.135			-2.568
77901.000			5.136			-2.568
78000.000			5.136			-2.568
78100.000			5.135			-2.568
78201.000			5.137			-2.568
78301.000			5.137			-2.568
78402.000			5.137			-2.568
78500.000			5.137			-2.569
78600.000			5.136			-2.568
78701.000			5.135			-2.568
78800.000			5.137			-2.568
78900.000			5.136			-2.568
79001.000			5.135			-2.567
79101.000			5.135			-2.567
79201.000			5.135			-2.568
79301.000			5.135			-2.568
79400.000			5.135			-2.567
79500.000			5.135			-2.567
79601.000			5.136			-2.568
79700.000			5.136			-2.568
79800.000			5.135			-2.568
79902.000			5.135			-2.567
80001.000			5.135			-2.568
80100.000			5.135			-2.568
80201.000			5.134			-2.567
80300.000			5.134			-2.567
80400.000			5.135			-2.567
80501.000			5.135			-2.567
80600.000			5.135			-2.568
80701.000			5.135			-2.567
80802.000			5.134			-2.567
80900.000			5.134			-2.567
81000.000			5.134			-2.567
81101.000			5.134			-2.567
81200.000			5.134			-2.567
81300.000			5.134			-2.567
81401.000			5.134			-2.567
81501.000			5.134			-2.567
81602.000			5.135			-2.567
81700.000			5.134			-2.567
81800.000			5.133			-2.567
81901.000			5.133			-2.566
82000.000			5.133			-2.566
82100.000			5.133			-2.566
82201.000			5.133			-2.566
82301.000			5.133			-2.566
82401.000			5.134			-2.567
82501.000			5.134			-2.567
82600.000			5.134			-2.567
82700.000			5.133			-2.566
82801.000			5.133			-2.567
82900.000			5.133			-2.567
83000.000			5.133			-2.567
83102.000			5.132			-2.566
83201.000			5.132			-2.566
83300.000			5.132			-2.566
83401.000			5.132			-2.566
83500.000			5.132			-2.566
83600.000			5.133			-2.566
83701.000			5.132			-2.566
83801.000			5.133			-2.566
83901.000			5.133			-2.566
84002.000			5.132			-2.566
84100.000			5.131			-2.566
84200.000			5.131			-2.566
84301.000			5.131			-2.566
84400.000			5.131			-2.566
84500.000			5.132			-2.566
84602.000			5.132			-2.566
84701.000			5.131			-2.566
84800.000			5.130			-2.565
84900.000			5.131			-2.565
85000.000			5.131			-2.566
85101.000			5.131			-2.566
85200.000			5.131			-2.566
85300.000			5.130			-2.565
85402.000			5.130			-2.565
85501.000			5.131			-2.565
85600.000			5.131			-2.565
85701.000			5.131			-2.565
85800.000			5.131			-2.565
85900.000			5.130			-2.565
86001.000			5.130			-2.565
86100.000			5.129			-2.565
86201.000			5.129			-2.565
86302.000			5.129			-2.565
86400.000			5.130			-2.565
86500.000			5.129			-2.565
86601.000			5.129			-2.565
86700.000			5.129			-2.565
86800.000			5.129			-2.565
86901.000			5.129			-2.564
87001.000			5.129			-2.564
87101.000			5.129			-2.564
87201.000			5.129			-2.565
87300.000			5.130			-2.565
87400.000			5.129			-2.564
87501.000			5.128			-2.564
87600.000			5.129			-2.565
87700.000			5.129			-2.564
87802.000			5.128			-2.564
87901.000			5.128			-2.564
88000.000			5.129			-2.564
88100.000			5.129			-2.564
88200.000			5.129			-2.565
88301.000			5.130			-2.565
88400.000			5.129			-2.565
88500.000			5.129			-2.564
88601.000			5.129			-2.564
88701.000			5.128			-2.564
88801.000			5.128			-2.564
88901.000			5.128			-2.564
89000.000			5.129			-2.565
89100.000			5.129			-2.565
89201.000			5.128			-2.564
89300.000			5.128			-2.564
89400.000			5.127			-2.564
89502.000			5.128			-2.564
89601.000			5.128			-2.564
89700.000			5.128			-2.564
89801.000			5.128			-2.564
89900.000			5.128			-2.564
90000.000			5.128			-2.564
90101.000			5.128			-2.564
90200.000			5.128			-2.564
90301.000			5.128			-2.564
90402.000			5.128			-2.564
90500.000			5.127			-2.564
90600.000			5.128			-2.564
90701.000			5.128			-2.564
90800.000			5.127			-2.564
90900.000			5.128			-2.564
91001.000			5.127			-2.564
91101.000			5.126			-2.563
91202.000			5.127			-2.563
91300.000			5.127			-2.563
91400.000			5.127			-2.563
91501.000			5.127			-2.563
91600.000			5.127			-2.563
91700.000			5.126			-2.563
91801.000			5.125			-2.563
91901.000			5.126			-2.563
92001.000			5.127			-2.563
92101.000			5.126			-2.563
92200.000			5.126			-2.563
92300.000			5.125			-2.563
92401.000			5.126			-2.563
92500.000			5.126			-2.563
92600.000			5.126			-2.563
92702.000			5.125			-2.563
92801.000			5.126			-2.563
92900.000			5.124			-2.562
93001.000			5.124			-2.562
93100.000			5.125			-2.563
93200.000			5.124			-2.562
93301.000			5.126			-2.563
93400.000			5.125			-2.563
93501.000			5.124			-2.562
93602.000			5.124			-2.562
93700.000			5.125			-2.563
93800.000			5.125			-2.563
93901.000			5.125			-2.562
94000.000			5.124			-2.562
94100.000			5.124			-2.562
94201.000			5.125			-2.563
94301.000			5.125			-2.562
94402.000			5.125			-2.562
94500.000			5.125			-2.562
94600.000			5.124			-2.562
94701.000			5.125			-2.562
94800.000			5.124			-2.562
94900.000			5.124			-2.562
95001.000			5.124			-2.562
95101.000			5.124			-2.562
95201.000			5.124			-2.562
95301.000			5.124			-2.562
95400.000			5.124			-2.562
95500.000			5.124			-2.562
95601.000			5.123			-2.562
95700.000			5.124			-2.562
95800.000			5.124			-2.562
95902.000			5.123			-2.562
96001.000			5.123			-2.562
96100.000			5.123			-2.562
96201.000			5.124			-2.562
96300.000			5.124			-2.562
96400.000			5.123			-2.562
96501.000			5.122			-2.561
96601.000			5.122			-2.561
96701.000			5.123			-2.561
96802.000			5.123			-2.562
96900.000			5.123			-2.561
97000.000			5.123			-2.561
97101.000			5.122			-2.561
97200.000			5.123			-2.562
97300.000			5.123			-2.562
97402.000			5.123			-2.561
97501.000			5.122			-2.561
97602.000			5.122			-2.561
97700.000			5.122			-2.561
97800.000			5.123			-2.561
97901.000			5.122			-2.561
98000.000			5.121			-2.561
98100.000			5.121			-2.561
98201.000			5.122			-2.561
98301.000			5.122			-2.561
98401.000			5.123			-2.561
98501.000			5.122			-2.561
98600.000			5.123			-2.561
98700.000			5.122			-2.561
98801.000			5.122			-2.561
98900.000			5.122			-2.561
99000.000			5.122			-2.561
99102.000			5.121			-2.561
99201.000			5.121			-2.561
99300.000			5.121			-2.560
99401.000			5.121			-2.561
99500.000			5.122			-2.561
99600.000			5.121			-2.561
99701.000			5.120			-2.560
99800.000			5.120			-2.560
99901.000			5.121			-2.561
100002.000			5.121			-2.561
100100.000			5.121			-2.561
100200.000			5.121			-2.561
100301.000			5.121			-2.561
100400.000			5.121			-2.561
100500.000			5.121			-2.560
100602.000			5.120			-2.560
100701.000			5.120			-2.560
100800.000			5.120			-2.560
100900.000			5.119			-2.559
101000.000			5.119			-2.559
101101.000			5.119			-2.560
101200.000			5.119			-2.560
101300.000			5.120			-2.560
101402.000			5.120			-2.560
101501.000			5.120			-2.560
101600.000			5.121			-2.560
101701.000			5.120			-2.560
101800.000			5.119			-2.560
101900.000			5.120			-2.560
102001.000			5.119			-2.560
102100.000			5.121			-2.560
102201.000			5.120			-2.560
102302.000			5.120			-2.560
102401.000			5.120			-2.560
102500.000			5.120			-2.560
102601.000			5.120			-2.560
102700.000			5.119			-2.560
102800.000			5.120			-2.560
102901.000			5.120			-2.560
103001.000			5.120			-2.560
103101.000			5.120			-2.560
103201.000			5.120			-2.560
103300.000			5.120			-2.560
103400.000			5.119			-2.560
103501.000			5.118			-2.559
103600.000			5.118			-2.559
103700.000			5.118			-2.559
103802.000			5.118			-2.559
103901.000			5.119			-2.560
104002.000			5.119			-2.559
104100.000			5.117			-2.559
104200.000			5.119			-2.559
104301.000			5.119			-2.559
104400.000			5.119			-2.559
104500.000			5.118			-2.559
104601.000			5.117			-2.559
104701.000			5.117			-2.559
104801.000			5.118			-2.559
104901.000			5.118			-2.559
105000.000			5.118			-2.559
105100.000			5.117			-2.559
105201.000			5.118			-2.559
105300.000			5.118			-2.559
105400.000			5.118			-2.559
105502.000			5.116			-2.558
105601.000			5.118			-2.559
105700.000			5.118			-2.559
105801.000			5.118			-2.559
105900.000			5.118			-2.559
106000.000			5.117			-2.559
106101.000			5.117			-2.559
106200.000			5.117			-2.559
106301.000			5.117			-2.559
106402.000			5.117			-2.558
106500.000			5.116			-2.558
106600.000			5.116			-2.558
106701.000			5.115			-2.558
106800.000			5.116			-2.558
106900.000			5.117			-2.558
107001.000			5.116			-2.558
107101.000			5.115			-2.558
107202.000			5.116			-2.558
107300.000			5.116			-2.558
107400.000			5.116			-2.558
107501.000			5.116			-2.558
107600.000			5.116			-2.558
107700.000			5.117			-2.558
107801.000			5.116			-2.558
107901.000			5.116			-2.558
108001.000			5.116			-2.558
108101.000			5.116			-2.558
108200.000			5.115			-2.558
108300.000			5.116			-2.558
108401.000			5.115			-2.558
108500.000			5.116			-2.558
108600.000			5.115			-2.558
108702.000			5.115			-2.558
108801.000			5.114			-2.557
108901.000			5.115			-2.558
109001.000			5.115			-2.557
109100.000			5.115			-2.557
109200.000			5.115			-2.558
109301.000			5.115			-2.558
109400.000			5.115			-2.557
109501.000			5.115			-2.558
109602.000			5.115			-2.557
109701.000			5.115			-2.557
109800.000			5.114			-2.557
109901.000			5.114			-2.557
110000.000			5.114			-2.557
110100.000			5.114			-2.557
110201.000			5.114			-2.557
110300.000			5.113			-2.557
110402.000			5.114			-2.557
110501.000			5.114			-2.557
110600.000			5.114			-2.557
110701.000			5.114			-2.557
110800.000			5.113			-2.556
110900.000			5.114			-2.557
111001.000			5.114			-2.557
111100.000			5.113			-2.557
111201.000			5.113			-2.557
111302.000			5.115			-2.557
111400.000			5.114			-2.557
111500.000			5.113			-2.557
111601.000			5.114			-2.557
111700.000			5.113			-2.556
111800.000			5.113			-2.556
111902.000			5.113			-2.557
112001.000			5.113			-2.557
112101.000			5.114			-2.557
112201.000			5.112			-2.556
112300.000			5.113			-2.557
112400.000			5.114			-2.557
112501.000			5.113			-2.557
112600.000			5.112			-2.556
112701.000			5.112			-2.556
112802.000			5.112			-2.556
112900.000			5.113			-2.556
113000.000			5.113			-2.556
113101.000			5.113			-2.556
113200.000			5.112			-2.556
113300.000			5.112			-2.556
113401.000			5.112			-2.556
113501.000			5.111			-2.556
113602.000			5.112			-2.556
113700.000			5.112			-2.556
113800.000			5.112			-2.556
113901.000			5.111			-2.556
114000.000			5.111			-2.555
114100.000			5.110			-2.555
114201.000			5.111			-2.555
114301.000			5.110			-2.555
114401.000			5.110			-2.555
114501.000			5.111			-2.555
114600.000			5.110			-2.555
114700.000			5.111			-2.556
114801.000			5.112			-2.556
114900.000			5.111			-2.555
115000.000			5.111			-2.555
115102.000			5.111			-2.555
115201.000			5.110			-2.555
115300.000			5.110			-2.555
115401.000			5.111			-2.556
115500.000			5.111			-2.555
115600.000			5.111			-2.555
115701.000			5.110			-2.555
115800.000			5.111			-2.555
115901.000			5.111			-2.556
116002.000			5.111			-2.556
116100.000			5.111			-2.555
116200.000			5.110			-2.555
116301.000			5.110			-2.555
116400.000			5.110			-2.555
116500.000			5.109			-2.555
116601.000			5.110			-2.555
116701.000			5.110			-2.555
116802.000			5.110			-2.555
116901.000			5.111			-2.555
117000.000			5.111			-2.555
117101.000			5.110			-2.555
117200.000			5.110			-2.555
117300.000			5.110			-2.555
117401.000			5.109			-2.554
117501.000			5.109			-2.554
117601.000			5.111			-2.555
117701.000			5.109			-2.555
117800.000			5.108			-2.554
117900.000			5.109			-2.555
118001.000			5.110			-2.555
118100.000			5.110			-2.555
118200.000			5.108			-2.554
118301.000			5.108			-2.554
118401.000			5.109			-2.554
118501.000			5.109			-2.555
118601.000			5.110			-2.555
118700.000			5.109			-2.554
118800.000			5.109			-2.554
118901.000			5.109			-2.555
119000.000			5.109			-2.554
119100.000			5.107			-2.554
119202.000			5.107			-2.553
119301.000			5.108			-2.554
119400.000			5.108			-2.554
119501.000			5.108			-2.554
119600.000			5.108			-2.554
119700.000			5.109			-2.554
119801.000			5.108			-2.554
119900.000			5.108			-2.554
120002.000			5.108			-2.554
120101.000			5.108			-2.554
120200.000			5.108			-2.554
120301.000			5.108			-2.554
120400.000			5.107			-2.554
120500.000			5.108			-2.554
120601.000			5.108			-2.554
120700.000			5.108			-2.554
120801.000			5.107			-2.554
120902.000			5.106			-2.553
121001.000			5.106			-2.553
121100.000			5.107			-2.553
121201.000			5.107			-2.553
121300.000			5.107			-2.554
121400.000			5.108			-2.554
121501.000			5.107			-2.554
121601.000			5.107			-2.554
121701.000			5.107			-2.553
121801.000			5.108			-2.554
121900.000			5.108			-2.554
122000.000			5.107			-2.554
122101.000			5.107			-2.554
122200.000			5.106			-2.553
122300.000			5.107			-2.554
122401.000			5.107			-2.554
122501.000			5.107			-2.554
122601.000			5.107			-2.554
122701.000			5.107			-2.554
122800.000			5.107			-2.553
122900.000			5.106			-2.553
123001.000			5.106			-2.553
123100.000			5.106			-2.553
123200.000			5.106			-2.553
123302.000			5.106			-2.553
123401.000			5.106			-2.553
123501.000			5.105			-2.552
123600.000			5.105			-2.552
123700.000			5.105			-2.552
123801.000			5.104			-2.552
123900.000			5.105			-2.552
124000.000			5.106			-2.553
124102.000			5.105			-2.553
124201.000			5.106			-2.553
124300.000			5.106			-2.553
124401.000			5.106			-2.553
124500.000			5.104			-2.552
124600.000			5.105			-2.553
124701.000			5.106			-2.553
124800.000			5.106			-2.553
124901.000			5.105			-2.553
125002.000			5.105			-2.553
125100.000			5.106			-2.553
125200.000			5.105			-2.553
125301.000			5.104			-2.552
125400.000			5.105			-2.552
125500.000			5.105			-2.552
125601.000			5.103			-2.552
125701.000			5.104			-2.552
125801.000			5.105			-2.552
125901.000			5.106			-2.553
126000.000			5.105			-2.553
126100.000			5.105			-2.552
126201.000			5.105			-2.553
126300.000			5.105			-2.553
126400.000			5.105			-2.552
126502.000			5.105			-2.552
126601.000			5.104			-2.552
126701.000			5.104			-2.552
126800.000			5.105			-2.552
126900.000			5.105			-2.552
127001.000			5.104			-2.552
127100.000			5.105			-2.552
127200.000			5.104			-2.552
127302.000			5.104			-2.552
127401.000			5.104			-2.552
127500.000			5.104			-2.552
127601.000			5.104			-2.552
127700.000			5.103			-2.552
127800.000			5.104			-2.552
127901.000			5.103			-2.552
128000.000			5.103			-2.552
128100.000			5.104			-2.552
128202.000			5.104			-2.552
128301.000			5.103			-2.552
128400.000			5.103			-2.551
128501.000			5.103			-2.552
128600.000			5.104			-2.552
128700.000			5.104			-2.552
128801.000			5.103			-2.551
128900.000			5.103			-2.551
129001.000			5.102			-2.551
129102.000			5.103			-2.551
129200.000			5.103			-2.552
129300.000			5.102			-2.551
129401.000			5.102			-2.551
129500.000			5.103			-2.551
129600.000			5.103			-2.551
129700.000			5.102			-2.551
129801.000			5.102			-2.551
129902.000			5.102			-2.551
130000.000			5.102			-2.551
130100.000			5.103			-2.551
130201.000			5.103			-2.551
130300.000			5.103			-2.551
130400.000			5.103			-2.551
130501.000			5.103			-2.551
130601.000			5.103			-2.551
130701.000			5.103			-2.551
130801.000			5.103			-2.551
130900.000			5.102			-2.551
131000.000			5.102			-2.551
131101.000			5.102			-2.551
131200.000			5.103			-2.551
131300.000			5.103			-2.551
131402.000			5.102			-2.551
131501.000			5.102			-2.551
131600.000			5.103			-2.551
131701.000			5.102			-2.551
131800.000			5.102			-2.551
131900.000			5.102			-2.551
132001.000			5.102			-2.551
132100.000			5.102			-2.551
132200.000			5.102			-2.551
132302.000			5.102			-2.551
132401.000			5.101			-2.550
132500.000			5.102			-2.551
132601.000			5.101			-2.550
132700.000			5.101			-2.551
132800.000			5.101			-2.551
132900.000			5.101			-2.551
133000.000			5.101			-2.551
133102.000			5.102			-2.551
133201.000			5.102			-2.551
133300.000			5.101			-2.550
133401.000			5.101			-2.550
133500.000			5.101			-2.551
133600.000			5.100			-2.550
133701.000			5.101			-2.550
133800.000			5.102			-2.551
133901.000			5.100			-2.550
134002.000			5.100			-2.550
134101.000			5.100			-2.550
134200.000			5.100			-2.550
134301.000			5.101			-2.550
134400.000			5.100			-2.550
134500.000			5.099			-2.550
134601.000			5.101			-2.550
134700.000			5.100			-2.550
134801.000			5.100			-2.550
134902.000			5.099			-2.550
135001.000			5.099			-2.550
135100.000			5.100			-2.550
135201.000			5.100			-2.550
135300.000			5.100			-2.550
135400.000			5.100			-2.550
135501.000			5.100			-2.550
135600.000			5.100			-2.550
135701.000			5.100			-2.550
135802.000			5.099			-2.550
135901.000			5.099			-2.550
136000.000			5.099			-2.550
136100.000			5.099			-2.550
136200.000			5.099			-2.550
136301.000			5.099			-2.550
136400.000			5.099			-2.550
136500.000			5.100			-2.550
136602.000			5.100			-2.550
136701.000			5.100			-2.550
136801.000			5.099			-2.550
136901.000			5.099			-2.549
137000.000			5.099			-2.549
137100.000			5.099			-2.550
137201.000			5.100			-2.550
137300.000			5.100			-2.550
137400.000			5.100			-2.550
137501.000			5.098			-2.549
137601.000			5.098			-2.549
137701.000			5.099			-2.549
137801.000			5.099			-2.550
137900.000			5.099			-2.550
138000.000			5.099			-2.549
138101.000			5.099			-2.549
138200.000			5.099			-2.549
138300.000			5.099			-2.550
138401.000			5.100			-2.550
138501.000			5.100			-2.550
138601.000			5.099			-2.550
138701.000			5.099			-2.549
138800.000			5.099			-2.549
138900.000			5.098			-2.549
139001.000			5.098			-2.549
139100.000			5.098			-2.549
139200.000			5.099			-2.549
139300.000			5.099			-2.550
139400.000			5.099			-2.549
139502.000			5.098			-2.549
139601.000			5.098			-2.549
139700.000			5.098			-2.549
139801.000			5.096			-2.548
139900.000			5.097			-2.549
140000.000			5.098			-2.549
140101.000			5.098			-2.549
140200.000			5.097			-2.549
140300.000			5.097			-2.549
140402.000			5.097			-2.548
140501.000			5.098			-2.549
140601.000			5.097			-2.549
140701.000			5.097			-2.548
140800.000			5.097			-2.548
140900.000			5.097			-2.548
141001.000			5.097			-2.548
141100.000			5.097			-2.549
141200.000			5.098			-2.549
141302.000			5.098			-2.549
141401.000			5.096			-2.548
141501.000			5.097			-2.548
141601.000			5.097			-2.549
141700.000			5.097			-2.548
141800.000			5.096			-2.548
141901.000			5.097			-2.548
142000.000			5.097			-2.548
142100.000			5.096			-2.548
142202.000			5.097			-2.548
142301.000			5.097			-2.549
142402.000			5.098			-2.549
142500.000			5.097			-2.548
142600.000			5.097			-2.548
142701.000			5.097			-2.548
142800.000			5.097			-2.548
142900.000			5.097			-2.548
143001.000			5.097			-2.548
143100.000			5.097			-2.549
143201.000			5.097			-2.548
143302.000			5.096			-2.548
143400.000			5.096			-2.548
143500.000			5.096			-2.548
143601.000			5.096			-2.548
143700.000			5.096			-2.548
143800.000			5.096			-2.548
143901.000			5.095			-2.548
144000.000			5.096			-2.548
144101.000			5.095			-2.548
144202.000			5.095			-2.548
144301.000			5.095			-2.548
144400.000			5.095			-2.548
144501.000			5.095			-2.548
144600.000			5.096			-2.548
144700.000			5.095			-2.548
144801.000			5.095			-2.547
144900.000			5.094			-2.547
145001.000			5.095			-2.547
145102.000			5.095			-2.548
145201.000			5.095			-2.548
145300.000			5.095			-2.547
145401.000			5.095			-2.547
145500.000			5.095			-2.548
145600.000			5.095			-2.547
145700.000			5.094			-2.547
145800.000			5.094			-2.547
145901.000			5.094			-2.547
146001.000			5.094			-2.547
146101.000			5.095			-2.548
146201.000			5.096			-2.548
146300.000			5.096			-2.548
146400.000			5.095			-2.547
146501.000			5.095			-2.547
146600.000			5.095			-2.547
146700.000			5.093			-2.547
146801.000			5.093			-2.547
146901.000			5.094			-2.547
147001.000			5.095			-2.548
147101.000			5.095			-2.547
147200.000			5.094			-2.547
147300.000			5.094			-2.547
147401.000			5.094			-2.547
147500.000			5.094			-2.547
147600.000			5.094			-2.547
147701.000			5.094			-2.547
147801.000			5.094			-2.547
147901.000			5.094			-2.547
148002.000			5.094			-2.547
148100.000			5.093			-2.547
148200.000			5.094			-2.547
148301.000			5.094			-2.547
148400.000			5.094			-2.547
148500.000			5.094			-2.547
148601.000			5.094			-2.547
148700.000			5.094			-2.547
148802.000			5.093			-2.547
148901.000			5.093			-2.546
149000.000			5.092			-2.546
149101.000			5.093			-2.546
149200.000			5.092			-2.546
149300.000			5.093			-2.546
149401.000			5.093			-2.547
149500.000			5.092			-2.546
149600.000			5.092			-2.546
149702.000			5.093			-2.547
149801.000			5.093			-2.547
149901.000			5.093			-2.546
150001.000			5.092			-2.546
150100.000			5.093			-2.546
150200.000			5.093			-2.546
150301.000			5.093			-2.547
150400.000			5.094			-2.547
150500.000			5.093			-2.546
150602.000			5.093			-2.546
150701.000			5.093			-2.547
150800.000			5.093			-2.546
150901.000			5.093			-2.546
151000.000			5.092			-2.546
151100.000			5.093			-2.546
151201.000			5.092			-2.546
151300.000			5.092			-2.546
151400.000			5.092			-2.546
151502.000			5.093			-2.547
151601.000			5.092			-2.546
151700.000			5.092			-2.546
151801.000			5.092			-2.546
151900.000			5.092			-2.546
152000.000			5.092			-2.546
152100.000			5.092			-2.546
152200.000			5.093			-2.546
152301.000			5.092			-2.546
152401.000			5.092			-2.546
152501.000			5.093			-2.547
152601.000			5.093			-2.547
152700.000			5.092			-2.546
152800.000			5.091			-2.546
152901.000			5.092			-2.546
153000.000			5.092			-2.546
153100.000			5.092			-2.546
153201.000			5.092			-2.546
153301.000			5.092			-2.546
153401.000			5.091			-2.545
153501.000			5.091			-2.546
153600.000			5.091			-2.546
153700.000			5.091			-2.546
153801.000			5.091			-2.545
153900.000			5.091			-2.545
154000.000			5.091			-2.546
154101.000			5.091			-2.545
154201.000			5.091			-2.546
154301.000			5.091			-2.545
154401.000			5.091			-2.546
154500.000			5.091			-2.546
154600.000			5.090			-2.545
154701.000			5.090			-2.545
154800.000			5.091			-2.545
154900.000			5.090			-2.545
155001.000			5.089			-2.545
155101.000			5.090			-2.545
155202.000			5.091			-2.545
155300.000			5.092			-2.546
155400.000			5.091			-2.546
155501.000			5.091			-2.545
155600.000			5.090			-2.545
155700.000			5.090			-2.545
155801.000			5.090			-2.545
155900.000			5.089			-2.545
156001.000			5.090			-2.545
156102.000			5.092			-2.546
156201.000			5.092			-2.546
156300.000			5.091			-2.545
156401.000			5.090			-2.545
156500.000			5.090			-2.545
156600.000			5.089			-2.545
156701.000			5.090			-2.545
156800.000			5.089			-2.545
156901.000			5.091			-2.545
157002.000			5.089			-2.544
157101.000			5.089			-2.545
157200.000			5.090			-2.545
157301.000			5.090			-2.545
157400.000			5.089			-2.545
157500.000			5.089			-2.544
157601.000			5.090			-2.545
157700.000			5.089			-2.545
157800.000			5.089			-2.544
157902.000			5.089			-2.545
158001.000			5.089			-2.545
158100.000			5.089			-2.545
158201.000			5.089			-2.545
158300.000			5.089			-2.545
158400.000			5.089			-2.545
158500.000			5.090			-2.545
158600.000			5.090			-2.545
158701.000			5.090			-2.545
158801.000			5.090			-2.545
158901.000			5.089			-2.545
159002.000			5.090			-2.545
159100.000			5.089			-2.545
159200.000			5.089			-2.545
159301.000			5.090			-2.545
159400.000			5.089			-2.545
159500.000			5.089			-2.544
159601.000			5.089			-2.544
159700.000			5.090			-2.545
159801.000			5.091			-2.545
159902.000			5.089			-2.544
160001.000			5.089			-2.545
160100.000			5.089			-2.545
160201.000			5.090			-2.545
160300.000			5.089			-2.545
160400.000			5.089			-2.545
160501.000			5.090			-2.545
160600.000			5.090			-2.545
160701.000			5.088			-2.544
160802.000			5.089			-2.545
160901.000			5.089			-2.544
161000.000			5.089			-2.544
161101.000			5.088			-2.544
161200.000			5.089			-2.544
161300.000			5.089			-2.544
161401.000			5.087			-2.543
161500.000			5.088			-2.544
161600.000			5.088			-2.544
161702.000			5.087			-2.544
161801.000			5.088			-2.544
161901.000			5.088			-2.544
162000.000			5.088			-2.544
162100.000			5.087			-2.544
162201.000			5.088			-2.544
162300.000			5.088			-2.544
162400.000			5.088			-2.544
162501.000			5.088			-2.544
162601.000			5.088			-2.544
162701.000			5.089			-2.545
162801.000			5.089			-2.545
162900.000			5.088			-2.544
163000.000			5.088			-2.544
163101.000			5.088			-2.544
163200.000			5.088			-2.544
163300.000			5.088			-2.544
163401.000			5.088			-2.544
163501.000			5.088			-2.544
163601.000			5.087			-2.543
163702.000			5.087			-2.543
163800.000			5.088			-2.544
163900.000			5.088			-2.544
164001.000			5.087			-2.544
164100.000			5.087			-2.543
164200.000			5.087			-2.543
164301.000			5.087			-2.543
164401.000			5.087			-2.543
164501.000			5.087			-2.544
164602.000			5.088			-2.544
164700.000			5.087			-2.544
164800.000			5.087			-2.543
164900.000			5.087			-2.544
165000.000			5.087			-2.544
165101.000			5.087			-2.543
165200.000			5.086			-2.543
165300.000			5.086			-2.543
165402.000			5.086			-2.543
165501.000			5.086			-2.543
165600.000			5.086			-2.543
165701.000			5.087			-2.543
165800.000			5.087			-2.543
165900.000			5.087			-2.543
166001.000			5.086			-2.543
166100.000			5.086			-2.543
166200.000			5.085			-2.543
166302.000			5.086			-2.543
166401.000			5.087			-2.543
166500.000			5.086			-2.543
166601.000			5.087			-2.543
166700.000			5.087			-2.543
166800.000			5.086			-2.543
166901.000			5.086			-2.543
167000.000			5.086			-2.543
167100.000			5.086			-2.543
167202.000			5.085			-2.543
167301.000			5.085			-2.543
167401.000			5.086			-2.543
167501.000			5.086			-2.543
167600.000			5.086			-2.543
167700.000			5.086			-2.543
167801.000			5.087			-2.543
167900.000			5.087			-2.543
168000.000			5.087			-2.543
168100.000			5.085			-2.543
168201.000			5.084			-2.542
168302.000			5.085			-2.543
168400.000			5.086			-2.543
168500.000			5.086			-2.543
168601.000			5.085			-2.543
168700.000			5.085			-2.543
168800.000			5.085			-2.543
168901.000			5.086			-2.543
169000.000			5.086			-2.543
169101.000			5.086			-2.543
169202.000			5.086			-2.543
169301.000			5.086			-2.543
169400.000			5.085			-2.542
169501.000			5.084			-2.542
169600.000			5.084			-2.542
169700.000			5.084			-2.542
169801.000			5.084			-2.542
169900.000			5.085			-2.542
170000.000			5.085			-2.543
170102.000			5.085			-2.542
170201.000			5.085			-2.542
170300.000			5.085			-2.542
170401.000			5.085			-2.543
170500.000			5.085			-2.543
170600.000			5.085			-2.542
170701.000			5.085			-2.542
170800.000			5.085			-2.542
170900.000			5.085			-2.542
171002.000			5.085			-2.542
171101.000			5.085			-2.543
171202.000			5.085			-2.542
171300.000			5.085			-2.542
171400.000			5.085			-2.542
171501.000			5.085			-2.543
171600.000			5.084			-2.542
171700.000			5.084			-2.542
171801.000			5.083			-2.542
171901.000			5.084			-2.542
172001.000			5.085			-2.542
172102.000			5.084			-2.542
172200.000			5.084			-2.542
172300.000			5.084			-2.542
172401.000			5.084			-2.542
172500.000			5.084			-2.542
172600.000			5.084			-2.542
172701.000			5.085			-2.542
172800.000			5.083			-2.542
172901.000			5.083			-2.541
173002.000			5.083			-2.541
173100.000			5.083			-2.542
173200.000			5.084			-2.542
173301.000			5.085			-2.543
173400.000			5.085			-2.542
173500.000			5.085			-2.542
173601.000			5.084			-2.542
173700.000			5.083			-2.542
173801.000			5.084			-2.542
173902.000			5.084			-2.542
174000.000			5.084			-2.542
174100.000			5.084			-2.542
174201.000			5.084			-2.542
174300.000			5.084			-2.542
174400.000			5.084			-2.542
174500.000			5.083			-2.542
174600.000			5.084			-2.542
174702.000			5.084			-2.542
174801.000			5.082			-2.541
174901.000			5.083			-2.542
175001.000			5.083			-2.542
175100.000			5.083			-2.542
175200.000			5.083			-2.541
175301.000			5.083			-2.541
175400.000			5.082			-2.541
175500.000			5.082			-2.541
175602.000			5.082			-2.541
175701.000			5.083			-2.542
175801.000			5.083			-2.542
175901.000			5.083			-2.542
176000.000			5.083			-2.541
176100.000			5.082			-2.541
176201.000			5.082			-2.541
176300.000			5.082			-2.541
176400.000			5.082			-2.541
176502.000			5.082			-2.541
176601.000			5.083			-2.541
176701.000			5.083			-2.541
176801.000			5.083			-2.541
176900.000			5.083			-2.542
177000.000			5.082			-2.541
177101.000			5.081			-2.541
177200.000			5.081			-2.541
177300.000			5.082			-2.541
177401.000			5.081			-2.541
177501.000			5.082			-2.541
177602.000			5.082			-2.541
177700.000			5.082			-2.541
177800.000			5.083			-2.541
177901.000			5.082			-2.541
178000.000			5.082			-2.541
178100.000			5.082			-2.541
178201.000			5.082			-2.541
178300.000			5.082			-2.541
178401.000			5.082			-2.541
178502.000			5.083			-2.541
178601.000			5.083			-2.541
178700.000			5.082			-2.541
178801.000			5.083			-2.541
178900.000			5.081			-2.541
179000.000			5.081			-2.540
179101.000			5.081			-2.541
179200.000			5.082			-2.541
179300.000			5.083			-2.541
179402.000			5.082			-2.541
179501.000			5.081			-2.541
179600.000			5.081			-2.541
179701.000			5.081			-2.541
179800.000			5.082			-2.541
179900.000			5.081			-2.541
180001.000			5.083			-2.541
180100.000			5.082			-2.541
180200.000			5.081			-2.540
180302.000			5.082			-2.541
180401.000			5.082			-2.541
180500.000			5.081			-2.541
180601.000			5.080			-2.540
180700.000			5.081			-2.541
180800.000			5.081			-2.540
180900.000			5.081			-2.541
181000.000			5.081			-2.540
181101.000			5.081			-2.541
181201.000			5.081			-2.540
181301.000			5.081			-2.541
181401.000			5.082			-2.541
181500.000			5.082			-2.541
181600.000			5.082			-2.541
181701.000			5.081			-2.540
181800.000			5.081			-2.540
181900.000			5.080			-2.540
182001.000			5.080			-2.540
182101.000			5.082			-2.541
182201.000			5.081			-2.541
182301.000			5.081			-2.541
182400.000			5.082			-2.541
182500.000			5.082			-2.541
182601.000			5.082			-2.541
182700.000			5.080			-2.540
182800.000			5.080			-2.540
182901.000			5.081			-2.540
183001.000			5.082			-2.541
183101.000			5.081			-2.541
183201.000			5.080			-2.540
183300.000			5.079			-2.540
183400.000			5.080			-2.540
183501.000			5.080			-2.540
183600.000			5.081			-2.540
183700.000			5.080			-2.540
183801.000			5.080			-2.540
183901.000			5.080			-2.540
184002.000			5.080			-2.540
184101.000			5.080			-2.540
184200.000			5.080			-2.540
184301.000			5.081			-2.540
184400.000			5.080			-2.540
184500.000			5.081			-2.540
184601.000			5.080			-2.540
184700.000			5.082			-2.541
184800.000			5.081			-2.540
184902.000			5.080			-2.540
185001.000			5.081			-2.540
185100.000			5.080			-2.540
185201.000			5.080			-2.540
185300.000			5.080			-2.540
185400.000			5.081			-2.540
185501.000			5.080			-2.540
185600.000			5.079			-2.539
185700.000			5.080			-2.540
185802.000			5.080			-2.540
185901.000			5.080			-2.540
186000.000			5.079			-2.540
186101.000			5.078			-2.539
186200.000			5.079			-2.539
186300.000			5.078			-2.539
186401.000			5.079			-2.540
186500.000			5.079			-2.540
186600.000			5.080			-2.540
186702.000			5.080			-2.540
186801.000			5.079			-2.540
186901.000			5.079			-2.540
187001.000			5.078			-2.539
187100.000			5.078			-2.539
187200.000			5.078			-2.539
187300.000			5.079			-2.540
187400.000			5.080			-2.540
187501.000			5.079			-2.539
187600.000			5.080			-2.540
187701.000			5.080			-2.540
187802.000			5.079			-2.539
187901.000			5.078			-2.539
188000.000			5.078			-2.539
188101.000			5.078			-2.539
188200.000			5.079			-2.539
188300.000			5.078			-2.539
188401.000			5.079			-2.539
188500.000			5.079			-2.540
188600.000			5.079			-2.540
188702.000			5.079			-2.539
188801.000			5.079			-2.539
188900.000			5.078			-2.539
189001.000			5.078			-2.539
189100.000			5.078			-2.539
189200.000			5.078			-2.539
189301.000			5.079			-2.540
189400.000			5.079			-2.540
189500.000			5.079			-2.540
189602.000			5.079			-2.540
189701.000			5.079			-2.540
189801.000			5.079			-2.540
189901.000			5.078			-2.539
190000.000			5.077			-2.539
190100.000			5.078			-2.539
190201.000			5.078			-2.539
190300.000			5.079			-2.539
190400.000			5.078			-2.539
190500.000			5.077			-2.539
190601.000			5.078			-2.539
190702.000			5.078			-2.539
190800.000			5.078			-2.539
190900.000			5.078			-2.539
191001.000			5.078			-2.539
191100.000			5.077			-2.539
191200.000			5.078			-2.539
191301.000			5.078			-2.539
191400.000			5.077			-2.539
191501.000			5.078			-2.539
191602.000			5.079			-2.540
191700.000			5.078			-2.539
191800.000			5.077			-2.538
191901.000			5.078			-2.539
192000.000			5.078			-2.539
192100.000			5.078			-2.539
192201.000			5.077			-2.539
192300.000			5.077			-2.539
192401.000			5.077			-2.538
192502.000			5.078			-2.539
192601.000			5.078			-2.539
192700.000			5.079			-2.539
192801.000			5.078			-2.539
192900.000			5.077			-2.539
193000.000			5.077			-2.539
193101.000			5.078			-2.539
193200.000			5.077			-2.539
193300.000			5.078			-2.539
193402.000			5.078			-2.539
193501.000			5.076			-2.538
193600.000			5.077			-2.538
193700.000			5.077			-2.539
193800.000			5.078			-2.539
193901.000			5.077			-2.539
194000.000			5.077			-2.538
194100.000			5.077			-2.538
194201.000			5.077			-2.538
194301.000			5.076			-2.538
194401.000			5.076			-2.538
194502.000			5.077			-2.538
194600.000			5.076			-2.538
194700.000			5.077			-2.538
194801.000			5.077			-2.539
194900.000			5.077			-2.539
195000.000			5.077			-2.538
195101.000			5.076			-2.538
195200.000			5.077			-2.538
195301.000			5.077			-2.538
195402.000			5.077			-2.539
195500.000			5.076			-2.538
195600.000			5.076			-2.538
195701.000			5.077			-2.538
195800.000			5.076			-2.538
195900.000			5.076			-2.538
196001.000			5.076			-2.538
196100.000			5.077			-2.538
196201.000			5.076			-2.538
196302.000			5.076			-2.538
196401.000			5.076			-2.538
196500.000			5.077			-2.538
196601.000			5.076			-2.538
196700.000			5.075			-2.538
196800.000			5.075			-2.537
196900.000			5.075			-2.537
197000.000			5.074			-2.537
197101.000			5.074			-2.537
197201.000			5.075			-2.538
197301.000			5.076			-2.538
197401.000			5.076			-2.538
197500.000			5.076			-2.538
197600.000			5.076			-2.538
197701.000			5.075			-2.538
197800.000			5.076			-2.538
197900.000			5.075			-2.538
198001.000			5.073			-2.537
198101.000			5.075			-2.537
198201.000			5.075			-2.538
198302.000			5.074			-2.537
198400.000			5.075			-2.537
198500.000			5.075			-2.537
198601.000			5.075			-2.537
198700.000			5.074			-2.537
198800.000			5.074			-2.537
198901.000			5.075			-2.537
199000.000			5.074			-2.537
199101.000			5.074			-2.537
199202.000			5.075			-2.538
199301.000			5.076			-2.538
199400.000			5.075			-2.537
199501.000			5.075			-2.538
199600.000			5.076			-2.538
199700.000			5.074			-2.537
199801.000			5.073			-2.537
199900.000			5.074			-2.537
200000.000			5.074			-2.537
200102.000			5.074			-2.537
200201.000			5.075			-2.537
200301.000			5.074			-2.537
200400.000			5.074			-2.537
200500.000			5.074			-2.537
200601.000			5.075			-2.537
200700.000			5.075			-2.538
200800.000			5.075			-2.537
200901.000			5.073			-2.537
201001.000			5.074			-2.537
201101.000			5.074			-2.537
201201.000			5.074			-2.537
201300.000			5.074			-2.537
201400.000			5.075			-2.537
201501.000			5.074			-2.537
201600.000			5.074			-2.537
201700.000			5.074			-2.537
201801.000			5.074			-2.537
201901.000			5.073			-2.537
202001.000			5.074			-2.537
202101.000			5.073			-2.537
202200.000			5.074			-2.537
202300.000			5.073			-2.537
202401.000			5.073			-2.537
202500.000			5.073			-2.537
202600.000			5.074			-2.537
202701.000			5.073			-2.537
202801.000			5.073			-2.536
202901.000			5.074			-2.537
203001.000			5.074			-2.537
203100.000			5.073			-2.536
203200.000			5.073			-2.536
203300.000			5.073			-2.537
203400.000			5.073			-2.536
203501.000			5.073			-2.536
203601.000			5.074			-2.537
203701.000			5.073			-2.536
203802.000			5.073			-2.536
203900.000			5.073			-2.536
204000.000			5.072			-2.536
204101.000			5.072			-2.536
204200.000			5.072			-2.536
204300.000			5.073			-2.537
204401.000			5.073			-2.537
204501.000			5.073			-2.536
204601.000			5.072			-2.536
204702.000			5.072			-2.536
204800.000			5.073			-2.536
204900.000			5.072			-2.536
205001.000			5.073			-2.536
205100.000			5.072			-2.536
205200.000			5.072			-2.536
205301.000			5.072			-2.536
205401.000			5.072			-2.536
205501.000			5.071			-2.536
205601.000			5.072			-2.536
205700.000			5.073			-2.537
205800.000			5.072			-2.536
205901.000			5.073			-2.536
206000.000			5.072			-2.536
206100.000			5.072			-2.536
206201.000			5.072			-2.536
206301.000			5.074			-2.537
206402.000			5.073			-2.536
206500.000			5.071			-2.535
206600.000			5.071			-2.535
206701.000			5.071			-2.536
206800.000			5.071			-2.536
206900.000			5.071			-2.536
207001.000			5.072			-2.536
207100.000			5.072			-2.536
207201.000			5.072			-2.536
207302.000			5.071			-2.536
207400.000			5.071			-2.536
207500.000			5.072			-2.536
207601.000			5.071			-2.536
207700.000			5.071			-2.536
207800.000			5.070			-2.535
207901.000			5.073			-2.536
208000.000			5.073			-2.537
208101.000			5.072			-2.536
208202.000			5.071			-2.535
208301.000			5.071			-2.536
208400.000			5.071			-2.536
208501.000			5.071			-2.536
208600.000			5.072			-2.536
208700.000			5.073			-2.536
208801.000			5.071			-2.536
208900.000			5.071			-2.535
209001.000			5.070			-2.535
209102.000			5.071			-2.536
209201.000			5.071			-2.535
209300.000			5.071			-2.535
209401.000			5.071			-2.536
209500.000			5.071			-2.536
209600.000			5.071			-2.535
209700.000			5.072			-2.536
209800.000			5.072			-2.536
209902.000			5.071			-2.535
210001.000			5.071			-2.536
210101.000			5.070			-2.535
210201.000			5.071			-2.536
210300.000			5.072			-2.536
210400.000			5.072			-2.536
210501.000			5.072			-2.536
210600.000			5.071			-2.536
210700.000			5.070			-2.535
210802.000			5.071			-2.535
210901.000			5.071			-2.535
211000.000			5.071			-2.535
211101.000			5.070			-2.535
211200.000			5.070			-2.535
211300.000			5.071			-2.535
211401.000			5.070			-2.535
211500.000			5.070			-2.535
211600.000			5.070			-2.535
211702.000			5.071			-2.535
211801.000			5.070			-2.535
211900.000			5.069			-2.535
212001.000			5.070			-2.535
212100.000			5.071			-2.535
212200.000			5.070			-2.535
212301.000			5.069			-2.535
212400.000			5.070			-2.535
212500.000			5.071			-2.535
212602.000			5.070			-2.535
212701.000			5.070			-2.535
212800.000			5.070			-2.535
212900.000			5.070			-2.535
213000.000			5.070			-2.535
213101.000			5.071			-2.535
213200.000			5.070			-2.535
213300.000			5.070			-2.535
213401.000			5.070			-2.535
213501.000			5.069			-2.535
213601.000			5.070			-2.535
213701.000			5.070			-2.535
213800.000			5.069			-2.535
213900.000			5.070			-2.535
214001.000			5.070			-2.535
214100.000			5.070			-2.535
214200.000			5.069			-2.534
214301.000			5.070			-2.535
214401.000			5.070			-2.535
214501.000			5.069			-2.535
214601.000			5.068			-2.534
214700.000			5.068			-2.534
214800.000			5.068			-2.534
214901.000			5.069			-2.535
215000.000			5.070			-2.535
215100.000			5.070			-2.535
215201.000			5.069			-2.534
215301.000			5.069			-2.534
215401.000			5.069			-2.535
215501.000			5.069			-2.534
215600.000			5.069			-2.535
215700.000			5.070			-2.535
215801.000			5.069			-2.535
215900.000			5.069			-2.534
216000.000			5.069			-2.535
216100.000			5.068			-2.534
216201.000			5.068			-2.534
216302.000			5.069			-2.534
216401.000			5.069			-2.534
216500.000			5.069			-2.535
216601.000			5.069			-2.535
216700.000			5.068			-2.534
216800.000			5.069			-2.534
216901.000			5.069			-2.534
217000.000			5.068			-2.534
217101.000			5.068			-2.534
217202.000			5.069			-2.534
217301.000			5.069			-2.534
217400.000			5.068			-2.534
217501.000			5.069			-2.535
217600.000			5.069			-2.534
217700.000			5.069			-2.535
217801.000			5.069			-2.535
217900.000			5.068			-2.534
218001.000			5.067			-2.534
218102.000			5.069			-2.534
218201.000			5.069			-2.535
218300.000			5.069			-2.534
218401.000			5.067			-2.534
218500.000			5.068			-2.534
218600.000			5.069			-2.534
218701.000			5.068			-2.534
218800.000			5.068			-2.534
218900.000			5.067			-2.534
219002.000			5.068			-2.534
219101.000			5.068			-2.534
219200.000			5.068			-2.534
219300.000			5.069			-2.534
219400.000			5.068			-2.534
219501.000			5.067			-2.534
219600.000			5.066			-2.533
219700.000			5.068			-2.534
219801.000			5.069			-2.534
219901.000			5.067			-2.534
220001.000			5.067			-2.534
220101.000			5.067			-2.534
220200.000			5.067			-2.534
220300.000			5.068			-2.534
220401.000			5.069			-2.534
220500.000			5.068			-2.534
220600.000			5.067			-2.534
220701.000			5.068			-2.534
220801.000			5.067			-2.534
220901.000			5.067			-2.533
221001.000			5.067			-2.534
221100.000			5.067			-2.533
221200.000			5.066			-2.533
221301.000			5.066			-2.533
221400.000			5.067			-2.534
221500.000			5.068			-2.534
221601.000			5.069			-2.534
221701.000			5.068			-2.534
221801.000			5.068			-2.534
221901.000			5.067			-2.534
222000.000			5.068			-2.534
222100.000			5.068			-2.534
222201.000			5.068			-2.534
222300.000			5.067			-2.533
222400.000			5.067			-2.534
222500.000			5.068			-2.534
222601.000			5.066			-2.533
222702.000			5.066			-2.533
222800.000			5.066			-2.533
222900.000			5.066			-2.533
223001.000			5.067			-2.534
223100.000			5.067			-2.534
223200.000			5.067			-2.533
223301.000			5.066			-2.533
223400.000			5.067			-2.533
223501.000			5.067			-2.533
223602.000			5.067			-2.534
223700.000			5.067			-2.534
223800.000			5.068			-2.534
223901.000			5.067			-2.534
224000.000			5.067			-2.533
224100.000			5.067			-2.534
224201.000			5.067			-2.534
224300.000			5.068			-2.534
224401.000			5.067			-2.533
224502.000			5.067			-2.533
224600.000			5.067			-2.533
224700.000			5.067			-2.533
224801.000			5.066			-2.533
224900.000			5.065			-2.533
225000.000			5.066			-2.533
225101.000			5.067			-2.533
225200.000			5.067			-2.533
225301.000			5.066			-2.533
225402.000			5.065			-2.533
225500.000			5.066			-2.533
225600.000			5.066			-2.533
225700.000			5.066			-2.533
225800.000			5.066			-2.533
225901.000			5.065			-2.533
226000.000			5.066			-2.533
226100.000			5.066			-2.533
226202.000			5.065			-2.533
226301.000			5.065			-2.533
226400.000			5.067			-2.533
226501.000			5.065			-2.533
226600.000			5.065			-2.533
226700.000			5.065			-2.533
226801.000			5.065			-2.533
226900.000			5.065			-2.533
227000.000			5.065			-2.533
227102.000			5.065			-2.532
227201.000			5.065			-2.533
227301.000			5.065			-2.532
227401.000			5.065			-2.533
227500.000			5.065			-2.533
227600.000			5.066			-2.533
227701.000			5.065			-2.533
227800.000			5.065			-2.532
227900.000			5.065			-2.532
228002.000			5.065			-2.533
228101.000			5.065			-2.533
228201.000			5.065			-2.532
228301.000			5.065			-2.532
228400.000			5.065			-2.533
228500.000			5.065			-2.532
228601.000			5.065			-2.533
228700.000			5.065			-2.532
228800.000			5.065			-2.532
228902.000			5.065			-2.532
229001.000			5.065			-2.532
229102.000			5.065			-2.532
229200.000			5.064			-2.532
229300.000			5.065			-2.532
229401.000			5.065			-2.533
229500.000			5.065			-2.532
229600.000			5.065			-2.532
229701.000			5.064			-2.532
229800.000			5.064			-2.532
229901.000			5.065			-2.532
230002.000			5.065			-2.532
230100.000			5.064			-2.532
230200.000			5.065			-2.533
230301.000			5.065			-2.533
230400.000			5.065			-2.533
230500.000			5.064			-2.532
230601.000			5.065			-2.533
230700.000			5.065			-2.533
230801.000			5.064			-2.532
230902.000			5.064			-2.532
231000.000			5.064			-2.532
231100.000			5.064			-2.532
231201.000			5.065			-2.532
231300.000			5.065			-2.532
231400.000			5.064			-2.532
231501.000			5.065			-2.532
231601.000			5.064			-2.532
231701.000			5.064			-2.532
231802.000			5.064			-2.532
231900.000			5.064			-2.532
232000.000			5.064			-2.532
232100.000			5.065			-2.532
232200.000			5.065			-2.533
232301.000			5.065			-2.532
232400.000			5.063			-2.532
232501.000			5.064			-2.532
232602.000			5.064			-2.532
232701.000			5.063			-2.532
232800.000			5.064			-2.532
232901.000			5.064			-2.532
233000.000			5.065			-2.533
233100.000			5.065			-2.533
233201.000			5.062			-2.531
233300.000			5.063			-2.532
233401.000			5.064			-2.532
233502.000			5.063			-2.532
233600.000			5.064			-2.532
233700.000			5.064			-2.532
233801.000			5.063			-2.531
233900.000			5.064			-2.532
234000.000			5.064			-2.532
234101.000			5.065			-2.532
234200.000			5.065			-2.532
234301.000			5.064			-2.532
234402.000			5.063			-2.531
234500.000			5.063			-2.532
234600.000			5.064			-2.532
234701.000			5.064			-2.532
234800.000			5.064			-2.532
234900.000			5.064			-2.532
235001.000			5.063			-2.531
235100.000			5.063			-2.532
235202.000			5.064			-2.532
235301.000			5.065			-2.532
235400.000			5.064			-2.532
235501.000			5.063			-2.532
235600.000			5.063			-2.531
235700.000			5.063			-2.532
235801.000			5.064			-2.532
235900.000			5.064			-2.532
236000.000			5.064			-2.532
236102.000			5.062			-2.531
236201.000			5.063			-2.532
236301.000			5.062			-2.531
236401.000			5.062			-2.531
236500.000			5.062			-2.531
236600.000			5.063			-2.531
236701.000			5.063			-2.531
236800.000			5.063			-2.532
236900.000			5.063			-2.532
237002.000			5.063			-2.531
237101.000			5.062			-2.531
237201.000			5.062			-2.531
237301.000			5.062			-2.531
237400.000			5.062			-2.531
237500.000			5.063			-2.532
237601.000			5.064			-2.532
237700.000			5.064			-2.532
237800.000			5.063			-2.532
237902.000			5.063			-2.531
238001.000			5.062			-2.531
238101.000			5.062			-2.531
238201.000			5.064			-2.532
238300.000			5.063			-2.532
238400.000			5.063			-2.531
238500.000			5.063			-2.532
238600.000			5.062			-2.531
238701.000			5.062			-2.531
238801.000			5.063			-2.532
238901.000			5.062			-2.531
239002.000			5.062			-2.531
239100.000			5.062			-2.531
239200.000			5.063			-2.531
239301.000			5.063			-2.531
239400.000			5.063			-2.532
239500.000			5.063			-2.531
239601.000			5.062			-2.531
239700.000			5.061			-2.531
239801.000			5.061			-2.531
239902.000			5.062			-2.531
240000.000			5.063			-2.531
240100.000			5.063			-2.532
240201.000			5.062			-2.531
240300.000			5.062			-2.531
240400.000			5.062			-2.531
240501.000			5.061			-2.531
240600.000			5.061			-2.531
240701.000			5.062			-2.531
240802.000			5.062			-2.531
240900.000			5.063			-2.531
241000.000			5.063			-2.531
241101.000			5.062			-2.531
241200.000			5.063			-2.531
241300.000			5.063			-2.531
241401.000			5.062			-2.531
241500.000			5.062			-2.531
241602.000			5.062			-2.531
241701.000			5.062			-2.531
241800.000			5.063			-2.531
241901.000			5.062			-2.531
242000.000			5.061			-2.530
242100.000			5.061			-2.531
242201.000			5.062			-2.531
242300.000			5.061			-2.531
242400.000			5.061			-2.531
242502.000			5.061			-2.530
242601.000			5.061			-2.531
242700.000			5.062			-2.531
242801.000			5.061			-2.530
242900.000			5.061			-2.531
243000.000			5.062			-2.531
243101.000			5.061			-2.530
243200.000			5.062			-2.531
243300.000			5.062			-2.531
243402.000			5.062			-2.531
243501.000			5.061			-2.530
243600.000			5.061			-2.531
243701.000			5.061			-2.531
243800.000			5.061			-2.531
243900.000			5.061			-2.531
244001.000			5.061			-2.530
244100.000			5.060			-2.530
244201.000			5.060			-2.530
244302.000			5.061			-2.530
244401.000			5.061			-2.530
244500.000			5.061			-2.530
244601.000			5.061			-2.531
244700.000			5.060			-2.530
244800.000			5.061			-2.530
244900.000			5.061			-2.531
245000.000			5.062			-2.531
245102.000			5.062			-2.531
245201.000			5.061			-2.531
245301.000			5.061			-2.530
245401.000			5.060			-2.530
245500.000			5.060			-2.530
245600.000			5.060			-2.530
245701.000			5.060			-2.530
245800.000			5.061			-2.531
245900.000			5.061			-2.530
246002.000			5.061			-2.531
246101.000			5.061			-2.531
246201.000			5.061			-2.531
246301.000			5.062			-2.531
246400.000			5.060			-2.530
246500.000			5.060			-2.530
246601.000			5.060			-2.530
246700.000			5.060			-2.530
246800.000			5.060			-2.530
246902.000			5.061			-2.530
247001.000			5.061			-2.530
247101.000			5.061			-2.531
247201.000			5.060			-2.530
247300.000			5.060			-2.530
247400.000			5.060			-2.530
247501.000			5.060			-2.530
247600.000			5.059			-2.530
247700.000			5.059			-2.530
247801.000			5.060			-2.530
247901.000			5.060			-2.530
248002.000			5.060			-2.530
248100.000			5.060			-2.530
248200.000			5.060			-2.530
248301.000			5.060			-2.530
248400.000			5.060			-2.530
248500.000			5.061			-2.530
248601.000			5.060			-2.530
248700.000			5.060			-2.530
248801.000			5.060			-2.530
248902.000			5.060			-2.530
249001.000			5.060			-2.530
249100.000			5.060			-2.530
249201.000			5.060			-2.530
249300.000			5.060			-2.530
249400.000			5.060			-2.530
249501.000			5.060			-2.530
249600.000			5.060			-2.530
249701.000			5.059			-2.530
249802.000			5.059			-2.530
249901.000			5.059			-2.530
250000.000			5.059			-2.530
250101.000			5.060			-2.530
250200.000			5.059			-2.530
250300.000			5.059			-2.529
250401.000			5.060			-2.530
250500.000			5.059			-2.530
250600.000			5.059			-2.530
250702.000			5.059			-2.530
250801.000			5.059			-2.530
250900.000			5.059			-2.530
251001.000			5.060			-2.530
251100.000			5.060			-2.530
251200.000			5.059			-2.530
251300.000			5.059			-2.530
251400.000			5.061			-2.530
251501.000			5.060			-2.530
251601.000			5.060			-2.530
251701.000			5.059			-2.530
251801.000			5.059			-2.529
251900.000			5.059			-2.530
252000.000			5.059			-2.530
252101.000			5.060			-2.530
252200.000			5.060			-2.530
252300.000			5.059			-2.529
252401.000			5.059			-2.529
252501.000			5.058			-2.529
252601.000			5.058			-2.529
252701.000			5.058			-2.529
252800.000			5.059			-2.529
252900.000			5.060			-2.530
253001.000			5.060			-2.530
253100.000			5.060			-2.530
253200.000			5.058			-2.529
253301.000			5.058			-2.529
253401.000			5.058			-2.529
253501.000			5.058			-2.529
253601.000			5.058			-2.529
253700.000			5.059			-2.529
253800.000			5.058			-2.529
253901.000			5.058			-2.529
254000.000			5.059			-2.529
254100.000			5.059			-2.529
254201.000			5.058			-2.529
254301.000			5.058			-2.529
254402.000			5.057			-2.529
254501.000			5.057			-2.529
254600.000			5.058			-2.529
254701.000			5.058			-2.529
254800.000			5.059			-2.529
254900.000			5.058			-2.529
255001.000			5.058			-2.529
255100.000			5.058			-2.529
255201.000			5.058			-2.529
255302.000			5.059			-2.529
255401.000			5.059			-2.529
255500.000			5.058			-2.529
255601.000			5.058			-2.529
255700.000			5.058			-2.529
255800.000			5.059			-2.529
255901.000			5.058			-2.529
256000.000			5.058			-2.529
256100.000			5.058			-2.529
256202.000			5.057			-2.529
256301.000			5.058			-2.529
256400.000			5.058			-2.529
256501.000			5.058			-2.529
256600.000			5.058			-2.529
256700.000			5.058			-2.529
256801.000			5.058			-2.529
256900.000			5.057			-2.529
257000.000			5.057			-2.529
257102.000			5.058			-2.529
257201.000			5.058			-2.529
257300.000			5.057			-2.529
257401.000			5.057			-2.529
257500.000			5.057			-2.529
257600.000			5.057			-2.528
257700.000			5.057			-2.529
257800.000			5.058			-2.529
257901.000			5.058			-2.529
258001.000			5.057			-2.529
258101.000			5.058			-2.529
258202.000			5.058			-2.529
258300.000			5.056			-2.528
258400.000			5.056			-2.528
258501.000			5.056			-2.528
258600.000			5.057			-2.528
258700.000			5.057			-2.529
258801.000			5.057			-2.528
258900.000			5.057			-2.529
259001.000			5.057			-2.529
259102.000			5.057			-2.529
259201.000			5.057			-2.529
259300.000			5.057			-2.529
259401.000			5.057			-2.529
259500.000			5.056			-2.528
259600.000			5.056			-2.528
259701.000			5.056			-2.528
259800.000			5.057			-2.528
259900.000			5.056			-2.528
260002.000			5.056			-2.528
260101.000			5.057			-2.529
260200.000			5.057			-2.528
260301.000			5.057			-2.528
260400.000			5.057			-2.528
260500.000			5.057			-2.528
260601.000			5.057			-2.528
260700.000			5.056			-2.528
260800.000			5.056			-2.528
260902.000			5.056			-2.528
261001.000			5.057			-2.528
261101.000			5.057			-2.528
261200.000			5.057			-2.528
261300.000			5.056			-2.528
261401.000			5.056			-2.528
261500.000			5.055			-2.528
261600.000			5.055			-2.528
261701.000			5.055			-2.528
261801.000			5.055			-2.528
261901.000			5.056			-2.528
262001.000			5.055			-2.528
262100.000			5.057			-2.528
262200.000			5.057			-2.528
262301.000			5.055			-2.528
262400.000			5.055			-2.527
262500.000			5.056			-2.528
262601.000			5.055			-2.528
262701.000			5.056			-2.528
262801.000			5.057			-2.528
262901.000			5.056			-2.528
263000.000			5.056			-2.528
263100.000			5.057			-2.528
263201.000			5.056			-2.528
263300.000			5.055			-2.527
263400.000			5.056			-2.528
263501.000			5.057			-2.528
263601.000			5.056			-2.528
263701.000			5.056			-2.528
263801.000			5.055			-2.528
263900.000			5.055			-2.527
264000.000			5.054			-2.527
264100.000			5.054			-2.527
264200.000			5.055			-2.528
264301.000			5.054			-2.527
264400.000			5.055			-2.528
264501.000			5.056			-2.528
264602.000			5.056			-2.528
264700.000			5.056			-2.528
264800.000			5.055			-2.527
264901.000			5.055			-2.528
265000.000			5.055			-2.527
265100.000			5.055			-2.527
265201.000			5.055			-2.528
265300.000			5.055			-2.528
265401.000			5.055			-2.527
265502.000			5.054			-2.527
265600.000			5.054			-2.527
265700.000			5.055			-2.528
265801.000			5.055			-2.528
265900.000			5.055			-2.527
266000.000			5.055			-2.527
266101.000			5.054			-2.527
266200.000			5.055			-2.527
266301.000			5.055			-2.527
266402.000			5.055			-2.527
266500.000			5.054			-2.527
266600.000			5.054			-2.527
266701.000			5.054			-2.527
266800.000			5.054			-2.527
266900.000			5.055			-2.527
267001.000			5.055			-2.527
267100.000			5.055			-2.527
267202.000			5.054			-2.527
267301.000			5.055			-2.527
267401.000			5.055			-2.528
267501.000			5.054			-2.527
267600.000			5.055			-2.528
267700.000			5.056			-2.528
267801.000			5.056			-2.528
267900.000			5.055			-2.527
268000.000			5.055			-2.527
268102.000			5.055			-2.527
268201.000			5.054			-2.527
268301.000			5.054			-2.527
268401.000			5.054			-2.527
268500.000			5.054			-2.527
268600.000			5.054			-2.527
268701.000			5.054			-2.527
268800.000			5.054			-2.527
268900.000			5.054			-2.527
269001.000			5.053			-2.527
269101.000			5.053			-2.527
269201.000			5.054			-2.527
269301.000			5.053			-2.527
269400.000			5.054			-2.527
269500.000			5.054			-2.527
269601.000			5.054			-2.527
269700.000			5.054			-2.527
269800.000			5.055			-2.528
269901.000			5.055			-2.527
270001.000			5.054			-2.527
270101.000			5.054			-2.527
270201.000			5.055			-2.527
270300.000			5.055			-2.528
270400.000			5.054			-2.527
270500.000			5.054			-2.527
270600.000			5.055			-2.527
270701.000			5.054			-2.527
270800.000			5.054			-2.527
270901.000			5.054			-2.527
271002.000			5.054			-2.527
271100.000			5.054			-2.527
271200.000			5.054			-2.527
271301.000			5.054			-2.527
271400.000			5.054			-2.527
271500.000			5.054			-2.527
271601.000			5.054			-2.527
271700.000			5.054			-2.527
271801.000			5.054			-2.527
271902.000			5.054			-2.527
272000.000			5.054			-2.527
272100.000			5.053			-2.526
272201.000			5.053			-2.526
272300.000			5.052			-2.526
272400.000			5.053			-2.526
272501.000			5.053			-2.526
272600.000			5.053			-2.527
272701.000			5.054			-2.527
272802.000			5.054			-2.527
272900.000			5.053			-2.527
273000.000			5.053			-2.527
273101.000			5.052			-2.526
273200.000			5.052			-2.526
273300.000			5.053			-2.526
273401.000			5.053			-2.527
273500.000			5.052			-2.526
273602.000			5.054			-2.527
273701.000			5.053			-2.527
273800.000			5.053			-2.527
273901.000			5.052			-2.526
274000.000			5.052			-2.526
274100.000			5.053			-2.526
274201.000			5.054			-2.527
274300.000			5.054			-2.527
274400.000			5.053			-2.526
274502.000			5.052			-2.526
274601.000			5.052			-2.526
274700.000			5.053			-2.526
274801.000			5.053			-2.526
274900.000			5.052			-2.526
275000.000			5.053			-2.527
275101.000			5.053			-2.526
275200.000			5.052			-2.526
275300.000			5.052			-2.526
275402.000			5.053			-2.526
275501.000			5.053			-2.527
275601.000			5.054			-2.527
275701.000			5.054			-2.527
275800.000			5.053			-2.527
275900.000			5.053			-2.527
276001.000			5.053			-2.527
276100.000			5.053			-2.527
276200.000			5.053			-2.527
276302.000			5.053			-2.526
276401.000			5.053			-2.526
276501.000			5.053			-2.527
276601.000			5.053			-2.527
276700.000			5.053			-2.526
276800.000			5.052			-2.526
276900.000			5.052			-2.526
277000.000			5.053			-2.526
277101.000			5.053			-2.527
277201.000			5.053			-2.527
277301.000			5.053			-2.526
277402.000			5.051			-2.526
277500.000			5.052			-2.526
277600.000			5.053			-2.527
277701.000			5.052			-2.526
277800.000			5.052			-2.526
277900.000			5.052			-2.526
278001.000			5.052			-2.526
278100.000			5.053			-2.526
278201.000			5.053			-2.526
278302.000			5.053			-2.527
278400.000			5.052			-2.526
278500.000			5.052			-2.526
278601.000			5.052			-2.526
278700.000			5.054			-2.527
278800.000			5.052			-2.526
278901.000			5.051			-2.526
279000.000			5.052			-2.526
279101.000			5.052			-2.526
279202.000			5.052			-2.526
279300.000			5.052			-2.526
279400.000			5.052			-2.526
279501.000			5.052			-2.526
279600.000			5.053			-2.526
279700.000			5.053			-2.526
279801.000			5.052			-2.526
279900.000			5.051			-2.526
280002.000			5.052			-2.526
280101.000			5.053			-2.526
280201.000			5.053			-2.526
280301.000			5.052			-2.526
280400.000			5.052			-2.526
280500.000			5.052			-2.526
280601.000			5.051			-2.526
280700.000			5.052			-2.526
280800.000			5.051			-2.526
280902.000			5.051			-2.526
281001.000			5.052			-2.526
281101.000			5.051			-2.526
281201.000			5.052			-2.526
281300.000			5.052			-2.526
281400.000			5.051			-2.526
281501.000			5.052			-2.526
281600.000			5.052			-2.526
281700.000			5.052			-2.526
281802.000			5.052			-2.526
281901.000			5.052			-2.526
282001.000			5.053			-2.526
282101.000			5.052			-2.526
282200.000			5.051			-2.526
282300.000			5.051			-2.526
282401.000			5.051			-2.526
282500.000			5.051			-2.526
282600.000			5.052			-2.526
282702.000			5.051			-2.526
282801.000			5.050			-2.525
282901.000			5.050			-2.525
283001.000			5.050			-2.525
283100.000			5.050			-2.525
283200.000			5.051			-2.525
283300.000			5.051			-2.526
283400.000			5.051			-2.526
283501.000			5.051			-2.525
283601.000			5.050			-2.525
283701.000			5.051			-2.525
283801.000			5.051			-2.525
283900.000			5.051			-2.525
284000.000			5.051			-2.525
284101.000			5.051			-2.526
284200.000			5.052			-2.526
284300.000			5.051			-2.526
284401.000			5.050			-2.525
284501.000			5.051			-2.525
284601.000			5.052			-2.526
284702.000			5.052			-2.526
284800.000			5.051			-2.525
284900.000			5.050			-2.525
285001.000			5.051			-2.525
285100.000			5.050			-2.525
285200.000			5.050			-2.525
285301.000			5.050			-2.525
285401.000			5.050			-2.525
285501.000			5.050			-2.525
285602.000			5.050			-2.525
285700.000			5.051			-2.525
285800.000			5.051			-2.525
285901.000			5.051			-2.526
286000.000			5.051			-2.525
286100.000			5.051			-2.525
286201.000			5.050			-2.525
286301.000			5.050			-2.525
286402.000			5.050			-2.525
286501.000			5.049			-2.525
286600.000			5.050			-2.525
286701.000			5.050			-2.525
286800.000			5.050			-2.525
286900.000			5.050			-2.525
287001.000			5.050			-2.525
287100.000			5.050			-2.525
287200.000			5.050			-2.525
287302.000			5.050			-2.525
287401.000			5.050			-2.525
287500.000			5.050			-2.525
287601.000			5.050			-2.525
287700.000			5.050			-2.525
287800.000			5.051			-2.525
287901.000			5.051			-2.525
288000.000			5.050			-2.525
288100.000			5.049			-2.525
288202.000			5.050			-2.525
288301.000			5.051			-2.525
288401.000			5.050			-2.525
288501.000			5.050			-2.525
288600.000			5.050			-2.525
288700.000			5.049			-2.524
288801.000			5.049			-2.524
288900.000			5.049			-2.524
289000.000			5.049			-2.524
289101.000			5.049			-2.524
289201.000			5.048			-2.524
289301.000			5.049			-2.524
289401.000			5.049			-2.525
289500.000			5.049			-2.525
289600.000			5.050			-2.525
289700.000			5.050			-2.525
289800.000			5.050			-2.525
289901.000			5.049			-2.524
290000.000			5.048			-2.524
290101.000			5.048			-2.524
290202.000			5.049			-2.524
290301.000			5.050			-2.525
290400.000			5.049			-2.524
290501.000			5.049			-2.524
290600.000			5.048			-2.524
290700.000			5.049			-2.524
290801.000			5.049			-2.525
290900.000			5.050			-2.525
291000.000			5.049			-2.525
291102.000			5.049			-2.525
291201.000			5.050			-2.525
291300.000			5.049			-2.525
291401.000			5.048			-2.524
291500.000			5.049			-2.525
291600.000			5.048			-2.524
291701.000			5.048			-2.524
291800.000			5.049			-2.525
291900.000			5.049			-2.525
292002.000			5.049			-2.525
292101.000			5.048			-2.524
292200.000			5.048			-2.524
292301.000			5.049			-2.524
292400.000			5.049			-2.524
292500.000			5.048			-2.524
292601.000			5.048			-2.524
292700.000			5.048			-2.524
292800.000			5.049			-2.525
292902.000			5.049			-2.524
293001.000			5.048			-2.524
293101.000			5.048			-2.524
293200.000			5.048			-2.524
293300.000			5.049			-2.525
293401.000			5.048			-2.524
293500.000			5.048			-2.524
293600.000			5.048			-2.524
293701.000			5.048			-2.524
293801.000			5.049			-2.524
293901.000			5.048			-2.524
294002.000			5.048			-2.524
294100.000			5.048			-2.524
294200.000			5.047			-2.524
294301.000			5.048			-2.524
294400.000			5.049			-2.524
294500.000			5.048			-2.524
294601.000			5.048			-2.524
294701.000			5.048			-2.524
294801.000			5.048			-2.524
294902.000			5.049			-2.524
295000.000			5.048			-2.524
295100.000			5.048			-2.524
295201.000			5.048			-2.524
295300.000			5.048			-2.524
295400.000			5.048			-2.524
295501.000			5.048			-2.524
295600.000			5.048			-2.524
295701.000			5.048			-2.524
295802.000			5.047			-2.523
295901.000			5.047			-2.524
296000.000			5.048			-2.524
296100.000			5.048			-2.524
296200.000			5.048			-2.524
296301.000			5.048			-2.524
296400.000			5.048			-2.524
296500.000			5.049			-2.524
296602.000			5.048			-2.524
296701.000			5.047			-2.523
296801.000			5.047			-2.523
296901.000			5.048			-2.524
297000.000			5.048			-2.524
297100.000			5.048			-2.524
297201.000			5.048			-2.524
297300.000			5.048			-2.524
297400.000			5.047			-2.524
297501.000			5.048			-2.524
297601.000			5.048			-2.524
297701.000			5.048			-2.524
297801.000			5.047			-2.524
297900.000			5.046			-2.523
298000.000			5.046			-2.523
298101.000			5.047			-2.524
298200.000			5.048			-2.524
298300.000			5.047			-2.523
298401.000			5.047			-2.523
298501.000			5.046			-2.523
298601.000			5.046			-2.523
298702.000			5.047			-2.523
298800.000			5.047			-2.524
298900.000			5.047			-2.524
299001.000			5.047			-2.523
299100.000			5.047			-2.523
299200.000			5.047			-2.524
299300.000			5.047			-2.523
299400.000			5.047			-2.524
299502.000			5.047			-2.524
299601.000			5.047			-2.523
299700.000			5.047			-2.523
299801.000			5.047			-2.523
299900.000			5.046			-2.523
