# Acquired on 10/01/2024 15:51:32 
# SPIDER: Creep_-7mm_07714532B-1
# CREEP MEASUREMENT

# time [ms]		force [N]		stiffness [N/mm]
0.000			23.134			-3.305
100.000			24.779			-3.540
200.000			25.782			-3.683
300.000			25.702			-3.672
400.000			25.597			-3.657
502.000			25.513			-3.645
601.000			25.441			-3.634
700.000			25.379			-3.626
801.000			25.324			-3.618
900.000			25.233			-3.605
1000.000			25.192			-3.599
1101.000			25.155			-3.594
1201.000			25.121			-3.589
1301.000			25.089			-3.584
1401.000			25.059			-3.580
1500.000			25.031			-3.576
1600.000			24.979			-3.568
1701.000			24.955			-3.565
1800.000			24.933			-3.562
1900.000			24.912			-3.559
2002.000			24.891			-3.556
2101.000			24.871			-3.553
2200.000			24.852			-3.550
2301.000			24.834			-3.548
2400.000			24.800			-3.543
2500.000			24.785			-3.541
2601.000			24.768			-3.538
2701.000			24.751			-3.536
2801.000			24.736			-3.534
2901.000			24.723			-3.532
3000.000			24.710			-3.530
3100.000			24.683			-3.526
3201.000			24.670			-3.524
3300.000			24.657			-3.522
3400.000			24.645			-3.521
3502.000			24.634			-3.519
3601.000			24.622			-3.517
3701.000			24.611			-3.516
3800.000			24.590			-3.513
3900.000			24.579			-3.511
4001.000			24.570			-3.510
4100.000			24.561			-3.509
4200.000			24.551			-3.507
4302.000			24.540			-3.506
4401.000			24.531			-3.504
4500.000			24.522			-3.503
4601.000			24.506			-3.501
4700.000			24.497			-3.500
4800.000			24.488			-3.498
4901.000			24.480			-3.497
5001.000			24.471			-3.496
5101.000			24.464			-3.495
5201.000			24.457			-3.494
5300.000			24.441			-3.492
5400.000			24.434			-3.491
5501.000			24.426			-3.489
5600.000			24.420			-3.489
5700.000			24.413			-3.488
5802.000			24.406			-3.487
5901.000			24.397			-3.485
6000.000			24.384			-3.483
6101.000			24.377			-3.482
6200.000			24.371			-3.482
6300.000			24.364			-3.481
6401.000			24.359			-3.480
6501.000			24.352			-3.479
6602.000			24.346			-3.478
6700.000			24.334			-3.476
6800.000			24.328			-3.475
6901.000			24.322			-3.475
7000.000			24.317			-3.474
7100.000			24.310			-3.473
7201.000			24.305			-3.472
7301.000			24.300			-3.471
7401.000			24.294			-3.471
7501.000			24.284			-3.469
7600.000			24.278			-3.468
7700.000			24.273			-3.468
7801.000			24.269			-3.467
7900.000			24.264			-3.466
8001.000			24.259			-3.466
8102.000			24.254			-3.465
8200.000			24.244			-3.463
8300.000			24.239			-3.463
8401.000			24.234			-3.462
8500.000			24.229			-3.461
8600.000			24.226			-3.461
8701.000			24.222			-3.460
8801.000			24.217			-3.460
8901.000			24.207			-3.458
9001.000			24.203			-3.458
9100.000			24.199			-3.457
9200.000			24.195			-3.456
9301.000			24.191			-3.456
9400.000			24.185			-3.455
9500.000			24.181			-3.454
9602.000			24.174			-3.453
9701.000			24.170			-3.453
9800.000			24.167			-3.452
9900.000			24.162			-3.452
10000.000			24.157			-3.451
10101.000			24.153			-3.450
10200.000			24.150			-3.450
10300.000			24.147			-3.450
10402.000			24.139			-3.448
10501.000			24.135			-3.448
10600.000			24.131			-3.447
10701.000			24.128			-3.447
10800.000			24.123			-3.446
10900.000			24.119			-3.446
11001.000			24.116			-3.445
11101.000			24.111			-3.444
11201.000			24.106			-3.444
11301.000			24.103			-3.443
11400.000			24.099			-3.443
11500.000			24.096			-3.442
11601.000			24.093			-3.442
11700.000			24.089			-3.441
11800.000			24.082			-3.440
11902.000			24.078			-3.440
12001.000			24.075			-3.439
12100.000			24.072			-3.439
12201.000			24.069			-3.438
12300.000			24.066			-3.438
12400.000			24.063			-3.438
12501.000			24.058			-3.437
12600.000			24.052			-3.436
12701.000			24.049			-3.436
12802.000			24.046			-3.435
12900.000			24.041			-3.434
13000.000			24.039			-3.434
13100.000			24.037			-3.434
13200.000			24.035			-3.434
13301.000			24.028			-3.433
13401.000			24.025			-3.432
13501.000			24.022			-3.432
13602.000			24.020			-3.431
13700.000			24.017			-3.431
13800.000			24.013			-3.430
13901.000			24.010			-3.430
14000.000			24.005			-3.429
14100.000			24.003			-3.429
14202.000			24.000			-3.429
14301.000			23.998			-3.428
14400.000			23.995			-3.428
14501.000			23.992			-3.427
14600.000			23.988			-3.427
14700.000			23.983			-3.426
14801.000			23.981			-3.426
14900.000			23.978			-3.425
15000.000			23.975			-3.425
15102.000			23.974			-3.425
15201.000			23.970			-3.424
15300.000			23.968			-3.424
15401.000			23.966			-3.424
15500.000			23.960			-3.423
15600.000			23.957			-3.422
15701.000			23.954			-3.422
15801.000			23.952			-3.422
15901.000			23.951			-3.422
16002.000			23.949			-3.421
16100.000			23.946			-3.421
16200.000			23.941			-3.420
16300.000			23.939			-3.420
16400.000			23.937			-3.420
16501.000			23.934			-3.419
16600.000			23.932			-3.419
16701.000			23.929			-3.418
16802.000			23.927			-3.418
16900.000			23.924			-3.418
17000.000			23.922			-3.417
17101.000			23.919			-3.417
17200.000			23.916			-3.417
17300.000			23.915			-3.416
17401.000			23.912			-3.416
17501.000			23.910			-3.416
17601.000			23.908			-3.415
17701.000			23.903			-3.415
17800.000			23.901			-3.414
17900.000			23.900			-3.414
18001.000			23.898			-3.414
18100.000			23.895			-3.414
18200.000			23.892			-3.413
18302.000			23.890			-3.413
18401.000			23.885			-3.412
18500.000			23.883			-3.412
18601.000			23.882			-3.412
18700.000			23.880			-3.411
18800.000			23.877			-3.411
18901.000			23.876			-3.411
19000.000			23.874			-3.411
19101.000			23.870			-3.410
19202.000			23.868			-3.410
19300.000			23.867			-3.410
19400.000			23.865			-3.409
19500.000			23.862			-3.409
19600.000			23.861			-3.409
19701.000			23.858			-3.408
19800.000			23.854			-3.408
19900.000			23.852			-3.407
20002.000			23.850			-3.407
20101.000			23.849			-3.407
20200.000			23.847			-3.407
20301.000			23.845			-3.406
20400.000			23.843			-3.406
20500.000			23.842			-3.406
20601.000			23.838			-3.405
20701.000			23.835			-3.405
20801.000			23.833			-3.405
20901.000			23.832			-3.405
21000.000			23.830			-3.404
21100.000			23.827			-3.404
21201.000			23.825			-3.404
21300.000			23.823			-3.403
21400.000			23.820			-3.403
21502.000			23.818			-3.403
21601.000			23.817			-3.402
21701.000			23.814			-3.402
21801.000			23.812			-3.402
21900.000			23.810			-3.401
22000.000			23.808			-3.401
22101.000			23.807			-3.401
22200.000			23.804			-3.401
22301.000			23.802			-3.400
22402.000			23.801			-3.400
22500.000			23.799			-3.400
22600.000			23.797			-3.400
22700.000			23.796			-3.399
22800.000			23.793			-3.399
22901.000			23.791			-3.399
23000.000			23.788			-3.398
23101.000			23.787			-3.398
23202.000			23.785			-3.398
23301.000			23.783			-3.398
23400.000			23.781			-3.397
23501.000			23.779			-3.397
23600.000			23.777			-3.397
23700.000			23.775			-3.396
23801.000			23.774			-3.396
23901.000			23.773			-3.396
24001.000			23.771			-3.396
24102.000			23.768			-3.395
24200.000			23.765			-3.395
24300.000			23.764			-3.395
24401.000			23.762			-3.395
24500.000			23.761			-3.394
24600.000			23.759			-3.394
24701.000			23.757			-3.394
24801.000			23.756			-3.394
24901.000			23.753			-3.393
25001.000			23.752			-3.393
25100.000			23.750			-3.393
25200.000			23.748			-3.393
25301.000			23.746			-3.392
25400.000			23.745			-3.392
25500.000			23.743			-3.392
25602.000			23.742			-3.392
25701.000			23.740			-3.391
25800.000			23.737			-3.391
25900.000			23.735			-3.391
26000.000			23.733			-3.390
26101.000			23.733			-3.390
26200.000			23.732			-3.390
26300.000			23.730			-3.390
26402.000			23.726			-3.389
26501.000			23.726			-3.389
26600.000			23.725			-3.389
26701.000			23.724			-3.389
26800.000			23.722			-3.389
26900.000			23.720			-3.389
27001.000			23.718			-3.388
27101.000			23.716			-3.388
27201.000			23.714			-3.388
27302.000			23.713			-3.388
27400.000			23.712			-3.387
27500.000			23.710			-3.387
27601.000			23.708			-3.387
27700.000			23.706			-3.387
27800.000			23.705			-3.386
27901.000			23.703			-3.386
28001.000			23.700			-3.386
28101.000			23.699			-3.386
28201.000			23.698			-3.385
28300.000			23.697			-3.385
28400.000			23.696			-3.385
28501.000			23.695			-3.385
28600.000			23.691			-3.384
28700.000			23.690			-3.384
28802.000			23.690			-3.384
28901.000			23.689			-3.384
29000.000			23.687			-3.384
29100.000			23.686			-3.384
29200.000			23.685			-3.384
29301.000			23.682			-3.383
29400.000			23.680			-3.383
29500.000			23.679			-3.383
29602.000			23.677			-3.382
29701.000			23.677			-3.382
29800.000			23.675			-3.382
29901.000			23.673			-3.382
30000.000			23.672			-3.382
30100.000			23.672			-3.382
30201.000			23.670			-3.381
30300.000			23.668			-3.381
30401.000			23.667			-3.381
30502.000			23.665			-3.381
30600.000			23.664			-3.381
30700.000			23.663			-3.380
30801.000			23.660			-3.380
30900.000			23.659			-3.380
31000.000			23.658			-3.380
31101.000			23.657			-3.380
31201.000			23.656			-3.379
31301.000			23.654			-3.379
31401.000			23.653			-3.379
31500.000			23.652			-3.379
31600.000			23.650			-3.379
31701.000			23.649			-3.378
31800.000			23.648			-3.378
31900.000			23.646			-3.378
32002.000			23.644			-3.378
32101.000			23.642			-3.377
32200.000			23.642			-3.377
32300.000			23.641			-3.377
32400.000			23.639			-3.377
32501.000			23.638			-3.377
32600.000			23.636			-3.377
32700.000			23.634			-3.376
32802.000			23.633			-3.376
32901.000			23.632			-3.376
33000.000			23.630			-3.376
33101.000			23.628			-3.375
33200.000			23.628			-3.375
33300.000			23.627			-3.375
33401.000			23.625			-3.375
33501.000			23.624			-3.375
33601.000			23.623			-3.375
33701.000			23.620			-3.374
33800.000			23.619			-3.374
33900.000			23.618			-3.374
34001.000			23.617			-3.374
34100.000			23.616			-3.374
34200.000			23.615			-3.374
34302.000			23.614			-3.373
34401.000			23.612			-3.373
34500.000			23.610			-3.373
34601.000			23.609			-3.373
34700.000			23.607			-3.372
34800.000			23.607			-3.372
34901.000			23.606			-3.372
35000.000			23.605			-3.372
35101.000			23.602			-3.372
35202.000			23.602			-3.372
35300.000			23.601			-3.372
35400.000			23.598			-3.371
35500.000			23.597			-3.371
35600.000			23.597			-3.371
35701.000			23.596			-3.371
35800.000			23.595			-3.371
35901.000			23.593			-3.370
36002.000			23.591			-3.370
36100.000			23.589			-3.370
36200.000			23.589			-3.370
36301.000			23.587			-3.370
36400.000			23.586			-3.369
36500.000			23.585			-3.369
36601.000			23.583			-3.369
36701.000			23.582			-3.369
36801.000			23.581			-3.369
36901.000			23.580			-3.369
37000.000			23.580			-3.369
37100.000			23.578			-3.368
37201.000			23.576			-3.368
37300.000			23.573			-3.368
37400.000			23.572			-3.367
37502.000			23.570			-3.367
37601.000			23.570			-3.367
37700.000			23.570			-3.367
37801.000			23.569			-3.367
37900.000			23.567			-3.367
38000.000			23.567			-3.367
38101.000			23.565			-3.366
38200.000			23.564			-3.366
38301.000			23.562			-3.366
38402.000			23.561			-3.366
38500.000			23.561			-3.366
38600.000			23.558			-3.365
38700.000			23.558			-3.365
38800.000			23.556			-3.365
38901.000			23.555			-3.365
39000.000			23.555			-3.365
39101.000			23.554			-3.365
39202.000			23.553			-3.365
39300.000			23.551			-3.364
39400.000			23.551			-3.364
39501.000			23.547			-3.364
39600.000			23.547			-3.364
39700.000			23.546			-3.364
39801.000			23.546			-3.364
39901.000			23.545			-3.364
40001.000			23.543			-3.363
40101.000			23.543			-3.363
40200.000			23.542			-3.363
40300.000			23.540			-3.363
40401.000			23.540			-3.363
40500.000			23.538			-3.363
40600.000			23.536			-3.362
40702.000			23.536			-3.362
40801.000			23.535			-3.362
40900.000			23.534			-3.362
41001.000			23.531			-3.362
41100.000			23.530			-3.361
41200.000			23.530			-3.361
41301.000			23.529			-3.361
41400.000			23.527			-3.361
41501.000			23.526			-3.361
41602.000			23.526			-3.361
41700.000			23.523			-3.360
41800.000			23.523			-3.360
41900.000			23.522			-3.360
42000.000			23.522			-3.360
42101.000			23.520			-3.360
42200.000			23.519			-3.360
42301.000			23.518			-3.360
42402.000			23.517			-3.360
42500.000			23.515			-3.359
42600.000			23.515			-3.359
42701.000			23.514			-3.359
42800.000			23.513			-3.359
42900.000			23.512			-3.359
43001.000			23.510			-3.359
43101.000			23.511			-3.359
43200.000			23.508			-3.358
43301.000			23.507			-3.358
43400.000			23.507			-3.358
43500.000			23.506			-3.358
43601.000			23.505			-3.358
43700.000			23.503			-3.358
43801.000			23.502			-3.357
43902.000			23.501			-3.357
44000.000			23.500			-3.357
44100.000			23.499			-3.357
44201.000			23.499			-3.357
44300.000			23.498			-3.357
44400.000			23.496			-3.357
44501.000			23.496			-3.357
44601.000			23.495			-3.356
44701.000			23.494			-3.356
44801.000			23.493			-3.356
44900.000			23.492			-3.356
45000.000			23.491			-3.356
45100.000			23.490			-3.356
45200.000			23.489			-3.356
45301.000			23.488			-3.355
45401.000			23.487			-3.355
45501.000			23.487			-3.355
45602.000			23.486			-3.355
45700.000			23.485			-3.355
45800.000			23.484			-3.355
45901.000			23.483			-3.355
46000.000			23.482			-3.355
46100.000			23.481			-3.354
46201.000			23.480			-3.354
46301.000			23.478			-3.354
46401.000			23.477			-3.354
46501.000			23.476			-3.354
46600.000			23.476			-3.354
46700.000			23.475			-3.354
46801.000			23.472			-3.353
46900.000			23.471			-3.353
47000.000			23.471			-3.353
47102.000			23.471			-3.353
47201.000			23.470			-3.353
47300.000			23.470			-3.353
47401.000			23.468			-3.353
47500.000			23.467			-3.352
47600.000			23.467			-3.352
47701.000			23.466			-3.352
47800.000			23.464			-3.352
47901.000			23.464			-3.352
48002.000			23.463			-3.352
48100.000			23.462			-3.352
48200.000			23.461			-3.352
48300.000			23.460			-3.351
48400.000			23.459			-3.351
48501.000			23.457			-3.351
48600.000			23.457			-3.351
48701.000			23.457			-3.351
48802.000			23.457			-3.351
48900.000			23.455			-3.351
49000.000			23.454			-3.351
49101.000			23.453			-3.350
49200.000			23.452			-3.350
49300.000			23.452			-3.350
49401.000			23.452			-3.350
49501.000			23.451			-3.350
49601.000			23.450			-3.350
49701.000			23.448			-3.350
49800.000			23.448			-3.350
49900.000			23.447			-3.350
50001.000			23.446			-3.349
50100.000			23.445			-3.349
50200.000			23.443			-3.349
50302.000			23.443			-3.349
50401.000			23.442			-3.349
50500.000			23.442			-3.349
50601.000			23.441			-3.349
50700.000			23.440			-3.349
50800.000			23.439			-3.348
50901.000			23.437			-3.348
51001.000			23.436			-3.348
51101.000			23.436			-3.348
51201.000			23.435			-3.348
51300.000			23.435			-3.348
51400.000			23.434			-3.348
51500.000			23.433			-3.348
51600.000			23.432			-3.347
51701.000			23.431			-3.347
51801.000			23.430			-3.347
51901.000			23.429			-3.347
52001.000			23.428			-3.347
52100.000			23.427			-3.347
52200.000			23.427			-3.347
52301.000			23.428			-3.347
52400.000			23.426			-3.347
52500.000			23.425			-3.346
52602.000			23.423			-3.346
52701.000			23.422			-3.346
52800.000			23.422			-3.346
52901.000			23.422			-3.346
53000.000			23.421			-3.346
53100.000			23.420			-3.346
53201.000			23.419			-3.346
53300.000			23.419			-3.346
53401.000			23.417			-3.345
53502.000			23.416			-3.345
53600.000			23.416			-3.345
53700.000			23.416			-3.345
53801.000			23.415			-3.345
53900.000			23.414			-3.345
54000.000			23.413			-3.345
54102.000			23.411			-3.344
54201.000			23.411			-3.344
54300.000			23.410			-3.344
54401.000			23.410			-3.344
54500.000			23.409			-3.344
54600.000			23.408			-3.344
54700.000			23.408			-3.344
54800.000			23.406			-3.344
54902.000			23.405			-3.344
55001.000			23.405			-3.344
55100.000			23.404			-3.343
55201.000			23.403			-3.343
55300.000			23.403			-3.343
55400.000			23.403			-3.343
55501.000			23.400			-3.343
55600.000			23.399			-3.343
55701.000			23.399			-3.343
55802.000			23.398			-3.343
55900.000			23.397			-3.342
56000.000			23.397			-3.342
56101.000			23.396			-3.342
56200.000			23.396			-3.342
56300.000			23.394			-3.342
56401.000			23.393			-3.342
56501.000			23.392			-3.342
56601.000			23.392			-3.342
56701.000			23.392			-3.342
56800.000			23.391			-3.342
56900.000			23.390			-3.341
57001.000			23.387			-3.341
57100.000			23.387			-3.341
57200.000			23.387			-3.341
57302.000			23.386			-3.341
57401.000			23.385			-3.341
57500.000			23.384			-3.341
57601.000			23.384			-3.341
57700.000			23.383			-3.340
57800.000			23.383			-3.340
57900.000			23.382			-3.340
58000.000			23.382			-3.340
58102.000			23.381			-3.340
58201.000			23.381			-3.340
58300.000			23.379			-3.340
58401.000			23.378			-3.340
58500.000			23.377			-3.340
58600.000			23.377			-3.340
58701.000			23.376			-3.339
58800.000			23.374			-3.339
58901.000			23.375			-3.339
59002.000			23.374			-3.339
59100.000			23.373			-3.339
59200.000			23.371			-3.339
59301.000			23.371			-3.339
59400.000			23.370			-3.339
59500.000			23.370			-3.339
59601.000			23.368			-3.338
59701.000			23.368			-3.338
59801.000			23.368			-3.338
59902.000			23.367			-3.338
60000.000			23.366			-3.338
60100.000			23.366			-3.338
60201.000			23.364			-3.338
60300.000			23.364			-3.338
60400.000			23.363			-3.338
60502.000			23.363			-3.338
60601.000			23.361			-3.337
60700.000			23.360			-3.337
60801.000			23.360			-3.337
60900.000			23.360			-3.337
61000.000			23.359			-3.337
61100.000			23.359			-3.337
61200.000			23.358			-3.337
61302.000			23.357			-3.337
61401.000			23.356			-3.337
61500.000			23.355			-3.336
61601.000			23.355			-3.336
61700.000			23.354			-3.336
61800.000			23.354			-3.336
61901.000			23.354			-3.336
62000.000			23.353			-3.336
62101.000			23.351			-3.336
62202.000			23.351			-3.336
62300.000			23.349			-3.336
62400.000			23.348			-3.335
62501.000			23.348			-3.335
62600.000			23.348			-3.335
62700.000			23.347			-3.335
62801.000			23.347			-3.335
62901.000			23.346			-3.335
63001.000			23.344			-3.335
63101.000			23.345			-3.335
63200.000			23.344			-3.335
63300.000			23.343			-3.335
63401.000			23.342			-3.335
63500.000			23.341			-3.334
63600.000			23.341			-3.334
63702.000			23.340			-3.334
63801.000			23.339			-3.334
63900.000			23.338			-3.334
64001.000			23.338			-3.334
64100.000			23.337			-3.334
64200.000			23.337			-3.334
64300.000			23.337			-3.334
64400.000			23.336			-3.334
64502.000			23.334			-3.333
64601.000			23.334			-3.333
64700.000			23.334			-3.333
64801.000			23.333			-3.333
64900.000			23.333			-3.333
65000.000			23.331			-3.333
65101.000			23.331			-3.333
65200.000			23.331			-3.333
65301.000			23.330			-3.333
65402.000			23.329			-3.333
65500.000			23.328			-3.333
65600.000			23.327			-3.332
65701.000			23.327			-3.332
65800.000			23.326			-3.332
65900.000			23.326			-3.332
66001.000			23.325			-3.332
66101.000			23.323			-3.332
66201.000			23.324			-3.332
66301.000			23.324			-3.332
66400.000			23.322			-3.332
66500.000			23.322			-3.332
66601.000			23.321			-3.332
66700.000			23.320			-3.331
66800.000			23.320			-3.331
66902.000			23.320			-3.331
67001.000			23.319			-3.331
67100.000			23.319			-3.331
67201.000			23.317			-3.331
67300.000			23.317			-3.331
67400.000			23.316			-3.331
67500.000			23.315			-3.331
67600.000			23.315			-3.331
67702.000			23.315			-3.331
67801.000			23.314			-3.331
67900.000			23.313			-3.330
68001.000			23.312			-3.330
68100.000			23.311			-3.330
68200.000			23.311			-3.330
68301.000			23.310			-3.330
68400.000			23.309			-3.330
68501.000			23.309			-3.330
68602.000			23.308			-3.330
68701.000			23.307			-3.330
68800.000			23.306			-3.329
68901.000			23.307			-3.330
69000.000			23.306			-3.329
69100.000			23.304			-3.329
69201.000			23.304			-3.329
69301.000			23.303			-3.329
69401.000			23.303			-3.329
69501.000			23.302			-3.329
69600.000			23.302			-3.329
69700.000			23.301			-3.329
69801.000			23.300			-3.329
69900.000			23.300			-3.329
70000.000			23.300			-3.329
70102.000			23.299			-3.328
70201.000			23.299			-3.328
70301.000			23.299			-3.328
70401.000			23.298			-3.328
70500.000			23.296			-3.328
70600.000			23.297			-3.328
70700.000			23.295			-3.328
70800.000			23.294			-3.328
70901.000			23.294			-3.328
71001.000			23.294			-3.328
71101.000			23.293			-3.328
71201.000			23.293			-3.328
71300.000			23.293			-3.328
71400.000			23.291			-3.327
71501.000			23.290			-3.327
71600.000			23.289			-3.327
71700.000			23.288			-3.327
71802.000			23.289			-3.327
71901.000			23.288			-3.327
72000.000			23.289			-3.327
72101.000			23.288			-3.327
72200.000			23.284			-3.326
72300.000			23.284			-3.326
72401.000			23.285			-3.326
72500.000			23.284			-3.326
72601.000			23.285			-3.326
72702.000			23.284			-3.326
72800.000			23.283			-3.326
72900.000			23.283			-3.326
73001.000			23.281			-3.326
73100.000			23.281			-3.326
73200.000			23.280			-3.326
73301.000			23.280			-3.326
73401.000			23.280			-3.326
73501.000			23.279			-3.326
73601.000			23.278			-3.325
73700.000			23.277			-3.325
73800.000			23.277			-3.325
73900.000			23.277			-3.325
74000.000			23.276			-3.325
74101.000			23.274			-3.325
74201.000			23.274			-3.325
74301.000			23.274			-3.325
74401.000			23.274			-3.325
74500.000			23.272			-3.325
74600.000			23.271			-3.324
74701.000			23.271			-3.324
74800.000			23.271			-3.324
74900.000			23.271			-3.324
75002.000			23.269			-3.324
75101.000			23.269			-3.324
75200.000			23.268			-3.324
75301.000			23.268			-3.324
75400.000			23.268			-3.324
75500.000			23.267			-3.324
75601.000			23.267			-3.324
75700.000			23.267			-3.324
75801.000			23.265			-3.324
75902.000			23.264			-3.323
76001.000			23.263			-3.323
76100.000			23.263			-3.323
76201.000			23.264			-3.323
76300.000			23.263			-3.323
76400.000			23.262			-3.323
76501.000			23.262			-3.323
76601.000			23.262			-3.323
76701.000			23.260			-3.323
76802.000			23.259			-3.323
76900.000			23.259			-3.323
77000.000			23.259			-3.323
77100.000			23.258			-3.323
77200.000			23.257			-3.322
77301.000			23.256			-3.322
77400.000			23.256			-3.322
77501.000			23.256			-3.322
77602.000			23.255			-3.322
77700.000			23.255			-3.322
77800.000			23.255			-3.322
77901.000			23.254			-3.322
78000.000			23.253			-3.322
78100.000			23.252			-3.322
78201.000			23.252			-3.322
78301.000			23.252			-3.322
78401.000			23.252			-3.322
78501.000			23.251			-3.322
78600.000			23.250			-3.321
78700.000			23.250			-3.321
78801.000			23.249			-3.321
78900.000			23.247			-3.321
79000.000			23.247			-3.321
79102.000			23.247			-3.321
79201.000			23.247			-3.321
79300.000			23.246			-3.321
79401.000			23.246			-3.321
79500.000			23.245			-3.321
79600.000			23.244			-3.321
79701.000			23.245			-3.321
79800.000			23.243			-3.320
79901.000			23.242			-3.320
80002.000			23.243			-3.320
80100.000			23.242			-3.320
80200.000			23.240			-3.320
80300.000			23.241			-3.320
80400.000			23.241			-3.320
80501.000			23.240			-3.320
80600.000			23.240			-3.320
80701.000			23.239			-3.320
80802.000			23.239			-3.320
80900.000			23.238			-3.320
81000.000			23.235			-3.319
81101.000			23.235			-3.319
81200.000			23.235			-3.319
81300.000			23.234			-3.319
81401.000			23.235			-3.319
81501.000			23.235			-3.319
81601.000			23.234			-3.319
81701.000			23.233			-3.319
81800.000			23.233			-3.319
81900.000			23.231			-3.319
82001.000			23.231			-3.319
82100.000			23.231			-3.319
82200.000			23.231			-3.319
82302.000			23.230			-3.319
82401.000			23.229			-3.318
82500.000			23.230			-3.319
82601.000			23.229			-3.318
82700.000			23.228			-3.318
82800.000			23.228			-3.318
82901.000			23.228			-3.318
83000.000			23.227			-3.318
83101.000			23.226			-3.318
83202.000			23.225			-3.318
83300.000			23.224			-3.318
83400.000			23.224			-3.318
83500.000			23.223			-3.318
83600.000			23.222			-3.317
83701.000			23.222			-3.317
83800.000			23.221			-3.317
83901.000			23.221			-3.317
84002.000			23.221			-3.317
84100.000			23.220			-3.317
84200.000			23.220			-3.317
84301.000			23.220			-3.317
84400.000			23.219			-3.317
84500.000			23.219			-3.317
84601.000			23.217			-3.317
84701.000			23.216			-3.317
84801.000			23.216			-3.317
84901.000			23.216			-3.317
85000.000			23.215			-3.316
85100.000			23.215			-3.316
85201.000			23.216			-3.317
85300.000			23.216			-3.317
85400.000			23.215			-3.316
85502.000			23.214			-3.316
85601.000			23.213			-3.316
85700.000			23.213			-3.316
85801.000			23.212			-3.316
85900.000			23.212			-3.316
86000.000			23.211			-3.316
86101.000			23.210			-3.316
86200.000			23.209			-3.316
86301.000			23.209			-3.316
86402.000			23.208			-3.315
86500.000			23.209			-3.316
86600.000			23.207			-3.315
86700.000			23.207			-3.315
86800.000			23.207			-3.315
86901.000			23.206			-3.315
87000.000			23.206			-3.315
87101.000			23.206			-3.315
87202.000			23.205			-3.315
87300.000			23.204			-3.315
87400.000			23.204			-3.315
87501.000			23.202			-3.315
87600.000			23.202			-3.315
87700.000			23.201			-3.314
87801.000			23.201			-3.314
87901.000			23.201			-3.314
88001.000			23.200			-3.314
88101.000			23.200			-3.314
88200.000			23.199			-3.314
88300.000			23.198			-3.314
88401.000			23.199			-3.314
88500.000			23.198			-3.314
88600.000			23.198			-3.314
88702.000			23.198			-3.314
88801.000			23.198			-3.314
88900.000			23.196			-3.314
89001.000			23.195			-3.314
89100.000			23.195			-3.314
89200.000			23.194			-3.313
89301.000			23.195			-3.314
89400.000			23.194			-3.313
89500.000			23.193			-3.313
89602.000			23.193			-3.313
89701.000			23.192			-3.313
89800.000			23.192			-3.313
89900.000			23.191			-3.313
90000.000			23.190			-3.313
90101.000			23.190			-3.313
90200.000			23.189			-3.313
90300.000			23.188			-3.313
90402.000			23.188			-3.313
90501.000			23.187			-3.312
90600.000			23.187			-3.312
90701.000			23.187			-3.312
90800.000			23.187			-3.312
90900.000			23.187			-3.312
91001.000			23.187			-3.312
91100.000			23.185			-3.312
91201.000			23.185			-3.312
91302.000			23.185			-3.312
91400.000			23.185			-3.312
91500.000			23.184			-3.312
91601.000			23.184			-3.312
91700.000			23.184			-3.312
91800.000			23.183			-3.312
91901.000			23.181			-3.312
92001.000			23.181			-3.312
92101.000			23.181			-3.312
92201.000			23.181			-3.312
92300.000			23.180			-3.311
92400.000			23.178			-3.311
92501.000			23.179			-3.311
92600.000			23.179			-3.311
92700.000			23.178			-3.311
92802.000			23.178			-3.311
92901.000			23.178			-3.311
93000.000			23.177			-3.311
93100.000			23.176			-3.311
93200.000			23.176			-3.311
93301.000			23.174			-3.311
93400.000			23.174			-3.311
93500.000			23.174			-3.311
93602.000			23.174			-3.311
93701.000			23.173			-3.310
93800.000			23.173			-3.310
93901.000			23.171			-3.310
94000.000			23.171			-3.310
94100.000			23.171			-3.310
94201.000			23.171			-3.310
94300.000			23.169			-3.310
94400.000			23.170			-3.310
94502.000			23.171			-3.310
94601.000			23.169			-3.310
94700.000			23.168			-3.310
94801.000			23.168			-3.310
94900.000			23.167			-3.310
95000.000			23.167			-3.310
95101.000			23.167			-3.310
95200.000			23.166			-3.309
95301.000			23.166			-3.309
95402.000			23.166			-3.309
95500.000			23.164			-3.309
95600.000			23.164			-3.309
95701.000			23.164			-3.309
95800.000			23.164			-3.309
95900.000			23.164			-3.309
96001.000			23.163			-3.309
96101.000			23.162			-3.309
96202.000			23.161			-3.309
96300.000			23.161			-3.309
96400.000			23.161			-3.309
96501.000			23.161			-3.309
96600.000			23.160			-3.309
96700.000			23.160			-3.309
96801.000			23.159			-3.308
96901.000			23.158			-3.308
97001.000			23.157			-3.308
97101.000			23.156			-3.308
97200.000			23.156			-3.308
97300.000			23.157			-3.308
97401.000			23.156			-3.308
97500.000			23.156			-3.308
97600.000			23.156			-3.308
97702.000			23.155			-3.308
97801.000			23.155			-3.308
97900.000			23.154			-3.308
98001.000			23.153			-3.308
98100.000			23.153			-3.308
98200.000			23.152			-3.307
98301.000			23.152			-3.307
98400.000			23.152			-3.307
98501.000			23.151			-3.307
98602.000			23.151			-3.307
98700.000			23.151			-3.307
98800.000			23.151			-3.307
98901.000			23.150			-3.307
99000.000			23.149			-3.307
99100.000			23.149			-3.307
99201.000			23.149			-3.307
99300.000			23.148			-3.307
99402.000			23.147			-3.307
99501.000			23.147			-3.307
99600.000			23.146			-3.307
99701.000			23.147			-3.307
99800.000			23.145			-3.306
99900.000			23.146			-3.307
100001.000			23.146			-3.307
100100.000			23.146			-3.307
100201.000			23.145			-3.306
100302.000			23.144			-3.306
100400.000			23.142			-3.306
100500.000			23.142			-3.306
100601.000			23.142			-3.306
100700.000			23.142			-3.306
100800.000			23.142			-3.306
100901.000			23.141			-3.306
101001.000			23.140			-3.306
101101.000			23.140			-3.306
101201.000			23.140			-3.306
101300.000			23.140			-3.306
101400.000			23.138			-3.305
101501.000			23.137			-3.305
101600.000			23.138			-3.305
101700.000			23.137			-3.305
101802.000			23.136			-3.305
101901.000			23.137			-3.305
102000.000			23.136			-3.305
102101.000			23.137			-3.305
102200.000			23.137			-3.305
102300.000			23.137			-3.305
102401.000			23.135			-3.305
102500.000			23.133			-3.305
102602.000			23.132			-3.305
102701.000			23.133			-3.305
102801.000			23.133			-3.305
102901.000			23.133			-3.305
103000.000			23.133			-3.305
103100.000			23.133			-3.305
103201.000			23.133			-3.305
103300.000			23.131			-3.304
103401.000			23.131			-3.304
103502.000			23.130			-3.304
103601.000			23.130			-3.304
103700.000			23.129			-3.304
103801.000			23.129			-3.304
103900.000			23.129			-3.304
104000.000			23.128			-3.304
104101.000			23.129			-3.304
104201.000			23.127			-3.304
104301.000			23.127			-3.304
104402.000			23.127			-3.304
104500.000			23.126			-3.304
104600.000			23.127			-3.304
104701.000			23.126			-3.304
104800.000			23.124			-3.303
104900.000			23.124			-3.303
105001.000			23.124			-3.303
105101.000			23.124			-3.303
105201.000			23.124			-3.303
105301.000			23.123			-3.303
105400.000			23.123			-3.303
105500.000			23.123			-3.303
105601.000			23.122			-3.303
105700.000			23.121			-3.303
105800.000			23.121			-3.303
105902.000			23.120			-3.303
106001.000			23.119			-3.303
106101.000			23.119			-3.303
106200.000			23.120			-3.303
106300.000			23.119			-3.303
106401.000			23.118			-3.303
106500.000			23.117			-3.302
106600.000			23.117			-3.302
106702.000			23.117			-3.302
106801.000			23.117			-3.302
106900.000			23.117			-3.302
107001.000			23.116			-3.302
107100.000			23.116			-3.302
107200.000			23.115			-3.302
107301.000			23.114			-3.302
107400.000			23.113			-3.302
107501.000			23.113			-3.302
107602.000			23.113			-3.302
107700.000			23.114			-3.302
107800.000			23.113			-3.302
107901.000			23.112			-3.302
108000.000			23.112			-3.302
108100.000			23.112			-3.302
108201.000			23.111			-3.302
108301.000			23.110			-3.301
108401.000			23.110			-3.301
108501.000			23.110			-3.301
108600.000			23.109			-3.301
108700.000			23.108			-3.301
108801.000			23.109			-3.301
108900.000			23.109			-3.301
109000.000			23.108			-3.301
109102.000			23.107			-3.301
109201.000			23.106			-3.301
109302.000			23.106			-3.301
109400.000			23.106			-3.301
109500.000			23.105			-3.301
109601.000			23.106			-3.301
109700.000			23.106			-3.301
109800.000			23.105			-3.301
109901.000			23.104			-3.301
110001.000			23.104			-3.301
110101.000			23.102			-3.300
110201.000			23.103			-3.300
110300.000			23.102			-3.300
110400.000			23.102			-3.300
110501.000			23.102			-3.300
110600.000			23.102			-3.300
110700.000			23.102			-3.300
110802.000			23.100			-3.300
110901.000			23.100			-3.300
111000.000			23.100			-3.300
111101.000			23.100			-3.300
111200.000			23.100			-3.300
111300.000			23.100			-3.300
111401.000			23.099			-3.300
111500.000			23.097			-3.300
111601.000			23.097			-3.300
111702.000			23.097			-3.300
111800.000			23.096			-3.299
111900.000			23.096			-3.299
112001.000			23.095			-3.299
112100.000			23.094			-3.299
112200.000			23.094			-3.299
112300.000			23.095			-3.299
112401.000			23.094			-3.299
112502.000			23.094			-3.299
112601.000			23.094			-3.299
112700.000			23.093			-3.299
112801.000			23.093			-3.299
112900.000			23.093			-3.299
113000.000			23.093			-3.299
113101.000			23.091			-3.299
113201.000			23.091			-3.299
113301.000			23.091			-3.299
113402.000			23.091			-3.299
113500.000			23.091			-3.299
113600.000			23.090			-3.299
113701.000			23.089			-3.298
113800.000			23.089			-3.298
113900.000			23.089			-3.298
114001.000			23.088			-3.298
114101.000			23.087			-3.298
114201.000			23.087			-3.298
114301.000			23.088			-3.298
114400.000			23.086			-3.298
114500.000			23.086			-3.298
114601.000			23.085			-3.298
114700.000			23.085			-3.298
114800.000			23.084			-3.298
114902.000			23.084			-3.298
115001.000			23.084			-3.298
115100.000			23.085			-3.298
115201.000			23.083			-3.298
115300.000			23.083			-3.298
115400.000			23.082			-3.297
115500.000			23.083			-3.298
115600.000			23.082			-3.297
115702.000			23.082			-3.297
115801.000			23.082			-3.297
115901.000			23.081			-3.297
116001.000			23.081			-3.297
116100.000			23.080			-3.297
116200.000			23.079			-3.297
116301.000			23.079			-3.297
116400.000			23.079			-3.297
116500.000			23.079			-3.297
116602.000			23.077			-3.297
116701.000			23.077			-3.297
116800.000			23.077			-3.297
116901.000			23.077			-3.297
117000.000			23.077			-3.297
117100.000			23.077			-3.297
117201.000			23.076			-3.297
117300.000			23.076			-3.297
117400.000			23.075			-3.296
117502.000			23.075			-3.296
117601.000			23.076			-3.297
117700.000			23.075			-3.296
117801.000			23.074			-3.296
117900.000			23.073			-3.296
118000.000			23.072			-3.296
118101.000			23.072			-3.296
118200.000			23.072			-3.296
118301.000			23.072			-3.296
118402.000			23.072			-3.296
118500.000			23.072			-3.296
118600.000			23.072			-3.296
118700.000			23.072			-3.296
118800.000			23.071			-3.296
118901.000			23.069			-3.296
119000.000			23.069			-3.296
119101.000			23.070			-3.296
119202.000			23.071			-3.296
119300.000			23.070			-3.296
119400.000			23.069			-3.296
119501.000			23.069			-3.296
119600.000			23.068			-3.295
119700.000			23.067			-3.295
119801.000			23.067			-3.295
119900.000			23.067			-3.295
120001.000			23.068			-3.295
120102.000			23.067			-3.295
120200.000			23.065			-3.295
120300.000			23.065			-3.295
120401.000			23.066			-3.295
120500.000			23.065			-3.295
120600.000			23.065			-3.295
120701.000			23.065			-3.295
120801.000			23.065			-3.295
120901.000			23.065			-3.295
121001.000			23.065			-3.295
121100.000			23.065			-3.295
121200.000			23.064			-3.295
121301.000			23.064			-3.295
121400.000			23.064			-3.295
121500.000			23.063			-3.295
121602.000			23.062			-3.295
121701.000			23.061			-3.294
121800.000			23.060			-3.294
121900.000			23.060			-3.294
122000.000			23.061			-3.294
122101.000			23.061			-3.294
122200.000			23.061			-3.294
122300.000			23.059			-3.294
122402.000			23.059			-3.294
122501.000			23.059			-3.294
122600.000			23.057			-3.294
122701.000			23.057			-3.294
122800.000			23.057			-3.294
122900.000			23.057			-3.294
123001.000			23.056			-3.294
123100.000			23.056			-3.294
123201.000			23.054			-3.293
123302.000			23.055			-3.294
123401.000			23.056			-3.294
123500.000			23.054			-3.293
123601.000			23.053			-3.293
123700.000			23.052			-3.293
123800.000			23.053			-3.293
123901.000			23.052			-3.293
124000.000			23.051			-3.293
124101.000			23.052			-3.293
124202.000			23.051			-3.293
124300.000			23.051			-3.293
124400.000			23.051			-3.293
124501.000			23.051			-3.293
124600.000			23.050			-3.293
124700.000			23.050			-3.293
124801.000			23.050			-3.293
124901.000			23.048			-3.293
125002.000			23.048			-3.293
125100.000			23.048			-3.293
125200.000			23.047			-3.292
125301.000			23.049			-3.293
125400.000			23.047			-3.292
125500.000			23.047			-3.292
125601.000			23.047			-3.292
125701.000			23.046			-3.292
125801.000			23.045			-3.292
125901.000			23.045			-3.292
126000.000			23.047			-3.292
126100.000			23.045			-3.292
126201.000			23.046			-3.292
126300.000			23.045			-3.292
126400.000			23.045			-3.292
126502.000			23.044			-3.292
126601.000			23.043			-3.292
126700.000			23.043			-3.292
126801.000			23.042			-3.292
126900.000			23.042			-3.292
127000.000			23.042			-3.292
127101.000			23.042			-3.292
127200.000			23.042			-3.292
127300.000			23.042			-3.292
127402.000			23.042			-3.292
127501.000			23.041			-3.292
127600.000			23.041			-3.292
127701.000			23.041			-3.292
127800.000			23.040			-3.291
127900.000			23.039			-3.291
128001.000			23.040			-3.291
128100.000			23.040			-3.291
128202.000			23.038			-3.291
128301.000			23.038			-3.291
128400.000			23.037			-3.291
128501.000			23.037			-3.291
128600.000			23.037			-3.291
128700.000			23.039			-3.291
128801.000			23.038			-3.291
128900.000			23.037			-3.291
129001.000			23.037			-3.291
129102.000			23.036			-3.291
129200.000			23.035			-3.291
129300.000			23.036			-3.291
129401.000			23.036			-3.291
129500.000			23.035			-3.291
129600.000			23.034			-3.291
129701.000			23.034			-3.291
129801.000			23.034			-3.291
129901.000			23.034			-3.291
130002.000			23.033			-3.290
130100.000			23.033			-3.290
130200.000			23.034			-3.291
130301.000			23.033			-3.290
130400.000			23.033			-3.290
130500.000			23.033			-3.290
130601.000			23.032			-3.290
130701.000			23.032			-3.290
130801.000			23.033			-3.290
130901.000			23.033			-3.290
131000.000			23.032			-3.290
131100.000			23.031			-3.290
131201.000			23.030			-3.290
131300.000			23.030			-3.290
131400.000			23.030			-3.290
131502.000			23.031			-3.290
131601.000			23.031			-3.290
131701.000			23.030			-3.290
131800.000			23.030			-3.290
131900.000			23.029			-3.290
132001.000			23.028			-3.290
132100.000			23.028			-3.290
132200.000			23.028			-3.290
132301.000			23.027			-3.290
132401.000			23.027			-3.290
132501.000			23.028			-3.290
132601.000			23.027			-3.290
132700.000			23.025			-3.289
132800.000			23.025			-3.289
132901.000			23.025			-3.289
133000.000			23.025			-3.289
133100.000			23.025			-3.289
133202.000			23.025			-3.289
133301.000			23.024			-3.289
133401.000			23.023			-3.289
133501.000			23.022			-3.289
133600.000			23.022			-3.289
133700.000			23.021			-3.289
133801.000			23.021			-3.289
133900.000			23.022			-3.289
134000.000			23.021			-3.289
134102.000			23.021			-3.289
134201.000			23.021			-3.289
134300.000			23.020			-3.289
134401.000			23.019			-3.288
134500.000			23.019			-3.288
134600.000			23.018			-3.288
134700.000			23.019			-3.288
134800.000			23.019			-3.288
134901.000			23.018			-3.288
135001.000			23.017			-3.288
135101.000			23.017			-3.288
135201.000			23.016			-3.288
135300.000			23.015			-3.288
135400.000			23.016			-3.288
135501.000			23.017			-3.288
135600.000			23.015			-3.288
135700.000			23.014			-3.288
135801.000			23.013			-3.288
135901.000			23.014			-3.288
136001.000			23.013			-3.288
136101.000			23.013			-3.288
136200.000			23.012			-3.287
136300.000			23.011			-3.287
136401.000			23.011			-3.287
136500.000			23.012			-3.287
136600.000			23.012			-3.287
136701.000			23.010			-3.287
136801.000			23.010			-3.287
136901.000			23.009			-3.287
137001.000			23.008			-3.287
137100.000			23.008			-3.287
137200.000			23.008			-3.287
137301.000			23.008			-3.287
137400.000			23.007			-3.287
137500.000			23.007			-3.287
137601.000			23.008			-3.287
137701.000			23.007			-3.287
137802.000			23.007			-3.287
137900.000			23.007			-3.287
138000.000			23.006			-3.287
138101.000			23.006			-3.287
138200.000			23.006			-3.287
138300.000			23.006			-3.287
138401.000			23.005			-3.286
138500.000			23.004			-3.286
138601.000			23.004			-3.286
138702.000			23.004			-3.286
138800.000			23.003			-3.286
138900.000			23.003			-3.286
139001.000			23.002			-3.286
139100.000			23.004			-3.286
139200.000			23.003			-3.286
139301.000			23.001			-3.286
139400.000			23.001			-3.286
139501.000			23.001			-3.286
139602.000			23.001			-3.286
139700.000			23.000			-3.286
139800.000			22.999			-3.286
139901.000			23.000			-3.286
140000.000			23.000			-3.286
140100.000			23.000			-3.286
140201.000			22.998			-3.285
140300.000			22.998			-3.285
140401.000			22.999			-3.286
140502.000			22.998			-3.285
140601.000			22.997			-3.285
140700.000			22.997			-3.285
140801.000			22.997			-3.285
140900.000			22.998			-3.285
141000.000			22.997			-3.285
141100.000			22.997			-3.285
141200.000			22.996			-3.285
141301.000			22.996			-3.285
141401.000			22.996			-3.285
141501.000			22.995			-3.285
141601.000			22.995			-3.285
141700.000			22.994			-3.285
141800.000			22.994			-3.285
141901.000			22.994			-3.285
142000.000			22.993			-3.285
142100.000			22.993			-3.285
142201.000			22.993			-3.285
142301.000			22.992			-3.285
142401.000			22.992			-3.285
142502.000			22.993			-3.285
142600.000			22.991			-3.284
142700.000			22.992			-3.285
142801.000			22.990			-3.284
142900.000			22.990			-3.284
143000.000			22.990			-3.284
143101.000			22.989			-3.284
143200.000			22.990			-3.284
143301.000			22.989			-3.284
143402.000			22.989			-3.284
143501.000			22.989			-3.284
143600.000			22.989			-3.284
143701.000			22.988			-3.284
143800.000			22.988			-3.284
143900.000			22.988			-3.284
144001.000			22.987			-3.284
144100.000			22.987			-3.284
144200.000			22.987			-3.284
144302.000			22.987			-3.284
144401.000			22.987			-3.284
144501.000			22.986			-3.284
144600.000			22.986			-3.284
144700.000			22.985			-3.284
144801.000			22.984			-3.283
144900.000			22.986			-3.284
145000.000			22.985			-3.284
145101.000			22.984			-3.283
145201.000			22.984			-3.283
145301.000			22.984			-3.283
145402.000			22.984			-3.283
145500.000			22.982			-3.283
145600.000			22.982			-3.283
145701.000			22.982			-3.283
145800.000			22.982			-3.283
145900.000			22.981			-3.283
146001.000			22.982			-3.283
146100.000			22.981			-3.283
146201.000			22.981			-3.283
146302.000			22.980			-3.283
146401.000			22.979			-3.283
146500.000			22.979			-3.283
146601.000			22.979			-3.283
146700.000			22.979			-3.283
146800.000			22.979			-3.283
146901.000			22.979			-3.283
147000.000			22.979			-3.283
147100.000			22.978			-3.283
147202.000			22.978			-3.283
147301.000			22.977			-3.282
147402.000			22.978			-3.283
147500.000			22.977			-3.282
147600.000			22.977			-3.282
147701.000			22.977			-3.282
147800.000			22.977			-3.282
147900.000			22.978			-3.283
148001.000			22.977			-3.282
148100.000			22.976			-3.282
148201.000			22.976			-3.282
148302.000			22.975			-3.282
148401.000			22.975			-3.282
148500.000			22.975			-3.282
148601.000			22.975			-3.282
148700.000			22.974			-3.282
148800.000			22.973			-3.282
148901.000			22.974			-3.282
149000.000			22.974			-3.282
149100.000			22.974			-3.282
149202.000			22.974			-3.282
149301.000			22.973			-3.282
149400.000			22.973			-3.282
149501.000			22.973			-3.282
149600.000			22.973			-3.282
149700.000			22.973			-3.282
149801.000			22.973			-3.282
149900.000			22.973			-3.282
150000.000			22.972			-3.282
150101.000			22.971			-3.282
150201.000			22.971			-3.282
150301.000			22.971			-3.282
150401.000			22.971			-3.282
150500.000			22.972			-3.282
150600.000			22.972			-3.282
150700.000			22.971			-3.282
150800.000			22.971			-3.282
150901.000			22.971			-3.282
151000.000			22.971			-3.282
151101.000			22.970			-3.281
151202.000			22.970			-3.281
151300.000			22.970			-3.281
151400.000			22.968			-3.281
151501.000			22.968			-3.281
151600.000			22.969			-3.281
151700.000			22.968			-3.281
151801.000			22.968			-3.281
151900.000			22.968			-3.281
152001.000			22.967			-3.281
152102.000			22.966			-3.281
152201.000			22.966			-3.281
152300.000			22.965			-3.281
152401.000			22.964			-3.281
152500.000			22.964			-3.281
152600.000			22.964			-3.281
152701.000			22.965			-3.281
152800.000			22.964			-3.281
152900.000			22.963			-3.280
153002.000			22.963			-3.280
153101.000			22.963			-3.280
153200.000			22.963			-3.280
153301.000			22.962			-3.280
153400.000			22.962			-3.280
153500.000			22.962			-3.280
153601.000			22.961			-3.280
153700.000			22.961			-3.280
153800.000			22.960			-3.280
153902.000			22.959			-3.280
154001.000			22.959			-3.280
154102.000			22.959			-3.280
154200.000			22.958			-3.280
154300.000			22.959			-3.280
154401.000			22.959			-3.280
154500.000			22.958			-3.280
154600.000			22.958			-3.280
154701.000			22.958			-3.280
154800.000			22.957			-3.280
154901.000			22.957			-3.280
155002.000			22.956			-3.279
155100.000			22.957			-3.280
155200.000			22.956			-3.279
155301.000			22.956			-3.279
155400.000			22.954			-3.279
155500.000			22.954			-3.279
155601.000			22.955			-3.279
155700.000			22.955			-3.279
155801.000			22.954			-3.279
155902.000			22.954			-3.279
156001.000			22.954			-3.279
156100.000			22.954			-3.279
156201.000			22.953			-3.279
156300.000			22.952			-3.279
156400.000			22.952			-3.279
156501.000			22.951			-3.279
156600.000			22.951			-3.279
156700.000			22.952			-3.279
156802.000			22.951			-3.279
156901.000			22.951			-3.279
157000.000			22.951			-3.279
157100.000			22.951			-3.279
157200.000			22.951			-3.279
157301.000			22.951			-3.279
157400.000			22.950			-3.279
157500.000			22.951			-3.279
157601.000			22.952			-3.279
157701.000			22.951			-3.279
157801.000			22.950			-3.279
157901.000			22.951			-3.279
158000.000			22.951			-3.279
158100.000			22.950			-3.279
158201.000			22.950			-3.279
158300.000			22.949			-3.278
158400.000			22.949			-3.278
158501.000			22.948			-3.278
158601.000			22.948			-3.278
158701.000			22.947			-3.278
158802.000			22.946			-3.278
158900.000			22.946			-3.278
159000.000			22.946			-3.278
159101.000			22.948			-3.278
159200.000			22.948			-3.278
159300.000			22.947			-3.278
159401.000			22.947			-3.278
159500.000			22.946			-3.278
159601.000			22.946			-3.278
159702.000			22.947			-3.278
159801.000			22.947			-3.278
159900.000			22.946			-3.278
160001.000			22.945			-3.278
160100.000			22.945			-3.278
160200.000			22.945			-3.278
160300.000			22.944			-3.278
160400.000			22.943			-3.278
160501.000			22.944			-3.278
160601.000			22.944			-3.278
160701.000			22.944			-3.278
160801.000			22.944			-3.278
160900.000			22.942			-3.277
161000.000			22.942			-3.277
161101.000			22.943			-3.278
161200.000			22.942			-3.277
161300.000			22.941			-3.277
161401.000			22.942			-3.277
161501.000			22.942			-3.277
161601.000			22.942			-3.277
161701.000			22.941			-3.277
161800.000			22.940			-3.277
161900.000			22.941			-3.277
162001.000			22.940			-3.277
162100.000			22.941			-3.277
162200.000			22.940			-3.277
162301.000			22.939			-3.277
162401.000			22.939			-3.277
162501.000			22.939			-3.277
162602.000			22.938			-3.277
162700.000			22.938			-3.277
162800.000			22.938			-3.277
162901.000			22.938			-3.277
163000.000			22.938			-3.277
163100.000			22.937			-3.277
163201.000			22.937			-3.277
163300.000			22.936			-3.277
163402.000			22.935			-3.276
163501.000			22.935			-3.276
163600.000			22.934			-3.276
163701.000			22.935			-3.276
163800.000			22.934			-3.276
163900.000			22.935			-3.276
164001.000			22.934			-3.276
164100.000			22.933			-3.276
164200.000			22.933			-3.276
164302.000			22.933			-3.276
164401.000			22.932			-3.276
164501.000			22.932			-3.276
164601.000			22.931			-3.276
164700.000			22.931			-3.276
164800.000			22.931			-3.276
164901.000			22.931			-3.276
165000.000			22.930			-3.276
165100.000			22.929			-3.276
165201.000			22.929			-3.276
165301.000			22.929			-3.276
165401.000			22.928			-3.275
165501.000			22.928			-3.275
165600.000			22.929			-3.276
165700.000			22.928			-3.275
165801.000			22.928			-3.275
165900.000			22.928			-3.275
166000.000			22.926			-3.275
166101.000			22.926			-3.275
166201.000			22.926			-3.275
166301.000			22.927			-3.275
166402.000			22.927			-3.275
166500.000			22.926			-3.275
166600.000			22.926			-3.275
166700.000			22.926			-3.275
166800.000			22.926			-3.275
166901.000			22.925			-3.275
167000.000			22.924			-3.275
167100.000			22.924			-3.275
167202.000			22.923			-3.275
167301.000			22.923			-3.275
167400.000			22.924			-3.275
167501.000			22.924			-3.275
167600.000			22.924			-3.275
167700.000			22.923			-3.275
167801.000			22.924			-3.275
167900.000			22.924			-3.275
168000.000			22.923			-3.275
168101.000			22.923			-3.275
168201.000			22.923			-3.275
168301.000			22.924			-3.275
168401.000			22.924			-3.275
168500.000			22.924			-3.275
168600.000			22.924			-3.275
168701.000			22.923			-3.275
168800.000			22.923			-3.275
168900.000			22.923			-3.275
169001.000			22.923			-3.275
169101.000			22.921			-3.274
169201.000			22.921			-3.274
169302.000			22.923			-3.275
169400.000			22.922			-3.275
169500.000			22.922			-3.275
169601.000			22.920			-3.274
169700.000			22.919			-3.274
169800.000			22.919			-3.274
169900.000			22.920			-3.274
170000.000			22.919			-3.274
170102.000			22.918			-3.274
170201.000			22.917			-3.274
170300.000			22.919			-3.274
170401.000			22.919			-3.274
170500.000			22.918			-3.274
170600.000			22.916			-3.274
170701.000			22.916			-3.274
170800.000			22.916			-3.274
170900.000			22.915			-3.274
171002.000			22.914			-3.273
171101.000			22.914			-3.273
171200.000			22.914			-3.273
171301.000			22.914			-3.273
171400.000			22.914			-3.273
171500.000			22.913			-3.273
171601.000			22.913			-3.273
171700.000			22.914			-3.273
171800.000			22.913			-3.273
171902.000			22.912			-3.273
172001.000			22.912			-3.273
172100.000			22.913			-3.273
172201.000			22.912			-3.273
172300.000			22.911			-3.273
172400.000			22.911			-3.273
172501.000			22.912			-3.273
172600.000			22.910			-3.273
172700.000			22.910			-3.273
172802.000			22.911			-3.273
172901.000			22.911			-3.273
173000.000			22.910			-3.273
173100.000			22.909			-3.273
173200.000			22.910			-3.273
173301.000			22.909			-3.273
173400.000			22.909			-3.273
173500.000			22.909			-3.273
173601.000			22.909			-3.273
173701.000			22.910			-3.273
173801.000			22.910			-3.273
173902.000			22.909			-3.273
174000.000			22.908			-3.273
174100.000			22.907			-3.272
174201.000			22.907			-3.272
174300.000			22.906			-3.272
174400.000			22.906			-3.272
174501.000			22.906			-3.272
174600.000			22.907			-3.272
174701.000			22.906			-3.272
174802.000			22.906			-3.272
174901.000			22.906			-3.272
175000.000			22.905			-3.272
175101.000			22.903			-3.272
175200.000			22.903			-3.272
175300.000			22.904			-3.272
175401.000			22.903			-3.272
175500.000			22.903			-3.272
175601.000			22.904			-3.272
175702.000			22.902			-3.272
175801.000			22.902			-3.272
175900.000			22.902			-3.272
176001.000			22.901			-3.272
176100.000			22.903			-3.272
176200.000			22.902			-3.272
176300.000			22.901			-3.272
176400.000			22.902			-3.272
176502.000			22.901			-3.272
176601.000			22.901			-3.272
176701.000			22.901			-3.272
176801.000			22.899			-3.271
176900.000			22.900			-3.271
177000.000			22.900			-3.271
177101.000			22.900			-3.271
177200.000			22.899			-3.271
177300.000			22.898			-3.271
177401.000			22.899			-3.271
177501.000			22.899			-3.271
177601.000			22.898			-3.271
177702.000			22.898			-3.271
177800.000			22.898			-3.271
177900.000			22.896			-3.271
178001.000			22.896			-3.271
178100.000			22.897			-3.271
178200.000			22.897			-3.271
178301.000			22.895			-3.271
178400.000			22.896			-3.271
178501.000			22.895			-3.271
178602.000			22.895			-3.271
178701.000			22.895			-3.271
178800.000			22.894			-3.271
178901.000			22.894			-3.271
179000.000			22.894			-3.271
179100.000			22.893			-3.270
179201.000			22.893			-3.270
179300.000			22.894			-3.271
179400.000			22.893			-3.270
179502.000			22.894			-3.271
179601.000			22.894			-3.271
179702.000			22.894			-3.271
179800.000			22.892			-3.270
179900.000			22.893			-3.270
180001.000			22.892			-3.270
180100.000			22.892			-3.270
180200.000			22.893			-3.270
180301.000			22.892			-3.270
180400.000			22.892			-3.270
180501.000			22.891			-3.270
180602.000			22.890			-3.270
180701.000			22.890			-3.270
180800.000			22.891			-3.270
180901.000			22.890			-3.270
181000.000			22.890			-3.270
181100.000			22.890			-3.270
181201.000			22.889			-3.270
181300.000			22.890			-3.270
181400.000			22.889			-3.270
181502.000			22.889			-3.270
181601.000			22.889			-3.270
181700.000			22.888			-3.270
181801.000			22.888			-3.270
181900.000			22.887			-3.270
182000.000			22.887			-3.270
182101.000			22.887			-3.270
182200.000			22.887			-3.270
182300.000			22.887			-3.270
182402.000			22.887			-3.270
182501.000			22.887			-3.270
182602.000			22.886			-3.269
182700.000			22.887			-3.270
182800.000			22.886			-3.269
182901.000			22.886			-3.269
183000.000			22.885			-3.269
183100.000			22.884			-3.269
183201.000			22.885			-3.269
183300.000			22.883			-3.269
183401.000			22.883			-3.269
183502.000			22.883			-3.269
183601.000			22.883			-3.269
183700.000			22.883			-3.269
183801.000			22.883			-3.269
183900.000			22.883			-3.269
184000.000			22.883			-3.269
184101.000			22.883			-3.269
184200.000			22.882			-3.269
184300.000			22.882			-3.269
184402.000			22.881			-3.269
184501.000			22.880			-3.269
184600.000			22.881			-3.269
184701.000			22.881			-3.269
184800.000			22.881			-3.269
184900.000			22.880			-3.269
185001.000			22.881			-3.269
185100.000			22.880			-3.269
185200.000			22.880			-3.269
185302.000			22.880			-3.269
185401.000			22.880			-3.269
185501.000			22.879			-3.268
185601.000			22.877			-3.268
185700.000			22.878			-3.268
185800.000			22.878			-3.268
185900.000			22.878			-3.268
186000.000			22.877			-3.268
186101.000			22.877			-3.268
186200.000			22.876			-3.268
186301.000			22.877			-3.268
186402.000			22.877			-3.268
186501.000			22.876			-3.268
186600.000			22.875			-3.268
186701.000			22.875			-3.268
186800.000			22.876			-3.268
186900.000			22.875			-3.268
187001.000			22.875			-3.268
187100.000			22.875			-3.268
187200.000			22.875			-3.268
187302.000			22.875			-3.268
187401.000			22.875			-3.268
187500.000			22.874			-3.268
187601.000			22.874			-3.268
187700.000			22.873			-3.268
187800.000			22.873			-3.268
187901.000			22.873			-3.268
188000.000			22.874			-3.268
188100.000			22.873			-3.268
188202.000			22.873			-3.268
188301.000			22.872			-3.267
188401.000			22.871			-3.267
188501.000			22.870			-3.267
188600.000			22.871			-3.267
188700.000			22.872			-3.267
188801.000			22.872			-3.267
188900.000			22.872			-3.267
189000.000			22.872			-3.267
189100.000			22.871			-3.267
189201.000			22.871			-3.267
189302.000			22.871			-3.267
189401.000			22.871			-3.267
189500.000			22.872			-3.267
189601.000			22.870			-3.267
189700.000			22.870			-3.267
189800.000			22.870			-3.267
189901.000			22.870			-3.267
190000.000			22.869			-3.267
190100.000			22.870			-3.267
190202.000			22.870			-3.267
190301.000			22.869			-3.267
190401.000			22.869			-3.267
190501.000			22.869			-3.267
190600.000			22.869			-3.267
190700.000			22.867			-3.267
190801.000			22.867			-3.267
190900.000			22.868			-3.267
191000.000			22.867			-3.267
191101.000			22.867			-3.267
191201.000			22.868			-3.267
191301.000			22.868			-3.267
191402.000			22.867			-3.267
191500.000			22.867			-3.267
191600.000			22.866			-3.267
191701.000			22.866			-3.267
191800.000			22.866			-3.267
191900.000			22.865			-3.266
192001.000			22.864			-3.266
192100.000			22.864			-3.266
192202.000			22.864			-3.266
192301.000			22.865			-3.266
192401.000			22.864			-3.266
192501.000			22.865			-3.266
192600.000			22.864			-3.266
192700.000			22.865			-3.266
192801.000			22.864			-3.266
192900.000			22.863			-3.266
193000.000			22.863			-3.266
193102.000			22.863			-3.266
193201.000			22.862			-3.266
193301.000			22.863			-3.266
193401.000			22.864			-3.266
193500.000			22.863			-3.266
193600.000			22.862			-3.266
193701.000			22.862			-3.266
193800.000			22.862			-3.266
193900.000			22.861			-3.266
194001.000			22.862			-3.266
194101.000			22.862			-3.266
194201.000			22.861			-3.266
194301.000			22.860			-3.266
194400.000			22.861			-3.266
194500.000			22.861			-3.266
194601.000			22.860			-3.266
194700.000			22.859			-3.266
194800.000			22.859			-3.266
194901.000			22.860			-3.266
195001.000			22.860			-3.266
195101.000			22.860			-3.266
195202.000			22.860			-3.266
195300.000			22.859			-3.266
195400.000			22.859			-3.266
195500.000			22.859			-3.266
195600.000			22.857			-3.265
195701.000			22.858			-3.265
195800.000			22.857			-3.265
195900.000			22.857			-3.265
196002.000			22.857			-3.265
196101.000			22.857			-3.265
196201.000			22.856			-3.265
196301.000			22.856			-3.265
196400.000			22.856			-3.265
196500.000			22.856			-3.265
196601.000			22.856			-3.265
196700.000			22.855			-3.265
196800.000			22.854			-3.265
196901.000			22.854			-3.265
197001.000			22.853			-3.265
197101.000			22.853			-3.265
197202.000			22.853			-3.265
197300.000			22.853			-3.265
197400.000			22.854			-3.265
197501.000			22.853			-3.265
197600.000			22.852			-3.265
197700.000			22.852			-3.265
197801.000			22.852			-3.265
197900.000			22.851			-3.264
198001.000			22.852			-3.265
198102.000			22.852			-3.265
198200.000			22.852			-3.265
198300.000			22.850			-3.264
198401.000			22.850			-3.264
198500.000			22.851			-3.264
198600.000			22.851			-3.264
198700.000			22.851			-3.264
198800.000			22.850			-3.264
198902.000			22.850			-3.264
199001.000			22.850			-3.264
199101.000			22.850			-3.264
199201.000			22.851			-3.264
199300.000			22.850			-3.264
199400.000			22.848			-3.264
199501.000			22.848			-3.264
199600.000			22.849			-3.264
199700.000			22.848			-3.264
199801.000			22.848			-3.264
199901.000			22.849			-3.264
200001.000			22.849			-3.264
200102.000			22.848			-3.264
200200.000			22.847			-3.264
200300.000			22.847			-3.264
200401.000			22.847			-3.264
200500.000			22.847			-3.264
200600.000			22.846			-3.264
200701.000			22.846			-3.264
200801.000			22.847			-3.264
200901.000			22.847			-3.264
201002.000			22.846			-3.264
201100.000			22.846			-3.264
201200.000			22.846			-3.264
201301.000			22.845			-3.264
201400.000			22.844			-3.263
201500.000			22.844			-3.263
201601.000			22.844			-3.263
201700.000			22.845			-3.264
201802.000			22.844			-3.263
201901.000			22.844			-3.263
202000.000			22.845			-3.264
202101.000			22.844			-3.263
202200.000			22.844			-3.263
202300.000			22.843			-3.263
202401.000			22.842			-3.263
202500.000			22.843			-3.263
202600.000			22.843			-3.263
202702.000			22.843			-3.263
202801.000			22.843			-3.263
202900.000			22.843			-3.263
203001.000			22.842			-3.263
203100.000			22.841			-3.263
203200.000			22.841			-3.263
203301.000			22.840			-3.263
203400.000			22.841			-3.263
203500.000			22.841			-3.263
203602.000			22.841			-3.263
203701.000			22.840			-3.263
203800.000			22.839			-3.263
203901.000			22.838			-3.263
204000.000			22.838			-3.263
204100.000			22.838			-3.263
204201.000			22.839			-3.263
204300.000			22.838			-3.263
204400.000			22.838			-3.263
204502.000			22.838			-3.263
204601.000			22.837			-3.262
204701.000			22.837			-3.262
204801.000			22.838			-3.263
204900.000			22.836			-3.262
205000.000			22.836			-3.262
205100.000			22.837			-3.262
205200.000			22.835			-3.262
205301.000			22.836			-3.262
205401.000			22.835			-3.262
205501.000			22.834			-3.262
205602.000			22.835			-3.262
205700.000			22.836			-3.262
205800.000			22.835			-3.262
205901.000			22.835			-3.262
206000.000			22.835			-3.262
206100.000			22.834			-3.262
206201.000			22.834			-3.262
206301.000			22.834			-3.262
206401.000			22.833			-3.262
206502.000			22.833			-3.262
206600.000			22.832			-3.262
206700.000			22.833			-3.262
206801.000			22.832			-3.262
206900.000			22.831			-3.262
207000.000			22.830			-3.261
207101.000			22.831			-3.262
207200.000			22.831			-3.262
207301.000			22.831			-3.262
207402.000			22.831			-3.262
207500.000			22.830			-3.261
207600.000			22.830			-3.261
207701.000			22.830			-3.261
207800.000			22.830			-3.261
207900.000			22.830			-3.261
208001.000			22.829			-3.261
208100.000			22.828			-3.261
208202.000			22.827			-3.261
208301.000			22.828			-3.261
208400.000			22.828			-3.261
208501.000			22.828			-3.261
208600.000			22.828			-3.261
208700.000			22.829			-3.261
208801.000			22.828			-3.261
208900.000			22.828			-3.261
209000.000			22.826			-3.261
209102.000			22.826			-3.261
209201.000			22.827			-3.261
209301.000			22.827			-3.261
209401.000			22.825			-3.261
209500.000			22.825			-3.261
209600.000			22.825			-3.261
209701.000			22.824			-3.261
209800.000			22.824			-3.261
209900.000			22.825			-3.261
210001.000			22.824			-3.261
210101.000			22.823			-3.260
210201.000			22.824			-3.261
210301.000			22.824			-3.261
210400.000			22.824			-3.261
210500.000			22.823			-3.260
210601.000			22.823			-3.260
210700.000			22.823			-3.260
210800.000			22.822			-3.260
210901.000			22.822			-3.260
211001.000			22.823			-3.260
211101.000			22.822			-3.260
211201.000			22.822			-3.260
211300.000			22.821			-3.260
211400.000			22.821			-3.260
211500.000			22.821			-3.260
211600.000			22.820			-3.260
211701.000			22.821			-3.260
211801.000			22.819			-3.260
211901.000			22.820			-3.260
212002.000			22.820			-3.260
212100.000			22.820			-3.260
212200.000			22.819			-3.260
212301.000			22.820			-3.260
212400.000			22.819			-3.260
212500.000			22.819			-3.260
212601.000			22.818			-3.260
212701.000			22.818			-3.260
212801.000			22.818			-3.260
212902.000			22.818			-3.260
213000.000			22.819			-3.260
213100.000			22.818			-3.260
213201.000			22.818			-3.260
213300.000			22.817			-3.260
213400.000			22.817			-3.260
213501.000			22.817			-3.260
213601.000			22.817			-3.260
213701.000			22.816			-3.259
213802.000			22.817			-3.260
213900.000			22.816			-3.259
214000.000			22.815			-3.259
214101.000			22.814			-3.259
214200.000			22.815			-3.259
214300.000			22.815			-3.259
214401.000			22.815			-3.259
214501.000			22.815			-3.259
214602.000			22.815			-3.259
214701.000			22.815			-3.259
214800.000			22.814			-3.259
214901.000			22.813			-3.259
215000.000			22.814			-3.259
215100.000			22.814			-3.259
215201.000			22.814			-3.259
215300.000			22.814			-3.259
215401.000			22.814			-3.259
215502.000			22.813			-3.259
215601.000			22.813			-3.259
215700.000			22.813			-3.259
215801.000			22.812			-3.259
215900.000			22.813			-3.259
216000.000			22.811			-3.259
216101.000			22.812			-3.259
216200.000			22.812			-3.259
216301.000			22.812			-3.259
216402.000			22.812			-3.259
216501.000			22.812			-3.259
216600.000			22.811			-3.259
216701.000			22.810			-3.259
216800.000			22.810			-3.259
216900.000			22.811			-3.259
217001.000			22.810			-3.259
217100.000			22.809			-3.258
217200.000			22.809			-3.258
217302.000			22.810			-3.259
217401.000			22.810			-3.259
217500.000			22.809			-3.258
217601.000			22.808			-3.258
217700.000			22.809			-3.258
217800.000			22.808			-3.258
217900.000			22.808			-3.258
218000.000			22.808			-3.258
218101.000			22.809			-3.258
218201.000			22.807			-3.258
218301.000			22.807			-3.258
218401.000			22.809			-3.258
218500.000			22.808			-3.258
218600.000			22.807			-3.258
218701.000			22.807			-3.258
218800.000			22.807			-3.258
218900.000			22.806			-3.258
219001.000			22.807			-3.258
219101.000			22.807			-3.258
219201.000			22.805			-3.258
219302.000			22.805			-3.258
219400.000			22.805			-3.258
219500.000			22.805			-3.258
219601.000			22.804			-3.258
219700.000			22.805			-3.258
219800.000			22.805			-3.258
219901.000			22.805			-3.258
220000.000			22.804			-3.258
220101.000			22.804			-3.258
220202.000			22.804			-3.258
220300.000			22.804			-3.258
220400.000			22.803			-3.258
220501.000			22.803			-3.258
220600.000			22.803			-3.258
220700.000			22.803			-3.258
220801.000			22.802			-3.257
220900.000			22.803			-3.258
221002.000			22.803			-3.258
221101.000			22.803			-3.258
221200.000			22.802			-3.257
221301.000			22.802			-3.257
221400.000			22.801			-3.257
221500.000			22.801			-3.257
221601.000			22.801			-3.257
221700.000			22.801			-3.257
221801.000			22.800			-3.257
221902.000			22.800			-3.257
222001.000			22.800			-3.257
222100.000			22.799			-3.257
222201.000			22.799			-3.257
222300.000			22.799			-3.257
222400.000			22.800			-3.257
222501.000			22.800			-3.257
222600.000			22.799			-3.257
222700.000			22.799			-3.257
222802.000			22.798			-3.257
222901.000			22.798			-3.257
223000.000			22.799			-3.257
223101.000			22.798			-3.257
223200.000			22.798			-3.257
223300.000			22.797			-3.257
223401.000			22.797			-3.257
223500.000			22.796			-3.257
223600.000			22.797			-3.257
223702.000			22.797			-3.257
223801.000			22.796			-3.257
223901.000			22.796			-3.257
224001.000			22.797			-3.257
224100.000			22.797			-3.257
224200.000			22.797			-3.257
224300.000			22.796			-3.257
224400.000			22.795			-3.256
224501.000			22.796			-3.257
224600.000			22.795			-3.256
224701.000			22.796			-3.257
224802.000			22.794			-3.256
224900.000			22.794			-3.256
225000.000			22.794			-3.256
225101.000			22.794			-3.256
225200.000			22.794			-3.256
225300.000			22.794			-3.256
225401.000			22.794			-3.256
225500.000			22.794			-3.256
225601.000			22.793			-3.256
225702.000			22.792			-3.256
225801.000			22.792			-3.256
225900.000			22.793			-3.256
226001.000			22.792			-3.256
226100.000			22.791			-3.256
226200.000			22.791			-3.256
226301.000			22.791			-3.256
226400.000			22.791			-3.256
226500.000			22.791			-3.256
226602.000			22.791			-3.256
226701.000			22.791			-3.256
226800.000			22.791			-3.256
226901.000			22.791			-3.256
227000.000			22.790			-3.256
227100.000			22.791			-3.256
227201.000			22.791			-3.256
227300.000			22.790			-3.256
227400.000			22.789			-3.256
227502.000			22.789			-3.256
227601.000			22.790			-3.256
227702.000			22.790			-3.256
227800.000			22.789			-3.256
227900.000			22.789			-3.256
228001.000			22.789			-3.256
228100.000			22.788			-3.255
228200.000			22.788			-3.255
228301.000			22.789			-3.256
228400.000			22.790			-3.256
228501.000			22.789			-3.256
228602.000			22.787			-3.255
228700.000			22.788			-3.255
228800.000			22.787			-3.255
228901.000			22.787			-3.255
229000.000			22.786			-3.255
229100.000			22.786			-3.255
229201.000			22.786			-3.255
229300.000			22.786			-3.255
229400.000			22.785			-3.255
229502.000			22.786			-3.255
229601.000			22.785			-3.255
229700.000			22.786			-3.255
229801.000			22.785			-3.255
229900.000			22.785			-3.255
230000.000			22.785			-3.255
230101.000			22.784			-3.255
230200.000			22.784			-3.255
230300.000			22.784			-3.255
230402.000			22.784			-3.255
230501.000			22.784			-3.255
230602.000			22.783			-3.255
230700.000			22.783			-3.255
230800.000			22.784			-3.255
230901.000			22.783			-3.255
231000.000			22.783			-3.255
231100.000			22.782			-3.255
231201.000			22.783			-3.255
231301.000			22.783			-3.255
231401.000			22.783			-3.255
231502.000			22.782			-3.255
231600.000			22.781			-3.254
231700.000			22.782			-3.255
231801.000			22.781			-3.254
231900.000			22.782			-3.255
232000.000			22.781			-3.254
232101.000			22.782			-3.255
232201.000			22.780			-3.254
232301.000			22.780			-3.254
232402.000			22.780			-3.254
232500.000			22.779			-3.254
232600.000			22.779			-3.254
232701.000			22.780			-3.254
232800.000			22.779			-3.254
232900.000			22.779			-3.254
233001.000			22.778			-3.254
233100.000			22.778			-3.254
233201.000			22.778			-3.254
233302.000			22.779			-3.254
233400.000			22.778			-3.254
233500.000			22.779			-3.254
233601.000			22.778			-3.254
233700.000			22.777			-3.254
233800.000			22.777			-3.254
233900.000			22.778			-3.254
234000.000			22.776			-3.254
234102.000			22.776			-3.254
234201.000			22.778			-3.254
234301.000			22.777			-3.254
234401.000			22.776			-3.254
234500.000			22.776			-3.254
234600.000			22.777			-3.254
234701.000			22.777			-3.254
234800.000			22.776			-3.254
234900.000			22.776			-3.254
235001.000			22.776			-3.254
235101.000			22.776			-3.254
235201.000			22.776			-3.254
235301.000			22.775			-3.254
235400.000			22.776			-3.254
235500.000			22.775			-3.254
235601.000			22.774			-3.253
235700.000			22.775			-3.254
235800.000			22.774			-3.253
235901.000			22.773			-3.253
236001.000			22.772			-3.253
236101.000			22.773			-3.253
236201.000			22.774			-3.253
236300.000			22.772			-3.253
236400.000			22.773			-3.253
236501.000			22.773			-3.253
236600.000			22.773			-3.253
236700.000			22.773			-3.253
236801.000			22.773			-3.253
236901.000			22.773			-3.253
237002.000			22.772			-3.253
237101.000			22.772			-3.253
237200.000			22.772			-3.253
237301.000			22.771			-3.253
237400.000			22.771			-3.253
237500.000			22.770			-3.253
237601.000			22.771			-3.253
237700.000			22.770			-3.253
237800.000			22.770			-3.253
237902.000			22.769			-3.253
238001.000			22.770			-3.253
238101.000			22.770			-3.253
238201.000			22.769			-3.253
238300.000			22.769			-3.253
238400.000			22.769			-3.253
238501.000			22.768			-3.253
238600.000			22.768			-3.253
238700.000			22.769			-3.253
238802.000			22.768			-3.253
238901.000			22.767			-3.252
239001.000			22.767			-3.252
239101.000			22.768			-3.253
239200.000			22.767			-3.252
239300.000			22.766			-3.252
239401.000			22.767			-3.252
239500.000			22.767			-3.252
239600.000			22.767			-3.252
239701.000			22.768			-3.253
239801.000			22.767			-3.252
239901.000			22.766			-3.252
240002.000			22.766			-3.252
240100.000			22.766			-3.252
240200.000			22.765			-3.252
240300.000			22.766			-3.252
240400.000			22.766			-3.252
240501.000			22.765			-3.252
240600.000			22.765			-3.252
240701.000			22.765			-3.252
240802.000			22.764			-3.252
240901.000			22.764			-3.252
241000.000			22.765			-3.252
241101.000			22.764			-3.252
241200.000			22.764			-3.252
241300.000			22.763			-3.252
241401.000			22.763			-3.252
241500.000			22.762			-3.252
241600.000			22.764			-3.252
241702.000			22.764			-3.252
241801.000			22.763			-3.252
241900.000			22.762			-3.252
242001.000			22.764			-3.252
242100.000			22.762			-3.252
242200.000			22.763			-3.252
242301.000			22.762			-3.252
242400.000			22.762			-3.252
242500.000			22.763			-3.252
242602.000			22.762			-3.252
242701.000			22.762			-3.252
242800.000			22.762			-3.252
242901.000			22.762			-3.252
243000.000			22.761			-3.252
243100.000			22.761			-3.252
243201.000			22.760			-3.251
243300.000			22.760			-3.251
243400.000			22.759			-3.251
243502.000			22.759			-3.251
243601.000			22.760			-3.251
243701.000			22.760			-3.251
243800.000			22.760			-3.251
243900.000			22.760			-3.251
244001.000			22.760			-3.251
244100.000			22.761			-3.252
244200.000			22.759			-3.251
244301.000			22.758			-3.251
244401.000			22.758			-3.251
244501.000			22.758			-3.251
244601.000			22.758			-3.251
244700.000			22.757			-3.251
244800.000			22.757			-3.251
244901.000			22.757			-3.251
245000.000			22.756			-3.251
245100.000			22.757			-3.251
245201.000			22.757			-3.251
245301.000			22.757			-3.251
245401.000			22.756			-3.251
245502.000			22.756			-3.251
245600.000			22.757			-3.251
245700.000			22.756			-3.251
245801.000			22.756			-3.251
245900.000			22.755			-3.251
246000.000			22.755			-3.251
246101.000			22.755			-3.251
246200.000			22.755			-3.251
246301.000			22.754			-3.251
246402.000			22.754			-3.251
246500.000			22.755			-3.251
246600.000			22.753			-3.250
246700.000			22.753			-3.250
246800.000			22.754			-3.251
246901.000			22.755			-3.251
247000.000			22.754			-3.251
247100.000			22.753			-3.250
247202.000			22.753			-3.250
247301.000			22.753			-3.250
247401.000			22.753			-3.250
247501.000			22.753			-3.250
247600.000			22.753			-3.250
247700.000			22.753			-3.250
247801.000			22.752			-3.250
247900.000			22.752			-3.250
248000.000			22.752			-3.250
248102.000			22.751			-3.250
248201.000			22.751			-3.250
248301.000			22.751			-3.250
248401.000			22.751			-3.250
248500.000			22.752			-3.250
248600.000			22.751			-3.250
248701.000			22.752			-3.250
248800.000			22.750			-3.250
248900.000			22.750			-3.250
249001.000			22.751			-3.250
249101.000			22.750			-3.250
249201.000			22.749			-3.250
249301.000			22.749			-3.250
249400.000			22.750			-3.250
249500.000			22.750			-3.250
249601.000			22.749			-3.250
249700.000			22.748			-3.250
249800.000			22.749			-3.250
249900.000			22.750			-3.250
250000.000			22.749			-3.250
250102.000			22.748			-3.250
250201.000			22.748			-3.250
250300.000			22.748			-3.250
250401.000			22.750			-3.250
250500.000			22.749			-3.250
250600.000			22.748			-3.250
250701.000			22.746			-3.249
250800.000			22.747			-3.250
250900.000			22.747			-3.250
251002.000			22.747			-3.250
251101.000			22.747			-3.250
251201.000			22.746			-3.249
251301.000			22.746			-3.249
251400.000			22.746			-3.249
251500.000			22.746			-3.249
251601.000			22.747			-3.250
251700.000			22.747			-3.250
251800.000			22.746			-3.249
251902.000			22.746			-3.249
252001.000			22.745			-3.249
252101.000			22.745			-3.249
252201.000			22.744			-3.249
252300.000			22.744			-3.249
252400.000			22.744			-3.249
252501.000			22.744			-3.249
252600.000			22.744			-3.249
252700.000			22.745			-3.249
252802.000			22.744			-3.249
252901.000			22.743			-3.249
253002.000			22.743			-3.249
253100.000			22.743			-3.249
253200.000			22.743			-3.249
253301.000			22.742			-3.249
253400.000			22.742			-3.249
253500.000			22.742			-3.249
253601.000			22.742			-3.249
253700.000			22.743			-3.249
253801.000			22.742			-3.249
253902.000			22.741			-3.249
254000.000			22.742			-3.249
254100.000			22.741			-3.249
254201.000			22.741			-3.249
254300.000			22.741			-3.249
254400.000			22.741			-3.249
254501.000			22.742			-3.249
254600.000			22.742			-3.249
254701.000			22.741			-3.249
254802.000			22.740			-3.249
254901.000			22.739			-3.248
255000.000			22.739			-3.248
255101.000			22.740			-3.249
255200.000			22.741			-3.249
255300.000			22.739			-3.248
255401.000			22.740			-3.249
255500.000			22.739			-3.248
255600.000			22.739			-3.248
255702.000			22.739			-3.248
255801.000			22.738			-3.248
255900.000			22.739			-3.248
256001.000			22.740			-3.249
256100.000			22.740			-3.249
256200.000			22.739			-3.248
256300.000			22.739			-3.248
256400.000			22.738			-3.248
256501.000			22.738			-3.248
256601.000			22.739			-3.248
256701.000			22.739			-3.248
256802.000			22.738			-3.248
256900.000			22.738			-3.248
257000.000			22.737			-3.248
257101.000			22.738			-3.248
257200.000			22.738			-3.248
257300.000			22.738			-3.248
257401.000			22.738			-3.248
257500.000			22.738			-3.248
257601.000			22.737			-3.248
257702.000			22.737			-3.248
257801.000			22.737			-3.248
257900.000			22.737			-3.248
258001.000			22.737			-3.248
258100.000			22.736			-3.248
258200.000			22.736			-3.248
258301.000			22.738			-3.248
258400.000			22.737			-3.248
258500.000			22.737			-3.248
258602.000			22.737			-3.248
258701.000			22.737			-3.248
258800.000			22.735			-3.248
258901.000			22.736			-3.248
259000.000			22.736			-3.248
259100.000			22.736			-3.248
259201.000			22.736			-3.248
259300.000			22.736			-3.248
259400.000			22.735			-3.248
259502.000			22.735			-3.248
259601.000			22.735			-3.248
259702.000			22.736			-3.248
259800.000			22.736			-3.248
259900.000			22.735			-3.248
260001.000			22.734			-3.248
260100.000			22.735			-3.248
260200.000			22.734			-3.248
260301.000			22.735			-3.248
260400.000			22.734			-3.248
260501.000			22.732			-3.247
260602.000			22.733			-3.248
260700.000			22.733			-3.248
260800.000			22.733			-3.248
260901.000			22.733			-3.248
261000.000			22.732			-3.247
261100.000			22.732			-3.247
261201.000			22.733			-3.248
261300.000			22.733			-3.248
261401.000			22.733			-3.248
261502.000			22.732			-3.247
261600.000			22.732			-3.247
261700.000			22.732			-3.247
261801.000			22.732			-3.247
261900.000			22.732			-3.247
262000.000			22.732			-3.247
262101.000			22.732			-3.247
262200.000			22.732			-3.247
262301.000			22.732			-3.247
262402.000			22.731			-3.247
262500.000			22.731			-3.247
262600.000			22.731			-3.247
262700.000			22.730			-3.247
262800.000			22.731			-3.247
262901.000			22.731			-3.247
263000.000			22.730			-3.247
263100.000			22.730			-3.247
263202.000			22.730			-3.247
263301.000			22.729			-3.247
263400.000			22.729			-3.247
263501.000			22.729			-3.247
263600.000			22.729			-3.247
263700.000			22.728			-3.247
263801.000			22.729			-3.247
263900.000			22.729			-3.247
264000.000			22.728			-3.247
264102.000			22.728			-3.247
264201.000			22.728			-3.247
264301.000			22.728			-3.247
264401.000			22.728			-3.247
264500.000			22.727			-3.247
264600.000			22.727			-3.247
264701.000			22.727			-3.247
264800.000			22.727			-3.247
264900.000			22.727			-3.247
265001.000			22.726			-3.247
265101.000			22.725			-3.246
265201.000			22.726			-3.247
265301.000			22.726			-3.247
265400.000			22.725			-3.246
265500.000			22.726			-3.247
265601.000			22.725			-3.246
265700.000			22.724			-3.246
265800.000			22.726			-3.247
265900.000			22.726			-3.247
266001.000			22.725			-3.246
266102.000			22.723			-3.246
266201.000			22.723			-3.246
266300.000			22.723			-3.246
266401.000			22.723			-3.246
266500.000			22.723			-3.246
266600.000			22.723			-3.246
266701.000			22.723			-3.246
266800.000			22.722			-3.246
266901.000			22.722			-3.246
267002.000			22.723			-3.246
267101.000			22.722			-3.246
267200.000			22.723			-3.246
267301.000			22.722			-3.246
267400.000			22.722			-3.246
267500.000			22.721			-3.246
267601.000			22.721			-3.246
267700.000			22.721			-3.246
267801.000			22.720			-3.246
267902.000			22.719			-3.246
268001.000			22.720			-3.246
268100.000			22.720			-3.246
268201.000			22.719			-3.246
268300.000			22.719			-3.246
268400.000			22.719			-3.246
268501.000			22.719			-3.246
268600.000			22.717			-3.245
268700.000			22.717			-3.245
268802.000			22.717			-3.245
268901.000			22.717			-3.245
269000.000			22.717			-3.245
269100.000			22.717			-3.245
269200.000			22.717			-3.245
269301.000			22.716			-3.245
269400.000			22.716			-3.245
269500.000			22.716			-3.245
269601.000			22.716			-3.245
269701.000			22.715			-3.245
269801.000			22.715			-3.245
269901.000			22.716			-3.245
270000.000			22.715			-3.245
270100.000			22.715			-3.245
270201.000			22.715			-3.245
270300.000			22.715			-3.245
270400.000			22.715			-3.245
270501.000			22.713			-3.245
270601.000			22.713			-3.245
270701.000			22.714			-3.245
270801.000			22.714			-3.245
270900.000			22.713			-3.245
271000.000			22.712			-3.245
271101.000			22.712			-3.245
271200.000			22.713			-3.245
271300.000			22.712			-3.245
271401.000			22.712			-3.245
271501.000			22.712			-3.245
271601.000			22.712			-3.245
271701.000			22.712			-3.245
271800.000			22.711			-3.244
271900.000			22.710			-3.244
272001.000			22.710			-3.244
272100.000			22.710			-3.244
272200.000			22.710			-3.244
272302.000			22.710			-3.244
272401.000			22.710			-3.244
272502.000			22.710			-3.244
272600.000			22.709			-3.244
272700.000			22.709			-3.244
272801.000			22.710			-3.244
272900.000			22.711			-3.244
273000.000			22.709			-3.244
273101.000			22.709			-3.244
273200.000			22.709			-3.244
273301.000			22.708			-3.244
273402.000			22.708			-3.244
273500.000			22.708			-3.244
273600.000			22.707			-3.244
273701.000			22.707			-3.244
273800.000			22.707			-3.244
273900.000			22.707			-3.244
274001.000			22.707			-3.244
274100.000			22.707			-3.244
274201.000			22.707			-3.244
274302.000			22.707			-3.244
274401.000			22.707			-3.244
274500.000			22.708			-3.244
274601.000			22.707			-3.244
274700.000			22.708			-3.244
274800.000			22.707			-3.244
274901.000			22.707			-3.244
275000.000			22.706			-3.244
275100.000			22.707			-3.244
275202.000			22.707			-3.244
275301.000			22.705			-3.244
275400.000			22.705			-3.244
275500.000			22.705			-3.244
275600.000			22.706			-3.244
275701.000			22.706			-3.244
275800.000			22.705			-3.244
275900.000			22.705			-3.244
276001.000			22.704			-3.243
276101.000			22.704			-3.243
276201.000			22.705			-3.244
276301.000			22.705			-3.244
276400.000			22.704			-3.243
276500.000			22.704			-3.243
276601.000			22.704			-3.243
276700.000			22.704			-3.243
276800.000			22.705			-3.244
276901.000			22.704			-3.243
277001.000			22.704			-3.243
277101.000			22.703			-3.243
277201.000			22.703			-3.243
277300.000			22.704			-3.243
277400.000			22.704			-3.243
277501.000			22.703			-3.243
277600.000			22.703			-3.243
277700.000			22.703			-3.243
277801.000			22.702			-3.243
277901.000			22.702			-3.243
278001.000			22.702			-3.243
278102.000			22.702			-3.243
278200.000			22.701			-3.243
278300.000			22.702			-3.243
278401.000			22.701			-3.243
278500.000			22.701			-3.243
278600.000			22.701			-3.243
278700.000			22.701			-3.243
278800.000			22.701			-3.243
278902.000			22.701			-3.243
279001.000			22.700			-3.243
279100.000			22.700			-3.243
279201.000			22.701			-3.243
279300.000			22.700			-3.243
279400.000			22.699			-3.243
279501.000			22.700			-3.243
279600.000			22.699			-3.243
279700.000			22.699			-3.243
279801.000			22.699			-3.243
279901.000			22.699			-3.243
280001.000			22.699			-3.243
280101.000			22.699			-3.243
280200.000			22.699			-3.243
280300.000			22.698			-3.243
280401.000			22.697			-3.242
280500.000			22.697			-3.242
280600.000			22.697			-3.242
280701.000			22.698			-3.243
280801.000			22.697			-3.242
280901.000			22.696			-3.242
281002.000			22.696			-3.242
281100.000			22.696			-3.242
281200.000			22.697			-3.242
281301.000			22.697			-3.242
281400.000			22.696			-3.242
281500.000			22.696			-3.242
281601.000			22.696			-3.242
281700.000			22.696			-3.242
281802.000			22.696			-3.242
281901.000			22.695			-3.242
282001.000			22.696			-3.242
282101.000			22.695			-3.242
282200.000			22.694			-3.242
282300.000			22.694			-3.242
282401.000			22.695			-3.242
282500.000			22.694			-3.242
282600.000			22.693			-3.242
282701.000			22.694			-3.242
282801.000			22.694			-3.242
282901.000			22.694			-3.242
283001.000			22.693			-3.242
283100.000			22.693			-3.242
283200.000			22.693			-3.242
283301.000			22.693			-3.242
283400.000			22.692			-3.242
283500.000			22.692			-3.242
283601.000			22.692			-3.242
283701.000			22.692			-3.242
283801.000			22.692			-3.242
283902.000			22.692			-3.242
284000.000			22.692			-3.242
284100.000			22.691			-3.242
284201.000			22.691			-3.242
284300.000			22.691			-3.242
284400.000			22.692			-3.242
284501.000			22.692			-3.242
284600.000			22.691			-3.242
284701.000			22.690			-3.241
284802.000			22.691			-3.242
284900.000			22.691			-3.242
285000.000			22.691			-3.242
285100.000			22.691			-3.242
285200.000			22.690			-3.241
285301.000			22.690			-3.241
285400.000			22.690			-3.241
285500.000			22.689			-3.241
285601.000			22.690			-3.241
285701.000			22.690			-3.241
285801.000			22.690			-3.241
285901.000			22.689			-3.241
286000.000			22.689			-3.241
286100.000			22.688			-3.241
286201.000			22.688			-3.241
286300.000			22.688			-3.241
286400.000			22.688			-3.241
286501.000			22.688			-3.241
286601.000			22.688			-3.241
286701.000			22.688			-3.241
286802.000			22.687			-3.241
286900.000			22.687			-3.241
287000.000			22.688			-3.241
287101.000			22.687			-3.241
287200.000			22.688			-3.241
287300.000			22.688			-3.241
287401.000			22.688			-3.241
287500.000			22.688			-3.241
287600.000			22.688			-3.241
287702.000			22.687			-3.241
287801.000			22.687			-3.241
287900.000			22.687			-3.241
288001.000			22.687			-3.241
288100.000			22.687			-3.241
288200.000			22.687			-3.241
288300.000			22.687			-3.241
288400.000			22.687			-3.241
288501.000			22.686			-3.241
288600.000			22.686			-3.241
288701.000			22.686			-3.241
288802.000			22.686			-3.241
288900.000			22.685			-3.241
289000.000			22.685			-3.241
289101.000			22.686			-3.241
289200.000			22.685			-3.241
289300.000			22.686			-3.241
289401.000			22.685			-3.241
289500.000			22.685			-3.241
289601.000			22.685			-3.241
289702.000			22.684			-3.241
289801.000			22.684			-3.241
289900.000			22.684			-3.241
290001.000			22.685			-3.241
290100.000			22.685			-3.241
290200.000			22.684			-3.241
290301.000			22.683			-3.240
290400.000			22.684			-3.241
290500.000			22.684			-3.241
290602.000			22.684			-3.241
290701.000			22.684			-3.241
290800.000			22.683			-3.240
290901.000			22.682			-3.240
291000.000			22.682			-3.240
291100.000			22.682			-3.240
291201.000			22.681			-3.240
291300.000			22.683			-3.240
291400.000			22.683			-3.240
291502.000			22.682			-3.240
291601.000			22.681			-3.240
291702.000			22.681			-3.240
291800.000			22.681			-3.240
291900.000			22.681			-3.240
292001.000			22.680			-3.240
292100.000			22.681			-3.240
292200.000			22.681			-3.240
292301.000			22.680			-3.240
292400.000			22.681			-3.240
292501.000			22.681			-3.240
292602.000			22.680			-3.240
292700.000			22.680			-3.240
292800.000			22.681			-3.240
292901.000			22.680			-3.240
293000.000			22.680			-3.240
293100.000			22.680			-3.240
293201.000			22.679			-3.240
293300.000			22.680			-3.240
293401.000			22.679			-3.240
293502.000			22.679			-3.240
293601.000			22.678			-3.240
293700.000			22.678			-3.240
293801.000			22.678			-3.240
293900.000			22.677			-3.240
294000.000			22.678			-3.240
294101.000			22.679			-3.240
294200.000			22.679			-3.240
294300.000			22.678			-3.240
294402.000			22.678			-3.240
294501.000			22.678			-3.240
294602.000			22.677			-3.240
294700.000			22.676			-3.239
294800.000			22.676			-3.239
294901.000			22.677			-3.240
295000.000			22.676			-3.239
295100.000			22.676			-3.239
295201.000			22.677			-3.240
295300.000			22.676			-3.239
295401.000			22.676			-3.239
295502.000			22.676			-3.239
295601.000			22.676			-3.239
295700.000			22.677			-3.240
295801.000			22.676			-3.239
295900.000			22.675			-3.239
296000.000			22.675			-3.239
296101.000			22.676			-3.239
296200.000			22.675			-3.239
296300.000			22.676			-3.239
296402.000			22.676			-3.239
296501.000			22.676			-3.239
296601.000			22.675			-3.239
296701.000			22.675			-3.239
296800.000			22.675			-3.239
296900.000			22.674			-3.239
297001.000			22.674			-3.239
297100.000			22.674			-3.239
297200.000			22.674			-3.239
297301.000			22.674			-3.239
297401.000			22.673			-3.239
297501.000			22.673			-3.239
297601.000			22.674			-3.239
297700.000			22.673			-3.239
297800.000			22.672			-3.239
297900.000			22.673			-3.239
298000.000			22.672			-3.239
298101.000			22.671			-3.239
298200.000			22.672			-3.239
298300.000			22.673			-3.239
298402.000			22.673			-3.239
298501.000			22.673			-3.239
298600.000			22.672			-3.239
298701.000			22.672			-3.239
298800.000			22.672			-3.239
298900.000			22.672			-3.239
299001.000			22.672			-3.239
299100.000			22.672			-3.239
299200.000			22.672			-3.239
299302.000			22.672			-3.239
299401.000			22.670			-3.239
299500.000			22.671			-3.239
299601.000			22.671			-3.239
299700.000			22.671			-3.239
299800.000			22.670			-3.239
299901.000			22.670			-3.239
