# Acquired on 08/01/2024 17:15:30 
# SPIDER: Creep_6mm_07714532B-2
# CREEP MEASUREMENT

# time [ms]		force [N]		stiffness [N/mm]
1.000			-21.114			-3.519
101.000			-22.541			-3.757
200.000			-23.143			-3.857
301.000			-23.101			-3.850
400.000			-23.005			-3.834
500.000			-22.927			-3.821
601.000			-22.861			-3.810
701.000			-22.805			-3.801
801.000			-22.755			-3.792
901.000			-22.710			-3.785
1000.000			-22.631			-3.772
1100.000			-22.598			-3.766
1201.000			-22.566			-3.761
1300.000			-22.536			-3.756
1401.000			-22.509			-3.751
1502.000			-22.482			-3.747
1601.000			-22.458			-3.743
1700.000			-22.435			-3.739
1801.000			-22.392			-3.732
1900.000			-22.371			-3.729
2000.000			-22.352			-3.725
2101.000			-22.333			-3.722
2201.000			-22.316			-3.719
2301.000			-22.300			-3.717
2401.000			-22.284			-3.714
2500.000			-22.254			-3.709
2600.000			-22.238			-3.706
2701.000			-22.224			-3.704
2800.000			-22.210			-3.702
2902.000			-22.197			-3.700
3001.000			-22.185			-3.698
3100.000			-22.172			-3.695
3201.000			-22.148			-3.691
3300.000			-22.137			-3.690
3400.000			-22.126			-3.688
3501.000			-22.115			-3.686
3600.000			-22.105			-3.684
3701.000			-22.095			-3.683
3802.000			-22.085			-3.681
3900.000			-22.066			-3.678
4000.000			-22.056			-3.676
4101.000			-22.046			-3.674
4200.000			-22.037			-3.673
4300.000			-22.029			-3.671
4402.000			-22.020			-3.670
4501.000			-22.012			-3.669
4600.000			-22.005			-3.667
4701.000			-21.989			-3.665
4800.000			-21.980			-3.663
4900.000			-21.973			-3.662
5001.000			-21.965			-3.661
5100.000			-21.958			-3.660
5201.000			-21.951			-3.658
5302.000			-21.943			-3.657
5400.000			-21.929			-3.655
5500.000			-21.923			-3.654
5601.000			-21.915			-3.653
5700.000			-21.910			-3.652
5800.000			-21.903			-3.650
5902.000			-21.896			-3.649
6001.000			-21.890			-3.648
6102.000			-21.878			-3.646
6200.000			-21.872			-3.645
6300.000			-21.866			-3.644
6401.000			-21.860			-3.643
6500.000			-21.855			-3.642
6600.000			-21.849			-3.641
6702.000			-21.843			-3.640
6801.000			-21.833			-3.639
6900.000			-21.827			-3.638
7001.000			-21.821			-3.637
7100.000			-21.816			-3.636
7200.000			-21.812			-3.635
7301.000			-21.807			-3.634
7400.000			-21.802			-3.634
7501.000			-21.791			-3.632
7602.000			-21.786			-3.631
7700.000			-21.781			-3.630
7800.000			-21.776			-3.629
7901.000			-21.772			-3.629
8000.000			-21.768			-3.628
8100.000			-21.762			-3.627
8201.000			-21.757			-3.626
8301.000			-21.749			-3.625
8401.000			-21.744			-3.624
8501.000			-21.740			-3.623
8600.000			-21.735			-3.623
8700.000			-21.731			-3.622
8801.000			-21.726			-3.621
8900.000			-21.723			-3.621
9001.000			-21.716			-3.619
9102.000			-21.711			-3.619
9200.000			-21.707			-3.618
9300.000			-21.703			-3.617
9400.000			-21.700			-3.617
9500.000			-21.696			-3.616
9601.000			-21.691			-3.615
9700.000			-21.684			-3.614
9801.000			-21.680			-3.613
9902.000			-21.676			-3.613
10000.000			-21.673			-3.612
10100.000			-21.669			-3.612
10201.000			-21.665			-3.611
10300.000			-21.660			-3.610
10400.000			-21.655			-3.609
10501.000			-21.653			-3.609
10601.000			-21.650			-3.608
10701.000			-21.645			-3.607
10801.000			-21.641			-3.607
10900.000			-21.637			-3.606
11000.000			-21.634			-3.606
11101.000			-21.628			-3.605
11200.000			-21.625			-3.604
11300.000			-21.622			-3.604
11402.000			-21.617			-3.603
11501.000			-21.614			-3.602
11600.000			-21.611			-3.602
11701.000			-21.609			-3.601
11800.000			-21.606			-3.601
11900.000			-21.600			-3.600
12001.000			-21.596			-3.599
12101.000			-21.593			-3.599
12201.000			-21.589			-3.598
12302.000			-21.587			-3.598
12400.000			-21.584			-3.597
12500.000			-21.581			-3.597
12600.000			-21.574			-3.596
12700.000			-21.572			-3.595
12801.000			-21.569			-3.595
12900.000			-21.566			-3.594
13001.000			-21.563			-3.594
13102.000			-21.561			-3.593
13200.000			-21.557			-3.593
13300.000			-21.552			-3.592
13401.000			-21.549			-3.592
13500.000			-21.547			-3.591
13600.000			-21.544			-3.591
13702.000			-21.541			-3.590
13801.000			-21.539			-3.590
13900.000			-21.538			-3.590
14001.000			-21.531			-3.589
14100.000			-21.529			-3.588
14200.000			-21.526			-3.588
14301.000			-21.523			-3.587
14400.000			-21.520			-3.587
14501.000			-21.518			-3.586
14602.000			-21.515			-3.586
14700.000			-21.513			-3.585
14800.000			-21.509			-3.585
14901.000			-21.506			-3.584
15000.000			-21.503			-3.584
15100.000			-21.501			-3.584
15202.000			-21.500			-3.583
15301.000			-21.496			-3.583
15401.000			-21.494			-3.582
15501.000			-21.488			-3.581
15600.000			-21.486			-3.581
15700.000			-21.482			-3.580
15800.000			-21.481			-3.580
15900.000			-21.480			-3.580
16001.000			-21.476			-3.579
16101.000			-21.474			-3.579
16201.000			-21.470			-3.578
16301.000			-21.468			-3.578
16400.000			-21.466			-3.578
16500.000			-21.464			-3.577
16601.000			-21.461			-3.577
16700.000			-21.459			-3.577
16800.000			-21.457			-3.576
16902.000			-21.452			-3.575
17001.000			-21.449			-3.575
17100.000			-21.448			-3.575
17201.000			-21.445			-3.574
17300.000			-21.443			-3.574
17400.000			-21.441			-3.573
17501.000			-21.439			-3.573
17601.000			-21.436			-3.573
17701.000			-21.434			-3.572
17801.000			-21.432			-3.572
17900.000			-21.429			-3.571
18000.000			-21.427			-3.571
18101.000			-21.426			-3.571
18200.000			-21.423			-3.571
18300.000			-21.421			-3.570
18402.000			-21.417			-3.569
18501.000			-21.414			-3.569
18600.000			-21.414			-3.569
18701.000			-21.412			-3.569
18800.000			-21.410			-3.568
18900.000			-21.407			-3.568
19000.000			-21.406			-3.568
19100.000			-21.401			-3.567
19202.000			-21.399			-3.566
19301.000			-21.398			-3.566
19400.000			-21.396			-3.566
19501.000			-21.394			-3.566
19600.000			-21.393			-3.565
19700.000			-21.391			-3.565
19801.000			-21.386			-3.564
19900.000			-21.384			-3.564
20001.000			-21.383			-3.564
20102.000			-21.381			-3.564
20200.000			-21.380			-3.563
20300.000			-21.378			-3.563
20401.000			-21.377			-3.563
20500.000			-21.372			-3.562
20600.000			-21.371			-3.562
20701.000			-21.369			-3.562
20801.000			-21.367			-3.561
20901.000			-21.365			-3.561
21001.000			-21.365			-3.561
21100.000			-21.362			-3.560
21200.000			-21.359			-3.560
21301.000			-21.357			-3.560
21400.000			-21.356			-3.559
21501.000			-21.353			-3.559
21602.000			-21.351			-3.559
21700.000			-21.350			-3.558
21800.000			-21.348			-3.558
21901.000			-21.346			-3.558
22000.000			-21.342			-3.557
22100.000			-21.341			-3.557
22200.000			-21.340			-3.557
22301.000			-21.338			-3.556
22402.000			-21.335			-3.556
22500.000			-21.333			-3.556
22600.000			-21.333			-3.556
22701.000			-21.330			-3.555
22800.000			-21.329			-3.555
22900.000			-21.326			-3.554
23001.000			-21.324			-3.554
23101.000			-21.323			-3.554
23201.000			-21.322			-3.554
23301.000			-21.320			-3.553
23400.000			-21.317			-3.553
23500.000			-21.316			-3.553
23601.000			-21.314			-3.552
23700.000			-21.313			-3.552
23801.000			-21.311			-3.552
23902.000			-21.309			-3.552
24000.000			-21.307			-3.551
24100.000			-21.305			-3.551
24201.000			-21.303			-3.551
24300.000			-21.301			-3.550
24400.000			-21.299			-3.550
24501.000			-21.298			-3.550
24601.000			-21.297			-3.549
24701.000			-21.297			-3.549
24801.000			-21.296			-3.549
24900.000			-21.291			-3.548
25000.000			-21.290			-3.548
25101.000			-21.288			-3.548
25200.000			-21.285			-3.548
25300.000			-21.284			-3.547
25402.000			-21.284			-3.547
25501.000			-21.284			-3.547
25601.000			-21.279			-3.547
25700.000			-21.278			-3.546
25800.000			-21.277			-3.546
25901.000			-21.276			-3.546
26000.000			-21.275			-3.546
26100.000			-21.273			-3.545
26202.000			-21.271			-3.545
26301.000			-21.268			-3.545
26400.000			-21.268			-3.545
26501.000			-21.266			-3.544
26600.000			-21.263			-3.544
26700.000			-21.263			-3.544
26801.000			-21.262			-3.544
26901.000			-21.259			-3.543
27001.000			-21.258			-3.543
27102.000			-21.256			-3.543
27200.000			-21.255			-3.542
27300.000			-21.253			-3.542
27401.000			-21.252			-3.542
27500.000			-21.250			-3.542
27600.000			-21.248			-3.541
27702.000			-21.247			-3.541
27801.000			-21.244			-3.541
27901.000			-21.244			-3.541
28001.000			-21.242			-3.540
28100.000			-21.240			-3.540
28200.000			-21.240			-3.540
28301.000			-21.239			-3.540
28400.000			-21.238			-3.540
28502.000			-21.235			-3.539
28601.000			-21.233			-3.539
28700.000			-21.233			-3.539
28801.000			-21.231			-3.538
28900.000			-21.229			-3.538
29000.000			-21.227			-3.538
29101.000			-21.226			-3.538
29200.000			-21.224			-3.537
29301.000			-21.223			-3.537
29402.000			-21.221			-3.537
29500.000			-21.220			-3.537
29600.000			-21.219			-3.537
29701.000			-21.218			-3.536
29800.000			-21.217			-3.536
29900.000			-21.214			-3.536
30001.000			-21.214			-3.536
30101.000			-21.212			-3.535
30201.000			-21.211			-3.535
30301.000			-21.211			-3.535
30400.000			-21.210			-3.535
30500.000			-21.207			-3.534
30601.000			-21.204			-3.534
30700.000			-21.203			-3.534
30800.000			-21.202			-3.534
30902.000			-21.200			-3.533
31001.000			-21.199			-3.533
31100.000			-21.197			-3.533
31201.000			-21.197			-3.533
31300.000			-21.197			-3.533
31400.000			-21.194			-3.532
31501.000			-21.193			-3.532
31601.000			-21.193			-3.532
31702.000			-21.191			-3.532
31800.000			-21.189			-3.532
31900.000			-21.189			-3.532
32001.000			-21.188			-3.531
32100.000			-21.184			-3.531
32200.000			-21.183			-3.530
32301.000			-21.182			-3.530
32401.000			-21.181			-3.530
32501.000			-21.180			-3.530
32601.000			-21.179			-3.530
32700.000			-21.177			-3.530
32800.000			-21.176			-3.529
32901.000			-21.174			-3.529
33000.000			-21.172			-3.529
33100.000			-21.173			-3.529
33202.000			-21.171			-3.529
33301.000			-21.170			-3.528
33400.000			-21.169			-3.528
33501.000			-21.167			-3.528
33600.000			-21.166			-3.528
33700.000			-21.165			-3.528
33801.000			-21.164			-3.527
33901.000			-21.163			-3.527
34001.000			-21.163			-3.527
34101.000			-21.162			-3.527
34200.000			-21.159			-3.526
34300.000			-21.158			-3.526
34401.000			-21.158			-3.526
34500.000			-21.156			-3.526
34600.000			-21.153			-3.526
34702.000			-21.152			-3.525
34801.000			-21.152			-3.525
34900.000			-21.151			-3.525
35000.000			-21.150			-3.525
35100.000			-21.148			-3.525
35201.000			-21.146			-3.524
35300.000			-21.146			-3.524
35400.000			-21.144			-3.524
35502.000			-21.144			-3.524
35601.000			-21.143			-3.524
35700.000			-21.141			-3.523
35801.000			-21.139			-3.523
35900.000			-21.140			-3.523
36000.000			-21.138			-3.523
36101.000			-21.136			-3.523
36201.000			-21.135			-3.522
36301.000			-21.135			-3.522
36402.000			-21.133			-3.522
36500.000			-21.131			-3.522
36600.000			-21.131			-3.522
36701.000			-21.130			-3.522
36800.000			-21.128			-3.521
36900.000			-21.128			-3.521
37002.000			-21.126			-3.521
37101.000			-21.125			-3.521
37201.000			-21.123			-3.521
37301.000			-21.123			-3.520
37400.000			-21.121			-3.520
37500.000			-21.120			-3.520
37601.000			-21.119			-3.520
37700.000			-21.118			-3.520
37801.000			-21.117			-3.519
37902.000			-21.114			-3.519
38000.000			-21.114			-3.519
38100.000			-21.114			-3.519
38200.000			-21.113			-3.519
38300.000			-21.112			-3.519
38401.000			-21.111			-3.519
38500.000			-21.109			-3.518
38601.000			-21.107			-3.518
38702.000			-21.107			-3.518
38800.000			-21.106			-3.518
38900.000			-21.105			-3.517
39001.000			-21.104			-3.517
39100.000			-21.104			-3.517
39200.000			-21.102			-3.517
39301.000			-21.100			-3.517
39401.000			-21.100			-3.517
39501.000			-21.099			-3.516
39601.000			-21.098			-3.516
39700.000			-21.096			-3.516
39800.000			-21.096			-3.516
39901.000			-21.096			-3.516
40000.000			-21.093			-3.516
40100.000			-21.092			-3.515
40202.000			-21.090			-3.515
40301.000			-21.089			-3.515
40400.000			-21.088			-3.515
40501.000			-21.088			-3.515
40600.000			-21.087			-3.515
40700.000			-21.086			-3.514
40801.000			-21.085			-3.514
40901.000			-21.084			-3.514
41001.000			-21.083			-3.514
41101.000			-21.082			-3.514
41200.000			-21.081			-3.514
41300.000			-21.080			-3.513
41400.000			-21.079			-3.513
41500.000			-21.077			-3.513
41601.000			-21.076			-3.513
41701.000			-21.077			-3.513
41801.000			-21.076			-3.513
41901.000			-21.074			-3.512
42000.000			-21.073			-3.512
42100.000			-21.072			-3.512
42201.000			-21.071			-3.512
42300.000			-21.069			-3.512
42400.000			-21.069			-3.512
42502.000			-21.068			-3.511
42601.000			-21.067			-3.511
42700.000			-21.067			-3.511
42801.000			-21.065			-3.511
42900.000			-21.063			-3.511
43000.000			-21.062			-3.510
43101.000			-21.061			-3.510
43201.000			-21.061			-3.510
43301.000			-21.061			-3.510
43401.000			-21.060			-3.510
43500.000			-21.059			-3.510
43600.000			-21.056			-3.509
43701.000			-21.055			-3.509
43800.000			-21.054			-3.509
43900.000			-21.054			-3.509
44002.000			-21.053			-3.509
44101.000			-21.051			-3.509
44200.000			-21.051			-3.509
44301.000			-21.050			-3.508
44400.000			-21.049			-3.508
44500.000			-21.049			-3.508
44600.000			-21.047			-3.508
44700.000			-21.047			-3.508
44802.000			-21.046			-3.508
44901.000			-21.045			-3.507
45000.000			-21.044			-3.507
45101.000			-21.043			-3.507
45200.000			-21.041			-3.507
45300.000			-21.042			-3.507
45401.000			-21.041			-3.507
45501.000			-21.039			-3.507
45601.000			-21.039			-3.506
45701.000			-21.038			-3.506
45800.000			-21.037			-3.506
45900.000			-21.035			-3.506
46001.000			-21.034			-3.506
46100.000			-21.034			-3.506
46200.000			-21.033			-3.505
46302.000			-21.032			-3.505
46401.000			-21.032			-3.505
46500.000			-21.031			-3.505
46601.000			-21.030			-3.505
46700.000			-21.029			-3.505
46800.000			-21.028			-3.505
46901.000			-21.027			-3.505
47001.000			-21.026			-3.504
47101.000			-21.024			-3.504
47201.000			-21.024			-3.504
47300.000			-21.023			-3.504
47400.000			-21.023			-3.504
47501.000			-21.022			-3.504
47600.000			-21.021			-3.503
47700.000			-21.019			-3.503
47802.000			-21.018			-3.503
47901.000			-21.018			-3.503
48001.000			-21.016			-3.503
48100.000			-21.014			-3.502
48200.000			-21.014			-3.502
48301.000			-21.014			-3.502
48400.000			-21.013			-3.502
48500.000			-21.012			-3.502
48602.000			-21.012			-3.502
48701.000			-21.010			-3.502
48800.000			-21.010			-3.502
48901.000			-21.009			-3.501
49000.000			-21.009			-3.502
49100.000			-21.008			-3.501
49201.000			-21.007			-3.501
49301.000			-21.006			-3.501
49401.000			-21.005			-3.501
49501.000			-21.003			-3.501
49600.000			-21.002			-3.500
49700.000			-21.002			-3.500
49801.000			-21.001			-3.500
49900.000			-21.000			-3.500
50000.000			-21.000			-3.500
50102.000			-21.000			-3.500
50201.000			-20.999			-3.500
50300.000			-20.997			-3.500
50401.000			-20.997			-3.499
50500.000			-20.995			-3.499
50600.000			-20.994			-3.499
50701.000			-20.994			-3.499
50800.000			-20.992			-3.499
50902.000			-20.992			-3.499
51001.000			-20.992			-3.499
51100.000			-20.991			-3.498
51201.000			-20.989			-3.498
51300.000			-20.988			-3.498
51400.000			-20.987			-3.498
51501.000			-20.987			-3.498
51600.000			-20.986			-3.498
51701.000			-20.985			-3.498
51802.000			-20.985			-3.497
51900.000			-20.984			-3.497
52000.000			-20.983			-3.497
52101.000			-20.983			-3.497
52200.000			-20.982			-3.497
52300.000			-20.981			-3.497
52401.000			-20.980			-3.497
52501.000			-20.978			-3.496
52601.000			-20.978			-3.496
52701.000			-20.977			-3.496
52800.000			-20.976			-3.496
52900.000			-20.976			-3.496
53001.000			-20.975			-3.496
53100.000			-20.975			-3.496
53200.000			-20.972			-3.495
53302.000			-20.972			-3.495
53401.000			-20.973			-3.495
53500.000			-20.971			-3.495
53601.000			-20.969			-3.495
53700.000			-20.970			-3.495
53800.000			-20.968			-3.495
53901.000			-20.967			-3.495
54000.000			-20.967			-3.495
54102.000			-20.967			-3.494
54201.000			-20.965			-3.494
54300.000			-20.965			-3.494
54401.000			-20.964			-3.494
54500.000			-20.963			-3.494
54600.000			-20.962			-3.494
54701.000			-20.961			-3.493
54800.000			-20.961			-3.494
54901.000			-20.960			-3.493
55002.000			-20.960			-3.493
55100.000			-20.960			-3.493
55200.000			-20.957			-3.493
55301.000			-20.957			-3.493
55400.000			-20.956			-3.493
55500.000			-20.956			-3.493
55601.000			-20.956			-3.493
55701.000			-20.954			-3.492
55801.000			-20.954			-3.492
55901.000			-20.951			-3.492
56000.000			-20.951			-3.492
56100.000			-20.950			-3.492
56201.000			-20.949			-3.491
56300.000			-20.949			-3.491
56400.000			-20.949			-3.491
56502.000			-20.948			-3.491
56601.000			-20.946			-3.491
56700.000			-20.946			-3.491
56801.000			-20.946			-3.491
56900.000			-20.944			-3.491
57000.000			-20.943			-3.491
57101.000			-20.943			-3.491
57200.000			-20.943			-3.491
57302.000			-20.942			-3.490
57401.000			-20.941			-3.490
57500.000			-20.939			-3.490
57601.000			-20.939			-3.490
57700.000			-20.939			-3.490
57800.000			-20.939			-3.490
57901.000			-20.938			-3.490
58000.000			-20.937			-3.489
58100.000			-20.936			-3.489
58202.000			-20.934			-3.489
58301.000			-20.933			-3.489
58400.000			-20.934			-3.489
58501.000			-20.933			-3.489
58600.000			-20.933			-3.489
58700.000			-20.933			-3.489
58801.000			-20.930			-3.488
58901.000			-20.929			-3.488
59001.000			-20.930			-3.488
59102.000			-20.929			-3.488
59200.000			-20.927			-3.488
59300.000			-20.927			-3.488
59401.000			-20.926			-3.488
59500.000			-20.924			-3.487
59600.000			-20.923			-3.487
59701.000			-20.924			-3.487
59801.000			-20.923			-3.487
59901.000			-20.922			-3.487
60001.000			-20.921			-3.487
60100.000			-20.921			-3.487
60200.000			-20.920			-3.487
60301.000			-20.919			-3.487
60400.000			-20.919			-3.486
60500.000			-20.919			-3.486
60602.000			-20.918			-3.486
60701.000			-20.917			-3.486
60801.000			-20.916			-3.486
60900.000			-20.916			-3.486
61000.000			-20.916			-3.486
61101.000			-20.914			-3.486
61200.000			-20.914			-3.486
61301.000			-20.914			-3.486
61402.000			-20.913			-3.485
61501.000			-20.912			-3.485
61600.000			-20.910			-3.485
61701.000			-20.910			-3.485
61800.000			-20.909			-3.485
61900.000			-20.908			-3.485
62001.000			-20.908			-3.485
62101.000			-20.908			-3.485
62201.000			-20.907			-3.485
62301.000			-20.907			-3.484
62400.000			-20.905			-3.484
62500.000			-20.904			-3.484
62601.000			-20.904			-3.484
62700.000			-20.904			-3.484
62800.000			-20.904			-3.484
62902.000			-20.903			-3.484
63001.000			-20.902			-3.484
63100.000			-20.900			-3.483
63201.000			-20.900			-3.483
63300.000			-20.899			-3.483
63400.000			-20.898			-3.483
63501.000			-20.899			-3.483
63600.000			-20.899			-3.483
63702.000			-20.897			-3.483
63801.000			-20.896			-3.483
63900.000			-20.896			-3.483
64001.000			-20.896			-3.483
64100.000			-20.895			-3.482
64200.000			-20.893			-3.482
64301.000			-20.892			-3.482
64400.000			-20.892			-3.482
64501.000			-20.891			-3.482
64602.000			-20.890			-3.482
64700.000			-20.890			-3.482
64800.000			-20.889			-3.482
64901.000			-20.889			-3.482
65000.000			-20.888			-3.481
65100.000			-20.888			-3.481
65201.000			-20.886			-3.481
65301.000			-20.886			-3.481
65401.000			-20.885			-3.481
65501.000			-20.884			-3.481
65600.000			-20.883			-3.481
65700.000			-20.883			-3.481
65801.000			-20.883			-3.481
65900.000			-20.883			-3.480
66000.000			-20.881			-3.480
66101.000			-20.881			-3.480
66201.000			-20.881			-3.480
66301.000			-20.881			-3.480
66401.000			-20.880			-3.480
66500.000			-20.878			-3.480
66600.000			-20.878			-3.480
66701.000			-20.877			-3.480
66800.000			-20.877			-3.479
66900.000			-20.876			-3.479
67002.000			-20.876			-3.479
67101.000			-20.875			-3.479
67201.000			-20.875			-3.479
67300.000			-20.874			-3.479
67400.000			-20.873			-3.479
67501.000			-20.873			-3.479
67600.000			-20.871			-3.479
67700.000			-20.871			-3.478
67802.000			-20.870			-3.478
67901.000			-20.871			-3.478
68000.000			-20.870			-3.478
68101.000			-20.869			-3.478
68200.000			-20.868			-3.478
68300.000			-20.868			-3.478
68401.000			-20.867			-3.478
68500.000			-20.866			-3.478
68600.000			-20.866			-3.478
68702.000			-20.865			-3.477
68801.000			-20.864			-3.477
68900.000			-20.864			-3.477
69001.000			-20.863			-3.477
69100.000			-20.862			-3.477
69200.000			-20.861			-3.477
69301.000			-20.861			-3.477
69400.000			-20.861			-3.477
69501.000			-20.860			-3.477
69602.000			-20.859			-3.477
69700.000			-20.859			-3.477
69800.000			-20.859			-3.477
69901.000			-20.858			-3.476
70000.000			-20.858			-3.476
70100.000			-20.857			-3.476
70200.000			-20.857			-3.476
70301.000			-20.855			-3.476
70402.000			-20.855			-3.476
70500.000			-20.854			-3.476
70600.000			-20.853			-3.475
70701.000			-20.853			-3.475
70800.000			-20.852			-3.475
70900.000			-20.852			-3.475
71001.000			-20.851			-3.475
71101.000			-20.852			-3.475
71201.000			-20.850			-3.475
71301.000			-20.849			-3.475
71400.000			-20.848			-3.475
71500.000			-20.849			-3.475
71601.000			-20.850			-3.475
71700.000			-20.848			-3.475
71800.000			-20.847			-3.475
71902.000			-20.847			-3.474
72001.000			-20.846			-3.474
72101.000			-20.845			-3.474
72201.000			-20.844			-3.474
72300.000			-20.844			-3.474
72400.000			-20.843			-3.474
72501.000			-20.843			-3.474
72600.000			-20.841			-3.473
72700.000			-20.840			-3.473
72802.000			-20.841			-3.473
72901.000			-20.841			-3.473
73000.000			-20.841			-3.473
73101.000			-20.840			-3.473
73200.000			-20.839			-3.473
73300.000			-20.839			-3.473
73400.000			-20.838			-3.473
73500.000			-20.838			-3.473
73602.000			-20.837			-3.473
73701.000			-20.836			-3.473
73800.000			-20.835			-3.473
73901.000			-20.833			-3.472
74000.000			-20.833			-3.472
74100.000			-20.832			-3.472
74201.000			-20.832			-3.472
74300.000			-20.833			-3.472
74401.000			-20.833			-3.472
74502.000			-20.831			-3.472
74600.000			-20.830			-3.472
74700.000			-20.829			-3.472
74801.000			-20.829			-3.472
74900.000			-20.830			-3.472
75000.000			-20.829			-3.472
75101.000			-20.829			-3.471
75201.000			-20.828			-3.471
75301.000			-20.827			-3.471
75401.000			-20.826			-3.471
75500.000			-20.825			-3.471
75600.000			-20.825			-3.471
75701.000			-20.824			-3.471
75800.000			-20.823			-3.470
75900.000			-20.822			-3.470
76002.000			-20.823			-3.470
76101.000			-20.823			-3.470
76200.000			-20.821			-3.470
76301.000			-20.820			-3.470
76400.000			-20.819			-3.470
76500.000			-20.819			-3.470
76600.000			-20.820			-3.470
76700.000			-20.819			-3.470
76802.000			-20.818			-3.470
76901.000			-20.817			-3.469
77000.000			-20.817			-3.469
77101.000			-20.816			-3.469
77200.000			-20.816			-3.469
77300.000			-20.816			-3.469
77401.000			-20.815			-3.469
77500.000			-20.814			-3.469
77601.000			-20.813			-3.469
77702.000			-20.814			-3.469
77800.000			-20.812			-3.469
77900.000			-20.812			-3.469
78001.000			-20.811			-3.469
78100.000			-20.811			-3.469
78200.000			-20.811			-3.469
78301.000			-20.811			-3.468
78401.000			-20.810			-3.468
78501.000			-20.810			-3.468
78601.000			-20.808			-3.468
78700.000			-20.807			-3.468
78800.000			-20.807			-3.468
78901.000			-20.806			-3.468
79000.000			-20.806			-3.468
79100.000			-20.805			-3.468
79202.000			-20.805			-3.467
79301.000			-20.805			-3.468
79400.000			-20.805			-3.467
79501.000			-20.805			-3.467
79600.000			-20.804			-3.467
79700.000			-20.803			-3.467
79800.000			-20.803			-3.467
79900.000			-20.802			-3.467
80002.000			-20.801			-3.467
80101.000			-20.800			-3.467
80200.000			-20.800			-3.467
80301.000			-20.800			-3.467
80400.000			-20.799			-3.466
80500.000			-20.798			-3.466
80601.000			-20.798			-3.466
80700.000			-20.798			-3.466
80800.000			-20.797			-3.466
80902.000			-20.796			-3.466
81001.000			-20.795			-3.466
81100.000			-20.795			-3.466
81201.000			-20.794			-3.466
81300.000			-20.793			-3.465
81400.000			-20.793			-3.465
81501.000			-20.792			-3.465
81600.000			-20.793			-3.465
81701.000			-20.793			-3.466
81802.000			-20.792			-3.465
81900.000			-20.791			-3.465
82000.000			-20.790			-3.465
82101.000			-20.790			-3.465
82200.000			-20.789			-3.465
82300.000			-20.789			-3.465
82401.000			-20.788			-3.465
82501.000			-20.788			-3.465
82601.000			-20.787			-3.465
82701.000			-20.786			-3.464
82800.000			-20.786			-3.464
82900.000			-20.786			-3.464
83000.000			-20.785			-3.464
83100.000			-20.785			-3.464
83201.000			-20.785			-3.464
83301.000			-20.784			-3.464
83401.000			-20.783			-3.464
83501.000			-20.783			-3.464
83600.000			-20.783			-3.464
83700.000			-20.782			-3.464
83801.000			-20.782			-3.464
83900.000			-20.781			-3.464
84000.000			-20.779			-3.463
84102.000			-20.779			-3.463
84201.000			-20.779			-3.463
84301.000			-20.779			-3.463
84401.000			-20.778			-3.463
84500.000			-20.777			-3.463
84600.000			-20.777			-3.463
84701.000			-20.777			-3.463
84800.000			-20.777			-3.463
84900.000			-20.776			-3.463
85002.000			-20.774			-3.462
85101.000			-20.773			-3.462
85200.000			-20.773			-3.462
85301.000			-20.774			-3.462
85400.000			-20.773			-3.462
85500.000			-20.772			-3.462
85601.000			-20.772			-3.462
85700.000			-20.771			-3.462
85801.000			-20.770			-3.462
85902.000			-20.771			-3.462
86000.000			-20.771			-3.462
86100.000			-20.770			-3.462
86200.000			-20.769			-3.462
86300.000			-20.768			-3.461
86401.000			-20.768			-3.461
86500.000			-20.768			-3.461
86601.000			-20.767			-3.461
86702.000			-20.766			-3.461
86801.000			-20.766			-3.461
86900.000			-20.766			-3.461
87001.000			-20.766			-3.461
87100.000			-20.765			-3.461
87200.000			-20.764			-3.461
87301.000			-20.763			-3.460
87401.000			-20.763			-3.460
87501.000			-20.763			-3.461
87602.000			-20.761			-3.460
87700.000			-20.761			-3.460
87800.000			-20.761			-3.460
87901.000			-20.760			-3.460
88000.000			-20.760			-3.460
88100.000			-20.759			-3.460
88201.000			-20.760			-3.460
88301.000			-20.758			-3.460
88401.000			-20.758			-3.460
88501.000			-20.759			-3.460
88600.000			-20.758			-3.460
88700.000			-20.757			-3.460
88801.000			-20.758			-3.460
88900.000			-20.757			-3.459
89000.000			-20.755			-3.459
89102.000			-20.754			-3.459
89201.000			-20.754			-3.459
89302.000			-20.754			-3.459
89400.000			-20.754			-3.459
89500.000			-20.753			-3.459
89601.000			-20.754			-3.459
89700.000			-20.753			-3.459
89800.000			-20.752			-3.459
89901.000			-20.752			-3.459
90001.000			-20.751			-3.459
90101.000			-20.751			-3.458
90201.000			-20.750			-3.458
90300.000			-20.749			-3.458
90400.000			-20.749			-3.458
90501.000			-20.748			-3.458
90600.000			-20.748			-3.458
90700.000			-20.747			-3.458
90802.000			-20.748			-3.458
90901.000			-20.748			-3.458
91000.000			-20.746			-3.458
91101.000			-20.744			-3.457
91200.000			-20.746			-3.458
91300.000			-20.745			-3.457
91401.000			-20.744			-3.457
91500.000			-20.744			-3.457
91601.000			-20.743			-3.457
91702.000			-20.742			-3.457
91800.000			-20.743			-3.457
91900.000			-20.742			-3.457
92001.000			-20.742			-3.457
92100.000			-20.741			-3.457
92200.000			-20.739			-3.457
92301.000			-20.739			-3.456
92401.000			-20.738			-3.456
92502.000			-20.739			-3.457
92600.000			-20.739			-3.457
92700.000			-20.739			-3.457
92801.000			-20.738			-3.456
92900.000			-20.738			-3.456
93000.000			-20.737			-3.456
93101.000			-20.736			-3.456
93201.000			-20.736			-3.456
93301.000			-20.736			-3.456
93401.000			-20.735			-3.456
93500.000			-20.735			-3.456
93600.000			-20.734			-3.456
93701.000			-20.733			-3.456
93800.000			-20.733			-3.456
93900.000			-20.733			-3.456
94002.000			-20.733			-3.456
94101.000			-20.732			-3.455
94200.000			-20.732			-3.455
94301.000			-20.731			-3.455
94400.000			-20.731			-3.455
94500.000			-20.731			-3.455
94601.000			-20.730			-3.455
94700.000			-20.729			-3.455
94801.000			-20.728			-3.455
94902.000			-20.728			-3.455
95000.000			-20.728			-3.455
95100.000			-20.727			-3.455
95201.000			-20.727			-3.455
95300.000			-20.727			-3.454
95400.000			-20.726			-3.454
95501.000			-20.725			-3.454
95601.000			-20.725			-3.454
95702.000			-20.723			-3.454
95800.000			-20.723			-3.454
95900.000			-20.724			-3.454
96001.000			-20.724			-3.454
96100.000			-20.723			-3.454
96200.000			-20.722			-3.454
96301.000			-20.721			-3.454
96401.000			-20.722			-3.454
96501.000			-20.722			-3.454
96601.000			-20.720			-3.453
96700.000			-20.720			-3.453
96800.000			-20.720			-3.453
96901.000			-20.721			-3.453
97000.000			-20.718			-3.453
97100.000			-20.718			-3.453
97202.000			-20.717			-3.453
97301.000			-20.718			-3.453
97400.000			-20.717			-3.453
97501.000			-20.717			-3.453
97600.000			-20.716			-3.453
97700.000			-20.715			-3.453
97801.000			-20.715			-3.453
97900.000			-20.715			-3.452
98000.000			-20.714			-3.452
98102.000			-20.713			-3.452
98201.000			-20.713			-3.452
98300.000			-20.713			-3.452
98401.000			-20.714			-3.452
98500.000			-20.714			-3.452
98600.000			-20.713			-3.452
98701.000			-20.712			-3.452
98801.000			-20.711			-3.452
98902.000			-20.711			-3.452
99001.000			-20.711			-3.452
99100.000			-20.710			-3.452
99201.000			-20.710			-3.452
99300.000			-20.709			-3.451
99400.000			-20.709			-3.452
99501.000			-20.709			-3.451
99600.000			-20.707			-3.451
99701.000			-20.708			-3.451
99802.000			-20.708			-3.451
99900.000			-20.707			-3.451
100000.000			-20.706			-3.451
100101.000			-20.706			-3.451
100200.000			-20.705			-3.451
100300.000			-20.704			-3.451
100401.000			-20.705			-3.451
100501.000			-20.705			-3.451
100601.000			-20.703			-3.451
100701.000			-20.702			-3.450
100800.000			-20.702			-3.450
100900.000			-20.702			-3.450
101001.000			-20.702			-3.450
101100.000			-20.701			-3.450
101200.000			-20.701			-3.450
101302.000			-20.701			-3.450
101401.000			-20.700			-3.450
101500.000			-20.700			-3.450
101601.000			-20.700			-3.450
101700.000			-20.699			-3.450
101800.000			-20.699			-3.450
101901.000			-20.699			-3.450
102000.000			-20.698			-3.450
102102.000			-20.697			-3.449
102201.000			-20.696			-3.449
102300.000			-20.696			-3.449
102401.000			-20.697			-3.449
102500.000			-20.695			-3.449
102600.000			-20.695			-3.449
102701.000			-20.695			-3.449
102800.000			-20.695			-3.449
102900.000			-20.694			-3.449
103002.000			-20.694			-3.449
103101.000			-20.693			-3.449
103200.000			-20.693			-3.449
103301.000			-20.694			-3.449
103400.000			-20.693			-3.449
103500.000			-20.693			-3.449
103601.000			-20.692			-3.449
103700.000			-20.692			-3.449
103801.000			-20.690			-3.448
103902.000			-20.690			-3.448
104000.000			-20.690			-3.448
104100.000			-20.689			-3.448
104201.000			-20.690			-3.448
104300.000			-20.689			-3.448
104400.000			-20.688			-3.448
104501.000			-20.688			-3.448
104601.000			-20.688			-3.448
104701.000			-20.688			-3.448
104801.000			-20.687			-3.448
104900.000			-20.686			-3.448
105000.000			-20.686			-3.448
105101.000			-20.686			-3.448
105200.000			-20.685			-3.448
105300.000			-20.685			-3.448
105400.000			-20.684			-3.447
105501.000			-20.684			-3.447
105602.000			-20.684			-3.447
105700.000			-20.684			-3.447
105800.000			-20.683			-3.447
105901.000			-20.682			-3.447
106000.000			-20.682			-3.447
106100.000			-20.682			-3.447
106201.000			-20.682			-3.447
106301.000			-20.681			-3.447
106401.000			-20.681			-3.447
106501.000			-20.680			-3.447
106600.000			-20.680			-3.447
106700.000			-20.680			-3.447
106801.000			-20.680			-3.447
106900.000			-20.679			-3.447
107000.000			-20.677			-3.446
107102.000			-20.678			-3.446
107201.000			-20.678			-3.446
107301.000			-20.677			-3.446
107401.000			-20.676			-3.446
107500.000			-20.677			-3.446
107600.000			-20.676			-3.446
107701.000			-20.675			-3.446
107800.000			-20.675			-3.446
107900.000			-20.674			-3.446
108002.000			-20.675			-3.446
108101.000			-20.675			-3.446
108200.000			-20.674			-3.446
108301.000			-20.673			-3.446
108400.000			-20.672			-3.445
108500.000			-20.672			-3.445
108600.000			-20.672			-3.445
108700.000			-20.671			-3.445
108802.000			-20.670			-3.445
108901.000			-20.670			-3.445
109001.000			-20.671			-3.445
109101.000			-20.670			-3.445
109200.000			-20.672			-3.445
109300.000			-20.670			-3.445
109401.000			-20.668			-3.445
109500.000			-20.668			-3.445
109600.000			-20.669			-3.445
109702.000			-20.668			-3.445
109801.000			-20.668			-3.445
109900.000			-20.667			-3.444
110001.000			-20.666			-3.444
110100.000			-20.666			-3.444
110200.000			-20.666			-3.444
110301.000			-20.665			-3.444
110400.000			-20.664			-3.444
110501.000			-20.664			-3.444
110602.000			-20.664			-3.444
110700.000			-20.663			-3.444
110800.000			-20.664			-3.444
110901.000			-20.663			-3.444
111000.000			-20.662			-3.444
111100.000			-20.662			-3.444
111201.000			-20.662			-3.444
111301.000			-20.662			-3.444
111401.000			-20.661			-3.444
111501.000			-20.660			-3.443
111600.000			-20.659			-3.443
111700.000			-20.659			-3.443
111800.000			-20.659			-3.443
111900.000			-20.659			-3.443
112001.000			-20.659			-3.443
112100.000			-20.658			-3.443
112201.000			-20.657			-3.443
112302.000			-20.657			-3.443
112400.000			-20.657			-3.443
112500.000			-20.657			-3.443
112601.000			-20.657			-3.443
112700.000			-20.656			-3.443
112800.000			-20.657			-3.443
112901.000			-20.656			-3.443
113001.000			-20.655			-3.442
113101.000			-20.655			-3.442
113201.000			-20.655			-3.442
113300.000			-20.654			-3.442
113400.000			-20.653			-3.442
113501.000			-20.653			-3.442
113600.000			-20.653			-3.442
113700.000			-20.653			-3.442
113802.000			-20.652			-3.442
113901.000			-20.651			-3.442
114000.000			-20.651			-3.442
114101.000			-20.651			-3.442
114200.000			-20.652			-3.442
114300.000			-20.651			-3.442
114401.000			-20.649			-3.442
114500.000			-20.650			-3.442
114601.000			-20.650			-3.442
114702.000			-20.649			-3.442
114800.000			-20.649			-3.441
114900.000			-20.649			-3.442
115000.000			-20.648			-3.441
115100.000			-20.648			-3.441
115201.000			-20.647			-3.441
115300.000			-20.646			-3.441
115400.000			-20.645			-3.441
115502.000			-20.646			-3.441
115601.000			-20.645			-3.441
115700.000			-20.644			-3.441
115801.000			-20.644			-3.441
115900.000			-20.644			-3.441
116000.000			-20.644			-3.441
116101.000			-20.643			-3.441
116200.000			-20.643			-3.441
116301.000			-20.643			-3.441
116402.000			-20.642			-3.440
116500.000			-20.640			-3.440
116600.000			-20.640			-3.440
116701.000			-20.640			-3.440
116800.000			-20.640			-3.440
116900.000			-20.639			-3.440
117001.000			-20.640			-3.440
117101.000			-20.640			-3.440
117201.000			-20.639			-3.440
117301.000			-20.639			-3.440
117400.000			-20.637			-3.440
117500.000			-20.637			-3.440
117601.000			-20.639			-3.440
117700.000			-20.639			-3.440
117800.000			-20.638			-3.440
117902.000			-20.637			-3.439
118001.000			-20.636			-3.439
118102.000			-20.636			-3.439
118200.000			-20.635			-3.439
118300.000			-20.635			-3.439
118401.000			-20.634			-3.439
118500.000			-20.633			-3.439
118600.000			-20.634			-3.439
118701.000			-20.634			-3.439
118801.000			-20.633			-3.439
118901.000			-20.633			-3.439
119001.000			-20.633			-3.439
119100.000			-20.633			-3.439
119200.000			-20.632			-3.439
119301.000			-20.631			-3.439
119400.000			-20.630			-3.438
119500.000			-20.631			-3.438
119602.000			-20.630			-3.438
119701.000			-20.629			-3.438
119800.000			-20.628			-3.438
119901.000			-20.629			-3.438
120000.000			-20.629			-3.438
120100.000			-20.628			-3.438
120201.000			-20.628			-3.438
120300.000			-20.628			-3.438
120401.000			-20.627			-3.438
120502.000			-20.626			-3.438
120601.000			-20.627			-3.438
120700.000			-20.626			-3.438
120801.000			-20.626			-3.438
120900.000			-20.627			-3.438
121000.000			-20.626			-3.438
121101.000			-20.624			-3.437
121200.000			-20.624			-3.437
121302.000			-20.623			-3.437
121401.000			-20.623			-3.437
121500.000			-20.623			-3.437
121601.000			-20.623			-3.437
121700.000			-20.622			-3.437
121800.000			-20.622			-3.437
121901.000			-20.623			-3.437
122000.000			-20.622			-3.437
122101.000			-20.622			-3.437
122202.000			-20.621			-3.437
122300.000			-20.621			-3.437
122400.000			-20.620			-3.437
122501.000			-20.620			-3.437
122600.000			-20.619			-3.437
122700.000			-20.619			-3.436
122801.000			-20.618			-3.436
122901.000			-20.618			-3.436
123001.000			-20.618			-3.436
123101.000			-20.616			-3.436
123200.000			-20.616			-3.436
123300.000			-20.616			-3.436
123401.000			-20.617			-3.436
123500.000			-20.616			-3.436
123600.000			-20.616			-3.436
123702.000			-20.616			-3.436
123801.000			-20.616			-3.436
123900.000			-20.616			-3.436
124001.000			-20.615			-3.436
124100.000			-20.615			-3.436
124200.000			-20.615			-3.436
124301.000			-20.614			-3.436
124400.000			-20.612			-3.435
124502.000			-20.613			-3.435
124601.000			-20.613			-3.436
124700.000			-20.613			-3.435
124801.000			-20.612			-3.435
124900.000			-20.611			-3.435
125000.000			-20.612			-3.435
125101.000			-20.612			-3.435
125200.000			-20.611			-3.435
125300.000			-20.610			-3.435
125402.000			-20.609			-3.435
125501.000			-20.610			-3.435
125600.000			-20.609			-3.435
125701.000			-20.608			-3.435
125800.000			-20.608			-3.435
125900.000			-20.608			-3.435
126001.000			-20.608			-3.435
126100.000			-20.608			-3.435
126201.000			-20.607			-3.435
126302.000			-20.607			-3.434
126400.000			-20.607			-3.434
126500.000			-20.606			-3.434
126601.000			-20.605			-3.434
126700.000			-20.606			-3.434
126800.000			-20.605			-3.434
126901.000			-20.604			-3.434
127001.000			-20.604			-3.434
127101.000			-20.604			-3.434
127201.000			-20.604			-3.434
127300.000			-20.604			-3.434
127400.000			-20.603			-3.434
127501.000			-20.603			-3.434
127600.000			-20.603			-3.434
127700.000			-20.602			-3.434
127800.000			-20.602			-3.434
127901.000			-20.603			-3.434
128002.000			-20.600			-3.433
128100.000			-20.600			-3.433
128200.000			-20.600			-3.433
128301.000			-20.599			-3.433
128400.000			-20.600			-3.433
128500.000			-20.599			-3.433
128601.000			-20.599			-3.433
128701.000			-20.598			-3.433
128801.000			-20.598			-3.433
128902.000			-20.598			-3.433
129000.000			-20.599			-3.433
129100.000			-20.598			-3.433
129201.000			-20.596			-3.433
129300.000			-20.597			-3.433
129400.000			-20.597			-3.433
129501.000			-20.596			-3.433
129600.000			-20.595			-3.432
129701.000			-20.594			-3.432
129802.000			-20.596			-3.433
129900.000			-20.595			-3.432
130000.000			-20.593			-3.432
130101.000			-20.594			-3.432
130200.000			-20.594			-3.432
130300.000			-20.594			-3.432
130401.000			-20.593			-3.432
130501.000			-20.592			-3.432
130601.000			-20.593			-3.432
130701.000			-20.592			-3.432
130800.000			-20.593			-3.432
130900.000			-20.591			-3.432
131000.000			-20.591			-3.432
131100.000			-20.591			-3.432
131201.000			-20.590			-3.432
131300.000			-20.589			-3.432
131401.000			-20.588			-3.431
131502.000			-20.589			-3.432
131600.000			-20.589			-3.431
131700.000			-20.589			-3.432
131801.000			-20.588			-3.431
131900.000			-20.588			-3.431
132000.000			-20.587			-3.431
132101.000			-20.587			-3.431
132200.000			-20.588			-3.431
132301.000			-20.587			-3.431
132402.000			-20.587			-3.431
132500.000			-20.586			-3.431
132600.000			-20.585			-3.431
132701.000			-20.585			-3.431
132800.000			-20.584			-3.431
132900.000			-20.585			-3.431
133001.000			-20.584			-3.431
133100.000			-20.584			-3.431
133201.000			-20.584			-3.431
133302.000			-20.583			-3.431
133400.000			-20.583			-3.430
133500.000			-20.583			-3.431
133601.000			-20.583			-3.430
133700.000			-20.583			-3.430
133800.000			-20.581			-3.430
133901.000			-20.581			-3.430
134000.000			-20.581			-3.430
134102.000			-20.581			-3.430
134201.000			-20.580			-3.430
134300.000			-20.580			-3.430
134401.000			-20.581			-3.430
134500.000			-20.578			-3.430
134600.000			-20.578			-3.430
134701.000			-20.579			-3.430
134800.000			-20.578			-3.430
134900.000			-20.579			-3.430
135002.000			-20.579			-3.430
135101.000			-20.578			-3.430
135201.000			-20.577			-3.429
135301.000			-20.576			-3.429
135400.000			-20.577			-3.429
135500.000			-20.576			-3.429
135601.000			-20.575			-3.429
135700.000			-20.576			-3.429
135800.000			-20.575			-3.429
135902.000			-20.574			-3.429
136001.000			-20.574			-3.429
136101.000			-20.574			-3.429
136201.000			-20.574			-3.429
136300.000			-20.574			-3.429
136400.000			-20.574			-3.429
136501.000			-20.573			-3.429
136600.000			-20.573			-3.429
136700.000			-20.573			-3.429
136801.000			-20.572			-3.429
136901.000			-20.572			-3.429
137001.000			-20.571			-3.429
137101.000			-20.571			-3.428
137200.000			-20.570			-3.428
137300.000			-20.571			-3.428
137400.000			-20.571			-3.428
137500.000			-20.570			-3.428
137601.000			-20.570			-3.428
137700.000			-20.569			-3.428
137801.000			-20.569			-3.428
137902.000			-20.569			-3.428
138001.000			-20.568			-3.428
138100.000			-20.568			-3.428
138201.000			-20.567			-3.428
138300.000			-20.568			-3.428
138400.000			-20.566			-3.428
138501.000			-20.567			-3.428
138600.000			-20.568			-3.428
138701.000			-20.567			-3.428
138802.000			-20.566			-3.428
138901.000			-20.566			-3.428
139000.000			-20.565			-3.428
139101.000			-20.564			-3.427
139200.000			-20.565			-3.428
139300.000			-20.565			-3.427
139401.000			-20.564			-3.427
139500.000			-20.564			-3.427
139600.000			-20.564			-3.427
139702.000			-20.564			-3.427
139801.000			-20.564			-3.427
139900.000			-20.563			-3.427
140001.000			-20.563			-3.427
140100.000			-20.562			-3.427
140200.000			-20.561			-3.427
140301.000			-20.560			-3.427
140400.000			-20.561			-3.427
140500.000			-20.561			-3.427
140602.000			-20.561			-3.427
140701.000			-20.560			-3.427
140801.000			-20.560			-3.427
140900.000			-20.561			-3.427
141000.000			-20.560			-3.427
141101.000			-20.559			-3.426
141200.000			-20.559			-3.426
141300.000			-20.558			-3.426
141401.000			-20.557			-3.426
141501.000			-20.557			-3.426
141601.000			-20.557			-3.426
141701.000			-20.558			-3.426
141800.000			-20.557			-3.426
141900.000			-20.557			-3.426
142001.000			-20.556			-3.426
142100.000			-20.555			-3.426
142200.000			-20.555			-3.426
142301.000			-20.556			-3.426
142401.000			-20.555			-3.426
142501.000			-20.554			-3.426
142601.000			-20.554			-3.426
142700.000			-20.554			-3.426
142800.000			-20.554			-3.426
142901.000			-20.554			-3.426
143000.000			-20.554			-3.426
143100.000			-20.553			-3.425
143201.000			-20.552			-3.425
143301.000			-20.552			-3.425
143401.000			-20.552			-3.425
143501.000			-20.551			-3.425
143600.000			-20.551			-3.425
143700.000			-20.551			-3.425
143800.000			-20.551			-3.425
143900.000			-20.550			-3.425
144001.000			-20.549			-3.425
144100.000			-20.550			-3.425
144201.000			-20.549			-3.425
144302.000			-20.548			-3.425
144400.000			-20.548			-3.425
144500.000			-20.548			-3.425
144601.000			-20.548			-3.425
144700.000			-20.548			-3.425
144800.000			-20.548			-3.425
144901.000			-20.547			-3.425
145000.000			-20.547			-3.425
145101.000			-20.547			-3.425
145202.000			-20.547			-3.425
145300.000			-20.546			-3.424
145400.000			-20.544			-3.424
145501.000			-20.545			-3.424
145600.000			-20.546			-3.424
145700.000			-20.545			-3.424
145801.000			-20.546			-3.424
145900.000			-20.546			-3.424
146001.000			-20.545			-3.424
146102.000			-20.544			-3.424
146201.000			-20.544			-3.424
146300.000			-20.544			-3.424
146401.000			-20.544			-3.424
146500.000			-20.543			-3.424
146600.000			-20.544			-3.424
146701.000			-20.543			-3.424
146800.000			-20.541			-3.423
146902.000			-20.541			-3.424
147001.000			-20.541			-3.424
147101.000			-20.542			-3.424
147201.000			-20.542			-3.424
147300.000			-20.541			-3.423
147400.000			-20.541			-3.424
147501.000			-20.540			-3.423
147600.000			-20.539			-3.423
147700.000			-20.539			-3.423
147802.000			-20.538			-3.423
147901.000			-20.538			-3.423
148001.000			-20.539			-3.423
148101.000			-20.538			-3.423
148200.000			-20.539			-3.423
148300.000			-20.538			-3.423
148401.000			-20.537			-3.423
148500.000			-20.537			-3.423
148600.000			-20.536			-3.423
148701.000			-20.536			-3.423
148801.000			-20.537			-3.423
148901.000			-20.536			-3.423
149001.000			-20.536			-3.423
149100.000			-20.535			-3.423
149200.000			-20.535			-3.423
149301.000			-20.535			-3.422
149400.000			-20.534			-3.422
149500.000			-20.535			-3.423
149601.000			-20.535			-3.422
149701.000			-20.533			-3.422
149801.000			-20.533			-3.422
149901.000			-20.532			-3.422
150000.000			-20.532			-3.422
150100.000			-20.534			-3.422
150200.000			-20.533			-3.422
150300.000			-20.533			-3.422
150401.000			-20.532			-3.422
150500.000			-20.532			-3.422
150601.000			-20.532			-3.422
150702.000			-20.530			-3.422
150800.000			-20.529			-3.422
150900.000			-20.529			-3.422
151001.000			-20.530			-3.422
151100.000			-20.529			-3.422
151200.000			-20.529			-3.421
151301.000			-20.528			-3.421
151400.000			-20.528			-3.421
151501.000			-20.528			-3.421
151602.000			-20.528			-3.421
151700.000			-20.527			-3.421
151800.000			-20.528			-3.421
151901.000			-20.528			-3.421
152000.000			-20.527			-3.421
152100.000			-20.527			-3.421
152201.000			-20.527			-3.421
152300.000			-20.526			-3.421
152401.000			-20.525			-3.421
152502.000			-20.525			-3.421
152600.000			-20.524			-3.421
152700.000			-20.525			-3.421
152801.000			-20.525			-3.421
152900.000			-20.524			-3.421
153000.000			-20.524			-3.421
153101.000			-20.524			-3.421
153200.000			-20.525			-3.421
153302.000			-20.524			-3.421
153401.000			-20.524			-3.421
153500.000			-20.523			-3.421
153601.000			-20.522			-3.420
153700.000			-20.522			-3.420
153800.000			-20.522			-3.420
153901.000			-20.522			-3.420
154000.000			-20.521			-3.420
154100.000			-20.521			-3.420
154202.000			-20.520			-3.420
154301.000			-20.521			-3.420
154400.000			-20.520			-3.420
154501.000			-20.520			-3.420
154600.000			-20.519			-3.420
154700.000			-20.519			-3.420
154801.000			-20.518			-3.420
154900.000			-20.519			-3.420
155000.000			-20.518			-3.420
155102.000			-20.519			-3.420
155201.000			-20.519			-3.420
155300.000			-20.518			-3.420
155401.000			-20.517			-3.420
155500.000			-20.518			-3.420
155600.000			-20.516			-3.419
155701.000			-20.515			-3.419
155800.000			-20.516			-3.419
155900.000			-20.517			-3.419
156002.000			-20.516			-3.419
156101.000			-20.515			-3.419
156200.000			-20.515			-3.419
156301.000			-20.515			-3.419
156400.000			-20.515			-3.419
156500.000			-20.514			-3.419
156600.000			-20.514			-3.419
156700.000			-20.513			-3.419
156802.000			-20.514			-3.419
156901.000			-20.511			-3.419
157001.000			-20.512			-3.419
157101.000			-20.512			-3.419
157200.000			-20.512			-3.419
157300.000			-20.512			-3.419
157401.000			-20.512			-3.419
157500.000			-20.511			-3.419
157600.000			-20.511			-3.418
157702.000			-20.511			-3.418
157801.000			-20.510			-3.418
157901.000			-20.510			-3.418
158001.000			-20.511			-3.419
158100.000			-20.511			-3.418
158200.000			-20.510			-3.418
158301.000			-20.510			-3.418
158400.000			-20.509			-3.418
158500.000			-20.508			-3.418
158602.000			-20.508			-3.418
158701.000			-20.508			-3.418
158801.000			-20.508			-3.418
158901.000			-20.508			-3.418
159000.000			-20.508			-3.418
159100.000			-20.507			-3.418
159201.000			-20.506			-3.418
159300.000			-20.506			-3.418
159400.000			-20.507			-3.418
159501.000			-20.506			-3.418
159601.000			-20.506			-3.418
159702.000			-20.506			-3.418
159800.000			-20.505			-3.418
159900.000			-20.505			-3.418
160001.000			-20.505			-3.418
160100.000			-20.505			-3.418
160200.000			-20.505			-3.417
160301.000			-20.504			-3.417
160401.000			-20.503			-3.417
160501.000			-20.503			-3.417
160602.000			-20.503			-3.417
160700.000			-20.503			-3.417
160800.000			-20.503			-3.417
160901.000			-20.503			-3.417
161000.000			-20.502			-3.417
161100.000			-20.502			-3.417
161201.000			-20.502			-3.417
161301.000			-20.501			-3.417
161401.000			-20.500			-3.417
161501.000			-20.500			-3.417
161600.000			-20.501			-3.417
161700.000			-20.501			-3.417
161801.000			-20.500			-3.417
161900.000			-20.499			-3.417
162000.000			-20.499			-3.416
162101.000			-20.499			-3.416
162201.000			-20.499			-3.416
162301.000			-20.498			-3.416
162402.000			-20.498			-3.416
162500.000			-20.499			-3.416
162600.000			-20.499			-3.416
162701.000			-20.498			-3.416
162800.000			-20.498			-3.416
162900.000			-20.497			-3.416
163000.000			-20.497			-3.416
163100.000			-20.496			-3.416
163202.000			-20.496			-3.416
163301.000			-20.496			-3.416
163400.000			-20.495			-3.416
163501.000			-20.496			-3.416
163600.000			-20.495			-3.416
163700.000			-20.495			-3.416
163801.000			-20.495			-3.416
163900.000			-20.494			-3.416
164000.000			-20.493			-3.416
164102.000			-20.493			-3.416
164201.000			-20.494			-3.416
164301.000			-20.494			-3.416
164401.000			-20.493			-3.416
164500.000			-20.493			-3.415
164600.000			-20.493			-3.415
164701.000			-20.493			-3.416
164800.000			-20.493			-3.415
164900.000			-20.491			-3.415
165002.000			-20.491			-3.415
165101.000			-20.490			-3.415
165201.000			-20.491			-3.415
165301.000			-20.492			-3.415
165400.000			-20.491			-3.415
165500.000			-20.490			-3.415
165601.000			-20.490			-3.415
165700.000			-20.489			-3.415
165800.000			-20.489			-3.415
165901.000			-20.488			-3.415
166001.000			-20.488			-3.415
166102.000			-20.489			-3.415
166200.000			-20.490			-3.415
166300.000			-20.488			-3.415
166401.000			-20.488			-3.415
166500.000			-20.488			-3.415
166600.000			-20.487			-3.415
166701.000			-20.487			-3.415
166800.000			-20.486			-3.414
166901.000			-20.486			-3.414
167002.000			-20.485			-3.414
167101.000			-20.486			-3.414
167200.000			-20.485			-3.414
167301.000			-20.485			-3.414
167400.000			-20.486			-3.414
167500.000			-20.485			-3.414
167601.000			-20.485			-3.414
167700.000			-20.485			-3.414
167800.000			-20.484			-3.414
167902.000			-20.485			-3.414
168001.000			-20.483			-3.414
168100.000			-20.483			-3.414
168201.000			-20.484			-3.414
168300.000			-20.483			-3.414
168400.000			-20.483			-3.414
168501.000			-20.482			-3.414
168600.000			-20.482			-3.414
168700.000			-20.482			-3.414
168802.000			-20.481			-3.414
168901.000			-20.480			-3.413
169000.000			-20.481			-3.414
169101.000			-20.482			-3.414
169200.000			-20.481			-3.413
169300.000			-20.480			-3.413
169400.000			-20.480			-3.413
169500.000			-20.480			-3.413
169601.000			-20.480			-3.413
169700.000			-20.479			-3.413
169801.000			-20.479			-3.413
169902.000			-20.477			-3.413
170000.000			-20.478			-3.413
170100.000			-20.479			-3.413
170201.000			-20.478			-3.413
170300.000			-20.477			-3.413
170400.000			-20.477			-3.413
170501.000			-20.477			-3.413
170600.000			-20.477			-3.413
170701.000			-20.476			-3.413
170802.000			-20.477			-3.413
170900.000			-20.477			-3.413
171000.000			-20.476			-3.413
171101.000			-20.476			-3.413
171200.000			-20.477			-3.413
171300.000			-20.477			-3.413
171401.000			-20.474			-3.412
171500.000			-20.474			-3.412
171601.000			-20.474			-3.412
171702.000			-20.473			-3.412
171800.000			-20.474			-3.412
171900.000			-20.473			-3.412
172001.000			-20.472			-3.412
172100.000			-20.472			-3.412
172200.000			-20.472			-3.412
172301.000			-20.472			-3.412
172400.000			-20.473			-3.412
172502.000			-20.472			-3.412
172601.000			-20.472			-3.412
172700.000			-20.472			-3.412
172801.000			-20.470			-3.412
172900.000			-20.470			-3.412
173000.000			-20.469			-3.412
173101.000			-20.470			-3.412
173200.000			-20.469			-3.412
173300.000			-20.469			-3.412
173402.000			-20.469			-3.412
173501.000			-20.469			-3.412
173601.000			-20.468			-3.411
173701.000			-20.468			-3.411
173800.000			-20.468			-3.411
173900.000			-20.469			-3.412
174001.000			-20.469			-3.411
174100.000			-20.467			-3.411
174200.000			-20.467			-3.411
174302.000			-20.468			-3.411
174401.000			-20.467			-3.411
174501.000			-20.467			-3.411
174601.000			-20.467			-3.411
174700.000			-20.467			-3.411
174800.000			-20.465			-3.411
174901.000			-20.465			-3.411
175000.000			-20.465			-3.411
175100.000			-20.465			-3.411
175201.000			-20.465			-3.411
175301.000			-20.466			-3.411
175401.000			-20.465			-3.411
175501.000			-20.465			-3.411
175600.000			-20.464			-3.411
175700.000			-20.464			-3.411
175800.000			-20.463			-3.411
175900.000			-20.463			-3.410
176001.000			-20.463			-3.410
176100.000			-20.463			-3.410
176200.000			-20.463			-3.411
176302.000			-20.463			-3.411
176401.000			-20.462			-3.410
176500.000			-20.462			-3.410
176601.000			-20.462			-3.410
176700.000			-20.461			-3.410
176800.000			-20.461			-3.410
176901.000			-20.461			-3.410
177000.000			-20.461			-3.410
177100.000			-20.460			-3.410
177202.000			-20.460			-3.410
177301.000			-20.459			-3.410
177401.000			-20.460			-3.410
177501.000			-20.461			-3.410
177600.000			-20.460			-3.410
177700.000			-20.459			-3.410
177801.000			-20.459			-3.410
177900.000			-20.459			-3.410
178000.000			-20.459			-3.410
178101.000			-20.458			-3.410
178201.000			-20.458			-3.410
178301.000			-20.457			-3.410
178401.000			-20.457			-3.410
178500.000			-20.457			-3.409
178600.000			-20.456			-3.409
178701.000			-20.456			-3.409
178800.000			-20.456			-3.409
178900.000			-20.457			-3.409
179000.000			-20.457			-3.410
179101.000			-20.457			-3.410
179202.000			-20.456			-3.409
179301.000			-20.455			-3.409
179400.000			-20.455			-3.409
179501.000			-20.455			-3.409
179600.000			-20.454			-3.409
179700.000			-20.454			-3.409
179801.000			-20.454			-3.409
179900.000			-20.454			-3.409
180000.000			-20.453			-3.409
180102.000			-20.453			-3.409
180201.000			-20.453			-3.409
180300.000			-20.453			-3.409
180401.000			-20.452			-3.409
180500.000			-20.452			-3.409
180600.000			-20.453			-3.409
180701.000			-20.453			-3.409
180800.000			-20.452			-3.409
180900.000			-20.452			-3.409
181002.000			-20.450			-3.408
181101.000			-20.450			-3.408
181200.000			-20.450			-3.408
181301.000			-20.451			-3.409
181400.000			-20.451			-3.408
181500.000			-20.449			-3.408
181601.000			-20.449			-3.408
181700.000			-20.449			-3.408
181800.000			-20.448			-3.408
181902.000			-20.448			-3.408
182001.000			-20.448			-3.408
182100.000			-20.449			-3.408
182200.000			-20.447			-3.408
182300.000			-20.447			-3.408
182401.000			-20.447			-3.408
182500.000			-20.447			-3.408
182600.000			-20.446			-3.408
182701.000			-20.447			-3.408
182801.000			-20.447			-3.408
182901.000			-20.446			-3.408
183002.000			-20.447			-3.408
183100.000			-20.447			-3.408
183200.000			-20.446			-3.408
183301.000			-20.445			-3.407
183400.000			-20.444			-3.407
183500.000			-20.444			-3.407
183601.000			-20.445			-3.408
183701.000			-20.444			-3.407
183801.000			-20.445			-3.407
183902.000			-20.444			-3.407
184000.000			-20.443			-3.407
184100.000			-20.443			-3.407
184201.000			-20.443			-3.407
184300.000			-20.443			-3.407
184400.000			-20.441			-3.407
184501.000			-20.442			-3.407
184600.000			-20.442			-3.407
184701.000			-20.442			-3.407
184802.000			-20.442			-3.407
184900.000			-20.442			-3.407
185000.000			-20.441			-3.407
185101.000			-20.442			-3.407
185200.000			-20.441			-3.407
185300.000			-20.440			-3.407
185400.000			-20.440			-3.407
185500.000			-20.439			-3.407
185602.000			-20.439			-3.406
185701.000			-20.439			-3.407
185800.000			-20.439			-3.406
185901.000			-20.439			-3.407
186000.000			-20.439			-3.406
186100.000			-20.439			-3.406
186201.000			-20.439			-3.407
186300.000			-20.439			-3.406
186400.000			-20.438			-3.406
186502.000			-20.439			-3.406
186601.000			-20.439			-3.406
186701.000			-20.437			-3.406
186801.000			-20.437			-3.406
186900.000			-20.437			-3.406
187000.000			-20.438			-3.406
187101.000			-20.437			-3.406
187200.000			-20.437			-3.406
187300.000			-20.436			-3.406
187401.000			-20.436			-3.406
187501.000			-20.436			-3.406
187601.000			-20.434			-3.406
187701.000			-20.435			-3.406
187800.000			-20.435			-3.406
187900.000			-20.436			-3.406
188001.000			-20.435			-3.406
188100.000			-20.434			-3.406
188200.000			-20.434			-3.406
188301.000			-20.434			-3.406
188401.000			-20.434			-3.406
188502.000			-20.433			-3.406
188601.000			-20.433			-3.405
188700.000			-20.432			-3.405
188801.000			-20.431			-3.405
188900.000			-20.432			-3.405
189000.000			-20.432			-3.405
189101.000			-20.432			-3.405
189200.000			-20.432			-3.405
189301.000			-20.432			-3.405
189402.000			-20.430			-3.405
189501.000			-20.430			-3.405
189600.000			-20.430			-3.405
189701.000			-20.430			-3.405
189800.000			-20.430			-3.405
189900.000			-20.430			-3.405
190001.000			-20.430			-3.405
190100.000			-20.429			-3.405
190200.000			-20.429			-3.405
190302.000			-20.428			-3.405
190401.000			-20.429			-3.405
190500.000			-20.430			-3.405
190601.000			-20.428			-3.405
190700.000			-20.428			-3.405
190800.000			-20.428			-3.405
190901.000			-20.429			-3.405
191000.000			-20.428			-3.405
191100.000			-20.427			-3.404
191202.000			-20.426			-3.404
191301.000			-20.426			-3.404
191400.000			-20.427			-3.404
191501.000			-20.427			-3.404
191600.000			-20.427			-3.404
191700.000			-20.427			-3.404
191800.000			-20.426			-3.404
191900.000			-20.425			-3.404
192001.000			-20.425			-3.404
192101.000			-20.425			-3.404
192201.000			-20.426			-3.404
192301.000			-20.425			-3.404
192400.000			-20.425			-3.404
192500.000			-20.425			-3.404
192601.000			-20.424			-3.404
192700.000			-20.423			-3.404
192800.000			-20.423			-3.404
192901.000			-20.422			-3.404
193001.000			-20.422			-3.404
193101.000			-20.422			-3.404
193201.000			-20.422			-3.404
193300.000			-20.422			-3.404
193400.000			-20.422			-3.404
193501.000			-20.421			-3.404
193600.000			-20.421			-3.404
193700.000			-20.422			-3.404
193801.000			-20.420			-3.403
193901.000			-20.420			-3.403
194001.000			-20.420			-3.403
194101.000			-20.420			-3.403
194200.000			-20.421			-3.403
194300.000			-20.420			-3.403
194401.000			-20.420			-3.403
194500.000			-20.418			-3.403
194600.000			-20.419			-3.403
194701.000			-20.418			-3.403
194801.000			-20.417			-3.403
194902.000			-20.418			-3.403
195000.000			-20.419			-3.403
195100.000			-20.419			-3.403
195201.000			-20.417			-3.403
195300.000			-20.417			-3.403
195400.000			-20.417			-3.403
195501.000			-20.416			-3.403
195600.000			-20.416			-3.403
195701.000			-20.417			-3.403
195802.000			-20.416			-3.403
195901.000			-20.416			-3.403
196000.000			-20.415			-3.403
196101.000			-20.415			-3.402
196200.000			-20.414			-3.402
196300.000			-20.414			-3.402
196401.000			-20.415			-3.402
196500.000			-20.414			-3.402
196601.000			-20.415			-3.402
196702.000			-20.414			-3.402
196801.000			-20.414			-3.402
196900.000			-20.414			-3.402
197001.000			-20.414			-3.402
197100.000			-20.414			-3.402
197200.000			-20.414			-3.402
197301.000			-20.414			-3.402
197400.000			-20.413			-3.402
197500.000			-20.412			-3.402
197602.000			-20.413			-3.402
197701.000			-20.412			-3.402
197800.000			-20.411			-3.402
197901.000			-20.411			-3.402
198000.000			-20.411			-3.402
198100.000			-20.410			-3.402
198200.000			-20.410			-3.402
198300.000			-20.410			-3.402
198401.000			-20.411			-3.402
198501.000			-20.410			-3.402
198601.000			-20.410			-3.402
198701.000			-20.409			-3.402
198800.000			-20.409			-3.402
198900.000			-20.410			-3.402
199001.000			-20.409			-3.402
199100.000			-20.409			-3.401
199200.000			-20.409			-3.401
199301.000			-20.409			-3.401
199401.000			-20.409			-3.401
199501.000			-20.407			-3.401
199601.000			-20.407			-3.401
199700.000			-20.408			-3.401
199800.000			-20.408			-3.401
199901.000			-20.408			-3.401
200000.000			-20.408			-3.401
200100.000			-20.407			-3.401
200201.000			-20.406			-3.401
200301.000			-20.406			-3.401
200401.000			-20.406			-3.401
200502.000			-20.406			-3.401
200600.000			-20.405			-3.401
200700.000			-20.404			-3.401
200801.000			-20.404			-3.401
200900.000			-20.404			-3.401
201000.000			-20.405			-3.401
201101.000			-20.404			-3.401
201201.000			-20.403			-3.401
201302.000			-20.403			-3.401
201400.000			-20.404			-3.401
201500.000			-20.403			-3.401
201601.000			-20.403			-3.400
201700.000			-20.401			-3.400
201800.000			-20.401			-3.400
201901.000			-20.403			-3.400
202001.000			-20.404			-3.401
202101.000			-20.403			-3.400
202202.000			-20.401			-3.400
202300.000			-20.401			-3.400
202400.000			-20.401			-3.400
202501.000			-20.401			-3.400
202600.000			-20.402			-3.400
202700.000			-20.401			-3.400
202801.000			-20.401			-3.400
202901.000			-20.400			-3.400
203001.000			-20.400			-3.400
203101.000			-20.400			-3.400
203200.000			-20.399			-3.400
203300.000			-20.400			-3.400
203401.000			-20.400			-3.400
203500.000			-20.399			-3.400
203600.000			-20.400			-3.400
203701.000			-20.399			-3.400
203801.000			-20.399			-3.400
203901.000			-20.398			-3.400
204001.000			-20.398			-3.400
204100.000			-20.398			-3.400
204200.000			-20.398			-3.400
204301.000			-20.398			-3.400
204400.000			-20.398			-3.400
204500.000			-20.398			-3.400
204600.000			-20.397			-3.399
204701.000			-20.397			-3.399
204802.000			-20.396			-3.399
204901.000			-20.396			-3.399
205000.000			-20.397			-3.399
205101.000			-20.396			-3.399
205200.000			-20.395			-3.399
205300.000			-20.396			-3.399
205401.000			-20.395			-3.399
205500.000			-20.395			-3.399
205600.000			-20.395			-3.399
205702.000			-20.394			-3.399
205801.000			-20.394			-3.399
205900.000			-20.395			-3.399
206001.000			-20.393			-3.399
206100.000			-20.393			-3.399
206200.000			-20.393			-3.399
206301.000			-20.393			-3.399
206400.000			-20.393			-3.399
206500.000			-20.394			-3.399
206602.000			-20.394			-3.399
206701.000			-20.393			-3.399
206800.000			-20.393			-3.399
206901.000			-20.393			-3.399
207000.000			-20.392			-3.399
207100.000			-20.393			-3.399
207201.000			-20.393			-3.399
207300.000			-20.391			-3.399
207400.000			-20.390			-3.398
207502.000			-20.390			-3.398
207601.000			-20.390			-3.398
207700.000			-20.391			-3.398
207800.000			-20.390			-3.398
207900.000			-20.389			-3.398
208001.000			-20.390			-3.398
208100.000			-20.391			-3.398
208200.000			-20.389			-3.398
208301.000			-20.389			-3.398
208401.000			-20.388			-3.398
208501.000			-20.388			-3.398
208601.000			-20.389			-3.398
208700.000			-20.389			-3.398
208800.000			-20.387			-3.398
208901.000			-20.388			-3.398
209000.000			-20.388			-3.398
209100.000			-20.388			-3.398
209201.000			-20.388			-3.398
209301.000			-20.387			-3.398
209401.000			-20.387			-3.398
209502.000			-20.387			-3.398
209600.000			-20.386			-3.398
209700.000			-20.386			-3.398
209801.000			-20.386			-3.398
209900.000			-20.386			-3.398
210000.000			-20.385			-3.398
210101.000			-20.385			-3.397
210201.000			-20.385			-3.398
210301.000			-20.385			-3.398
210402.000			-20.383			-3.397
210500.000			-20.383			-3.397
210600.000			-20.384			-3.397
210701.000			-20.384			-3.397
210800.000			-20.385			-3.397
210900.000			-20.384			-3.397
211000.000			-20.384			-3.397
211101.000			-20.383			-3.397
211202.000			-20.383			-3.397
211301.000			-20.383			-3.397
211400.000			-20.383			-3.397
211501.000			-20.383			-3.397
211600.000			-20.382			-3.397
211700.000			-20.382			-3.397
211801.000			-20.381			-3.397
211900.000			-20.381			-3.397
212001.000			-20.381			-3.397
212102.000			-20.381			-3.397
212201.000			-20.382			-3.397
212300.000			-20.381			-3.397
212401.000			-20.380			-3.397
212500.000			-20.380			-3.397
212600.000			-20.380			-3.397
212701.000			-20.379			-3.397
212800.000			-20.380			-3.397
212901.000			-20.380			-3.397
213002.000			-20.379			-3.397
213101.000			-20.379			-3.397
213200.000			-20.378			-3.396
213301.000			-20.379			-3.396
213400.000			-20.378			-3.396
213500.000			-20.378			-3.396
213601.000			-20.378			-3.396
213700.000			-20.377			-3.396
213801.000			-20.377			-3.396
213902.000			-20.377			-3.396
214001.000			-20.376			-3.396
214100.000			-20.376			-3.396
214200.000			-20.377			-3.396
214300.000			-20.378			-3.396
214401.000			-20.377			-3.396
214500.000			-20.376			-3.396
214600.000			-20.377			-3.396
214702.000			-20.376			-3.396
214801.000			-20.376			-3.396
214901.000			-20.375			-3.396
215001.000			-20.375			-3.396
215100.000			-20.375			-3.396
215200.000			-20.374			-3.396
215301.000			-20.373			-3.396
215400.000			-20.374			-3.396
215500.000			-20.375			-3.396
215602.000			-20.375			-3.396
215701.000			-20.374			-3.396
215801.000			-20.373			-3.396
215901.000			-20.373			-3.396
216000.000			-20.373			-3.396
216100.000			-20.373			-3.395
216201.000			-20.373			-3.395
216300.000			-20.372			-3.395
216400.000			-20.372			-3.395
216502.000			-20.371			-3.395
216601.000			-20.371			-3.395
216701.000			-20.371			-3.395
216801.000			-20.371			-3.395
216900.000			-20.372			-3.395
217000.000			-20.372			-3.395
217101.000			-20.372			-3.395
217200.000			-20.372			-3.395
217300.000			-20.372			-3.395
217400.000			-20.371			-3.395
217501.000			-20.371			-3.395
217602.000			-20.369			-3.395
217700.000			-20.369			-3.395
217800.000			-20.370			-3.395
217901.000			-20.369			-3.395
218000.000			-20.368			-3.395
218100.000			-20.369			-3.395
218201.000			-20.369			-3.395
218300.000			-20.368			-3.395
218401.000			-20.368			-3.395
218502.000			-20.369			-3.395
218601.000			-20.367			-3.395
218700.000			-20.367			-3.394
218801.000			-20.368			-3.395
218900.000			-20.367			-3.395
219000.000			-20.367			-3.394
219101.000			-20.367			-3.394
219200.000			-20.367			-3.394
219301.000			-20.367			-3.394
219402.000			-20.365			-3.394
219501.000			-20.365			-3.394
219600.000			-20.366			-3.394
219701.000			-20.365			-3.394
219800.000			-20.365			-3.394
219900.000			-20.365			-3.394
220001.000			-20.366			-3.394
220100.000			-20.365			-3.394
220201.000			-20.365			-3.394
220302.000			-20.364			-3.394
220401.000			-20.363			-3.394
220500.000			-20.362			-3.394
220600.000			-20.364			-3.394
220700.000			-20.364			-3.394
220801.000			-20.362			-3.394
220900.000			-20.363			-3.394
221000.000			-20.362			-3.394
221102.000			-20.363			-3.394
221201.000			-20.362			-3.394
221301.000			-20.362			-3.394
221401.000			-20.362			-3.394
221500.000			-20.362			-3.394
221600.000			-20.362			-3.394
221701.000			-20.362			-3.394
221800.000			-20.361			-3.394
221900.000			-20.361			-3.393
222002.000			-20.361			-3.393
222101.000			-20.361			-3.394
222200.000			-20.362			-3.394
222301.000			-20.361			-3.393
222400.000			-20.360			-3.393
222500.000			-20.360			-3.393
222601.000			-20.361			-3.393
222700.000			-20.360			-3.393
222800.000			-20.359			-3.393
222902.000			-20.359			-3.393
223001.000			-20.359			-3.393
223100.000			-20.359			-3.393
223201.000			-20.360			-3.393
223300.000			-20.359			-3.393
223400.000			-20.358			-3.393
223501.000			-20.358			-3.393
223600.000			-20.358			-3.393
223700.000			-20.358			-3.393
223802.000			-20.357			-3.393
223901.000			-20.357			-3.393
224002.000			-20.357			-3.393
224100.000			-20.357			-3.393
224200.000			-20.357			-3.393
224301.000			-20.356			-3.393
224400.000			-20.356			-3.393
224500.000			-20.355			-3.393
224601.000			-20.355			-3.393
224701.000			-20.356			-3.393
224801.000			-20.355			-3.393
224901.000			-20.355			-3.393
225000.000			-20.354			-3.392
225100.000			-20.354			-3.392
225201.000			-20.354			-3.392
225300.000			-20.354			-3.392
225400.000			-20.354			-3.392
225501.000			-20.353			-3.392
225601.000			-20.354			-3.392
225701.000			-20.354			-3.392
225801.000			-20.354			-3.392
225900.000			-20.353			-3.392
226000.000			-20.352			-3.392
226101.000			-20.352			-3.392
226200.000			-20.352			-3.392
226300.000			-20.353			-3.392
226401.000			-20.352			-3.392
226501.000			-20.353			-3.392
226601.000			-20.353			-3.392
226701.000			-20.352			-3.392
226800.000			-20.352			-3.392
226900.000			-20.352			-3.392
227000.000			-20.351			-3.392
227100.000			-20.351			-3.392
227201.000			-20.352			-3.392
227300.000			-20.351			-3.392
227401.000			-20.351			-3.392
227502.000			-20.351			-3.392
227601.000			-20.351			-3.392
227700.000			-20.350			-3.392
227801.000			-20.349			-3.392
227900.000			-20.349			-3.392
228000.000			-20.349			-3.391
228101.000			-20.349			-3.392
228200.000			-20.350			-3.392
228301.000			-20.349			-3.391
228402.000			-20.348			-3.391
228501.000			-20.348			-3.391
228600.000			-20.348			-3.391
228701.000			-20.349			-3.392
228800.000			-20.348			-3.391
228900.000			-20.348			-3.391
229001.000			-20.347			-3.391
229100.000			-20.347			-3.391
229200.000			-20.347			-3.391
229302.000			-20.347			-3.391
229401.000			-20.347			-3.391
229500.000			-20.347			-3.391
229601.000			-20.347			-3.391
229700.000			-20.346			-3.391
229800.000			-20.346			-3.391
229901.000			-20.345			-3.391
230000.000			-20.345			-3.391
230100.000			-20.345			-3.391
230202.000			-20.344			-3.391
230301.000			-20.345			-3.391
230401.000			-20.344			-3.391
230500.000			-20.344			-3.391
230600.000			-20.343			-3.391
230701.000			-20.344			-3.391
230800.000			-20.344			-3.391
230900.000			-20.344			-3.391
231001.000			-20.344			-3.391
231101.000			-20.344			-3.391
231201.000			-20.344			-3.391
231301.000			-20.343			-3.390
231400.000			-20.343			-3.390
231500.000			-20.342			-3.390
231601.000			-20.342			-3.390
231700.000			-20.342			-3.390
231800.000			-20.342			-3.390
231902.000			-20.342			-3.390
232001.000			-20.343			-3.390
232100.000			-20.342			-3.390
232201.000			-20.341			-3.390
232300.000			-20.341			-3.390
232400.000			-20.341			-3.390
232501.000			-20.341			-3.390
232600.000			-20.340			-3.390
232700.000			-20.341			-3.390
232802.000			-20.340			-3.390
232901.000			-20.340			-3.390
233000.000			-20.339			-3.390
233101.000			-20.339			-3.390
233200.000			-20.339			-3.390
233300.000			-20.339			-3.390
233400.000			-20.340			-3.390
233500.000			-20.339			-3.390
233601.000			-20.339			-3.390
233701.000			-20.339			-3.390
233801.000			-20.339			-3.390
233901.000			-20.338			-3.390
234000.000			-20.337			-3.390
234100.000			-20.336			-3.389
234201.000			-20.337			-3.390
234300.000			-20.338			-3.390
234400.000			-20.337			-3.389
234501.000			-20.337			-3.390
234601.000			-20.337			-3.389
234701.000			-20.336			-3.389
234801.000			-20.336			-3.389
234900.000			-20.336			-3.389
235000.000			-20.336			-3.389
235101.000			-20.336			-3.389
235200.000			-20.335			-3.389
235300.000			-20.335			-3.389
235401.000			-20.334			-3.389
235501.000			-20.335			-3.389
235601.000			-20.335			-3.389
235701.000			-20.334			-3.389
235800.000			-20.334			-3.389
235900.000			-20.334			-3.389
236001.000			-20.334			-3.389
236100.000			-20.334			-3.389
236200.000			-20.334			-3.389
236301.000			-20.334			-3.389
236401.000			-20.334			-3.389
236502.000			-20.334			-3.389
236600.000			-20.333			-3.389
236700.000			-20.333			-3.389
236801.000			-20.332			-3.389
236900.000			-20.332			-3.389
237000.000			-20.332			-3.389
237101.000			-20.333			-3.389
237200.000			-20.332			-3.389
237301.000			-20.331			-3.388
237402.000			-20.331			-3.388
237500.000			-20.331			-3.389
237600.000			-20.332			-3.389
237701.000			-20.331			-3.389
237800.000			-20.330			-3.388
237900.000			-20.330			-3.388
238001.000			-20.330			-3.388
238101.000			-20.330			-3.388
238201.000			-20.330			-3.388
238302.000			-20.330			-3.388
238400.000			-20.329			-3.388
238500.000			-20.329			-3.388
238601.000			-20.330			-3.388
238700.000			-20.330			-3.388
238800.000			-20.329			-3.388
238901.000			-20.329			-3.388
239000.000			-20.329			-3.388
239101.000			-20.329			-3.388
239202.000			-20.328			-3.388
239300.000			-20.330			-3.388
239400.000			-20.328			-3.388
239501.000			-20.328			-3.388
239600.000			-20.328			-3.388
239700.000			-20.326			-3.388
239800.000			-20.326			-3.388
239900.000			-20.326			-3.388
240002.000			-20.327			-3.388
240101.000			-20.327			-3.388
240201.000			-20.327			-3.388
240301.000			-20.326			-3.388
240400.000			-20.326			-3.388
240500.000			-20.326			-3.388
240601.000			-20.326			-3.388
240700.000			-20.326			-3.388
240800.000			-20.326			-3.388
240902.000			-20.325			-3.387
241001.000			-20.325			-3.388
241100.000			-20.325			-3.387
241201.000			-20.324			-3.387
241300.000			-20.325			-3.387
241400.000			-20.325			-3.387
241501.000			-20.324			-3.387
241600.000			-20.325			-3.387
241700.000			-20.324			-3.387
241802.000			-20.323			-3.387
241901.000			-20.323			-3.387
242000.000			-20.323			-3.387
242101.000			-20.323			-3.387
242200.000			-20.323			-3.387
242300.000			-20.322			-3.387
242401.000			-20.322			-3.387
242500.000			-20.322			-3.387
242600.000			-20.321			-3.387
242702.000			-20.321			-3.387
242801.000			-20.322			-3.387
242900.000			-20.322			-3.387
243000.000			-20.321			-3.387
243100.000			-20.321			-3.387
243201.000			-20.321			-3.387
243300.000			-20.321			-3.387
243400.000			-20.321			-3.387
243502.000			-20.320			-3.387
243601.000			-20.320			-3.387
243701.000			-20.319			-3.387
243801.000			-20.320			-3.387
243900.000			-20.320			-3.387
244000.000			-20.320			-3.387
244101.000			-20.320			-3.387
244200.000			-20.320			-3.387
244300.000			-20.319			-3.386
244402.000			-20.320			-3.387
244501.000			-20.319			-3.387
244601.000			-20.318			-3.386
244701.000			-20.317			-3.386
244800.000			-20.317			-3.386
244900.000			-20.318			-3.386
245001.000			-20.317			-3.386
245100.000			-20.318			-3.386
245200.000			-20.318			-3.386
245301.000			-20.318			-3.386
245401.000			-20.317			-3.386
245501.000			-20.317			-3.386
245601.000			-20.318			-3.386
245700.000			-20.317			-3.386
245800.000			-20.316			-3.386
245901.000			-20.315			-3.386
246000.000			-20.315			-3.386
246100.000			-20.315			-3.386
246200.000			-20.315			-3.386
246301.000			-20.315			-3.386
246402.000			-20.315			-3.386
246500.000			-20.314			-3.386
246600.000			-20.315			-3.386
246701.000			-20.315			-3.386
246800.000			-20.314			-3.386
246900.000			-20.314			-3.386
247001.000			-20.314			-3.386
247100.000			-20.313			-3.385
247201.000			-20.313			-3.386
247302.000			-20.312			-3.385
247400.000			-20.313			-3.385
247500.000			-20.314			-3.386
247601.000			-20.313			-3.386
247700.000			-20.312			-3.385
247800.000			-20.313			-3.385
247901.000			-20.311			-3.385
248000.000			-20.310			-3.385
248101.000			-20.311			-3.385
248202.000			-20.311			-3.385
248300.000			-20.312			-3.385
248400.000			-20.311			-3.385
248501.000			-20.310			-3.385
248600.000			-20.311			-3.385
248700.000			-20.310			-3.385
248801.000			-20.309			-3.385
248901.000			-20.309			-3.385
249001.000			-20.309			-3.385
249102.000			-20.310			-3.385
249200.000			-20.309			-3.385
249300.000			-20.309			-3.385
249400.000			-20.310			-3.385
249500.000			-20.309			-3.385
249601.000			-20.309			-3.385
249700.000			-20.309			-3.385
249800.000			-20.309			-3.385
249902.000			-20.309			-3.385
250001.000			-20.309			-3.385
250100.000			-20.308			-3.385
250201.000			-20.308			-3.385
250300.000			-20.308			-3.385
250400.000			-20.308			-3.385
250501.000			-20.308			-3.385
250600.000			-20.306			-3.384
250700.000			-20.306			-3.384
250802.000			-20.306			-3.384
250901.000			-20.306			-3.384
251000.000			-20.305			-3.384
251101.000			-20.305			-3.384
251200.000			-20.305			-3.384
251300.000			-20.305			-3.384
251401.000			-20.305			-3.384
251500.000			-20.305			-3.384
251600.000			-20.306			-3.384
251702.000			-20.304			-3.384
251801.000			-20.304			-3.384
251900.000			-20.306			-3.384
252001.000			-20.305			-3.384
252100.000			-20.305			-3.384
252200.000			-20.304			-3.384
252301.000			-20.304			-3.384
252400.000			-20.304			-3.384
252500.000			-20.304			-3.384
252602.000			-20.304			-3.384
252701.000			-20.303			-3.384
252801.000			-20.303			-3.384
252900.000			-20.303			-3.384
253000.000			-20.303			-3.384
253101.000			-20.303			-3.384
253200.000			-20.303			-3.384
253300.000			-20.303			-3.384
253402.000			-20.302			-3.384
253501.000			-20.302			-3.384
253601.000			-20.302			-3.384
253701.000			-20.303			-3.384
253800.000			-20.302			-3.384
253900.000			-20.302			-3.384
254001.000			-20.301			-3.384
254100.000			-20.301			-3.384
254200.000			-20.301			-3.383
254302.000			-20.301			-3.383
254401.000			-20.301			-3.383
254500.000			-20.300			-3.383
254601.000			-20.300			-3.383
254700.000			-20.300			-3.383
254800.000			-20.299			-3.383
254901.000			-20.300			-3.383
255000.000			-20.300			-3.383
255100.000			-20.300			-3.383
255202.000			-20.299			-3.383
255301.000			-20.299			-3.383
255401.000			-20.298			-3.383
255501.000			-20.298			-3.383
255600.000			-20.299			-3.383
255700.000			-20.299			-3.383
255800.000			-20.299			-3.383
255900.000			-20.298			-3.383
256001.000			-20.298			-3.383
256100.000			-20.298			-3.383
256201.000			-20.298			-3.383
256302.000			-20.297			-3.383
256400.000			-20.296			-3.383
256500.000			-20.296			-3.383
256601.000			-20.298			-3.383
256700.000			-20.297			-3.383
256800.000			-20.296			-3.383
256901.000			-20.296			-3.383
257000.000			-20.296			-3.383
257101.000			-20.296			-3.383
257202.000			-20.296			-3.383
257300.000			-20.296			-3.383
257400.000			-20.296			-3.383
257501.000			-20.296			-3.383
257600.000			-20.295			-3.382
257700.000			-20.296			-3.383
257801.000			-20.295			-3.383
257900.000			-20.295			-3.383
258001.000			-20.295			-3.382
258102.000			-20.294			-3.382
258201.000			-20.294			-3.382
258300.000			-20.293			-3.382
258401.000			-20.293			-3.382
258500.000			-20.294			-3.382
258600.000			-20.293			-3.382
258701.000			-20.294			-3.382
258800.000			-20.293			-3.382
258900.000			-20.293			-3.382
259002.000			-20.294			-3.382
259101.000			-20.293			-3.382
259201.000			-20.293			-3.382
259300.000			-20.292			-3.382
259400.000			-20.291			-3.382
259501.000			-20.292			-3.382
259600.000			-20.292			-3.382
259700.000			-20.291			-3.382
259801.000			-20.292			-3.382
259901.000			-20.292			-3.382
260001.000			-20.291			-3.382
260101.000			-20.292			-3.382
260200.000			-20.291			-3.382
260300.000			-20.291			-3.382
260401.000			-20.291			-3.382
260500.000			-20.291			-3.382
260600.000			-20.291			-3.382
260701.000			-20.290			-3.382
260801.000			-20.290			-3.382
260901.000			-20.290			-3.382
261001.000			-20.289			-3.381
261100.000			-20.289			-3.382
261200.000			-20.289			-3.382
261301.000			-20.289			-3.382
261400.000			-20.289			-3.381
261500.000			-20.289			-3.381
261601.000			-20.288			-3.381
261701.000			-20.288			-3.381
261801.000			-20.288			-3.381
261901.000			-20.288			-3.381
262000.000			-20.287			-3.381
262100.000			-20.286			-3.381
262200.000			-20.287			-3.381
262300.000			-20.288			-3.381
262401.000			-20.287			-3.381
262500.000			-20.287			-3.381
262601.000			-20.286			-3.381
262702.000			-20.287			-3.381
262801.000			-20.287			-3.381
262900.000			-20.286			-3.381
263001.000			-20.285			-3.381
263100.000			-20.286			-3.381
263200.000			-20.286			-3.381
263301.000			-20.286			-3.381
263400.000			-20.284			-3.381
263501.000			-20.284			-3.381
263602.000			-20.285			-3.381
263701.000			-20.284			-3.381
263800.000			-20.284			-3.381
263901.000			-20.285			-3.381
264000.000			-20.284			-3.381
264100.000			-20.283			-3.381
264201.000			-20.283			-3.381
264300.000			-20.284			-3.381
264400.000			-20.284			-3.381
264502.000			-20.284			-3.381
264601.000			-20.284			-3.381
264700.000			-20.282			-3.380
264801.000			-20.282			-3.380
264900.000			-20.282			-3.380
265000.000			-20.282			-3.380
265101.000			-20.282			-3.380
265200.000			-20.281			-3.380
265300.000			-20.282			-3.380
265402.000			-20.282			-3.380
265501.000			-20.282			-3.380
265601.000			-20.282			-3.380
265700.000			-20.281			-3.380
265800.000			-20.280			-3.380
265901.000			-20.280			-3.380
266000.000			-20.281			-3.380
266100.000			-20.282			-3.380
266201.000			-20.281			-3.380
266301.000			-20.280			-3.380
266401.000			-20.281			-3.380
266501.000			-20.279			-3.380
266600.000			-20.279			-3.380
266700.000			-20.281			-3.380
266801.000			-20.279			-3.380
266900.000			-20.278			-3.380
267000.000			-20.279			-3.380
267101.000			-20.279			-3.380
267201.000			-20.278			-3.380
267301.000			-20.278			-3.380
267402.000			-20.277			-3.380
267500.000			-20.278			-3.380
267600.000			-20.277			-3.380
267701.000			-20.278			-3.380
267800.000			-20.278			-3.380
267900.000			-20.278			-3.380
268001.000			-20.278			-3.380
268101.000			-20.278			-3.380
268201.000			-20.278			-3.380
268302.000			-20.278			-3.380
268400.000			-20.277			-3.380
268500.000			-20.277			-3.379
268600.000			-20.277			-3.380
268700.000			-20.276			-3.379
268801.000			-20.276			-3.379
268900.000			-20.276			-3.379
269000.000			-20.276			-3.379
269102.000			-20.276			-3.379
269201.000			-20.275			-3.379
269301.000			-20.275			-3.379
269401.000			-20.275			-3.379
269500.000			-20.274			-3.379
269600.000			-20.275			-3.379
269701.000			-20.275			-3.379
269800.000			-20.275			-3.379
269900.000			-20.275			-3.379
270001.000			-20.274			-3.379
270101.000			-20.274			-3.379
270201.000			-20.273			-3.379
270301.000			-20.274			-3.379
270400.000			-20.273			-3.379
270500.000			-20.274			-3.379
270601.000			-20.273			-3.379
270700.000			-20.273			-3.379
270800.000			-20.273			-3.379
270902.000			-20.273			-3.379
271001.000			-20.272			-3.379
271101.000			-20.272			-3.379
271201.000			-20.271			-3.379
271300.000			-20.271			-3.378
271400.000			-20.271			-3.379
271501.000			-20.272			-3.379
271600.000			-20.272			-3.379
271700.000			-20.271			-3.378
271802.000			-20.271			-3.379
271901.000			-20.271			-3.379
272002.000			-20.272			-3.379
272100.000			-20.271			-3.379
272200.000			-20.270			-3.378
272301.000			-20.270			-3.378
272400.000			-20.270			-3.378
272500.000			-20.270			-3.378
272601.000			-20.269			-3.378
272701.000			-20.269			-3.378
272801.000			-20.269			-3.378
272902.000			-20.268			-3.378
273000.000			-20.268			-3.378
273100.000			-20.268			-3.378
273201.000			-20.268			-3.378
273300.000			-20.268			-3.378
273400.000			-20.269			-3.378
273501.000			-20.270			-3.378
273601.000			-20.269			-3.378
273701.000			-20.268			-3.378
273802.000			-20.268			-3.378
273900.000			-20.267			-3.378
274000.000			-20.268			-3.378
274101.000			-20.268			-3.378
274200.000			-20.268			-3.378
274300.000			-20.268			-3.378
274401.000			-20.267			-3.378
274500.000			-20.266			-3.378
274601.000			-20.266			-3.378
274702.000			-20.267			-3.378
274801.000			-20.266			-3.378
274900.000			-20.265			-3.378
275000.000			-20.265			-3.378
275100.000			-20.265			-3.378
275201.000			-20.266			-3.378
275300.000			-20.266			-3.378
275400.000			-20.266			-3.378
275502.000			-20.265			-3.377
275601.000			-20.265			-3.378
275701.000			-20.265			-3.377
275801.000			-20.264			-3.377
275900.000			-20.265			-3.378
276000.000			-20.263			-3.377
276101.000			-20.265			-3.377
276200.000			-20.265			-3.377
276300.000			-20.264			-3.377
276402.000			-20.264			-3.377
276501.000			-20.263			-3.377
276601.000			-20.263			-3.377
276701.000			-20.263			-3.377
276800.000			-20.263			-3.377
276900.000			-20.263			-3.377
277001.000			-20.262			-3.377
277100.000			-20.261			-3.377
277200.000			-20.262			-3.377
277301.000			-20.262			-3.377
277401.000			-20.262			-3.377
277501.000			-20.262			-3.377
277601.000			-20.263			-3.377
277700.000			-20.262			-3.377
277800.000			-20.261			-3.377
277901.000			-20.260			-3.377
278000.000			-20.260			-3.377
278100.000			-20.260			-3.377
278200.000			-20.260			-3.377
278301.000			-20.261			-3.377
278402.000			-20.260			-3.377
278500.000			-20.260			-3.377
278600.000			-20.260			-3.377
278701.000			-20.260			-3.377
278800.000			-20.259			-3.377
278900.000			-20.260			-3.377
279001.000			-20.260			-3.377
279100.000			-20.260			-3.377
279200.000			-20.259			-3.376
279302.000			-20.258			-3.376
279401.000			-20.257			-3.376
279500.000			-20.259			-3.377
279601.000			-20.259			-3.376
279700.000			-20.258			-3.376
279800.000			-20.259			-3.376
279901.000			-20.258			-3.376
280000.000			-20.258			-3.376
280100.000			-20.258			-3.376
280202.000			-20.257			-3.376
280301.000			-20.258			-3.376
280400.000			-20.258			-3.376
280501.000			-20.256			-3.376
280600.000			-20.256			-3.376
280700.000			-20.257			-3.376
280801.000			-20.257			-3.376
280900.000			-20.256			-3.376
281000.000			-20.257			-3.376
281102.000			-20.257			-3.376
281201.000			-20.256			-3.376
281300.000			-20.256			-3.376
281400.000			-20.256			-3.376
281500.000			-20.256			-3.376
281601.000			-20.255			-3.376
281700.000			-20.255			-3.376
281800.000			-20.255			-3.376
281901.000			-20.255			-3.376
282001.000			-20.255			-3.376
282101.000			-20.254			-3.376
282201.000			-20.256			-3.376
282300.000			-20.255			-3.376
282400.000			-20.255			-3.376
282501.000			-20.253			-3.376
282600.000			-20.254			-3.376
282700.000			-20.254			-3.376
282801.000			-20.253			-3.376
282901.000			-20.252			-3.375
283001.000			-20.252			-3.375
283101.000			-20.252			-3.375
283200.000			-20.252			-3.375
283300.000			-20.252			-3.375
283401.000			-20.253			-3.375
283500.000			-20.253			-3.375
283600.000			-20.252			-3.375
283701.000			-20.252			-3.375
283801.000			-20.252			-3.375
283901.000			-20.252			-3.375
284001.000			-20.252			-3.375
284100.000			-20.251			-3.375
284200.000			-20.250			-3.375
284301.000			-20.250			-3.375
284400.000			-20.251			-3.375
284500.000			-20.251			-3.375
284600.000			-20.250			-3.375
284701.000			-20.251			-3.375
284802.000			-20.250			-3.375
284900.000			-20.249			-3.375
285000.000			-20.250			-3.375
285101.000			-20.250			-3.375
285200.000			-20.250			-3.375
285300.000			-20.250			-3.375
285401.000			-20.250			-3.375
285500.000			-20.250			-3.375
285601.000			-20.249			-3.375
285702.000			-20.249			-3.375
285800.000			-20.249			-3.375
285900.000			-20.248			-3.375
286001.000			-20.248			-3.375
286100.000			-20.248			-3.375
286200.000			-20.248			-3.375
286301.000			-20.248			-3.375
286400.000			-20.248			-3.375
286501.000			-20.247			-3.375
286602.000			-20.248			-3.375
286701.000			-20.248			-3.375
286800.000			-20.246			-3.374
286901.000			-20.246			-3.374
287000.000			-20.247			-3.374
287100.000			-20.246			-3.374
287201.000			-20.246			-3.374
287300.000			-20.246			-3.374
287400.000			-20.246			-3.374
287502.000			-20.246			-3.374
287601.000			-20.246			-3.374
287700.000			-20.246			-3.374
287800.000			-20.245			-3.374
287900.000			-20.245			-3.374
288001.000			-20.245			-3.374
288100.000			-20.245			-3.374
288200.000			-20.244			-3.374
288301.000			-20.244			-3.374
288401.000			-20.245			-3.374
288501.000			-20.244			-3.374
288601.000			-20.244			-3.374
288700.000			-20.244			-3.374
288800.000			-20.244			-3.374
288901.000			-20.244			-3.374
289000.000			-20.244			-3.374
289100.000			-20.243			-3.374
289201.000			-20.244			-3.374
289301.000			-20.244			-3.374
289401.000			-20.243			-3.374
289501.000			-20.243			-3.374
289600.000			-20.243			-3.374
289700.000			-20.244			-3.374
289801.000			-20.243			-3.374
289900.000			-20.243			-3.374
290000.000			-20.242			-3.374
290101.000			-20.242			-3.374
290201.000			-20.242			-3.374
290301.000			-20.241			-3.373
290401.000			-20.241			-3.373
290500.000			-20.241			-3.374
290600.000			-20.241			-3.373
290701.000			-20.241			-3.374
290800.000			-20.241			-3.373
290900.000			-20.241			-3.374
291000.000			-20.241			-3.374
291101.000			-20.240			-3.373
291202.000			-20.239			-3.373
291300.000			-20.241			-3.373
291400.000			-20.240			-3.373
291501.000			-20.240			-3.373
291600.000			-20.240			-3.373
291700.000			-20.239			-3.373
291801.000			-20.238			-3.373
291900.000			-20.239			-3.373
292001.000			-20.239			-3.373
292102.000			-20.239			-3.373
292201.000			-20.238			-3.373
292300.000			-20.239			-3.373
292401.000			-20.238			-3.373
292500.000			-20.238			-3.373
292600.000			-20.238			-3.373
292701.000			-20.238			-3.373
292800.000			-20.237			-3.373
292901.000			-20.237			-3.373
293002.000			-20.238			-3.373
293101.000			-20.238			-3.373
293200.000			-20.237			-3.373
293301.000			-20.238			-3.373
293400.000			-20.237			-3.373
293500.000			-20.237			-3.373
293601.000			-20.236			-3.373
293700.000			-20.236			-3.373
293800.000			-20.235			-3.373
293902.000			-20.235			-3.373
294001.000			-20.235			-3.373
294100.000			-20.235			-3.373
294200.000			-20.237			-3.373
294300.000			-20.237			-3.373
294401.000			-20.236			-3.373
294500.000			-20.235			-3.373
294600.000			-20.235			-3.372
294701.000			-20.235			-3.373
294801.000			-20.236			-3.373
294901.000			-20.235			-3.373
295001.000			-20.236			-3.373
295100.000			-20.235			-3.372
295200.000			-20.235			-3.372
295301.000			-20.234			-3.372
295400.000			-20.235			-3.372
295500.000			-20.234			-3.372
295601.000			-20.233			-3.372
295701.000			-20.233			-3.372
295801.000			-20.233			-3.372
295901.000			-20.233			-3.372
296000.000			-20.233			-3.372
296100.000			-20.232			-3.372
296201.000			-20.233			-3.372
296300.000			-20.232			-3.372
296400.000			-20.233			-3.372
296501.000			-20.232			-3.372
296601.000			-20.232			-3.372
296701.000			-20.231			-3.372
296801.000			-20.231			-3.372
296900.000			-20.231			-3.372
297000.000			-20.231			-3.372
297101.000			-20.232			-3.372
297200.000			-20.232			-3.372
297300.000			-20.231			-3.372
297400.000			-20.230			-3.372
297501.000			-20.231			-3.372
297602.000			-20.232			-3.372
297700.000			-20.231			-3.372
297800.000			-20.231			-3.372
297901.000			-20.230			-3.372
298000.000			-20.230			-3.372
298100.000			-20.230			-3.372
298201.000			-20.230			-3.372
298300.000			-20.229			-3.372
298401.000			-20.229			-3.371
298502.000			-20.230			-3.372
298601.000			-20.229			-3.372
298700.000			-20.229			-3.371
298801.000			-20.229			-3.372
298900.000			-20.230			-3.372
299000.000			-20.229			-3.372
299101.000			-20.229			-3.372
299200.000			-20.229			-3.372
299300.000			-20.228			-3.371
299402.000			-20.228			-3.371
299501.000			-20.229			-3.371
299600.000			-20.228			-3.371
299701.000			-20.227			-3.371
299800.000			-20.227			-3.371
299900.000			-20.228			-3.371
