# Acquired on 26/01/2024 12:30:42 
# SPIDER: Creep_-4mm_HM077x145x38AB-2
# CREEP MEASUREMENT

# time [ms]		force [N]		stiffness [N/mm]
0.000			13.827			-3.457
105.000			14.486			-3.622
204.000			14.687			-3.672
305.000			14.674			-3.668
404.000			14.609			-3.652
504.000			14.584			-3.646
605.000			14.562			-3.640
704.000			14.542			-3.636
803.000			14.525			-3.631
905.000			14.508			-3.627
1004.000			14.494			-3.623
1104.000			14.480			-3.620
1205.000			14.455			-3.614
1303.000			14.444			-3.611
1404.000			14.432			-3.608
1505.000			14.422			-3.605
1604.000			14.412			-3.603
1704.000			14.402			-3.600
1805.000			14.393			-3.598
1904.000			14.378			-3.595
2003.000			14.369			-3.592
2105.000			14.360			-3.590
2204.000			14.354			-3.589
2304.000			14.348			-3.587
2405.000			14.341			-3.585
2503.000			14.334			-3.583
2605.000			14.321			-3.580
2704.000			14.315			-3.579
2804.000			14.308			-3.577
2905.000			14.302			-3.576
3004.000			14.297			-3.574
3104.000			14.290			-3.573
3205.000			14.285			-3.571
3304.000			14.280			-3.570
3404.000			14.271			-3.568
3505.000			14.265			-3.566
3604.000			14.259			-3.565
3703.000			14.254			-3.564
3805.000			14.250			-3.563
3904.000			14.246			-3.562
4004.000			14.243			-3.561
4105.000			14.233			-3.558
4204.000			14.228			-3.557
4304.000			14.224			-3.556
4404.000			14.220			-3.555
4504.000			14.216			-3.554
4604.000			14.212			-3.553
4705.000			14.209			-3.552
4804.000			14.201			-3.550
4903.000			14.198			-3.550
5005.000			14.194			-3.549
5104.000			14.190			-3.548
5204.000			14.186			-3.546
5305.000			14.182			-3.545
5404.000			14.180			-3.545
5504.000			14.173			-3.543
5604.000			14.170			-3.543
5704.000			14.166			-3.542
5805.000			14.163			-3.541
5904.000			14.159			-3.540
6004.000			14.156			-3.539
6104.000			14.154			-3.538
6204.000			14.151			-3.538
6304.000			14.145			-3.536
6405.000			14.142			-3.535
6504.000			14.139			-3.535
6604.000			14.136			-3.534
6705.000			14.133			-3.533
6803.000			14.132			-3.533
6904.000			14.128			-3.532
7005.000			14.122			-3.530
7104.000			14.120			-3.530
7204.000			14.119			-3.530
7304.000			14.117			-3.529
7404.000			14.114			-3.528
7504.000			14.110			-3.527
7605.000			14.107			-3.527
7704.000			14.103			-3.526
7804.000			14.100			-3.525
7905.000			14.097			-3.524
8003.000			14.095			-3.524
8104.000			14.093			-3.523
8205.000			14.091			-3.523
8304.000			14.089			-3.522
8404.000			14.087			-3.522
8504.000			14.082			-3.520
8604.000			14.079			-3.520
8704.000			14.078			-3.519
8805.000			14.076			-3.519
8904.000			14.074			-3.518
9005.000			14.071			-3.518
9104.000			14.069			-3.517
9203.000			14.064			-3.516
9305.000			14.061			-3.515
9404.000			14.060			-3.515
9504.000			14.058			-3.515
9605.000			14.056			-3.514
9704.000			14.054			-3.514
9804.000			14.052			-3.513
9904.000			14.048			-3.512
10004.000			14.046			-3.512
10104.000			14.044			-3.511
10205.000			14.042			-3.510
10304.000			14.039			-3.510
10403.000			14.038			-3.509
10505.000			14.036			-3.509
10604.000			14.032			-3.508
10704.000			14.030			-3.507
10805.000			14.029			-3.507
10904.000			14.027			-3.507
11004.000			14.024			-3.506
11104.000			14.022			-3.506
11204.000			14.021			-3.505
11304.000			14.019			-3.505
11405.000			14.015			-3.504
11504.000			14.014			-3.503
11603.000			14.013			-3.503
11705.000			14.011			-3.503
11804.000			14.007			-3.502
11904.000			14.006			-3.501
12005.000			14.006			-3.501
12104.000			14.001			-3.500
12205.000			13.999			-3.500
12303.000			13.998			-3.499
12404.000			13.996			-3.499
12505.000			13.994			-3.498
12604.000			13.992			-3.498
12704.000			13.990			-3.497
12805.000			13.988			-3.497
12904.000			13.986			-3.496
13003.000			13.984			-3.496
13105.000			13.984			-3.496
13204.000			13.983			-3.496
13304.000			13.980			-3.495
13405.000			13.979			-3.495
13504.000			13.978			-3.494
13604.000			13.973			-3.493
13704.000			13.972			-3.493
13804.000			13.970			-3.493
13904.000			13.969			-3.492
14005.000			13.968			-3.492
14104.000			13.967			-3.492
14204.000			13.966			-3.491
14305.000			13.962			-3.490
14403.000			13.961			-3.490
14504.000			13.959			-3.490
14605.000			13.956			-3.489
14704.000			13.955			-3.489
14804.000			13.954			-3.488
14905.000			13.952			-3.488
15004.000			13.949			-3.487
15103.000			13.947			-3.487
15205.000			13.946			-3.487
15304.000			13.945			-3.486
15405.000			13.944			-3.486
15504.000			13.943			-3.486
15604.000			13.940			-3.485
15705.000			13.939			-3.485
15803.000			13.937			-3.484
15904.000			13.935			-3.484
16005.000			13.933			-3.483
16104.000			13.931			-3.483
16204.000			13.930			-3.483
16304.000			13.930			-3.482
16404.000			13.928			-3.482
16503.000			13.925			-3.481
16605.000			13.925			-3.481
16704.000			13.924			-3.481
16804.000			13.921			-3.480
16905.000			13.920			-3.480
17004.000			13.918			-3.480
17104.000			13.917			-3.479
17204.000			13.916			-3.479
17304.000			13.914			-3.478
17404.000			13.912			-3.478
17505.000			13.911			-3.478
17604.000			13.909			-3.477
17703.000			13.908			-3.477
17805.000			13.908			-3.477
17904.000			13.907			-3.477
18004.000			13.903			-3.476
18105.000			13.902			-3.476
18204.000			13.901			-3.475
18304.000			13.901			-3.475
18404.000			13.899			-3.475
18504.000			13.897			-3.474
18605.000			13.895			-3.474
18704.000			13.895			-3.474
18804.000			13.892			-3.473
18905.000			13.891			-3.473
19004.000			13.891			-3.473
19103.000			13.890			-3.472
19205.000			13.888			-3.472
19304.000			13.886			-3.472
19404.000			13.884			-3.471
19505.000			13.884			-3.471
19604.000			13.883			-3.471
19704.000			13.881			-3.470
19804.000			13.880			-3.470
19904.000			13.878			-3.470
20004.000			13.877			-3.469
20105.000			13.875			-3.469
20204.000			13.874			-3.469
20304.000			13.874			-3.468
20405.000			13.872			-3.468
20503.000			13.870			-3.468
20604.000			13.869			-3.467
20705.000			13.869			-3.467
20804.000			13.868			-3.467
20904.000			13.865			-3.466
21005.000			13.864			-3.466
21104.000			13.864			-3.466
21203.000			13.863			-3.466
21305.000			13.862			-3.465
21404.000			13.861			-3.465
21504.000			13.860			-3.465
21605.000			13.858			-3.465
21704.000			13.856			-3.464
21805.000			13.856			-3.464
21903.000			13.854			-3.464
22004.000			13.852			-3.463
22105.000			13.852			-3.463
22204.000			13.852			-3.463
22304.000			13.848			-3.462
22405.000			13.849			-3.462
22504.000			13.849			-3.462
22603.000			13.847			-3.462
22705.000			13.846			-3.461
22804.000			13.845			-3.461
22904.000			13.843			-3.461
23005.000			13.842			-3.460
23103.000			13.841			-3.460
23204.000			13.839			-3.460
23305.000			13.838			-3.460
23404.000			13.838			-3.459
23504.000			13.837			-3.459
23605.000			13.837			-3.459
23704.000			13.836			-3.459
23803.000			13.834			-3.458
23905.000			13.833			-3.458
24004.000			13.830			-3.458
24104.000			13.831			-3.458
24205.000			13.831			-3.458
24304.000			13.830			-3.457
24404.000			13.828			-3.457
24504.000			13.827			-3.457
24604.000			13.826			-3.457
24704.000			13.825			-3.456
24805.000			13.824			-3.456
24904.000			13.822			-3.456
25005.000			13.822			-3.455
25104.000			13.820			-3.455
25203.000			13.820			-3.455
25305.000			13.818			-3.455
25404.000			13.817			-3.454
25504.000			13.816			-3.454
25605.000			13.816			-3.454
25703.000			13.815			-3.454
25804.000			13.814			-3.454
25905.000			13.814			-3.454
26004.000			13.811			-3.453
26104.000			13.810			-3.453
26205.000			13.809			-3.452
26304.000			13.809			-3.452
26403.000			13.808			-3.452
26505.000			13.807			-3.452
26604.000			13.805			-3.451
26704.000			13.804			-3.451
26805.000			13.803			-3.451
26904.000			13.802			-3.450
27004.000			13.802			-3.450
27104.000			13.802			-3.450
27204.000			13.799			-3.450
27304.000			13.799			-3.450
27405.000			13.797			-3.449
27504.000			13.797			-3.449
27604.000			13.795			-3.449
27705.000			13.794			-3.449
27803.000			13.794			-3.448
27904.000			13.794			-3.448
28005.000			13.793			-3.448
28104.000			13.792			-3.448
28205.000			13.791			-3.448
28304.000			13.789			-3.447
28404.000			13.788			-3.447
28504.000			13.788			-3.447
28604.000			13.787			-3.447
28704.000			13.787			-3.447
28805.000			13.785			-3.446
28904.000			13.785			-3.446
29004.000			13.784			-3.446
29105.000			13.783			-3.446
29203.000			13.782			-3.445
29304.000			13.781			-3.445
29405.000			13.780			-3.445
29504.000			13.781			-3.445
29604.000			13.778			-3.444
29705.000			13.776			-3.444
29804.000			13.775			-3.444
29903.000			13.774			-3.444
30005.000			13.775			-3.444
30104.000			13.774			-3.444
30204.000			13.773			-3.443
30305.000			13.772			-3.443
30404.000			13.770			-3.442
30504.000			13.770			-3.442
30604.000			13.770			-3.442
30704.000			13.768			-3.442
30804.000			13.768			-3.442
30905.000			13.767			-3.442
31004.000			13.767			-3.442
31103.000			13.766			-3.441
31205.000			13.764			-3.441
31304.000			13.763			-3.441
31405.000			13.764			-3.441
31504.000			13.762			-3.441
31604.000			13.761			-3.440
31705.000			13.761			-3.440
31803.000			13.760			-3.440
31904.000			13.758			-3.440
32005.000			13.757			-3.439
32104.000			13.757			-3.439
32204.000			13.756			-3.439
32305.000			13.756			-3.439
32404.000			13.755			-3.439
32503.000			13.754			-3.439
32605.000			13.753			-3.438
32704.000			13.752			-3.438
32804.000			13.751			-3.438
32905.000			13.750			-3.438
33004.000			13.750			-3.437
33104.000			13.749			-3.437
33204.000			13.748			-3.437
33304.000			13.748			-3.437
33404.000			13.747			-3.437
33505.000			13.746			-3.436
33604.000			13.744			-3.436
33704.000			13.744			-3.436
33805.000			13.744			-3.436
33903.000			13.743			-3.436
34004.000			13.742			-3.436
34105.000			13.741			-3.435
34204.000			13.741			-3.435
34304.000			13.740			-3.435
34404.000			13.740			-3.435
34504.000			13.739			-3.435
34603.000			13.739			-3.435
34704.000			13.737			-3.434
34804.000			13.736			-3.434
34905.000			13.736			-3.434
35004.000			13.734			-3.433
35104.000			13.734			-3.433
35205.000			13.734			-3.433
35304.000			13.733			-3.433
35404.000			13.730			-3.432
35505.000			13.729			-3.432
35604.000			13.729			-3.432
35704.000			13.729			-3.432
35804.000			13.728			-3.432
35904.000			13.728			-3.432
36004.000			13.727			-3.432
36105.000			13.727			-3.432
36204.000			13.725			-3.431
36304.000			13.725			-3.431
36405.000			13.724			-3.431
36503.000			13.723			-3.431
36604.000			13.722			-3.431
36705.000			13.722			-3.430
36804.000			13.721			-3.430
36904.000			13.721			-3.430
37005.000			13.720			-3.430
37104.000			13.719			-3.430
37203.000			13.719			-3.430
37305.000			13.718			-3.430
37404.000			13.718			-3.430
37504.000			13.717			-3.429
37605.000			13.716			-3.429
37704.000			13.714			-3.429
37805.000			13.714			-3.428
37903.000			13.714			-3.428
38004.000			13.714			-3.428
38105.000			13.713			-3.428
38204.000			13.711			-3.428
38304.000			13.710			-3.427
38404.000			13.709			-3.427
38504.000			13.709			-3.427
38603.000			13.709			-3.427
38705.000			13.709			-3.427
38804.000			13.708			-3.427
38904.000			13.708			-3.427
39005.000			13.708			-3.427
39103.000			13.706			-3.426
39204.000			13.705			-3.426
39305.000			13.704			-3.426
39404.000			13.704			-3.426
39504.000			13.702			-3.425
39605.000			13.701			-3.425
39704.000			13.702			-3.426
39803.000			13.700			-3.425
39905.000			13.700			-3.425
40004.000			13.699			-3.425
40104.000			13.699			-3.425
40205.000			13.698			-3.425
40304.000			13.698			-3.424
40404.000			13.698			-3.424
40504.000			13.696			-3.424
40604.000			13.695			-3.424
40704.000			13.694			-3.424
40805.000			13.694			-3.423
40904.000			13.694			-3.423
41005.000			13.693			-3.423
41104.000			13.692			-3.423
41203.000			13.692			-3.423
41305.000			13.691			-3.423
41404.000			13.689			-3.422
41504.000			13.689			-3.422
41605.000			13.690			-3.422
41704.000			13.689			-3.422
41804.000			13.688			-3.422
41904.000			13.687			-3.422
42004.000			13.686			-3.422
42104.000			13.686			-3.421
42205.000			13.686			-3.421
42304.000			13.685			-3.421
42404.000			13.684			-3.421
42505.000			13.683			-3.421
42603.000			13.682			-3.421
42704.000			13.683			-3.421
42805.000			13.682			-3.420
42904.000			13.681			-3.420
43004.000			13.680			-3.420
43104.000			13.679			-3.420
43204.000			13.679			-3.420
43303.000			13.679			-3.420
43405.000			13.678			-3.419
43504.000			13.677			-3.419
43604.000			13.676			-3.419
43705.000			13.677			-3.419
43804.000			13.676			-3.419
43904.000			13.674			-3.419
44004.000			13.674			-3.419
44104.000			13.674			-3.419
44205.000			13.673			-3.418
44304.000			13.672			-3.418
44404.000			13.672			-3.418
44505.000			13.670			-3.418
44604.000			13.669			-3.417
44703.000			13.670			-3.418
44805.000			13.669			-3.417
44904.000			13.669			-3.417
45004.000			13.668			-3.417
45105.000			13.667			-3.417
45204.000			13.667			-3.417
45304.000			13.666			-3.416
45404.000			13.665			-3.416
45504.000			13.664			-3.416
45604.000			13.665			-3.416
45705.000			13.664			-3.416
45804.000			13.663			-3.416
45903.000			13.662			-3.416
46005.000			13.662			-3.415
46104.000			13.661			-3.415
46204.000			13.661			-3.415
46305.000			13.662			-3.415
46404.000			13.659			-3.415
46504.000			13.659			-3.415
46604.000			13.659			-3.415
46704.000			13.658			-3.415
46804.000			13.657			-3.414
46905.000			13.658			-3.415
47004.000			13.657			-3.414
47104.000			13.656			-3.414
47205.000			13.655			-3.414
47303.000			13.655			-3.414
47405.000			13.654			-3.414
47504.000			13.654			-3.413
47604.000			13.654			-3.413
47705.000			13.652			-3.413
47804.000			13.652			-3.413
47904.000			13.652			-3.413
48004.000			13.651			-3.413
48104.000			13.650			-3.412
48204.000			13.649			-3.412
48305.000			13.649			-3.412
48404.000			13.649			-3.412
48504.000			13.649			-3.412
48605.000			13.647			-3.412
48703.000			13.647			-3.412
48804.000			13.647			-3.412
48905.000			13.645			-3.411
49004.000			13.645			-3.411
49104.000			13.646			-3.411
49205.000			13.645			-3.411
49304.000			13.644			-3.411
49403.000			13.644			-3.411
49505.000			13.643			-3.411
49604.000			13.641			-3.410
49704.000			13.640			-3.410
49805.000			13.641			-3.410
49904.000			13.641			-3.410
50004.000			13.639			-3.410
50104.000			13.639			-3.410
50204.000			13.640			-3.410
50304.000			13.639			-3.410
50405.000			13.637			-3.409
50504.000			13.636			-3.409
50605.000			13.637			-3.409
50704.000			13.636			-3.409
50803.000			13.634			-3.409
50905.000			13.634			-3.409
51004.000			13.634			-3.408
51104.000			13.633			-3.408
51205.000			13.633			-3.408
51303.000			13.633			-3.408
51404.000			13.633			-3.408
51505.000			13.631			-3.408
51604.000			13.631			-3.408
51704.000			13.631			-3.408
51805.000			13.631			-3.408
51904.000			13.630			-3.407
52003.000			13.630			-3.407
52105.000			13.629			-3.407
52204.000			13.629			-3.407
52304.000			13.628			-3.407
52405.000			13.627			-3.407
52504.000			13.626			-3.407
52604.000			13.626			-3.407
52704.000			13.626			-3.406
52804.000			13.625			-3.406
52904.000			13.625			-3.406
53005.000			13.624			-3.406
53104.000			13.623			-3.406
53203.000			13.623			-3.406
53305.000			13.623			-3.406
53404.000			13.623			-3.406
53504.000			13.622			-3.406
53605.000			13.621			-3.405
53704.000			13.620			-3.405
53805.000			13.620			-3.405
53903.000			13.619			-3.405
54004.000			13.619			-3.405
54105.000			13.619			-3.405
54204.000			13.618			-3.405
54304.000			13.618			-3.404
54405.000			13.617			-3.404
54504.000			13.616			-3.404
54603.000			13.616			-3.404
54705.000			13.615			-3.404
54804.000			13.615			-3.404
54904.000			13.615			-3.404
55005.000			13.614			-3.404
55104.000			13.615			-3.404
55204.000			13.613			-3.403
55304.000			13.613			-3.403
55404.000			13.613			-3.403
55504.000			13.613			-3.403
55605.000			13.612			-3.403
55704.000			13.610			-3.403
55803.000			13.611			-3.403
55905.000			13.610			-3.402
56004.000			13.609			-3.402
56104.000			13.608			-3.402
56205.000			13.608			-3.402
56304.000			13.607			-3.402
56404.000			13.607			-3.402
56504.000			13.607			-3.402
56604.000			13.606			-3.401
56704.000			13.605			-3.401
56805.000			13.605			-3.401
56904.000			13.605			-3.401
57005.000			13.605			-3.401
57104.000			13.605			-3.401
57203.000			13.604			-3.401
57305.000			13.602			-3.401
57404.000			13.602			-3.400
57504.000			13.601			-3.400
57605.000			13.601			-3.400
57704.000			13.601			-3.400
57804.000			13.600			-3.400
57904.000			13.600			-3.400
58004.000			13.599			-3.400
58104.000			13.599			-3.400
58205.000			13.598			-3.400
58304.000			13.598			-3.400
58404.000			13.597			-3.399
58505.000			13.597			-3.399
58603.000			13.597			-3.399
58704.000			13.597			-3.399
58805.000			13.597			-3.399
58904.000			13.595			-3.399
59004.000			13.595			-3.399
59105.000			13.595			-3.399
59204.000			13.595			-3.399
59303.000			13.594			-3.399
59405.000			13.594			-3.399
59504.000			13.593			-3.398
59604.000			13.591			-3.398
59705.000			13.591			-3.398
59804.000			13.591			-3.398
59904.000			13.591			-3.398
60004.000			13.591			-3.398
60104.000			13.592			-3.398
60205.000			13.590			-3.397
60304.000			13.589			-3.397
60404.000			13.589			-3.397
60505.000			13.588			-3.397
60604.000			13.587			-3.397
60703.000			13.587			-3.397
60805.000			13.588			-3.397
60904.000			13.585			-3.396
61004.000			13.585			-3.396
61105.000			13.586			-3.396
61203.000			13.585			-3.396
61304.000			13.584			-3.396
61405.000			13.584			-3.396
61504.000			13.584			-3.396
61604.000			13.584			-3.396
61705.000			13.583			-3.396
61804.000			13.583			-3.396
61903.000			13.583			-3.396
62005.000			13.582			-3.395
62104.000			13.581			-3.395
62204.000			13.581			-3.395
62305.000			13.581			-3.395
62404.000			13.581			-3.395
62504.000			13.580			-3.395
62604.000			13.579			-3.395
62704.000			13.578			-3.395
62804.000			13.578			-3.395
62905.000			13.578			-3.394
63004.000			13.578			-3.394
63104.000			13.578			-3.394
63205.000			13.577			-3.394
63303.000			13.577			-3.394
63405.000			13.576			-3.394
63504.000			13.577			-3.394
63604.000			13.576			-3.394
63705.000			13.575			-3.394
63804.000			13.573			-3.393
63904.000			13.572			-3.393
64004.000			13.573			-3.393
64104.000			13.572			-3.393
64204.000			13.571			-3.393
64305.000			13.571			-3.393
64404.000			13.570			-3.393
64504.000			13.571			-3.393
64605.000			13.571			-3.393
64703.000			13.570			-3.393
64804.000			13.569			-3.392
64905.000			13.569			-3.392
65004.000			13.569			-3.392
65104.000			13.569			-3.392
65204.000			13.568			-3.392
65304.000			13.567			-3.392
65403.000			13.567			-3.392
65505.000			13.566			-3.391
65604.000			13.565			-3.391
65704.000			13.566			-3.392
65805.000			13.567			-3.392
65904.000			13.566			-3.391
66004.000			13.564			-3.391
66104.000			13.564			-3.391
66204.000			13.564			-3.391
66304.000			13.563			-3.391
66405.000			13.564			-3.391
66504.000			13.562			-3.391
66603.000			13.562			-3.391
66704.000			13.562			-3.391
66803.000			13.562			-3.390
66905.000			13.561			-3.390
67004.000			13.561			-3.390
67104.000			13.560			-3.390
67205.000			13.560			-3.390
67304.000			13.560			-3.390
67404.000			13.559			-3.390
67504.000			13.557			-3.389
67604.000			13.557			-3.389
67704.000			13.558			-3.389
67805.000			13.558			-3.389
67904.000			13.558			-3.389
68004.000			13.557			-3.389
68105.000			13.557			-3.389
68203.000			13.555			-3.389
68304.000			13.555			-3.389
68405.000			13.554			-3.389
68504.000			13.553			-3.388
68604.000			13.554			-3.389
68705.000			13.554			-3.389
68804.000			13.553			-3.388
68903.000			13.553			-3.388
69005.000			13.552			-3.388
69104.000			13.553			-3.388
69204.000			13.553			-3.388
69305.000			13.552			-3.388
69404.000			13.551			-3.388
69504.000			13.552			-3.388
69604.000			13.551			-3.388
69704.000			13.550			-3.387
69805.000			13.549			-3.387
69904.000			13.550			-3.387
70004.000			13.549			-3.387
70105.000			13.548			-3.387
70204.000			13.547			-3.387
70303.000			13.547			-3.387
70405.000			13.547			-3.387
70504.000			13.546			-3.387
70604.000			13.546			-3.386
70705.000			13.546			-3.387
70804.000			13.547			-3.387
70904.000			13.546			-3.386
71004.000			13.545			-3.386
71104.000			13.544			-3.386
71204.000			13.543			-3.386
71305.000			13.543			-3.386
71404.000			13.543			-3.386
71503.000			13.543			-3.386
71605.000			13.543			-3.386
71704.000			13.542			-3.386
71804.000			13.542			-3.385
71905.000			13.542			-3.385
72004.000			13.540			-3.385
72104.000			13.541			-3.385
72204.000			13.540			-3.385
72304.000			13.539			-3.385
72404.000			13.540			-3.385
72505.000			13.540			-3.385
72604.000			13.538			-3.384
72704.000			13.538			-3.384
72805.000			13.537			-3.384
72903.000			13.537			-3.384
73005.000			13.537			-3.384
73104.000			13.536			-3.384
73204.000			13.536			-3.384
73305.000			13.535			-3.384
73404.000			13.536			-3.384
73504.000			13.535			-3.384
73604.000			13.534			-3.383
73704.000			13.534			-3.384
73804.000			13.535			-3.384
73905.000			13.533			-3.383
74004.000			13.532			-3.383
74104.000			13.530			-3.382
74205.000			13.530			-3.382
74303.000			13.530			-3.383
74404.000			13.531			-3.383
74505.000			13.530			-3.382
74604.000			13.529			-3.382
74704.000			13.528			-3.382
74805.000			13.528			-3.382
74904.000			13.528			-3.382
75003.000			13.527			-3.382
75105.000			13.527			-3.382
75204.000			13.526			-3.382
75304.000			13.525			-3.381
75405.000			13.526			-3.382
75504.000			13.526			-3.382
75604.000			13.526			-3.381
75704.000			13.526			-3.381
75804.000			13.525			-3.381
75904.000			13.525			-3.381
76005.000			13.525			-3.381
76104.000			13.524			-3.381
76205.000			13.524			-3.381
76304.000			13.523			-3.381
76403.000			13.523			-3.381
76505.000			13.523			-3.381
76604.000			13.522			-3.381
76704.000			13.522			-3.381
76805.000			13.521			-3.380
76904.000			13.521			-3.380
77004.000			13.521			-3.380
77104.000			13.520			-3.380
77204.000			13.521			-3.380
77304.000			13.520			-3.380
77405.000			13.519			-3.380
77504.000			13.518			-3.380
77604.000			13.519			-3.380
77705.000			13.519			-3.380
77803.000			13.518			-3.379
77904.000			13.517			-3.379
78005.000			13.516			-3.379
78104.000			13.516			-3.379
78204.000			13.516			-3.379
78305.000			13.514			-3.379
78404.000			13.514			-3.379
78503.000			13.515			-3.379
78605.000			13.516			-3.379
78704.000			13.514			-3.378
78804.000			13.514			-3.378
78905.000			13.514			-3.378
79004.000			13.513			-3.378
79104.000			13.513			-3.378
79204.000			13.513			-3.378
79304.000			13.512			-3.378
79405.000			13.511			-3.378
79504.000			13.510			-3.378
79604.000			13.511			-3.378
79704.000			13.511			-3.378
79804.000			13.511			-3.378
79903.000			13.509			-3.377
80005.000			13.509			-3.377
80104.000			13.509			-3.377
80204.000			13.508			-3.377
80305.000			13.508			-3.377
80403.000			13.508			-3.377
80504.000			13.508			-3.377
80605.000			13.508			-3.377
80704.000			13.508			-3.377
80804.000			13.508			-3.377
80905.000			13.506			-3.377
81004.000			13.505			-3.376
81103.000			13.505			-3.376
81205.000			13.505			-3.376
81304.000			13.506			-3.376
81404.000			13.505			-3.376
81505.000			13.504			-3.376
81604.000			13.505			-3.376
81704.000			13.504			-3.376
81804.000			13.504			-3.376
81904.000			13.505			-3.376
82004.000			13.504			-3.376
82105.000			13.504			-3.376
82204.000			13.503			-3.376
82304.000			13.503			-3.376
82405.000			13.503			-3.376
82503.000			13.504			-3.376
82605.000			13.503			-3.376
82704.000			13.503			-3.376
82804.000			13.503			-3.376
82905.000			13.503			-3.376
83003.000			13.502			-3.376
83104.000			13.503			-3.376
83205.000			13.503			-3.376
83304.000			13.501			-3.375
83404.000			13.500			-3.375
83505.000			13.502			-3.375
83604.000			13.501			-3.375
83703.000			13.501			-3.375
83805.000			13.501			-3.375
83904.000			13.500			-3.375
84004.000			13.501			-3.375
84105.000			13.501			-3.375
84204.000			13.501			-3.375
84304.000			13.500			-3.375
84404.000			13.499			-3.375
84504.000			13.499			-3.375
84604.000			13.499			-3.375
84705.000			13.499			-3.375
84804.000			13.498			-3.375
84904.000			13.498			-3.374
85005.000			13.498			-3.375
85103.000			13.498			-3.375
85204.000			13.497			-3.374
85305.000			13.497			-3.374
85404.000			13.497			-3.374
85504.000			13.497			-3.374
85605.000			13.497			-3.374
85704.000			13.496			-3.374
85803.000			13.495			-3.374
85904.000			13.494			-3.374
86003.000			13.495			-3.374
86105.000			13.495			-3.374
86204.000			13.494			-3.374
86304.000			13.494			-3.373
86405.000			13.493			-3.373
86504.000			13.494			-3.373
86604.000			13.493			-3.373
86704.000			13.492			-3.373
86804.000			13.492			-3.373
86904.000			13.491			-3.373
87005.000			13.490			-3.373
87104.000			13.490			-3.373
87204.000			13.490			-3.372
87305.000			13.489			-3.372
87403.000			13.490			-3.373
87504.000			13.489			-3.372
87605.000			13.488			-3.372
87704.000			13.488			-3.372
87804.000			13.488			-3.372
87905.000			13.488			-3.372
88004.000			13.487			-3.372
88103.000			13.487			-3.372
88205.000			13.486			-3.372
88304.000			13.486			-3.371
88404.000			13.486			-3.372
88505.000			13.485			-3.371
88604.000			13.484			-3.371
88704.000			13.484			-3.371
88804.000			13.484			-3.371
88904.000			13.483			-3.371
89005.000			13.483			-3.371
89104.000			13.482			-3.370
89204.000			13.482			-3.370
89305.000			13.482			-3.370
89404.000			13.483			-3.371
89503.000			13.482			-3.371
89605.000			13.481			-3.370
89704.000			13.480			-3.370
89804.000			13.481			-3.370
89905.000			13.481			-3.370
90004.000			13.480			-3.370
90104.000			13.482			-3.370
90204.000			13.480			-3.370
90304.000			13.479			-3.370
90404.000			13.480			-3.370
90505.000			13.480			-3.370
90604.000			13.478			-3.370
90704.000			13.478			-3.370
90805.000			13.479			-3.370
90903.000			13.480			-3.370
91004.000			13.480			-3.370
91105.000			13.479			-3.370
91204.000			13.479			-3.370
91304.000			13.478			-3.370
91405.000			13.478			-3.369
91504.000			13.479			-3.370
91603.000			13.477			-3.369
91705.000			13.477			-3.369
91804.000			13.478			-3.369
91904.000			13.478			-3.369
92005.000			13.477			-3.369
92104.000			13.476			-3.369
92205.000			13.476			-3.369
92303.000			13.476			-3.369
92404.000			13.475			-3.369
92505.000			13.474			-3.369
92604.000			13.474			-3.369
92704.000			13.474			-3.369
92805.000			13.475			-3.369
92904.000			13.474			-3.368
93003.000			13.473			-3.368
93105.000			13.472			-3.368
93204.000			13.473			-3.368
93304.000			13.472			-3.368
93405.000			13.471			-3.368
93504.000			13.471			-3.368
93604.000			13.470			-3.368
93704.000			13.471			-3.368
93804.000			13.469			-3.367
93904.000			13.468			-3.367
94005.000			13.469			-3.367
94104.000			13.468			-3.367
94204.000			13.469			-3.367
94305.000			13.468			-3.367
94403.000			13.467			-3.367
94504.000			13.467			-3.367
94605.000			13.467			-3.367
94704.000			13.466			-3.366
94804.000			13.465			-3.366
94905.000			13.464			-3.366
95004.000			13.464			-3.366
95103.000			13.464			-3.366
95205.000			13.463			-3.366
95304.000			13.463			-3.366
95405.000			13.463			-3.366
95504.000			13.462			-3.366
95604.000			13.462			-3.365
95705.000			13.462			-3.365
95803.000			13.462			-3.366
95904.000			13.461			-3.365
96005.000			13.460			-3.365
96104.000			13.460			-3.365
96204.000			13.460			-3.365
96305.000			13.459			-3.365
96404.000			13.459			-3.365
96503.000			13.459			-3.365
96605.000			13.458			-3.365
96704.000			13.458			-3.364
96804.000			13.458			-3.364
96905.000			13.457			-3.364
97004.000			13.457			-3.364
97104.000			13.457			-3.364
97204.000			13.457			-3.364
97304.000			13.457			-3.364
97403.000			13.456			-3.364
97505.000			13.455			-3.364
97604.000			13.456			-3.364
97704.000			13.456			-3.364
97805.000			13.455			-3.364
97904.000			13.456			-3.364
98004.000			13.456			-3.364
98104.000			13.455			-3.364
98204.000			13.454			-3.363
98304.000			13.453			-3.363
98405.000			13.452			-3.363
98504.000			13.452			-3.363
98605.000			13.453			-3.363
98704.000			13.453			-3.363
98803.000			13.452			-3.363
98905.000			13.450			-3.363
99004.000			13.450			-3.362
99104.000			13.452			-3.363
99205.000			13.451			-3.363
99304.000			13.450			-3.363
99404.000			13.450			-3.362
99504.000			13.451			-3.363
99604.000			13.449			-3.362
99704.000			13.449			-3.362
99805.000			13.449			-3.362
99904.000			13.448			-3.362
100004.000			13.448			-3.362
100105.000			13.448			-3.362
100203.000			13.447			-3.362
100304.000			13.447			-3.362
100405.000			13.446			-3.361
100504.000			13.446			-3.361
100604.000			13.445			-3.361
100705.000			13.446			-3.361
100804.000			13.446			-3.361
100903.000			13.445			-3.361
101005.000			13.444			-3.361
101104.000			13.443			-3.361
101204.000			13.443			-3.361
101305.000			13.443			-3.361
101404.000			13.444			-3.361
101504.000			13.444			-3.361
101604.000			13.442			-3.361
101704.000			13.442			-3.361
101805.000			13.443			-3.361
101904.000			13.443			-3.361
102004.000			13.442			-3.361
102104.000			13.442			-3.361
102204.000			13.443			-3.361
102303.000			13.443			-3.361
102405.000			13.442			-3.360
102504.000			13.442			-3.360
102604.000			13.442			-3.360
102705.000			13.442			-3.361
102804.000			13.441			-3.360
102904.000			13.441			-3.360
103004.000			13.441			-3.360
103104.000			13.441			-3.360
103204.000			13.440			-3.360
103305.000			13.440			-3.360
103404.000			13.440			-3.360
103503.000			13.440			-3.360
103605.000			13.439			-3.360
103704.000			13.440			-3.360
103804.000			13.439			-3.360
103905.000			13.439			-3.360
104004.000			13.438			-3.360
104104.000			13.439			-3.360
104204.000			13.438			-3.359
104304.000			13.437			-3.359
104404.000			13.437			-3.359
104505.000			13.437			-3.359
104604.000			13.436			-3.359
104704.000			13.436			-3.359
104805.000			13.435			-3.359
104903.000			13.434			-3.359
105005.000			13.433			-3.358
105104.000			13.433			-3.358
105204.000			13.434			-3.359
105305.000			13.434			-3.359
105404.000			13.434			-3.358
105504.000			13.433			-3.358
105604.000			13.433			-3.358
105704.000			13.431			-3.358
105804.000			13.431			-3.358
105905.000			13.432			-3.358
106004.000			13.431			-3.358
106104.000			13.430			-3.358
106205.000			13.430			-3.358
106303.000			13.431			-3.358
106404.000			13.430			-3.357
106505.000			13.429			-3.357
106604.000			13.430			-3.358
106704.000			13.429			-3.357
106805.000			13.428			-3.357
106904.000			13.428			-3.357
107003.000			13.427			-3.357
107105.000			13.427			-3.357
107204.000			13.427			-3.357
107304.000			13.427			-3.357
107405.000			13.426			-3.357
107504.000			13.425			-3.356
107604.000			13.426			-3.356
107704.000			13.425			-3.356
107804.000			13.424			-3.356
107903.000			13.423			-3.356
108005.000			13.424			-3.356
108104.000			13.425			-3.356
108205.000			13.424			-3.356
108304.000			13.425			-3.356
108403.000			13.425			-3.356
108505.000			13.424			-3.356
108603.000			13.423			-3.356
108704.000			13.423			-3.356
108805.000			13.422			-3.356
108904.000			13.423			-3.356
109004.000			13.421			-3.355
109105.000			13.421			-3.355
109204.000			13.420			-3.355
109303.000			13.421			-3.355
109405.000			13.422			-3.355
109504.000			13.421			-3.355
109604.000			13.420			-3.355
109705.000			13.421			-3.355
109804.000			13.420			-3.355
109904.000			13.420			-3.355
110004.000			13.420			-3.355
110104.000			13.420			-3.355
110204.000			13.421			-3.355
110305.000			13.419			-3.355
110404.000			13.418			-3.355
110503.000			13.419			-3.355
110605.000			13.417			-3.354
110703.000			13.417			-3.354
110804.000			13.417			-3.354
110905.000			13.417			-3.354
111004.000			13.417			-3.354
111104.000			13.416			-3.354
111204.000			13.416			-3.354
111304.000			13.415			-3.354
111403.000			13.416			-3.354
111504.000			13.416			-3.354
111604.000			13.414			-3.354
111705.000			13.413			-3.353
111804.000			13.414			-3.353
111904.000			13.414			-3.354
112005.000			13.414			-3.353
112103.000			13.414			-3.353
112204.000			13.412			-3.353
112305.000			13.412			-3.353
112404.000			13.413			-3.353
112504.000			13.413			-3.353
112604.000			13.412			-3.353
112704.000			13.411			-3.353
112803.000			13.412			-3.353
112905.000			13.411			-3.353
113004.000			13.411			-3.353
113104.000			13.412			-3.353
113205.000			13.412			-3.353
113303.000			13.410			-3.353
113404.000			13.410			-3.352
113505.000			13.409			-3.352
113604.000			13.409			-3.352
113704.000			13.410			-3.352
113805.000			13.409			-3.352
113904.000			13.408			-3.352
114003.000			13.409			-3.352
114105.000			13.408			-3.352
114204.000			13.407			-3.352
114304.000			13.408			-3.352
114405.000			13.409			-3.352
114504.000			13.408			-3.352
114605.000			13.408			-3.352
114704.000			13.408			-3.352
114804.000			13.408			-3.352
114904.000			13.407			-3.352
115004.000			13.408			-3.352
115104.000			13.407			-3.352
115205.000			13.407			-3.352
115304.000			13.406			-3.351
115404.000			13.405			-3.351
115505.000			13.405			-3.351
115603.000			13.405			-3.351
115704.000			13.406			-3.351
115805.000			13.406			-3.351
115904.000			13.405			-3.351
116004.000			13.404			-3.351
116105.000			13.404			-3.351
116204.000			13.404			-3.351
116303.000			13.403			-3.351
116405.000			13.403			-3.351
116504.000			13.404			-3.351
116604.000			13.404			-3.351
116705.000			13.403			-3.351
116804.000			13.402			-3.350
116904.000			13.402			-3.350
117004.000			13.401			-3.350
117104.000			13.402			-3.351
117204.000			13.402			-3.350
117305.000			13.400			-3.350
117404.000			13.400			-3.350
117504.000			13.400			-3.350
117605.000			13.400			-3.350
117703.000			13.400			-3.350
117805.000			13.400			-3.350
117904.000			13.399			-3.350
118004.000			13.399			-3.350
118105.000			13.400			-3.350
118204.000			13.399			-3.350
118304.000			13.398			-3.350
118404.000			13.398			-3.350
118504.000			13.398			-3.350
118604.000			13.397			-3.349
118705.000			13.397			-3.349
118804.000			13.397			-3.349
118904.000			13.396			-3.349
119005.000			13.396			-3.349
119104.000			13.396			-3.349
119204.000			13.396			-3.349
119304.000			13.396			-3.349
119404.000			13.396			-3.349
119504.000			13.396			-3.349
119605.000			13.396			-3.349
119704.000			13.396			-3.349
119804.000			13.395			-3.349
119905.000			13.394			-3.349
120003.000			13.393			-3.348
120104.000			13.393			-3.348
120205.000			13.394			-3.348
120304.000			13.393			-3.348
120404.000			13.393			-3.348
120505.000			13.393			-3.348
120604.000			13.394			-3.348
120703.000			13.392			-3.348
120805.000			13.392			-3.348
120904.000			13.392			-3.348
121005.000			13.392			-3.348
121104.000			13.392			-3.348
121204.000			13.392			-3.348
121305.000			13.391			-3.348
121403.000			13.390			-3.348
121504.000			13.391			-3.348
121605.000			13.390			-3.348
121704.000			13.390			-3.347
121804.000			13.391			-3.348
121905.000			13.390			-3.347
122004.000			13.388			-3.347
122103.000			13.388			-3.347
122205.000			13.389			-3.347
122304.000			13.389			-3.347
122404.000			13.389			-3.347
122505.000			13.388			-3.347
122604.000			13.388			-3.347
122704.000			13.387			-3.347
122804.000			13.386			-3.347
122904.000			13.387			-3.347
123004.000			13.387			-3.347
123105.000			13.388			-3.347
123204.000			13.387			-3.347
123304.000			13.387			-3.347
123405.000			13.386			-3.346
123503.000			13.386			-3.346
123604.000			13.386			-3.347
123705.000			13.386			-3.347
123804.000			13.386			-3.347
123904.000			13.386			-3.346
124005.000			13.386			-3.347
124104.000			13.386			-3.347
124205.000			13.387			-3.347
124304.000			13.387			-3.347
124403.000			13.385			-3.346
124505.000			13.385			-3.346
124604.000			13.385			-3.346
124704.000			13.384			-3.346
124805.000			13.384			-3.346
124904.000			13.385			-3.346
125004.000			13.385			-3.346
125104.000			13.383			-3.346
125204.000			13.383			-3.346
125304.000			13.383			-3.346
125405.000			13.381			-3.345
125504.000			13.382			-3.346
125604.000			13.382			-3.346
125705.000			13.381			-3.345
125803.000			13.380			-3.345
125904.000			13.381			-3.345
126005.000			13.381			-3.345
126104.000			13.381			-3.345
126204.000			13.381			-3.345
126305.000			13.381			-3.345
126404.000			13.380			-3.345
126503.000			13.380			-3.345
126605.000			13.378			-3.344
126703.000			13.379			-3.345
126804.000			13.379			-3.345
126905.000			13.377			-3.344
127004.000			13.378			-3.345
127104.000			13.379			-3.345
127205.000			13.378			-3.345
127304.000			13.377			-3.344
127403.000			13.376			-3.344
127504.000			13.377			-3.344
127604.000			13.377			-3.344
127705.000			13.376			-3.344
127804.000			13.376			-3.344
127904.000			13.377			-3.344
128005.000			13.375			-3.344
128103.000			13.375			-3.344
128204.000			13.376			-3.344
128305.000			13.374			-3.344
128404.000			13.374			-3.343
128504.000			13.374			-3.344
128605.000			13.374			-3.344
128704.000			13.374			-3.343
128803.000			13.374			-3.344
128905.000			13.374			-3.344
129003.000			13.374			-3.344
129104.000			13.374			-3.343
129205.000			13.374			-3.343
129304.000			13.373			-3.343
129404.000			13.373			-3.343
129505.000			13.372			-3.343
129604.000			13.372			-3.343
129703.000			13.373			-3.343
129805.000			13.372			-3.343
129904.000			13.372			-3.343
130004.000			13.373			-3.343
130105.000			13.372			-3.343
130204.000			13.371			-3.343
130304.000			13.370			-3.343
130404.000			13.370			-3.343
130504.000			13.371			-3.343
130605.000			13.371			-3.343
130704.000			13.371			-3.343
130804.000			13.370			-3.342
130905.000			13.371			-3.343
131004.000			13.370			-3.343
131103.000			13.370			-3.342
131205.000			13.369			-3.342
131304.000			13.368			-3.342
131404.000			13.368			-3.342
131505.000			13.369			-3.342
131604.000			13.368			-3.342
131704.000			13.368			-3.342
131804.000			13.367			-3.342
131904.000			13.367			-3.342
132003.000			13.367			-3.342
132105.000			13.368			-3.342
132204.000			13.368			-3.342
132304.000			13.367			-3.342
132405.000			13.367			-3.342
132504.000			13.367			-3.342
132604.000			13.367			-3.342
132704.000			13.366			-3.341
132804.000			13.366			-3.341
132903.000			13.366			-3.341
133005.000			13.366			-3.341
133104.000			13.365			-3.341
133204.000			13.365			-3.341
133305.000			13.365			-3.341
133404.000			13.364			-3.341
133504.000			13.363			-3.341
133604.000			13.364			-3.341
133704.000			13.363			-3.341
133805.000			13.364			-3.341
133904.000			13.364			-3.341
134004.000			13.364			-3.341
134105.000			13.364			-3.341
134204.000			13.365			-3.341
134304.000			13.364			-3.341
134405.000			13.363			-3.341
134503.000			13.364			-3.341
134604.000			13.365			-3.341
134705.000			13.365			-3.341
134804.000			13.364			-3.341
134904.000			13.365			-3.341
135005.000			13.364			-3.341
135104.000			13.364			-3.341
135204.000			13.365			-3.341
135305.000			13.365			-3.341
135403.000			13.366			-3.341
135504.000			13.365			-3.341
135605.000			13.365			-3.341
135704.000			13.364			-3.341
135804.000			13.364			-3.341
135905.000			13.364			-3.341
136004.000			13.363			-3.341
136104.000			13.364			-3.341
136205.000			13.364			-3.341
136303.000			13.363			-3.341
136404.000			13.363			-3.341
136505.000			13.363			-3.341
136604.000			13.363			-3.341
136704.000			13.363			-3.341
136805.000			13.362			-3.341
136904.000			13.362			-3.341
137003.000			13.361			-3.340
137104.000			13.361			-3.340
137203.000			13.362			-3.341
137305.000			13.362			-3.341
137404.000			13.361			-3.340
137504.000			13.360			-3.340
137605.000			13.361			-3.340
137704.000			13.361			-3.340
137804.000			13.361			-3.340
137904.000			13.361			-3.340
138004.000			13.360			-3.340
138104.000			13.360			-3.340
138205.000			13.360			-3.340
138304.000			13.359			-3.340
138404.000			13.359			-3.340
138505.000			13.358			-3.340
138604.000			13.357			-3.339
138704.000			13.358			-3.339
138804.000			13.358			-3.340
138904.000			13.356			-3.339
139004.000			13.357			-3.339
139105.000			13.356			-3.339
139204.000			13.355			-3.339
139304.000			13.356			-3.339
139405.000			13.355			-3.339
139504.000			13.355			-3.339
139604.000			13.353			-3.338
139704.000			13.354			-3.338
139804.000			13.354			-3.338
139904.000			13.355			-3.339
140005.000			13.355			-3.339
140104.000			13.354			-3.339
140205.000			13.354			-3.338
140304.000			13.354			-3.338
140404.000			13.355			-3.339
140505.000			13.355			-3.339
140603.000			13.354			-3.339
140704.000			13.353			-3.338
140805.000			13.353			-3.338
140904.000			13.354			-3.339
141004.000			13.354			-3.338
141105.000			13.353			-3.338
141204.000			13.352			-3.338
141303.000			13.352			-3.338
141405.000			13.351			-3.338
141503.000			13.351			-3.338
141604.000			13.352			-3.338
141705.000			13.350			-3.337
141804.000			13.350			-3.337
141904.000			13.350			-3.338
142005.000			13.350			-3.337
142104.000			13.348			-3.337
142203.000			13.348			-3.337
142305.000			13.349			-3.337
142404.000			13.349			-3.337
142504.000			13.348			-3.337
142605.000			13.348			-3.337
142704.000			13.348			-3.337
142804.000			13.347			-3.337
142905.000			13.348			-3.337
143004.000			13.347			-3.337
143103.000			13.346			-3.336
143205.000			13.346			-3.336
143304.000			13.346			-3.336
143405.000			13.344			-3.336
143504.000			13.344			-3.336
143604.000			13.344			-3.336
143705.000			13.343			-3.336
143804.000			13.343			-3.336
143904.000			13.343			-3.336
144004.000			13.343			-3.336
144104.000			13.343			-3.336
144204.000			13.343			-3.336
144305.000			13.343			-3.336
144404.000			13.343			-3.336
144504.000			13.343			-3.336
144605.000			13.342			-3.336
144703.000			13.341			-3.335
144804.000			13.340			-3.335
144904.000			13.341			-3.335
145004.000			13.340			-3.335
145104.000			13.342			-3.335
145205.000			13.341			-3.335
145304.000			13.338			-3.335
145404.000			13.339			-3.335
145505.000			13.338			-3.335
145603.000			13.339			-3.335
145704.000			13.339			-3.335
145805.000			13.339			-3.335
145904.000			13.340			-3.335
146004.000			13.338			-3.334
146105.000			13.336			-3.334
146204.000			13.338			-3.334
146304.000			13.338			-3.334
146405.000			13.338			-3.334
146503.000			13.337			-3.334
146605.000			13.336			-3.334
146704.000			13.336			-3.334
146804.000			13.337			-3.334
146905.000			13.336			-3.334
147004.000			13.335			-3.334
147104.000			13.335			-3.334
147205.000			13.336			-3.334
147304.000			13.335			-3.334
147403.000			13.335			-3.334
147505.000			13.335			-3.334
147604.000			13.334			-3.334
147704.000			13.333			-3.333
147805.000			13.333			-3.333
147904.000			13.333			-3.333
148004.000			13.332			-3.333
148105.000			13.331			-3.333
148204.000			13.332			-3.333
148303.000			13.333			-3.333
148405.000			13.333			-3.333
148504.000			13.332			-3.333
148604.000			13.333			-3.333
148705.000			13.335			-3.334
148804.000			13.335			-3.334
148904.000			13.334			-3.334
149004.000			13.333			-3.333
149104.000			13.334			-3.333
149203.000			13.334			-3.333
149305.000			13.333			-3.333
149404.000			13.333			-3.333
149504.000			13.333			-3.333
149605.000			13.332			-3.333
149704.000			13.331			-3.333
149805.000			13.331			-3.333
149903.000			13.330			-3.333
150004.000			13.329			-3.332
150104.000			13.329			-3.332
150204.000			13.329			-3.332
150304.000			13.328			-3.332
150405.000			13.328			-3.332
150504.000			13.327			-3.332
150604.000			13.329			-3.332
150705.000			13.328			-3.332
150803.000			13.327			-3.332
150904.000			13.328			-3.332
151005.000			13.328			-3.332
151104.000			13.327			-3.332
151204.000			13.328			-3.332
151305.000			13.327			-3.332
151404.000			13.327			-3.332
151504.000			13.327			-3.332
151605.000			13.327			-3.332
151703.000			13.326			-3.331
151804.000			13.325			-3.331
151905.000			13.325			-3.331
152004.000			13.326			-3.331
152104.000			13.326			-3.332
152205.000			13.326			-3.332
152304.000			13.324			-3.331
152403.000			13.324			-3.331
152505.000			13.325			-3.331
152604.000			13.325			-3.331
152704.000			13.325			-3.331
152805.000			13.325			-3.331
152904.000			13.324			-3.331
153005.000			13.324			-3.331
153104.000			13.323			-3.331
153204.000			13.324			-3.331
153304.000			13.324			-3.331
153404.000			13.323			-3.331
153504.000			13.323			-3.331
153605.000			13.323			-3.331
153704.000			13.323			-3.331
153804.000			13.324			-3.331
153905.000			13.324			-3.331
154004.000			13.323			-3.331
154104.000			13.323			-3.331
154204.000			13.323			-3.331
154304.000			13.323			-3.331
154404.000			13.324			-3.331
154505.000			13.324			-3.331
154604.000			13.323			-3.331
154704.000			13.323			-3.331
154805.000			13.323			-3.331
154903.000			13.323			-3.331
155004.000			13.322			-3.330
155105.000			13.322			-3.330
155204.000			13.322			-3.330
155304.000			13.323			-3.331
155405.000			13.323			-3.331
155504.000			13.324			-3.331
155604.000			13.324			-3.331
155705.000			13.324			-3.331
155803.000			13.324			-3.331
155904.000			13.324			-3.331
156005.000			13.324			-3.331
156104.000			13.324			-3.331
156205.000			13.324			-3.331
156304.000			13.325			-3.331
156404.000			13.324			-3.331
156504.000			13.323			-3.331
156604.000			13.324			-3.331
156703.000			13.323			-3.331
156805.000			13.323			-3.331
156904.000			13.324			-3.331
157004.000			13.323			-3.331
157105.000			13.324			-3.331
157204.000			13.323			-3.331
157304.000			13.323			-3.331
157404.000			13.323			-3.331
157504.000			13.323			-3.331
157604.000			13.322			-3.330
157705.000			13.323			-3.331
157804.000			13.323			-3.331
157904.000			13.324			-3.331
158005.000			13.323			-3.331
158104.000			13.323			-3.331
158204.000			13.322			-3.331
158304.000			13.323			-3.331
158404.000			13.322			-3.331
158504.000			13.322			-3.330
158605.000			13.322			-3.330
158704.000			13.321			-3.330
158804.000			13.321			-3.330
158905.000			13.321			-3.330
159004.000			13.321			-3.330
159104.000			13.320			-3.330
159204.000			13.319			-3.330
159304.000			13.320			-3.330
159405.000			13.320			-3.330
159504.000			13.318			-3.330
159604.000			13.318			-3.330
159705.000			13.317			-3.329
159804.000			13.317			-3.329
159903.000			13.317			-3.329
160005.000			13.317			-3.329
160103.000			13.316			-3.329
160204.000			13.316			-3.329
160305.000			13.316			-3.329
160404.000			13.316			-3.329
160504.000			13.314			-3.329
160605.000			13.314			-3.328
160704.000			13.315			-3.329
160803.000			13.314			-3.329
160905.000			13.313			-3.328
161004.000			13.312			-3.328
161104.000			13.312			-3.328
161205.000			13.313			-3.328
161304.000			13.313			-3.328
161404.000			13.313			-3.328
161504.000			13.311			-3.328
161604.000			13.312			-3.328
161703.000			13.311			-3.328
161805.000			13.310			-3.328
161904.000			13.310			-3.328
162004.000			13.310			-3.328
162105.000			13.310			-3.328
162204.000			13.308			-3.327
162304.000			13.308			-3.327
162404.000			13.309			-3.327
162504.000			13.308			-3.327
162605.000			13.307			-3.327
162704.000			13.308			-3.327
162804.000			13.308			-3.327
162905.000			13.308			-3.327
163004.000			13.307			-3.327
163104.000			13.307			-3.327
163205.000			13.307			-3.327
163303.000			13.307			-3.327
163404.000			13.307			-3.327
163505.000			13.306			-3.327
163604.000			13.306			-3.327
163704.000			13.307			-3.327
163805.000			13.307			-3.327
163904.000			13.307			-3.327
164003.000			13.307			-3.327
164105.000			13.306			-3.327
164204.000			13.306			-3.326
164304.000			13.307			-3.327
164405.000			13.308			-3.327
164504.000			13.308			-3.327
164604.000			13.307			-3.327
164705.000			13.307			-3.327
164804.000			13.309			-3.327
164903.000			13.309			-3.327
165005.000			13.308			-3.327
165104.000			13.307			-3.327
165204.000			13.307			-3.327
165305.000			13.308			-3.327
165404.000			13.308			-3.327
165504.000			13.308			-3.327
165605.000			13.308			-3.327
165704.000			13.308			-3.327
165803.000			13.308			-3.327
165904.000			13.307			-3.327
166004.000			13.307			-3.327
166105.000			13.307			-3.327
166204.000			13.306			-3.327
166304.000			13.306			-3.327
166405.000			13.306			-3.327
166504.000			13.306			-3.326
166604.000			13.305			-3.326
166704.000			13.304			-3.326
166804.000			13.304			-3.326
166904.000			13.304			-3.326
167005.000			13.304			-3.326
167104.000			13.303			-3.326
167204.000			13.303			-3.326
167305.000			13.301			-3.325
167403.000			13.302			-3.326
167504.000			13.303			-3.326
167605.000			13.302			-3.325
167704.000			13.301			-3.325
167804.000			13.302			-3.325
167905.000			13.302			-3.325
168004.000			13.301			-3.325
168104.000			13.300			-3.325
168205.000			13.300			-3.325
168303.000			13.300			-3.325
168404.000			13.300			-3.325
168505.000			13.300			-3.325
168604.000			13.299			-3.325
168704.000			13.299			-3.325
168805.000			13.299			-3.325
168904.000			13.299			-3.325
169005.000			13.300			-3.325
169104.000			13.299			-3.325
169203.000			13.299			-3.325
169305.000			13.299			-3.325
169403.000			13.298			-3.325
169504.000			13.298			-3.325
169605.000			13.299			-3.325
169704.000			13.299			-3.325
169804.000			13.298			-3.324
169905.000			13.297			-3.324
170004.000			13.298			-3.325
170104.000			13.299			-3.325
170205.000			13.297			-3.324
170303.000			13.298			-3.324
170404.000			13.298			-3.324
170505.000			13.297			-3.324
170604.000			13.296			-3.324
170704.000			13.295			-3.324
170805.000			13.295			-3.324
170904.000			13.295			-3.324
171004.000			13.294			-3.324
171105.000			13.295			-3.324
171203.000			13.294			-3.324
171304.000			13.293			-3.323
171405.000			13.294			-3.323
171504.000			13.294			-3.323
171604.000			13.293			-3.323
171705.000			13.293			-3.323
171804.000			13.293			-3.323
171903.000			13.293			-3.323
172005.000			13.292			-3.323
172104.000			13.291			-3.323
172205.000			13.291			-3.323
172304.000			13.290			-3.323
172404.000			13.290			-3.322
172505.000			13.291			-3.323
172604.000			13.290			-3.322
172704.000			13.290			-3.322
172804.000			13.290			-3.323
172904.000			13.290			-3.323
173003.000			13.289			-3.322
173105.000			13.290			-3.322
173204.000			13.289			-3.322
173304.000			13.289			-3.322
173405.000			13.289			-3.322
173504.000			13.288			-3.322
173604.000			13.288			-3.322
173704.000			13.287			-3.322
173804.000			13.286			-3.322
173903.000			13.287			-3.322
174005.000			13.286			-3.322
174104.000			13.287			-3.322
174204.000			13.286			-3.322
174305.000			13.286			-3.321
174404.000			13.286			-3.321
174504.000			13.286			-3.321
174604.000			13.287			-3.322
174704.000			13.286			-3.322
174803.000			13.286			-3.321
174905.000			13.285			-3.321
175004.000			13.285			-3.321
175104.000			13.284			-3.321
175205.000			13.284			-3.321
175304.000			13.283			-3.321
175405.000			13.283			-3.321
175503.000			13.284			-3.321
175604.000			13.284			-3.321
175704.000			13.283			-3.321
175804.000			13.284			-3.321
175904.000			13.283			-3.321
176005.000			13.283			-3.321
176104.000			13.284			-3.321
176204.000			13.283			-3.321
176305.000			13.282			-3.321
176404.000			13.281			-3.320
176504.000			13.281			-3.320
176604.000			13.282			-3.320
176704.000			13.282			-3.320
176804.000			13.283			-3.321
176905.000			13.283			-3.321
177004.000			13.282			-3.321
177104.000			13.282			-3.321
177205.000			13.282			-3.320
177304.000			13.282			-3.320
177404.000			13.282			-3.320
177504.000			13.282			-3.321
177604.000			13.282			-3.321
177704.000			13.281			-3.320
177805.000			13.282			-3.321
177904.000			13.282			-3.320
178004.000			13.281			-3.320
178105.000			13.282			-3.320
178203.000			13.282			-3.321
178304.000			13.281			-3.320
178404.000			13.282			-3.320
178504.000			13.281			-3.320
178605.000			13.282			-3.321
178704.000			13.282			-3.321
178804.000			13.282			-3.320
178905.000			13.282			-3.320
179004.000			13.282			-3.320
179103.000			13.280			-3.320
179205.000			13.281			-3.320
179303.000			13.281			-3.320
179404.000			13.281			-3.320
179505.000			13.280			-3.320
179604.000			13.280			-3.320
179704.000			13.280			-3.320
179805.000			13.280			-3.320
179904.000			13.280			-3.320
180003.000			13.280			-3.320
180105.000			13.280			-3.320
180203.000			13.279			-3.320
180304.000			13.280			-3.320
180405.000			13.279			-3.320
180504.000			13.278			-3.320
180604.000			13.279			-3.320
180705.000			13.278			-3.320
180804.000			13.278			-3.319
180903.000			13.278			-3.320
181005.000			13.277			-3.319
181103.000			13.277			-3.319
181204.000			13.276			-3.319
181305.000			13.277			-3.319
181404.000			13.277			-3.319
181504.000			13.276			-3.319
181605.000			13.275			-3.319
181704.000			13.276			-3.319
181803.000			13.275			-3.319
181904.000			13.275			-3.319
182003.000			13.275			-3.319
182105.000			13.274			-3.318
182204.000			13.273			-3.318
182304.000			13.273			-3.318
182405.000			13.273			-3.318
182504.000			13.273			-3.318
182604.000			13.273			-3.318
182704.000			13.273			-3.318
182804.000			13.273			-3.318
182903.000			13.273			-3.318
183005.000			13.272			-3.318
183104.000			13.271			-3.318
183204.000			13.271			-3.318
183305.000			13.272			-3.318
183404.000			13.272			-3.318
183504.000			13.271			-3.318
183604.000			13.270			-3.318
183704.000			13.271			-3.318
183804.000			13.271			-3.318
183905.000			13.271			-3.318
184004.000			13.270			-3.317
184104.000			13.269			-3.317
184205.000			13.269			-3.317
184304.000			13.270			-3.317
184404.000			13.270			-3.317
184504.000			13.269			-3.317
184604.000			13.270			-3.317
184704.000			13.269			-3.317
184805.000			13.269			-3.317
184904.000			13.268			-3.317
185005.000			13.269			-3.317
185104.000			13.268			-3.317
185204.000			13.268			-3.317
185305.000			13.267			-3.317
185403.000			13.267			-3.317
185504.000			13.268			-3.317
185605.000			13.268			-3.317
185704.000			13.268			-3.317
185804.000			13.268			-3.317
185905.000			13.268			-3.317
186004.000			13.268			-3.317
186104.000			13.269			-3.317
186205.000			13.265			-3.316
186303.000			13.266			-3.317
186404.000			13.268			-3.317
186504.000			13.267			-3.317
186604.000			13.267			-3.317
186704.000			13.266			-3.317
186805.000			13.266			-3.317
186904.000			13.266			-3.316
187004.000			13.266			-3.316
187105.000			13.266			-3.317
187203.000			13.265			-3.316
187304.000			13.266			-3.316
187404.000			13.266			-3.316
187504.000			13.265			-3.316
187604.000			13.265			-3.316
187705.000			13.264			-3.316
187804.000			13.264			-3.316
187904.000			13.264			-3.316
188005.000			13.264			-3.316
188103.000			13.264			-3.316
188205.000			13.263			-3.316
188303.000			13.263			-3.316
188404.000			13.263			-3.316
188505.000			13.263			-3.316
188604.000			13.263			-3.316
188704.000			13.263			-3.316
188805.000			13.262			-3.316
188904.000			13.262			-3.316
189003.000			13.262			-3.316
189105.000			13.262			-3.315
189203.000			13.262			-3.315
189304.000			13.262			-3.315
189405.000			13.261			-3.315
189504.000			13.261			-3.315
189604.000			13.261			-3.315
189705.000			13.262			-3.315
189804.000			13.262			-3.315
189903.000			13.260			-3.315
190005.000			13.261			-3.315
190103.000			13.261			-3.315
190204.000			13.260			-3.315
190305.000			13.260			-3.315
190404.000			13.260			-3.315
190504.000			13.259			-3.315
190605.000			13.260			-3.315
190704.000			13.260			-3.315
190803.000			13.259			-3.315
190905.000			13.259			-3.315
191004.000			13.259			-3.315
191104.000			13.259			-3.315
191205.000			13.259			-3.315
191304.000			13.258			-3.315
191405.000			13.259			-3.315
191504.000			13.258			-3.314
191604.000			13.257			-3.314
191704.000			13.258			-3.314
191804.000			13.258			-3.314
191903.000			13.258			-3.315
192005.000			13.257			-3.314
192104.000			13.257			-3.314
192204.000			13.256			-3.314
192305.000			13.256			-3.314
192404.000			13.256			-3.314
192504.000			13.256			-3.314
192604.000			13.257			-3.314
192704.000			13.257			-3.314
192804.000			13.257			-3.314
192905.000			13.257			-3.314
193004.000			13.256			-3.314
193104.000			13.256			-3.314
193205.000			13.256			-3.314
193304.000			13.255			-3.314
193404.000			13.255			-3.314
193504.000			13.255			-3.314
193604.000			13.255			-3.314
193704.000			13.255			-3.314
193805.000			13.255			-3.314
193904.000			13.255			-3.314
194004.000			13.255			-3.314
194105.000			13.254			-3.313
194204.000			13.253			-3.313
194304.000			13.253			-3.313
194404.000			13.252			-3.313
194504.000			13.253			-3.313
194605.000			13.254			-3.314
194704.000			13.254			-3.313
194804.000			13.253			-3.313
194905.000			13.253			-3.313
195004.000			13.253			-3.313
195104.000			13.253			-3.313
195205.000			13.253			-3.313
195303.000			13.252			-3.313
195404.000			13.252			-3.313
195505.000			13.252			-3.313
195604.000			13.251			-3.313
195704.000			13.251			-3.313
195805.000			13.252			-3.313
195904.000			13.251			-3.313
196004.000			13.250			-3.313
196105.000			13.250			-3.312
196203.000			13.250			-3.313
196304.000			13.251			-3.313
196405.000			13.250			-3.312
196504.000			13.251			-3.313
196604.000			13.250			-3.313
196705.000			13.250			-3.313
196804.000			13.251			-3.313
196904.000			13.250			-3.313
197005.000			13.250			-3.312
197103.000			13.250			-3.313
197204.000			13.249			-3.312
197305.000			13.248			-3.312
197404.000			13.248			-3.312
197504.000			13.249			-3.312
197605.000			13.249			-3.312
197704.000			13.249			-3.312
197805.000			13.248			-3.312
197904.000			13.248			-3.312
198003.000			13.248			-3.312
198105.000			13.248			-3.312
198204.000			13.248			-3.312
198304.000			13.247			-3.312
198405.000			13.247			-3.312
198504.000			13.247			-3.312
198604.000			13.247			-3.312
198705.000			13.247			-3.312
198804.000			13.247			-3.312
198903.000			13.246			-3.311
199005.000			13.246			-3.311
199104.000			13.246			-3.311
199204.000			13.246			-3.311
199305.000			13.246			-3.311
199404.000			13.246			-3.312
199504.000			13.245			-3.311
199605.000			13.245			-3.311
199704.000			13.245			-3.311
199803.000			13.245			-3.311
199905.000			13.245			-3.311
200003.000			13.245			-3.311
200104.000			13.247			-3.312
200205.000			13.246			-3.312
200304.000			13.245			-3.311
200404.000			13.245			-3.311
200505.000			13.246			-3.312
200604.000			13.245			-3.311
200703.000			13.245			-3.311
200805.000			13.245			-3.311
200904.000			13.246			-3.311
201005.000			13.246			-3.311
201104.000			13.245			-3.311
201204.000			13.245			-3.311
201305.000			13.246			-3.311
201403.000			13.245			-3.311
201504.000			13.246			-3.311
201604.000			13.245			-3.311
201704.000			13.246			-3.311
201804.000			13.246			-3.311
201905.000			13.245			-3.311
202004.000			13.246			-3.312
202104.000			13.247			-3.312
202205.000			13.246			-3.312
202303.000			13.247			-3.312
202404.000			13.247			-3.312
202505.000			13.247			-3.312
202604.000			13.246			-3.311
202704.000			13.244			-3.311
202805.000			13.245			-3.311
202904.000			13.246			-3.311
203004.000			13.246			-3.311
203105.000			13.246			-3.311
203203.000			13.246			-3.311
203304.000			13.246			-3.311
203405.000			13.245			-3.311
203504.000			13.245			-3.311
203604.000			13.245			-3.311
203705.000			13.246			-3.312
203804.000			13.245			-3.311
203904.000			13.246			-3.311
204005.000			13.245			-3.311
204103.000			13.244			-3.311
204205.000			13.244			-3.311
204304.000			13.244			-3.311
204404.000			13.244			-3.311
204505.000			13.243			-3.311
204604.000			13.243			-3.311
204704.000			13.243			-3.311
204804.000			13.243			-3.311
204904.000			13.242			-3.311
205003.000			13.242			-3.310
205105.000			13.243			-3.311
205204.000			13.242			-3.311
205304.000			13.241			-3.310
205405.000			13.241			-3.310
205504.000			13.240			-3.310
205604.000			13.240			-3.310
205704.000			13.240			-3.310
205804.000			13.239			-3.310
205904.000			13.240			-3.310
206005.000			13.238			-3.310
206104.000			13.239			-3.310
206204.000			13.239			-3.310
206305.000			13.238			-3.310
206403.000			13.238			-3.309
206504.000			13.238			-3.309
206604.000			13.237			-3.309
206704.000			13.237			-3.309
206804.000			13.237			-3.309
206905.000			13.236			-3.309
207004.000			13.236			-3.309
207104.000			13.235			-3.309
207205.000			13.236			-3.309
207303.000			13.236			-3.309
207405.000			13.236			-3.309
207504.000			13.235			-3.309
207604.000			13.235			-3.309
207705.000			13.235			-3.309
207804.000			13.234			-3.309
207904.000			13.235			-3.309
208005.000			13.234			-3.308
208104.000			13.234			-3.309
208203.000			13.234			-3.309
208305.000			13.233			-3.308
208404.000			13.233			-3.308
208504.000			13.233			-3.308
208605.000			13.234			-3.308
208704.000			13.233			-3.308
208804.000			13.232			-3.308
208904.000			13.233			-3.308
209004.000			13.233			-3.308
209103.000			13.232			-3.308
209205.000			13.232			-3.308
209304.000			13.233			-3.308
209404.000			13.233			-3.308
209505.000			13.231			-3.308
209604.000			13.232			-3.308
209704.000			13.232			-3.308
209804.000			13.232			-3.308
209904.000			13.231			-3.308
210004.000			13.231			-3.308
210105.000			13.231			-3.308
210204.000			13.231			-3.308
210304.000			13.231			-3.308
210405.000			13.232			-3.308
210503.000			13.231			-3.308
210605.000			13.231			-3.308
210704.000			13.231			-3.308
210804.000			13.230			-3.308
210905.000			13.230			-3.308
211004.000			13.231			-3.308
211104.000			13.229			-3.307
211205.000			13.229			-3.307
211304.000			13.230			-3.307
211403.000			13.231			-3.308
211505.000			13.230			-3.307
211604.000			13.229			-3.307
211704.000			13.228			-3.307
211805.000			13.228			-3.307
211904.000			13.228			-3.307
212004.000			13.228			-3.307
212104.000			13.228			-3.307
212204.000			13.228			-3.307
212304.000			13.229			-3.307
212405.000			13.227			-3.307
212504.000			13.227			-3.307
212604.000			13.227			-3.307
212705.000			13.227			-3.307
212804.000			13.227			-3.307
212904.000			13.226			-3.307
213004.000			13.227			-3.307
213104.000			13.225			-3.306
213204.000			13.226			-3.306
213305.000			13.226			-3.307
213404.000			13.226			-3.306
213504.000			13.225			-3.306
213605.000			13.225			-3.306
213703.000			13.226			-3.306
213805.000			13.226			-3.306
213903.000			13.225			-3.306
214004.000			13.225			-3.306
214105.000			13.224			-3.306
214204.000			13.225			-3.306
214304.000			13.225			-3.306
214405.000			13.224			-3.306
214504.000			13.224			-3.306
214603.000			13.223			-3.306
214705.000			13.223			-3.306
214804.000			13.224			-3.306
214904.000			13.223			-3.306
215005.000			13.224			-3.306
215104.000			13.224			-3.306
215204.000			13.224			-3.306
215304.000			13.222			-3.306
215404.000			13.223			-3.306
215503.000			13.224			-3.306
215605.000			13.224			-3.306
215704.000			13.223			-3.306
215804.000			13.224			-3.306
215905.000			13.225			-3.306
216004.000			13.224			-3.306
216104.000			13.224			-3.306
216204.000			13.224			-3.306
216304.000			13.225			-3.306
216404.000			13.225			-3.306
216505.000			13.224			-3.306
216604.000			13.225			-3.306
216704.000			13.226			-3.307
216805.000			13.227			-3.307
216904.000			13.226			-3.307
217005.000			13.226			-3.306
217103.000			13.226			-3.306
217204.000			13.225			-3.306
217305.000			13.226			-3.306
217404.000			13.226			-3.306
217504.000			13.226			-3.306
217605.000			13.227			-3.307
217704.000			13.226			-3.307
217803.000			13.226			-3.307
217905.000			13.227			-3.307
218003.000			13.227			-3.307
218104.000			13.226			-3.307
218205.000			13.227			-3.307
218304.000			13.226			-3.307
218404.000			13.226			-3.306
218505.000			13.226			-3.307
218604.000			13.226			-3.307
218703.000			13.224			-3.306
218805.000			13.224			-3.306
218904.000			13.227			-3.307
219004.000			13.227			-3.307
219105.000			13.225			-3.306
219204.000			13.225			-3.306
219304.000			13.226			-3.306
219405.000			13.226			-3.306
219504.000			13.225			-3.306
219603.000			13.226			-3.306
219705.000			13.226			-3.306
219804.000			13.226			-3.306
219904.000			13.225			-3.306
220005.000			13.224			-3.306
220104.000			13.225			-3.306
220205.000			13.225			-3.306
220304.000			13.224			-3.306
220404.000			13.225			-3.306
220504.000			13.225			-3.306
220604.000			13.224			-3.306
220704.000			13.222			-3.305
220805.000			13.221			-3.305
220904.000			13.224			-3.306
221004.000			13.224			-3.306
221105.000			13.223			-3.306
221203.000			13.222			-3.305
221304.000			13.221			-3.305
221405.000			13.221			-3.305
221504.000			13.220			-3.305
221604.000			13.220			-3.305
221705.000			13.221			-3.305
221804.000			13.220			-3.305
221903.000			13.220			-3.305
222005.000			13.219			-3.305
222104.000			13.218			-3.305
222204.000			13.218			-3.305
222305.000			13.217			-3.304
222404.000			13.218			-3.304
222504.000			13.217			-3.304
222605.000			13.217			-3.304
222704.000			13.216			-3.304
222803.000			13.216			-3.304
222905.000			13.215			-3.304
223004.000			13.215			-3.304
223104.000			13.215			-3.304
223205.000			13.216			-3.304
223304.000			13.214			-3.304
223405.000			13.214			-3.304
223503.000			13.214			-3.304
223604.000			13.214			-3.304
223705.000			13.214			-3.303
223804.000			13.214			-3.303
223904.000			13.214			-3.303
224005.000			13.214			-3.303
224104.000			13.213			-3.303
224204.000			13.212			-3.303
224305.000			13.213			-3.303
224403.000			13.213			-3.303
224504.000			13.213			-3.303
224605.000			13.212			-3.303
224704.000			13.213			-3.303
224804.000			13.214			-3.303
224905.000			13.212			-3.303
225004.000			13.212			-3.303
225103.000			13.213			-3.303
225205.000			13.212			-3.303
225304.000			13.212			-3.303
225404.000			13.212			-3.303
225505.000			13.211			-3.303
225604.000			13.212			-3.303
225704.000			13.211			-3.303
225805.000			13.211			-3.303
225904.000			13.212			-3.303
226003.000			13.212			-3.303
226105.000			13.211			-3.303
226204.000			13.211			-3.303
226304.000			13.211			-3.303
226405.000			13.212			-3.303
226504.000			13.211			-3.303
226605.000			13.210			-3.302
226703.000			13.210			-3.302
226804.000			13.209			-3.302
226904.000			13.209			-3.302
227004.000			13.209			-3.302
227104.000			13.209			-3.302
227205.000			13.209			-3.302
227304.000			13.209			-3.302
227404.000			13.209			-3.302
227505.000			13.209			-3.302
227603.000			13.208			-3.302
227704.000			13.209			-3.302
227805.000			13.209			-3.302
227904.000			13.209			-3.302
228004.000			13.209			-3.302
228105.000			13.208			-3.302
228204.000			13.208			-3.302
228304.000			13.207			-3.302
228405.000			13.207			-3.302
228503.000			13.208			-3.302
228604.000			13.207			-3.302
228705.000			13.207			-3.302
228804.000			13.207			-3.302
228904.000			13.207			-3.302
229005.000			13.206			-3.302
229104.000			13.207			-3.302
229203.000			13.207			-3.302
229305.000			13.207			-3.302
229403.000			13.206			-3.301
229504.000			13.207			-3.302
229605.000			13.207			-3.302
229704.000			13.206			-3.302
229805.000			13.206			-3.302
229904.000			13.206			-3.301
230004.000			13.206			-3.301
230104.000			13.207			-3.302
230204.000			13.207			-3.302
230304.000			13.207			-3.302
230405.000			13.208			-3.302
230504.000			13.207			-3.302
230604.000			13.207			-3.302
230705.000			13.207			-3.302
230804.000			13.207			-3.302
230904.000			13.206			-3.302
231004.000			13.207			-3.302
231104.000			13.207			-3.302
231204.000			13.206			-3.301
231305.000			13.205			-3.301
231404.000			13.205			-3.301
231504.000			13.205			-3.301
231605.000			13.206			-3.301
231703.000			13.205			-3.301
231804.000			13.205			-3.301
231905.000			13.204			-3.301
232004.000			13.204			-3.301
232104.000			13.204			-3.301
232205.000			13.205			-3.301
232304.000			13.204			-3.301
232403.000			13.204			-3.301
232505.000			13.205			-3.301
232603.000			13.204			-3.301
232704.000			13.204			-3.301
232805.000			13.202			-3.301
232904.000			13.203			-3.301
233005.000			13.203			-3.301
233104.000			13.202			-3.301
233204.000			13.201			-3.300
233304.000			13.201			-3.300
233404.000			13.202			-3.301
233504.000			13.201			-3.300
233605.000			13.200			-3.300
233704.000			13.200			-3.300
233804.000			13.200			-3.300
233905.000			13.200			-3.300
234003.000			13.199			-3.300
234104.000			13.200			-3.300
234204.000			13.199			-3.300
234304.000			13.200			-3.300
234404.000			13.199			-3.300
234505.000			13.198			-3.299
234604.000			13.197			-3.299
234704.000			13.198			-3.299
234805.000			13.198			-3.300
234903.000			13.198			-3.299
235004.000			13.197			-3.299
235104.000			13.198			-3.299
235204.000			13.198			-3.300
235304.000			13.198			-3.300
235405.000			13.198			-3.299
235504.000			13.198			-3.299
235604.000			13.197			-3.299
235705.000			13.197			-3.299
235803.000			13.197			-3.299
235904.000			13.197			-3.299
236004.000			13.198			-3.299
236104.000			13.196			-3.299
236205.000			13.196			-3.299
236304.000			13.196			-3.299
236404.000			13.197			-3.299
236505.000			13.196			-3.299
236604.000			13.196			-3.299
236703.000			13.195			-3.299
236805.000			13.195			-3.299
236903.000			13.194			-3.299
237004.000			13.194			-3.299
237105.000			13.194			-3.299
237204.000			13.195			-3.299
237304.000			13.194			-3.298
237405.000			13.195			-3.299
237504.000			13.194			-3.298
237603.000			13.193			-3.298
237705.000			13.194			-3.298
237803.000			13.194			-3.298
237904.000			13.194			-3.298
238005.000			13.194			-3.298
238104.000			13.193			-3.298
238204.000			13.193			-3.298
238305.000			13.193			-3.298
238404.000			13.193			-3.298
238503.000			13.192			-3.298
238605.000			13.192			-3.298
238704.000			13.191			-3.298
238804.000			13.193			-3.298
238905.000			13.193			-3.298
239004.000			13.194			-3.298
239104.000			13.193			-3.298
239205.000			13.192			-3.298
239304.000			13.191			-3.298
239403.000			13.191			-3.298
239504.000			13.192			-3.298
239604.000			13.192			-3.298
239705.000			13.192			-3.298
239804.000			13.191			-3.298
239904.000			13.191			-3.298
240005.000			13.192			-3.298
240104.000			13.191			-3.298
240204.000			13.191			-3.298
240304.000			13.191			-3.298
240404.000			13.191			-3.298
240504.000			13.190			-3.297
240605.000			13.190			-3.297
240704.000			13.190			-3.297
240804.000			13.189			-3.297
240905.000			13.190			-3.298
241004.000			13.189			-3.297
241104.000			13.188			-3.297
241204.000			13.188			-3.297
241304.000			13.189			-3.297
241404.000			13.188			-3.297
241505.000			13.189			-3.297
241604.000			13.189			-3.297
241704.000			13.189			-3.297
241805.000			13.189			-3.297
241904.000			13.188			-3.297
242004.000			13.188			-3.297
242104.000			13.189			-3.297
242204.000			13.188			-3.297
242304.000			13.188			-3.297
242405.000			13.187			-3.297
242504.000			13.187			-3.297
242605.000			13.187			-3.297
242704.000			13.188			-3.297
242804.000			13.188			-3.297
242905.000			13.188			-3.297
243003.000			13.188			-3.297
243104.000			13.186			-3.297
243205.000			13.186			-3.296
243304.000			13.187			-3.297
243404.000			13.187			-3.297
243505.000			13.186			-3.297
243604.000			13.187			-3.297
243704.000			13.186			-3.297
243805.000			13.187			-3.297
243903.000			13.186			-3.297
244004.000			13.186			-3.297
244105.000			13.186			-3.297
244204.000			13.185			-3.296
244304.000			13.185			-3.296
244405.000			13.185			-3.296
244504.000			13.185			-3.296
244603.000			13.185			-3.296
244705.000			13.184			-3.296
244803.000			13.185			-3.296
244904.000			13.185			-3.296
245005.000			13.185			-3.296
245104.000			13.184			-3.296
245204.000			13.185			-3.296
245305.000			13.185			-3.296
245404.000			13.184			-3.296
245503.000			13.185			-3.296
245605.000			13.185			-3.296
245703.000			13.185			-3.296
245805.000			13.186			-3.296
245904.000			13.185			-3.296
246004.000			13.185			-3.296
246105.000			13.184			-3.296
246204.000			13.185			-3.296
246304.000			13.185			-3.296
246404.000			13.186			-3.296
246504.000			13.185			-3.296
246603.000			13.185			-3.296
246705.000			13.185			-3.296
246804.000			13.186			-3.296
246904.000			13.186			-3.297
247005.000			13.186			-3.297
247104.000			13.186			-3.296
247204.000			13.185			-3.296
247304.000			13.186			-3.297
247404.000			13.186			-3.297
247503.000			13.185			-3.296
247605.000			13.186			-3.296
247704.000			13.186			-3.296
247804.000			13.185			-3.296
247905.000			13.186			-3.296
248004.000			13.186			-3.296
248104.000			13.185			-3.296
248204.000			13.186			-3.297
248304.000			13.185			-3.296
248403.000			13.186			-3.296
248505.000			13.186			-3.296
248604.000			13.186			-3.296
248704.000			13.186			-3.297
248805.000			13.186			-3.297
248904.000			13.187			-3.297
249005.000			13.187			-3.297
249103.000			13.187			-3.297
249204.000			13.186			-3.296
249304.000			13.186			-3.296
249404.000			13.185			-3.296
249504.000			13.186			-3.296
249605.000			13.186			-3.296
249704.000			13.186			-3.296
249804.000			13.185			-3.296
249905.000			13.186			-3.296
250004.000			13.186			-3.296
250104.000			13.185			-3.296
250204.000			13.185			-3.296
250304.000			13.186			-3.296
250404.000			13.185			-3.296
250505.000			13.185			-3.296
250604.000			13.184			-3.296
250704.000			13.184			-3.296
250805.000			13.185			-3.296
250903.000			13.186			-3.297
251004.000			13.186			-3.296
251105.000			13.185			-3.296
251204.000			13.185			-3.296
251304.000			13.185			-3.296
251405.000			13.186			-3.297
251504.000			13.186			-3.296
251604.000			13.185			-3.296
251705.000			13.185			-3.296
251803.000			13.184			-3.296
251904.000			13.185			-3.296
252005.000			13.185			-3.296
252104.000			13.185			-3.296
252205.000			13.185			-3.296
252304.000			13.185			-3.296
252404.000			13.184			-3.296
252504.000			13.184			-3.296
252604.000			13.185			-3.296
252703.000			13.184			-3.296
252805.000			13.183			-3.296
252904.000			13.183			-3.296
253004.000			13.183			-3.296
253105.000			13.183			-3.296
253204.000			13.182			-3.295
253304.000			13.182			-3.295
253404.000			13.183			-3.296
253504.000			13.183			-3.296
253603.000			13.181			-3.295
253705.000			13.180			-3.295
253804.000			13.181			-3.295
253904.000			13.181			-3.295
254005.000			13.181			-3.295
254104.000			13.179			-3.295
254204.000			13.179			-3.295
254304.000			13.178			-3.295
254404.000			13.177			-3.294
254503.000			13.177			-3.294
254605.000			13.179			-3.295
254704.000			13.178			-3.294
254804.000			13.177			-3.294
254905.000			13.176			-3.294
255004.000			13.177			-3.294
255104.000			13.176			-3.294
255204.000			13.175			-3.294
255304.000			13.175			-3.294
255405.000			13.175			-3.294
255504.000			13.176			-3.294
255604.000			13.175			-3.294
255705.000			13.175			-3.294
255804.000			13.175			-3.294
255904.000			13.176			-3.294
256005.000			13.175			-3.294
256103.000			13.175			-3.294
256204.000			13.174			-3.294
256305.000			13.175			-3.294
256404.000			13.174			-3.294
256504.000			13.173			-3.293
256605.000			13.173			-3.293
256704.000			13.172			-3.293
256804.000			13.172			-3.293
256905.000			13.172			-3.293
257003.000			13.173			-3.293
257104.000			13.173			-3.293
257205.000			13.174			-3.294
257304.000			13.173			-3.293
257404.000			13.173			-3.293
257505.000			13.172			-3.293
257604.000			13.173			-3.293
257704.000			13.174			-3.294
257805.000			13.174			-3.294
257903.000			13.173			-3.293
258004.000			13.175			-3.294
258105.000			13.175			-3.294
258204.000			13.174			-3.293
258304.000			13.174			-3.294
258405.000			13.174			-3.294
258504.000			13.175			-3.294
258605.000			13.175			-3.294
258704.000			13.175			-3.294
258803.000			13.175			-3.294
258905.000			13.175			-3.294
259004.000			13.175			-3.294
259104.000			13.176			-3.294
259205.000			13.175			-3.294
259304.000			13.174			-3.294
259404.000			13.174			-3.294
259505.000			13.174			-3.294
259604.000			13.174			-3.294
259703.000			13.174			-3.294
259805.000			13.173			-3.293
259904.000			13.174			-3.294
260004.000			13.174			-3.294
260105.000			13.174			-3.293
260204.000			13.173			-3.293
260304.000			13.173			-3.293
260405.000			13.174			-3.293
260504.000			13.174			-3.294
260603.000			13.174			-3.294
260705.000			13.173			-3.293
260804.000			13.174			-3.293
260904.000			13.173			-3.293
261005.000			13.172			-3.293
261104.000			13.174			-3.293
261204.000			13.173			-3.293
261304.000			13.173			-3.293
261404.000			13.173			-3.293
261504.000			13.172			-3.293
261605.000			13.172			-3.293
261704.000			13.173			-3.293
261805.000			13.172			-3.293
261904.000			13.173			-3.293
262004.000			13.173			-3.293
262105.000			13.172			-3.293
262203.000			13.172			-3.293
262304.000			13.171			-3.293
262405.000			13.172			-3.293
262504.000			13.172			-3.293
262604.000			13.171			-3.293
262705.000			13.172			-3.293
262804.000			13.171			-3.293
262903.000			13.170			-3.293
263005.000			13.170			-3.292
263103.000			13.170			-3.293
263204.000			13.171			-3.293
263305.000			13.170			-3.293
263404.000			13.169			-3.292
263504.000			13.169			-3.292
263605.000			13.169			-3.292
263704.000			13.169			-3.292
263803.000			13.169			-3.292
263905.000			13.169			-3.292
264004.000			13.168			-3.292
264104.000			13.168			-3.292
264205.000			13.168			-3.292
264304.000			13.168			-3.292
264404.000			13.168			-3.292
264505.000			13.169			-3.292
264604.000			13.168			-3.292
264703.000			13.166			-3.292
264805.000			13.168			-3.292
264904.000			13.168			-3.292
265005.000			13.169			-3.292
265104.000			13.168			-3.292
265204.000			13.168			-3.292
265305.000			13.168			-3.292
265404.000			13.169			-3.292
265504.000			13.168			-3.292
265604.000			13.168			-3.292
265704.000			13.167			-3.292
265804.000			13.167			-3.292
265905.000			13.167			-3.292
266004.000			13.168			-3.292
266104.000			13.168			-3.292
266205.000			13.167			-3.292
266304.000			13.167			-3.292
266404.000			13.167			-3.292
266504.000			13.167			-3.292
266604.000			13.167			-3.292
266704.000			13.168			-3.292
266805.000			13.166			-3.292
266904.000			13.166			-3.291
267004.000			13.166			-3.292
267105.000			13.167			-3.292
267204.000			13.167			-3.292
267304.000			13.167			-3.292
267404.000			13.167			-3.292
267504.000			13.166			-3.291
267604.000			13.165			-3.291
267705.000			13.166			-3.291
267804.000			13.166			-3.292
267904.000			13.166			-3.292
268005.000			13.165			-3.291
268104.000			13.165			-3.291
268205.000			13.165			-3.291
268303.000			13.165			-3.291
268404.000			13.165			-3.291
268505.000			13.165			-3.291
268604.000			13.165			-3.291
268704.000			13.165			-3.291
268805.000			13.165			-3.291
268904.000			13.165			-3.291
269004.000			13.165			-3.291
269105.000			13.164			-3.291
269203.000			13.163			-3.291
269304.000			13.163			-3.291
269405.000			13.163			-3.291
269504.000			13.164			-3.291
269604.000			13.164			-3.291
269705.000			13.164			-3.291
269804.000			13.163			-3.291
269904.000			13.164			-3.291
270005.000			13.163			-3.291
270103.000			13.164			-3.291
270204.000			13.163			-3.291
270305.000			13.163			-3.291
270404.000			13.162			-3.291
270504.000			13.162			-3.290
270605.000			13.162			-3.291
270704.000			13.162			-3.291
270803.000			13.162			-3.291
270905.000			13.162			-3.291
271004.000			13.163			-3.291
271104.000			13.163			-3.291
271205.000			13.162			-3.291
271304.000			13.162			-3.290
271405.000			13.161			-3.290
271504.000			13.161			-3.290
271604.000			13.161			-3.290
271704.000			13.161			-3.290
271804.000			13.162			-3.290
271904.000			13.161			-3.290
272005.000			13.160			-3.290
272104.000			13.160			-3.290
272204.000			13.160			-3.290
272305.000			13.160			-3.290
272403.000			13.159			-3.290
272504.000			13.160			-3.290
272604.000			13.161			-3.290
272704.000			13.159			-3.290
272804.000			13.158			-3.290
272905.000			13.159			-3.290
273004.000			13.160			-3.290
273104.000			13.159			-3.290
273205.000			13.159			-3.290
273303.000			13.158			-3.290
273404.000			13.158			-3.289
273504.000			13.158			-3.290
273604.000			13.157			-3.289
273704.000			13.158			-3.290
273805.000			13.158			-3.289
273904.000			13.158			-3.289
274004.000			13.158			-3.289
274105.000			13.157			-3.289
274203.000			13.157			-3.289
274304.000			13.157			-3.289
274405.000			13.157			-3.289
274504.000			13.156			-3.289
274605.000			13.157			-3.289
274704.000			13.157			-3.289
274804.000			13.157			-3.289
274905.000			13.156			-3.289
275004.000			13.156			-3.289
275103.000			13.156			-3.289
275205.000			13.156			-3.289
275304.000			13.156			-3.289
275404.000			13.156			-3.289
275505.000			13.156			-3.289
275604.000			13.156			-3.289
275704.000			13.155			-3.289
275805.000			13.156			-3.289
275904.000			13.155			-3.289
276003.000			13.155			-3.289
276105.000			13.155			-3.289
276204.000			13.154			-3.289
276304.000			13.155			-3.289
276405.000			13.155			-3.289
276504.000			13.154			-3.288
276604.000			13.154			-3.288
276705.000			13.155			-3.289
276804.000			13.155			-3.289
276903.000			13.154			-3.289
277005.000			13.153			-3.288
277104.000			13.154			-3.289
277204.000			13.154			-3.288
277305.000			13.153			-3.288
277404.000			13.153			-3.288
277504.000			13.153			-3.288
277605.000			13.152			-3.288
277704.000			13.154			-3.288
277803.000			13.153			-3.288
277904.000			13.153			-3.288
278004.000			13.153			-3.288
278105.000			13.153			-3.288
278204.000			13.152			-3.288
278304.000			13.151			-3.288
278405.000			13.151			-3.288
278504.000			13.152			-3.288
278604.000			13.152			-3.288
278704.000			13.151			-3.288
278804.000			13.151			-3.288
278904.000			13.151			-3.288
279005.000			13.152			-3.288
279104.000			13.152			-3.288
279204.000			13.152			-3.288
279305.000			13.150			-3.288
279403.000			13.151			-3.288
279504.000			13.152			-3.288
279604.000			13.151			-3.288
279704.000			13.150			-3.287
279804.000			13.150			-3.288
279905.000			13.151			-3.288
280004.000			13.149			-3.287
280104.000			13.149			-3.287
280205.000			13.149			-3.287
280303.000			13.149			-3.287
280404.000			13.149			-3.287
280505.000			13.150			-3.287
280604.000			13.150			-3.287
280704.000			13.150			-3.287
280805.000			13.150			-3.287
280904.000			13.149			-3.287
281005.000			13.148			-3.287
281104.000			13.147			-3.287
281203.000			13.147			-3.287
281305.000			13.148			-3.287
281404.000			13.148			-3.287
281504.000			13.146			-3.287
281605.000			13.146			-3.287
281704.000			13.147			-3.287
281804.000			13.147			-3.287
281905.000			13.146			-3.287
282004.000			13.145			-3.286
282103.000			13.146			-3.287
282205.000			13.147			-3.287
282304.000			13.146			-3.286
282404.000			13.144			-3.286
282505.000			13.144			-3.286
282604.000			13.145			-3.286
282704.000			13.144			-3.286
282804.000			13.143			-3.286
282904.000			13.143			-3.286
283003.000			13.144			-3.286
283105.000			13.144			-3.286
283204.000			13.143			-3.286
283304.000			13.143			-3.286
283405.000			13.143			-3.286
283504.000			13.142			-3.286
283604.000			13.142			-3.285
283704.000			13.142			-3.286
283804.000			13.142			-3.285
283904.000			13.142			-3.285
284005.000			13.140			-3.285
284104.000			13.140			-3.285
284205.000			13.140			-3.285
284304.000			13.141			-3.285
284404.000			13.140			-3.285
284505.000			13.140			-3.285
284603.000			13.139			-3.285
284704.000			13.139			-3.285
284805.000			13.140			-3.285
284904.000			13.140			-3.285
285004.000			13.140			-3.285
285105.000			13.139			-3.285
285204.000			13.139			-3.285
285304.000			13.140			-3.285
285405.000			13.140			-3.285
285503.000			13.139			-3.285
285604.000			13.138			-3.285
285705.000			13.139			-3.285
285804.000			13.139			-3.285
285904.000			13.138			-3.284
286005.000			13.137			-3.284
286104.000			13.137			-3.284
286204.000			13.138			-3.284
286305.000			13.138			-3.284
286403.000			13.138			-3.284
286504.000			13.138			-3.285
286605.000			13.138			-3.285
286704.000			13.138			-3.284
286804.000			13.137			-3.284
286905.000			13.137			-3.284
287004.000			13.137			-3.284
287104.000			13.138			-3.284
287205.000			13.137			-3.284
287303.000			13.137			-3.284
287405.000			13.136			-3.284
287504.000			13.136			-3.284
287604.000			13.137			-3.284
287705.000			13.137			-3.284
287804.000			13.136			-3.284
287904.000			13.136			-3.284
288005.000			13.136			-3.284
288104.000			13.134			-3.284
288203.000			13.135			-3.284
288305.000			13.135			-3.284
288404.000			13.134			-3.284
288504.000			13.135			-3.284
288605.000			13.135			-3.284
288704.000			13.135			-3.284
288804.000			13.135			-3.284
288905.000			13.135			-3.284
289004.000			13.134			-3.284
289103.000			13.135			-3.284
289205.000			13.135			-3.284
289304.000			13.134			-3.284
289404.000			13.135			-3.284
289505.000			13.135			-3.284
289604.000			13.134			-3.284
289704.000			13.134			-3.283
289805.000			13.134			-3.283
289904.000			13.133			-3.283
290003.000			13.133			-3.283
290105.000			13.133			-3.283
290204.000			13.133			-3.283
290304.000			13.133			-3.283
290405.000			13.134			-3.283
290504.000			13.133			-3.283
290605.000			13.133			-3.283
290703.000			13.133			-3.283
290804.000			13.133			-3.283
290904.000			13.133			-3.283
291004.000			13.132			-3.283
291104.000			13.132			-3.283
291205.000			13.133			-3.283
291304.000			13.133			-3.283
291404.000			13.132			-3.283
291505.000			13.132			-3.283
291603.000			13.132			-3.283
291704.000			13.133			-3.283
291805.000			13.132			-3.283
291904.000			13.131			-3.283
292004.000			13.131			-3.283
292105.000			13.131			-3.283
292204.000			13.131			-3.283
292303.000			13.132			-3.283
292405.000			13.131			-3.283
292503.000			13.131			-3.283
292604.000			13.131			-3.283
292705.000			13.132			-3.283
292804.000			13.131			-3.283
292904.000			13.130			-3.283
293005.000			13.132			-3.283
293104.000			13.131			-3.283
293203.000			13.130			-3.283
293305.000			13.130			-3.283
293404.000			13.131			-3.283
293504.000			13.131			-3.283
293605.000			13.130			-3.283
293704.000			13.130			-3.282
293805.000			13.131			-3.283
293903.000			13.130			-3.283
294004.000			13.129			-3.282
294104.000			13.129			-3.282
294204.000			13.129			-3.282
294304.000			13.129			-3.282
294405.000			13.130			-3.282
294504.000			13.129			-3.282
294604.000			13.129			-3.282
294705.000			13.129			-3.282
294803.000			13.128			-3.282
294904.000			13.128			-3.282
295005.000			13.129			-3.282
295104.000			13.129			-3.282
295204.000			13.127			-3.282
295305.000			13.129			-3.282
295404.000			13.129			-3.282
295504.000			13.129			-3.282
295605.000			13.128			-3.282
295703.000			13.128			-3.282
295804.000			13.128			-3.282
295904.000			13.128			-3.282
296004.000			13.128			-3.282
296104.000			13.128			-3.282
296205.000			13.127			-3.282
296304.000			13.127			-3.282
296404.000			13.127			-3.282
296505.000			13.128			-3.282
296603.000			13.128			-3.282
296704.000			13.128			-3.282
296804.000			13.127			-3.282
296904.000			13.126			-3.282
297005.000			13.127			-3.282
297104.000			13.127			-3.282
297204.000			13.127			-3.282
297305.000			13.126			-3.281
297404.000			13.126			-3.281
297503.000			13.126			-3.282
297605.000			13.126			-3.281
297704.000			13.126			-3.281
297804.000			13.127			-3.282
297905.000			13.128			-3.282
298004.000			13.126			-3.282
298104.000			13.126			-3.282
298205.000			13.126			-3.281
298304.000			13.126			-3.281
298403.000			13.125			-3.281
298505.000			13.126			-3.281
298604.000			13.125			-3.281
298704.000			13.124			-3.281
298805.000			13.125			-3.281
298904.000			13.126			-3.282
299004.000			13.126			-3.281
299105.000			13.126			-3.281
299204.000			13.125			-3.281
299303.000			13.125			-3.281
299405.000			13.125			-3.281
299504.000			13.124			-3.281
299604.000			13.124			-3.281
299705.000			13.125			-3.281
299804.000			13.125			-3.281
299904.000			13.124			-3.281
