# Acquired on 25/01/2024 11:58:50 
# SPIDER: Creep_-4mm_GRPCNT1454A-2
# CREEP MEASUREMENT

# time [ms]		force [N]		stiffness [N/mm]
1.000			14.916			-3.729
105.000			15.580			-3.895
204.000			15.697			-3.924
304.000			15.579			-3.895
404.000			15.374			-3.843
504.000			15.299			-3.825
604.000			15.236			-3.809
705.000			15.182			-3.795
804.000			15.133			-3.783
903.000			15.089			-3.772
1005.000			15.049			-3.762
1104.000			15.013			-3.753
1204.000			14.949			-3.737
1305.000			14.920			-3.730
1403.000			14.892			-3.723
1504.000			14.867			-3.717
1605.000			14.843			-3.711
1704.000			14.820			-3.705
1804.000			14.799			-3.700
1905.000			14.759			-3.690
2004.000			14.741			-3.685
2103.000			14.724			-3.681
2205.000			14.706			-3.677
2304.000			14.691			-3.673
2404.000			14.675			-3.669
2505.000			14.659			-3.665
2604.000			14.631			-3.658
2704.000			14.618			-3.654
2804.000			14.605			-3.651
2904.000			14.592			-3.648
3004.000			14.580			-3.645
3104.000			14.568			-3.642
3204.000			14.557			-3.639
3304.000			14.545			-3.636
3404.000			14.523			-3.631
3504.000			14.511			-3.628
3605.000			14.502			-3.625
3704.000			14.492			-3.623
3804.000			14.483			-3.621
3905.000			14.475			-3.619
4003.000			14.465			-3.616
4104.000			14.447			-3.612
4205.000			14.438			-3.610
4304.000			14.429			-3.607
4404.000			14.422			-3.606
4505.000			14.415			-3.604
4604.000			14.406			-3.602
4703.000			14.398			-3.600
4805.000			14.384			-3.596
4904.000			14.375			-3.594
5004.000			14.369			-3.592
5105.000			14.363			-3.591
5203.000			14.356			-3.589
5304.000			14.349			-3.587
5405.000			14.341			-3.585
5504.000			14.335			-3.584
5604.000			14.322			-3.581
5705.000			14.316			-3.579
5804.000			14.311			-3.578
5903.000			14.304			-3.576
6005.000			14.299			-3.575
6104.000			14.292			-3.573
6204.000			14.287			-3.572
6305.000			14.276			-3.569
6404.000			14.270			-3.567
6505.000			14.264			-3.566
6604.000			14.260			-3.565
6704.000			14.255			-3.564
6805.000			14.249			-3.562
6904.000			14.245			-3.561
7004.000			14.234			-3.559
7104.000			14.230			-3.557
7204.000			14.224			-3.556
7304.000			14.219			-3.555
7405.000			14.215			-3.554
7504.000			14.210			-3.553
7604.000			14.205			-3.551
7705.000			14.196			-3.549
7803.000			14.192			-3.548
7904.000			14.187			-3.547
8005.000			14.183			-3.546
8104.000			14.179			-3.545
8204.000			14.174			-3.544
8304.000			14.170			-3.543
8404.000			14.167			-3.542
8504.000			14.158			-3.539
8605.000			14.153			-3.538
8704.000			14.149			-3.537
8804.000			14.146			-3.537
8905.000			14.143			-3.536
9003.000			14.139			-3.535
9104.000			14.135			-3.534
9205.000			14.128			-3.532
9304.000			14.123			-3.531
9404.000			14.120			-3.530
9504.000			14.117			-3.529
9604.000			14.114			-3.528
9705.000			14.109			-3.527
9804.000			14.105			-3.526
9904.000			14.098			-3.525
10005.000			14.095			-3.524
10104.000			14.093			-3.523
10203.000			14.089			-3.522
10305.000			14.084			-3.521
10404.000			14.081			-3.520
10504.000			14.079			-3.520
10605.000			14.076			-3.519
10704.000			14.069			-3.517
10804.000			14.065			-3.516
10904.000			14.061			-3.515
11004.000			14.059			-3.515
11104.000			14.057			-3.514
11205.000			14.054			-3.514
11304.000			14.051			-3.513
11403.000			14.044			-3.511
11505.000			14.041			-3.510
11604.000			14.038			-3.509
11704.000			14.035			-3.509
11805.000			14.033			-3.508
11904.000			14.029			-3.507
12004.000			14.027			-3.507
12104.000			14.021			-3.505
12204.000			14.018			-3.505
12304.000			14.017			-3.504
12405.000			14.015			-3.504
12504.000			14.011			-3.503
12604.000			14.008			-3.502
12705.000			14.006			-3.502
12803.000			14.003			-3.501
12905.000			13.997			-3.499
13004.000			13.995			-3.499
13104.000			13.992			-3.498
13205.000			13.988			-3.497
13303.000			13.986			-3.496
13404.000			13.983			-3.496
13505.000			13.980			-3.495
13604.000			13.975			-3.494
13704.000			13.974			-3.494
13805.000			13.971			-3.493
13904.000			13.969			-3.492
14003.000			13.966			-3.492
14105.000			13.963			-3.491
14204.000			13.961			-3.490
14304.000			13.957			-3.489
14405.000			13.954			-3.489
14504.000			13.954			-3.488
14604.000			13.950			-3.488
14704.000			13.947			-3.487
14804.000			13.946			-3.487
14903.000			13.943			-3.486
15005.000			13.939			-3.485
15104.000			13.936			-3.484
15204.000			13.934			-3.484
15305.000			13.933			-3.483
15403.000			13.929			-3.482
15504.000			13.927			-3.482
15605.000			13.926			-3.482
15704.000			13.923			-3.481
15804.000			13.919			-3.480
15904.000			13.917			-3.479
16004.000			13.916			-3.479
16104.000			13.913			-3.478
16204.000			13.910			-3.477
16304.000			13.909			-3.477
16405.000			13.907			-3.477
16504.000			13.902			-3.476
16604.000			13.901			-3.475
16705.000			13.899			-3.475
16803.000			13.896			-3.474
16904.000			13.894			-3.474
17005.000			13.892			-3.473
17104.000			13.890			-3.472
17204.000			13.886			-3.472
17305.000			13.884			-3.471
17404.000			13.882			-3.470
17503.000			13.880			-3.470
17605.000			13.878			-3.470
17704.000			13.876			-3.469
17804.000			13.875			-3.469
17905.000			13.872			-3.468
18004.000			13.870			-3.467
18104.000			13.868			-3.467
18204.000			13.866			-3.466
18304.000			13.863			-3.466
18404.000			13.861			-3.465
18505.000			13.859			-3.465
18604.000			13.857			-3.464
18704.000			13.854			-3.464
18805.000			13.852			-3.463
18903.000			13.851			-3.463
19004.000			13.848			-3.462
19105.000			13.845			-3.461
19204.000			13.845			-3.461
19305.000			13.844			-3.461
19404.000			13.841			-3.460
19504.000			13.839			-3.460
19604.000			13.837			-3.459
19704.000			13.836			-3.459
19804.000			13.834			-3.458
19905.000			13.831			-3.458
20004.000			13.830			-3.457
20104.000			13.827			-3.457
20205.000			13.825			-3.456
20303.000			13.824			-3.456
20404.000			13.822			-3.456
20505.000			13.821			-3.455
20604.000			13.819			-3.455
20704.000			13.816			-3.454
20805.000			13.815			-3.454
20904.000			13.811			-3.453
21003.000			13.809			-3.452
21105.000			13.809			-3.452
21204.000			13.808			-3.452
21304.000			13.806			-3.451
21405.000			13.804			-3.451
21504.000			13.803			-3.451
21604.000			13.799			-3.450
21704.000			13.798			-3.450
21804.000			13.796			-3.449
21904.000			13.795			-3.449
22005.000			13.792			-3.448
22104.000			13.792			-3.448
22203.000			13.791			-3.448
22305.000			13.787			-3.447
22404.000			13.785			-3.446
22505.000			13.785			-3.446
22604.000			13.782			-3.446
22704.000			13.781			-3.445
22805.000			13.780			-3.445
22904.000			13.778			-3.445
23004.000			13.777			-3.444
23104.000			13.773			-3.443
23204.000			13.773			-3.443
23304.000			13.771			-3.443
23405.000			13.771			-3.443
23504.000			13.768			-3.442
23603.000			13.767			-3.442
23705.000			13.767			-3.442
23804.000			13.762			-3.441
23904.000			13.761			-3.440
24005.000			13.760			-3.440
24104.000			13.759			-3.440
24204.000			13.757			-3.439
24304.000			13.756			-3.439
24404.000			13.755			-3.439
24504.000			13.752			-3.438
24605.000			13.751			-3.438
24704.000			13.750			-3.437
24804.000			13.749			-3.437
24905.000			13.747			-3.437
25003.000			13.745			-3.436
25104.000			13.743			-3.436
25205.000			13.740			-3.435
25304.000			13.740			-3.435
25404.000			13.739			-3.435
25504.000			13.737			-3.434
25604.000			13.736			-3.434
25704.000			13.735			-3.434
25804.000			13.734			-3.433
25904.000			13.732			-3.433
26005.000			13.730			-3.433
26104.000			13.729			-3.432
26204.000			13.727			-3.432
26305.000			13.726			-3.431
26403.000			13.725			-3.431
26504.000			13.723			-3.431
26605.000			13.722			-3.430
26704.000			13.719			-3.430
26804.000			13.719			-3.430
26904.000			13.718			-3.429
27004.000			13.716			-3.429
27103.000			13.714			-3.429
27205.000			13.714			-3.428
27304.000			13.713			-3.428
27404.000			13.710			-3.428
27505.000			13.709			-3.427
27603.000			13.706			-3.427
27704.000			13.705			-3.426
27805.000			13.704			-3.426
27904.000			13.704			-3.426
28004.000			13.703			-3.426
28105.000			13.701			-3.425
28204.000			13.699			-3.425
28303.000			13.698			-3.425
28405.000			13.697			-3.424
28504.000			13.696			-3.424
28604.000			13.694			-3.424
28705.000			13.694			-3.423
28804.000			13.692			-3.423
28905.000			13.690			-3.422
29003.000			13.689			-3.422
29104.000			13.687			-3.422
29205.000			13.686			-3.422
29304.000			13.685			-3.421
29404.000			13.683			-3.421
29505.000			13.683			-3.421
29604.000			13.680			-3.420
29703.000			13.679			-3.420
29805.000			13.679			-3.420
29904.000			13.677			-3.419
30004.000			13.676			-3.419
30105.000			13.676			-3.419
30204.000			13.674			-3.419
30304.000			13.672			-3.418
30404.000			13.670			-3.418
30504.000			13.670			-3.418
30604.000			13.669			-3.417
30705.000			13.668			-3.417
30804.000			13.667			-3.417
30904.000			13.665			-3.416
31005.000			13.664			-3.416
31103.000			13.662			-3.416
31204.000			13.661			-3.415
31305.000			13.659			-3.415
31404.000			13.658			-3.414
31504.000			13.658			-3.414
31604.000			13.657			-3.414
31704.000			13.656			-3.414
31803.000			13.655			-3.414
31905.000			13.653			-3.413
32004.000			13.651			-3.413
32105.000			13.650			-3.413
32204.000			13.650			-3.413
32303.000			13.648			-3.412
32405.000			13.647			-3.412
32504.000			13.646			-3.411
32604.000			13.644			-3.411
32705.000			13.643			-3.411
32804.000			13.642			-3.411
32904.000			13.642			-3.411
33004.000			13.641			-3.410
33104.000			13.639			-3.410
33204.000			13.637			-3.409
33305.000			13.637			-3.409
33404.000			13.636			-3.409
33504.000			13.634			-3.409
33605.000			13.634			-3.409
33703.000			13.633			-3.408
33804.000			13.631			-3.408
33905.000			13.631			-3.408
34004.000			13.630			-3.407
34104.000			13.628			-3.407
34204.000			13.627			-3.407
34304.000			13.626			-3.406
34404.000			13.624			-3.406
34505.000			13.624			-3.406
34604.000			13.623			-3.406
34704.000			13.622			-3.406
34805.000			13.620			-3.405
34903.000			13.619			-3.405
35004.000			13.618			-3.405
35105.000			13.617			-3.404
35204.000			13.615			-3.404
35305.000			13.614			-3.404
35404.000			13.614			-3.403
35504.000			13.613			-3.403
35604.000			13.612			-3.403
35704.000			13.611			-3.403
35804.000			13.610			-3.402
35905.000			13.608			-3.402
36004.000			13.608			-3.402
36104.000			13.607			-3.402
36205.000			13.606			-3.402
36303.000			13.605			-3.401
36404.000			13.603			-3.401
36505.000			13.603			-3.401
36604.000			13.602			-3.401
36704.000			13.601			-3.400
36804.000			13.600			-3.400
36904.000			13.598			-3.400
37003.000			13.598			-3.400
37105.000			13.596			-3.399
37204.000			13.595			-3.399
37304.000			13.594			-3.398
37405.000			13.593			-3.398
37504.000			13.593			-3.398
37604.000			13.590			-3.398
37704.000			13.590			-3.397
37804.000			13.589			-3.397
37904.000			13.587			-3.397
38005.000			13.586			-3.397
38104.000			13.586			-3.396
38204.000			13.585			-3.396
38305.000			13.585			-3.396
38403.000			13.584			-3.396
38505.000			13.583			-3.396
38604.000			13.581			-3.395
38704.000			13.581			-3.395
38805.000			13.581			-3.395
38904.000			13.580			-3.395
39004.000			13.579			-3.395
39104.000			13.577			-3.394
39204.000			13.576			-3.394
39304.000			13.575			-3.394
39405.000			13.574			-3.394
39504.000			13.574			-3.393
39604.000			13.572			-3.393
39705.000			13.571			-3.393
39803.000			13.569			-3.392
39904.000			13.568			-3.392
40005.000			13.568			-3.392
40104.000			13.568			-3.392
40204.000			13.567			-3.392
40305.000			13.566			-3.391
40404.000			13.565			-3.391
40503.000			13.563			-3.391
40605.000			13.562			-3.391
40704.000			13.561			-3.390
40804.000			13.560			-3.390
40905.000			13.560			-3.390
41003.000			13.559			-3.390
41104.000			13.558			-3.390
41205.000			13.558			-3.389
41304.000			13.557			-3.389
41404.000			13.556			-3.389
41504.000			13.554			-3.388
41604.000			13.553			-3.388
41704.000			13.553			-3.388
41804.000			13.551			-3.388
41904.000			13.551			-3.388
42005.000			13.549			-3.387
42104.000			13.549			-3.387
42204.000			13.548			-3.387
42305.000			13.547			-3.387
42403.000			13.547			-3.387
42504.000			13.546			-3.386
42605.000			13.545			-3.386
42704.000			13.543			-3.386
42804.000			13.542			-3.385
42905.000			13.542			-3.385
43004.000			13.542			-3.385
43103.000			13.541			-3.385
43205.000			13.540			-3.385
43304.000			13.539			-3.385
43404.000			13.538			-3.385
43505.000			13.537			-3.384
43603.000			13.535			-3.384
43704.000			13.534			-3.384
43805.000			13.534			-3.383
43904.000			13.533			-3.383
44004.000			13.533			-3.383
44105.000			13.532			-3.383
44204.000			13.530			-3.382
44303.000			13.529			-3.382
44405.000			13.529			-3.382
44504.000			13.528			-3.382
44604.000			13.527			-3.382
44705.000			13.527			-3.382
44804.000			13.526			-3.381
44905.000			13.524			-3.381
45003.000			13.524			-3.381
45104.000			13.523			-3.381
45205.000			13.522			-3.381
45304.000			13.521			-3.380
45404.000			13.520			-3.380
45505.000			13.519			-3.380
45604.000			13.518			-3.379
45703.000			13.517			-3.379
45805.000			13.516			-3.379
45904.000			13.516			-3.379
46004.000			13.515			-3.379
46105.000			13.515			-3.379
46203.000			13.514			-3.378
46304.000			13.513			-3.378
46405.000			13.512			-3.378
46504.000			13.511			-3.378
46604.000			13.512			-3.378
46705.000			13.510			-3.377
46804.000			13.509			-3.377
46903.000			13.508			-3.377
47005.000			13.507			-3.377
47104.000			13.506			-3.377
47204.000			13.504			-3.376
47305.000			13.505			-3.376
47404.000			13.505			-3.376
47504.000			13.503			-3.376
47604.000			13.502			-3.376
47704.000			13.501			-3.375
47804.000			13.501			-3.375
47904.000			13.500			-3.375
48004.000			13.499			-3.375
48105.000			13.498			-3.375
48204.000			13.498			-3.374
48303.000			13.497			-3.374
48405.000			13.497			-3.374
48504.000			13.496			-3.374
48604.000			13.496			-3.374
48705.000			13.494			-3.374
48804.000			13.493			-3.373
48904.000			13.493			-3.373
49004.000			13.492			-3.373
49104.000			13.491			-3.373
49204.000			13.490			-3.373
49305.000			13.489			-3.372
49404.000			13.488			-3.372
49504.000			13.488			-3.372
49605.000			13.486			-3.372
49703.000			13.486			-3.371
49804.000			13.486			-3.371
49905.000			13.485			-3.371
50004.000			13.484			-3.371
50104.000			13.484			-3.371
50205.000			13.483			-3.371
50304.000			13.482			-3.370
50403.000			13.481			-3.370
50505.000			13.479			-3.370
50604.000			13.479			-3.370
50704.000			13.479			-3.370
50805.000			13.479			-3.370
50903.000			13.479			-3.370
51004.000			13.477			-3.369
51105.000			13.478			-3.369
51204.000			13.477			-3.369
51305.000			13.475			-3.369
51404.000			13.474			-3.368
51504.000			13.474			-3.368
51604.000			13.473			-3.368
51704.000			13.471			-3.368
51804.000			13.471			-3.368
51905.000			13.471			-3.368
52004.000			13.470			-3.367
52104.000			13.469			-3.367
52205.000			13.468			-3.367
52303.000			13.468			-3.367
52404.000			13.468			-3.367
52505.000			13.466			-3.366
52604.000			13.465			-3.366
52704.000			13.465			-3.366
52805.000			13.464			-3.366
52904.000			13.463			-3.366
53003.000			13.463			-3.366
53105.000			13.462			-3.366
53204.000			13.462			-3.365
53304.000			13.461			-3.365
53405.000			13.460			-3.365
53503.000			13.459			-3.365
53604.000			13.459			-3.365
53705.000			13.458			-3.365
53804.000			13.457			-3.364
53904.000			13.456			-3.364
54005.000			13.456			-3.364
54104.000			13.456			-3.364
54203.000			13.455			-3.364
54305.000			13.454			-3.363
54404.000			13.453			-3.363
54505.000			13.452			-3.363
54604.000			13.452			-3.363
54704.000			13.451			-3.363
54805.000			13.450			-3.362
54903.000			13.450			-3.362
55004.000			13.449			-3.362
55105.000			13.447			-3.362
55204.000			13.447			-3.362
55304.000			13.446			-3.361
55405.000			13.445			-3.361
55504.000			13.445			-3.361
55603.000			13.444			-3.361
55705.000			13.444			-3.361
55804.000			13.445			-3.361
55904.000			13.443			-3.361
56005.000			13.441			-3.360
56104.000			13.441			-3.360
56204.000			13.441			-3.360
56304.000			13.440			-3.360
56404.000			13.439			-3.360
56504.000			13.439			-3.360
56605.000			13.437			-3.359
56704.000			13.437			-3.359
56804.000			13.437			-3.359
56905.000			13.436			-3.359
57003.000			13.436			-3.359
57104.000			13.435			-3.359
57205.000			13.434			-3.359
57304.000			13.434			-3.358
57404.000			13.433			-3.358
57503.000			13.432			-3.358
57604.000			13.432			-3.358
57705.000			13.432			-3.358
57804.000			13.431			-3.358
57904.000			13.430			-3.357
58005.000			13.429			-3.357
58104.000			13.428			-3.357
58203.000			13.428			-3.357
58305.000			13.428			-3.357
58404.000			13.428			-3.357
58504.000			13.425			-3.356
58605.000			13.425			-3.356
58704.000			13.425			-3.356
58804.000			13.424			-3.356
58904.000			13.423			-3.356
59004.000			13.423			-3.356
59104.000			13.422			-3.355
59205.000			13.420			-3.355
59304.000			13.420			-3.355
59404.000			13.421			-3.355
59505.000			13.419			-3.355
59603.000			13.418			-3.355
59704.000			13.417			-3.354
59805.000			13.417			-3.354
59904.000			13.417			-3.354
60004.000			13.417			-3.354
60105.000			13.417			-3.354
60204.000			13.415			-3.354
60303.000			13.415			-3.354
60405.000			13.415			-3.354
60504.000			13.413			-3.353
60604.000			13.412			-3.353
60705.000			13.412			-3.353
60803.000			13.413			-3.353
60905.000			13.410			-3.353
61004.000			13.409			-3.352
61104.000			13.409			-3.352
61205.000			13.409			-3.352
61304.000			13.408			-3.352
61404.000			13.408			-3.352
61504.000			13.408			-3.352
61604.000			13.407			-3.352
61704.000			13.406			-3.352
61805.000			13.405			-3.351
61904.000			13.405			-3.351
62004.000			13.403			-3.351
62105.000			13.403			-3.351
62203.000			13.402			-3.351
62304.000			13.401			-3.350
62405.000			13.401			-3.350
62504.000			13.402			-3.351
62604.000			13.402			-3.350
62704.000			13.401			-3.350
62804.000			13.400			-3.350
62904.000			13.399			-3.350
63005.000			13.398			-3.350
63104.000			13.397			-3.349
63204.000			13.396			-3.349
63305.000			13.394			-3.349
63403.000			13.395			-3.349
63504.000			13.395			-3.349
63605.000			13.395			-3.349
63704.000			13.394			-3.349
63804.000			13.393			-3.348
63904.000			13.392			-3.348
64004.000			13.392			-3.348
64104.000			13.392			-3.348
64204.000			13.392			-3.348
64304.000			13.392			-3.348
64405.000			13.390			-3.348
64504.000			13.390			-3.348
64604.000			13.389			-3.347
64705.000			13.388			-3.347
64803.000			13.387			-3.347
64904.000			13.386			-3.346
65005.000			13.387			-3.347
65104.000			13.387			-3.347
65204.000			13.386			-3.346
65305.000			13.384			-3.346
65404.000			13.384			-3.346
65503.000			13.382			-3.346
65605.000			13.383			-3.346
65704.000			13.383			-3.346
65804.000			13.383			-3.346
65905.000			13.383			-3.346
66004.000			13.380			-3.345
66104.000			13.379			-3.345
66204.000			13.380			-3.345
66304.000			13.379			-3.345
66404.000			13.379			-3.345
66505.000			13.378			-3.345
66604.000			13.378			-3.345
66704.000			13.377			-3.344
66805.000			13.376			-3.344
66903.000			13.374			-3.344
67004.000			13.374			-3.343
67105.000			13.375			-3.344
67204.000			13.375			-3.344
67305.000			13.374			-3.344
67404.000			13.374			-3.343
67504.000			13.373			-3.343
67604.000			13.373			-3.343
67704.000			13.373			-3.343
67804.000			13.371			-3.343
67905.000			13.370			-3.343
68004.000			13.369			-3.342
68104.000			13.369			-3.342
68205.000			13.368			-3.342
68303.000			13.368			-3.342
68404.000			13.368			-3.342
68505.000			13.367			-3.342
68604.000			13.367			-3.342
68704.000			13.366			-3.341
68805.000			13.365			-3.341
68904.000			13.365			-3.341
69003.000			13.365			-3.341
69105.000			13.365			-3.341
69204.000			13.364			-3.341
69304.000			13.363			-3.341
69405.000			13.363			-3.341
69504.000			13.362			-3.341
69604.000			13.362			-3.341
69704.000			13.360			-3.340
69804.000			13.360			-3.340
69904.000			13.360			-3.340
70005.000			13.360			-3.340
70104.000			13.359			-3.340
70204.000			13.358			-3.339
70305.000			13.358			-3.340
70403.000			13.356			-3.339
70505.000			13.356			-3.339
70604.000			13.356			-3.339
70704.000			13.357			-3.339
70805.000			13.356			-3.339
70904.000			13.356			-3.339
71004.000			13.355			-3.339
71104.000			13.354			-3.339
71204.000			13.353			-3.338
71304.000			13.352			-3.338
71405.000			13.352			-3.338
71504.000			13.352			-3.338
71603.000			13.352			-3.338
71705.000			13.351			-3.338
71804.000			13.349			-3.337
71904.000			13.349			-3.337
72005.000			13.348			-3.337
72104.000			13.347			-3.337
72204.000			13.347			-3.337
72304.000			13.347			-3.337
72404.000			13.346			-3.337
72504.000			13.346			-3.337
72605.000			13.346			-3.337
72704.000			13.345			-3.336
72804.000			13.345			-3.336
72905.000			13.344			-3.336
73003.000			13.344			-3.336
73104.000			13.343			-3.336
73205.000			13.343			-3.336
73304.000			13.342			-3.335
73404.000			13.341			-3.335
73504.000			13.341			-3.335
73604.000			13.341			-3.335
73704.000			13.341			-3.335
73804.000			13.339			-3.335
73904.000			13.339			-3.335
74005.000			13.338			-3.335
74104.000			13.338			-3.335
74204.000			13.338			-3.334
74305.000			13.336			-3.334
74403.000			13.337			-3.334
74504.000			13.336			-3.334
74605.000			13.335			-3.334
74704.000			13.335			-3.334
74804.000			13.335			-3.334
74905.000			13.334			-3.334
75004.000			13.333			-3.333
75103.000			13.333			-3.333
75205.000			13.332			-3.333
75304.000			13.332			-3.333
75404.000			13.332			-3.333
75505.000			13.332			-3.333
75604.000			13.331			-3.333
75704.000			13.330			-3.333
75804.000			13.330			-3.332
75904.000			13.329			-3.332
76004.000			13.329			-3.332
76105.000			13.328			-3.332
76204.000			13.327			-3.332
76303.000			13.327			-3.332
76405.000			13.327			-3.332
76504.000			13.326			-3.332
76604.000			13.326			-3.331
76705.000			13.325			-3.331
76804.000			13.325			-3.331
76905.000			13.325			-3.331
77004.000			13.323			-3.331
77104.000			13.324			-3.331
77204.000			13.323			-3.331
77304.000			13.322			-3.331
77404.000			13.322			-3.330
77505.000			13.321			-3.330
77604.000			13.320			-3.330
77703.000			13.320			-3.330
77805.000			13.319			-3.330
77904.000			13.319			-3.330
78004.000			13.319			-3.330
78105.000			13.319			-3.330
78204.000			13.318			-3.329
78304.000			13.317			-3.329
78404.000			13.317			-3.329
78504.000			13.317			-3.329
78604.000			13.316			-3.329
78705.000			13.316			-3.329
78804.000			13.316			-3.329
78904.000			13.314			-3.329
79005.000			13.315			-3.329
79103.000			13.313			-3.328
79204.000			13.312			-3.328
79305.000			13.312			-3.328
79404.000			13.313			-3.328
79504.000			13.312			-3.328
79605.000			13.311			-3.328
79704.000			13.311			-3.328
79803.000			13.311			-3.328
79905.000			13.310			-3.327
80004.000			13.310			-3.327
80105.000			13.308			-3.327
80204.000			13.309			-3.327
80304.000			13.308			-3.327
80405.000			13.306			-3.327
80503.000			13.306			-3.327
80604.000			13.306			-3.327
80705.000			13.305			-3.326
80804.000			13.305			-3.326
80904.000			13.306			-3.326
81005.000			13.305			-3.326
81104.000			13.305			-3.326
81203.000			13.304			-3.326
81305.000			13.303			-3.326
81404.000			13.303			-3.326
81504.000			13.303			-3.326
81605.000			13.302			-3.326
81703.000			13.303			-3.326
81804.000			13.302			-3.326
81905.000			13.302			-3.325
82004.000			13.301			-3.325
82104.000			13.299			-3.325
82205.000			13.299			-3.325
82304.000			13.299			-3.325
82403.000			13.298			-3.325
82505.000			13.298			-3.324
82604.000			13.298			-3.325
82704.000			13.298			-3.324
82805.000			13.295			-3.324
82904.000			13.295			-3.324
83004.000			13.296			-3.324
83103.000			13.295			-3.324
83204.000			13.294			-3.324
83305.000			13.294			-3.324
83404.000			13.295			-3.324
83504.000			13.293			-3.323
83605.000			13.293			-3.323
83704.000			13.293			-3.323
83803.000			13.292			-3.323
83905.000			13.292			-3.323
84004.000			13.291			-3.323
84104.000			13.290			-3.323
84205.000			13.291			-3.323
84304.000			13.291			-3.323
84404.000			13.290			-3.322
84504.000			13.289			-3.322
84604.000			13.289			-3.322
84704.000			13.289			-3.322
84805.000			13.288			-3.322
84904.000			13.288			-3.322
85004.000			13.286			-3.322
85105.000			13.286			-3.322
85203.000			13.286			-3.321
85304.000			13.286			-3.321
85405.000			13.285			-3.321
85504.000			13.284			-3.321
85604.000			13.284			-3.321
85705.000			13.284			-3.321
85804.000			13.283			-3.321
85903.000			13.284			-3.321
86005.000			13.283			-3.321
86104.000			13.282			-3.321
86204.000			13.282			-3.321
86305.000			13.282			-3.320
86404.000			13.280			-3.320
86505.000			13.280			-3.320
86603.000			13.280			-3.320
86704.000			13.279			-3.320
86805.000			13.279			-3.320
86904.000			13.278			-3.320
87004.000			13.278			-3.320
87105.000			13.278			-3.319
87204.000			13.277			-3.319
87304.000			13.277			-3.319
87405.000			13.276			-3.319
87503.000			13.275			-3.319
87604.000			13.275			-3.319
87705.000			13.276			-3.319
87804.000			13.276			-3.319
87904.000			13.274			-3.318
88005.000			13.274			-3.318
88104.000			13.272			-3.318
88203.000			13.272			-3.318
88305.000			13.273			-3.318
88404.000			13.272			-3.318
88504.000			13.271			-3.318
88605.000			13.271			-3.318
88704.000			13.271			-3.318
88804.000			13.270			-3.317
88904.000			13.271			-3.318
89004.000			13.269			-3.317
89104.000			13.269			-3.317
89205.000			13.269			-3.317
89304.000			13.268			-3.317
89404.000			13.267			-3.317
89505.000			13.266			-3.317
89603.000			13.266			-3.317
89705.000			13.265			-3.316
89804.000			13.266			-3.316
89904.000			13.266			-3.316
90005.000			13.265			-3.316
90104.000			13.264			-3.316
90204.000			13.264			-3.316
90304.000			13.264			-3.316
90404.000			13.264			-3.316
90504.000			13.263			-3.316
90605.000			13.263			-3.316
90704.000			13.262			-3.316
90804.000			13.262			-3.315
90905.000			13.261			-3.315
91003.000			13.261			-3.315
91104.000			13.260			-3.315
91205.000			13.260			-3.315
91304.000			13.260			-3.315
91404.000			13.259			-3.315
91504.000			13.259			-3.315
91604.000			13.259			-3.315
91703.000			13.258			-3.314
91805.000			13.257			-3.314
91904.000			13.258			-3.314
92004.000			13.258			-3.314
92105.000			13.257			-3.314
92204.000			13.256			-3.314
92304.000			13.256			-3.314
92404.000			13.255			-3.314
92504.000			13.254			-3.314
92604.000			13.255			-3.314
92704.000			13.254			-3.314
92804.000			13.254			-3.313
92905.000			13.253			-3.313
93004.000			13.253			-3.313
93103.000			13.253			-3.313
93205.000			13.252			-3.313
93304.000			13.251			-3.313
93404.000			13.251			-3.313
93505.000			13.251			-3.313
93603.000			13.251			-3.313
93704.000			13.250			-3.313
93805.000			13.249			-3.312
93904.000			13.249			-3.312
94004.000			13.249			-3.312
94105.000			13.250			-3.312
94204.000			13.249			-3.312
94303.000			13.249			-3.312
94405.000			13.249			-3.312
94504.000			13.248			-3.312
94604.000			13.248			-3.312
94705.000			13.246			-3.311
94804.000			13.245			-3.311
94904.000			13.246			-3.311
95004.000			13.245			-3.311
95104.000			13.245			-3.311
95203.000			13.245			-3.311
95305.000			13.244			-3.311
95404.000			13.243			-3.311
95504.000			13.242			-3.311
95605.000			13.242			-3.311
95703.000			13.243			-3.311
95804.000			13.243			-3.311
95905.000			13.241			-3.310
96004.000			13.240			-3.310
96105.000			13.241			-3.310
96204.000			13.240			-3.310
96304.000			13.240			-3.310
96404.000			13.241			-3.310
96504.000			13.240			-3.310
96604.000			13.239			-3.310
96705.000			13.239			-3.310
96804.000			13.238			-3.309
96904.000			13.238			-3.309
97005.000			13.238			-3.309
97103.000			13.238			-3.309
97204.000			13.236			-3.309
97305.000			13.236			-3.309
97404.000			13.236			-3.309
97504.000			13.236			-3.309
97605.000			13.235			-3.309
97704.000			13.235			-3.309
97803.000			13.234			-3.309
97905.000			13.234			-3.309
98004.000			13.233			-3.308
98104.000			13.233			-3.308
98205.000			13.233			-3.308
98304.000			13.233			-3.308
98404.000			13.233			-3.308
98504.000			13.232			-3.308
98604.000			13.231			-3.308
98704.000			13.232			-3.308
98805.000			13.231			-3.308
98904.000			13.230			-3.308
99004.000			13.230			-3.308
99105.000			13.231			-3.308
99203.000			13.230			-3.307
99305.000			13.229			-3.307
99404.000			13.230			-3.307
99504.000			13.229			-3.307
99605.000			13.228			-3.307
99704.000			13.229			-3.307
99804.000			13.228			-3.307
99904.000			13.227			-3.307
100004.000			13.227			-3.307
100103.000			13.226			-3.307
100205.000			13.225			-3.306
100304.000			13.225			-3.306
100404.000			13.225			-3.306
100505.000			13.225			-3.306
100603.000			13.225			-3.306
100704.000			13.225			-3.306
100805.000			13.224			-3.306
100904.000			13.223			-3.306
101004.000			13.223			-3.306
101105.000			13.223			-3.306
101204.000			13.222			-3.306
101303.000			13.221			-3.305
101405.000			13.221			-3.305
101504.000			13.220			-3.305
101604.000			13.221			-3.305
101705.000			13.219			-3.305
101804.000			13.219			-3.305
101904.000			13.219			-3.305
102004.000			13.218			-3.305
102104.000			13.218			-3.305
102204.000			13.218			-3.305
102304.000			13.218			-3.304
102404.000			13.218			-3.304
102505.000			13.217			-3.304
102604.000			13.217			-3.304
102703.000			13.217			-3.304
102805.000			13.217			-3.304
102904.000			13.217			-3.304
103004.000			13.216			-3.304
103105.000			13.215			-3.304
103204.000			13.215			-3.304
103304.000			13.214			-3.303
103404.000			13.214			-3.303
103504.000			13.213			-3.303
103604.000			13.213			-3.303
103705.000			13.213			-3.303
103804.000			13.213			-3.303
103904.000			13.211			-3.303
104005.000			13.211			-3.303
104103.000			13.212			-3.303
104204.000			13.210			-3.303
104305.000			13.211			-3.303
104404.000			13.210			-3.303
104504.000			13.208			-3.302
104605.000			13.210			-3.302
104704.000			13.209			-3.302
104803.000			13.208			-3.302
104905.000			13.208			-3.302
105004.000			13.208			-3.302
105104.000			13.207			-3.302
105205.000			13.207			-3.302
105304.000			13.207			-3.302
105404.000			13.206			-3.302
105503.000			13.207			-3.302
105604.000			13.206			-3.302
105705.000			13.206			-3.301
105804.000			13.205			-3.301
105904.000			13.205			-3.301
106005.000			13.205			-3.301
106104.000			13.205			-3.301
106203.000			13.204			-3.301
106305.000			13.203			-3.301
106404.000			13.203			-3.301
106504.000			13.204			-3.301
106605.000			13.203			-3.301
106704.000			13.203			-3.301
106804.000			13.202			-3.301
106904.000			13.201			-3.300
107004.000			13.201			-3.300
107104.000			13.200			-3.300
107205.000			13.200			-3.300
107304.000			13.200			-3.300
107404.000			13.200			-3.300
107505.000			13.199			-3.300
107603.000			13.200			-3.300
107704.000			13.200			-3.300
107805.000			13.199			-3.300
107904.000			13.199			-3.300
108004.000			13.199			-3.300
108105.000			13.197			-3.299
108204.000			13.197			-3.299
108303.000			13.197			-3.299
108405.000			13.197			-3.299
108504.000			13.196			-3.299
108604.000			13.195			-3.299
108705.000			13.195			-3.299
108804.000			13.195			-3.299
108905.000			13.195			-3.299
109003.000			13.195			-3.299
109104.000			13.193			-3.298
109205.000			13.193			-3.298
109304.000			13.192			-3.298
109404.000			13.192			-3.298
109505.000			13.193			-3.298
109604.000			13.192			-3.298
109703.000			13.193			-3.298
109805.000			13.192			-3.298
109904.000			13.192			-3.298
110004.000			13.191			-3.298
110105.000			13.191			-3.298
110204.000			13.190			-3.297
110304.000			13.189			-3.297
110404.000			13.191			-3.298
110504.000			13.189			-3.297
110603.000			13.188			-3.297
110705.000			13.189			-3.297
110804.000			13.190			-3.297
110904.000			13.190			-3.297
111005.000			13.189			-3.297
111104.000			13.188			-3.297
111204.000			13.188			-3.297
111304.000			13.188			-3.297
111404.000			13.187			-3.297
111504.000			13.186			-3.296
111605.000			13.184			-3.296
111704.000			13.186			-3.296
111804.000			13.185			-3.296
111905.000			13.184			-3.296
112003.000			13.183			-3.296
112105.000			13.184			-3.296
112204.000			13.183			-3.296
112304.000			13.184			-3.296
112405.000			13.184			-3.296
112504.000			13.183			-3.296
112604.000			13.184			-3.296
112704.000			13.183			-3.296
112804.000			13.183			-3.296
112904.000			13.182			-3.295
113005.000			13.181			-3.295
113104.000			13.182			-3.295
113204.000			13.181			-3.295
113305.000			13.181			-3.295
113403.000			13.181			-3.295
113504.000			13.180			-3.295
113605.000			13.180			-3.295
113704.000			13.180			-3.295
113804.000			13.179			-3.295
113905.000			13.179			-3.295
114004.000			13.180			-3.295
114103.000			13.178			-3.294
114205.000			13.178			-3.294
114304.000			13.178			-3.295
114404.000			13.177			-3.294
114505.000			13.177			-3.294
114604.000			13.177			-3.294
114704.000			13.178			-3.294
114804.000			13.176			-3.294
114904.000			13.176			-3.294
115004.000			13.175			-3.294
115104.000			13.174			-3.294
115204.000			13.176			-3.294
115305.000			13.176			-3.294
115404.000			13.174			-3.294
115503.000			13.173			-3.293
115605.000			13.173			-3.293
115704.000			13.173			-3.293
115804.000			13.173			-3.293
115905.000			13.174			-3.293
116004.000			13.173			-3.293
116104.000			13.172			-3.293
116204.000			13.171			-3.293
116304.000			13.171			-3.293
116404.000			13.170			-3.293
116505.000			13.170			-3.292
116604.000			13.170			-3.292
116704.000			13.169			-3.292
116805.000			13.170			-3.292
116904.000			13.170			-3.292
117004.000			13.168			-3.292
117104.000			13.167			-3.292
117204.000			13.168			-3.292
117304.000			13.167			-3.292
117405.000			13.167			-3.292
117504.000			13.167			-3.292
117604.000			13.166			-3.292
117705.000			13.167			-3.292
117803.000			13.166			-3.291
117904.000			13.165			-3.291
118005.000			13.166			-3.292
118104.000			13.166			-3.292
118204.000			13.165			-3.291
118304.000			13.164			-3.291
118404.000			13.164			-3.291
118504.000			13.164			-3.291
118604.000			13.163			-3.291
118704.000			13.162			-3.291
118805.000			13.162			-3.291
118904.000			13.161			-3.290
119004.000			13.161			-3.290
119105.000			13.162			-3.290
119203.000			13.160			-3.290
119304.000			13.160			-3.290
119405.000			13.161			-3.290
119504.000			13.160			-3.290
119604.000			13.159			-3.290
119705.000			13.159			-3.290
119804.000			13.159			-3.290
119903.000			13.159			-3.290
120005.000			13.159			-3.290
120104.000			13.159			-3.290
120204.000			13.159			-3.290
120305.000			13.157			-3.289
120404.000			13.156			-3.289
120504.000			13.157			-3.289
120604.000			13.157			-3.289
120704.000			13.156			-3.289
120804.000			13.156			-3.289
120905.000			13.156			-3.289
121004.000			13.156			-3.289
121104.000			13.156			-3.289
121205.000			13.156			-3.289
121303.000			13.155			-3.289
121404.000			13.154			-3.289
121505.000			13.154			-3.289
121604.000			13.154			-3.288
121705.000			13.153			-3.288
121804.000			13.153			-3.288
121904.000			13.154			-3.288
122004.000			13.152			-3.288
122104.000			13.152			-3.288
122204.000			13.152			-3.288
122305.000			13.152			-3.288
122404.000			13.152			-3.288
122504.000			13.151			-3.288
122605.000			13.151			-3.288
122703.000			13.151			-3.288
122804.000			13.150			-3.288
122905.000			13.149			-3.287
123004.000			13.148			-3.287
123104.000			13.149			-3.287
123205.000			13.150			-3.287
123304.000			13.149			-3.287
123403.000			13.149			-3.287
123505.000			13.149			-3.287
123604.000			13.148			-3.287
123704.000			13.146			-3.287
123805.000			13.148			-3.287
123904.000			13.148			-3.287
124004.000			13.147			-3.287
124104.000			13.147			-3.287
124204.000			13.146			-3.287
124304.000			13.145			-3.286
124405.000			13.145			-3.286
124504.000			13.146			-3.286
124604.000			13.145			-3.286
124705.000			13.145			-3.286
124803.000			13.145			-3.286
124905.000			13.144			-3.286
125004.000			13.144			-3.286
125104.000			13.144			-3.286
125205.000			13.143			-3.286
125304.000			13.143			-3.286
125404.000			13.142			-3.285
125504.000			13.142			-3.285
125604.000			13.142			-3.285
125704.000			13.142			-3.285
125805.000			13.141			-3.285
125904.000			13.141			-3.285
126004.000			13.141			-3.285
126105.000			13.141			-3.285
126203.000			13.141			-3.285
126304.000			13.140			-3.285
126405.000			13.140			-3.285
126504.000			13.140			-3.285
126604.000			13.139			-3.285
126705.000			13.138			-3.284
126804.000			13.138			-3.285
126903.000			13.139			-3.285
127005.000			13.138			-3.284
127104.000			13.138			-3.285
127204.000			13.137			-3.284
127305.000			13.136			-3.284
127404.000			13.135			-3.284
127504.000			13.136			-3.284
127604.000			13.136			-3.284
127704.000			13.136			-3.284
127804.000			13.136			-3.284
127904.000			13.136			-3.284
128004.000			13.135			-3.284
128105.000			13.134			-3.284
128204.000			13.134			-3.284
128303.000			13.134			-3.283
128405.000			13.133			-3.283
128504.000			13.132			-3.283
128604.000			13.133			-3.283
128705.000			13.133			-3.283
128804.000			13.132			-3.283
128904.000			13.132			-3.283
129004.000			13.131			-3.283
129104.000			13.131			-3.283
129204.000			13.131			-3.283
129305.000			13.131			-3.283
129404.000			13.130			-3.283
129504.000			13.129			-3.282
129605.000			13.130			-3.282
129703.000			13.129			-3.282
129804.000			13.130			-3.283
129905.000			13.129			-3.282
130004.000			13.129			-3.282
130104.000			13.129			-3.282
130205.000			13.129			-3.282
130304.000			13.128			-3.282
130403.000			13.127			-3.282
130505.000			13.127			-3.282
130604.000			13.128			-3.282
130704.000			13.128			-3.282
130805.000			13.127			-3.282
130904.000			13.127			-3.282
131004.000			13.126			-3.282
131103.000			13.126			-3.282
131204.000			13.126			-3.282
131305.000			13.125			-3.281
131404.000			13.125			-3.281
131504.000			13.125			-3.281
131605.000			13.124			-3.281
131704.000			13.124			-3.281
131803.000			13.124			-3.281
131905.000			13.124			-3.281
132003.000			13.124			-3.281
132104.000			13.123			-3.281
132205.000			13.122			-3.281
132304.000			13.123			-3.281
132404.000			13.123			-3.281
132505.000			13.122			-3.281
132604.000			13.122			-3.280
132703.000			13.121			-3.280
132805.000			13.122			-3.280
132904.000			13.121			-3.280
133004.000			13.120			-3.280
133105.000			13.121			-3.280
133204.000			13.121			-3.280
133304.000			13.120			-3.280
133404.000			13.120			-3.280
133504.000			13.120			-3.280
133603.000			13.119			-3.280
133705.000			13.119			-3.280
133804.000			13.118			-3.280
133904.000			13.117			-3.279
134005.000			13.117			-3.279
134104.000			13.118			-3.280
134204.000			13.118			-3.280
134303.000			13.118			-3.280
134404.000			13.118			-3.279
134505.000			13.116			-3.279
134604.000			13.115			-3.279
134704.000			13.116			-3.279
134805.000			13.116			-3.279
134904.000			13.116			-3.279
135004.000			13.115			-3.279
135105.000			13.115			-3.279
135203.000			13.115			-3.279
135304.000			13.114			-3.279
135405.000			13.114			-3.279
135504.000			13.114			-3.279
135604.000			13.114			-3.279
135705.000			13.114			-3.279
135804.000			13.114			-3.278
135903.000			13.114			-3.278
136005.000			13.113			-3.278
136104.000			13.112			-3.278
136204.000			13.112			-3.278
136305.000			13.112			-3.278
136404.000			13.111			-3.278
136504.000			13.111			-3.278
136605.000			13.111			-3.278
136704.000			13.110			-3.277
136803.000			13.110			-3.278
136905.000			13.110			-3.278
137004.000			13.110			-3.278
137104.000			13.110			-3.277
137205.000			13.110			-3.277
137304.000			13.110			-3.277
137404.000			13.109			-3.277
137503.000			13.108			-3.277
137604.000			13.108			-3.277
137704.000			13.108			-3.277
137804.000			13.107			-3.277
137904.000			13.107			-3.277
138005.000			13.107			-3.277
138104.000			13.107			-3.277
138204.000			13.106			-3.277
138305.000			13.107			-3.277
138403.000			13.107			-3.277
138504.000			13.105			-3.276
138605.000			13.105			-3.276
138704.000			13.104			-3.276
138804.000			13.105			-3.276
138905.000			13.105			-3.276
139004.000			13.104			-3.276
139104.000			13.103			-3.276
139205.000			13.103			-3.276
139303.000			13.103			-3.276
139404.000			13.104			-3.276
139505.000			13.104			-3.276
139604.000			13.103			-3.276
139704.000			13.103			-3.276
139805.000			13.102			-3.276
139904.000			13.103			-3.276
140003.000			13.102			-3.275
140105.000			13.101			-3.275
140204.000			13.102			-3.275
140304.000			13.100			-3.275
140405.000			13.100			-3.275
140504.000			13.101			-3.275
140604.000			13.100			-3.275
140704.000			13.099			-3.275
140804.000			13.099			-3.275
140904.000			13.100			-3.275
141004.000			13.099			-3.275
141104.000			13.097			-3.274
141205.000			13.098			-3.274
141304.000			13.098			-3.274
141404.000			13.098			-3.274
141505.000			13.097			-3.274
141604.000			13.098			-3.274
141704.000			13.097			-3.274
141804.000			13.096			-3.274
141904.000			13.095			-3.274
142004.000			13.096			-3.274
142105.000			13.096			-3.274
142204.000			13.096			-3.274
142304.000			13.095			-3.274
142405.000			13.096			-3.274
142503.000			13.094			-3.273
142604.000			13.094			-3.273
142704.000			13.094			-3.274
142804.000			13.095			-3.274
142904.000			13.094			-3.274
143005.000			13.094			-3.273
143104.000			13.093			-3.273
143204.000			13.093			-3.273
143305.000			13.092			-3.273
143403.000			13.092			-3.273
143504.000			13.092			-3.273
143605.000			13.092			-3.273
143704.000			13.091			-3.273
143804.000			13.092			-3.273
143904.000			13.092			-3.273
144004.000			13.091			-3.273
144105.000			13.091			-3.273
144204.000			13.090			-3.273
144303.000			13.090			-3.273
144405.000			13.090			-3.272
144504.000			13.090			-3.272
144604.000			13.089			-3.272
144705.000			13.089			-3.272
144804.000			13.089			-3.272
144904.000			13.089			-3.272
145005.000			13.088			-3.272
145104.000			13.088			-3.272
145203.000			13.088			-3.272
145305.000			13.088			-3.272
145404.000			13.088			-3.272
145504.000			13.087			-3.272
145605.000			13.087			-3.272
145704.000			13.087			-3.272
145804.000			13.087			-3.272
145904.000			13.087			-3.272
146004.000			13.087			-3.272
146103.000			13.086			-3.271
146205.000			13.085			-3.271
146304.000			13.084			-3.271
146404.000			13.084			-3.271
146505.000			13.085			-3.271
146604.000			13.083			-3.271
146704.000			13.083			-3.271
146804.000			13.084			-3.271
146904.000			13.083			-3.271
147003.000			13.084			-3.271
147105.000			13.084			-3.271
147204.000			13.084			-3.271
147305.000			13.083			-3.271
147404.000			13.082			-3.271
147504.000			13.082			-3.271
147605.000			13.082			-3.270
147703.000			13.081			-3.270
147804.000			13.081			-3.270
147904.000			13.080			-3.270
148004.000			13.080			-3.270
148104.000			13.080			-3.270
148205.000			13.080			-3.270
148304.000			13.080			-3.270
148404.000			13.079			-3.270
148505.000			13.079			-3.270
148603.000			13.079			-3.270
148704.000			13.080			-3.270
148805.000			13.079			-3.270
148904.000			13.079			-3.270
149004.000			13.079			-3.270
149105.000			13.078			-3.270
149204.000			13.079			-3.270
149304.000			13.078			-3.269
149405.000			13.078			-3.269
149503.000			13.077			-3.269
149604.000			13.077			-3.269
149705.000			13.077			-3.269
149804.000			13.076			-3.269
149904.000			13.076			-3.269
150005.000			13.076			-3.269
150104.000			13.075			-3.269
150204.000			13.074			-3.269
150305.000			13.074			-3.269
150403.000			13.075			-3.269
150505.000			13.074			-3.269
150604.000			13.074			-3.269
150704.000			13.074			-3.268
150805.000			13.074			-3.268
150904.000			13.073			-3.268
151004.000			13.072			-3.268
151104.000			13.073			-3.268
151204.000			13.074			-3.269
151303.000			13.072			-3.268
151405.000			13.071			-3.268
151504.000			13.072			-3.268
151604.000			13.072			-3.268
151705.000			13.071			-3.268
151804.000			13.071			-3.268
151904.000			13.071			-3.268
152004.000			13.071			-3.268
152104.000			13.070			-3.268
152204.000			13.070			-3.267
152305.000			13.070			-3.268
152404.000			13.071			-3.268
152504.000			13.071			-3.268
152605.000			13.071			-3.268
152704.000			13.069			-3.267
152804.000			13.069			-3.267
152904.000			13.068			-3.267
153004.000			13.069			-3.267
153104.000			13.069			-3.267
153205.000			13.068			-3.267
153304.000			13.068			-3.267
153404.000			13.068			-3.267
153505.000			13.067			-3.267
153604.000			13.067			-3.267
153705.000			13.067			-3.267
153803.000			13.067			-3.267
153904.000			13.066			-3.266
154005.000			13.066			-3.266
154104.000			13.066			-3.267
154204.000			13.065			-3.266
154305.000			13.065			-3.266
154404.000			13.064			-3.266
154503.000			13.064			-3.266
154605.000			13.063			-3.266
154703.000			13.063			-3.266
154804.000			13.064			-3.266
154905.000			13.064			-3.266
155004.000			13.064			-3.266
155104.000			13.062			-3.266
155205.000			13.062			-3.266
155304.000			13.063			-3.266
155403.000			13.062			-3.266
155505.000			13.063			-3.266
155604.000			13.062			-3.265
155704.000			13.060			-3.265
155805.000			13.061			-3.265
155904.000			13.061			-3.265
156004.000			13.061			-3.265
156105.000			13.060			-3.265
156204.000			13.060			-3.265
156303.000			13.061			-3.265
156405.000			13.060			-3.265
156504.000			13.059			-3.265
156604.000			13.059			-3.265
156705.000			13.060			-3.265
156804.000			13.059			-3.265
156905.000			13.059			-3.265
157004.000			13.059			-3.265
157104.000			13.059			-3.265
157204.000			13.058			-3.265
157304.000			13.058			-3.264
157404.000			13.057			-3.264
157505.000			13.057			-3.264
157604.000			13.058			-3.265
157704.000			13.057			-3.264
157805.000			13.056			-3.264
157904.000			13.057			-3.264
158004.000			13.056			-3.264
158104.000			13.055			-3.264
158204.000			13.055			-3.264
158304.000			13.055			-3.264
158405.000			13.055			-3.264
158504.000			13.054			-3.263
158604.000			13.055			-3.264
158705.000			13.055			-3.264
158804.000			13.055			-3.264
158904.000			13.055			-3.264
159004.000			13.054			-3.264
159104.000			13.054			-3.264
159204.000			13.054			-3.263
159305.000			13.053			-3.263
159404.000			13.053			-3.263
159504.000			13.052			-3.263
159605.000			13.053			-3.263
159703.000			13.053			-3.263
159804.000			13.052			-3.263
159903.000			13.052			-3.263
160004.000			13.051			-3.263
160105.000			13.051			-3.263
160204.000			13.051			-3.263
160304.000			13.050			-3.263
160405.000			13.051			-3.263
160504.000			13.051			-3.263
160603.000			13.050			-3.263
160705.000			13.050			-3.263
160804.000			13.049			-3.262
160904.000			13.050			-3.262
161005.000			13.049			-3.262
161104.000			13.049			-3.262
161204.000			13.048			-3.262
161304.000			13.048			-3.262
161404.000			13.049			-3.262
161503.000			13.047			-3.262
161605.000			13.048			-3.262
161704.000			13.048			-3.262
161804.000			13.048			-3.262
161905.000			13.048			-3.262
162004.000			13.047			-3.262
162104.000			13.046			-3.261
162204.000			13.046			-3.261
162304.000			13.047			-3.262
162404.000			13.047			-3.262
162505.000			13.046			-3.262
162604.000			13.046			-3.261
162704.000			13.046			-3.261
162805.000			13.046			-3.262
162904.000			13.045			-3.261
163004.000			13.044			-3.261
163103.000			13.044			-3.261
163204.000			13.044			-3.261
163305.000			13.043			-3.261
163404.000			13.043			-3.261
163504.000			13.043			-3.261
163605.000			13.043			-3.261
163704.000			13.044			-3.261
163803.000			13.044			-3.261
163905.000			13.043			-3.261
164003.000			13.042			-3.261
164104.000			13.043			-3.261
164205.000			13.042			-3.261
164304.000			13.041			-3.260
164404.000			13.042			-3.260
164505.000			13.042			-3.260
164604.000			13.042			-3.260
164703.000			13.040			-3.260
164805.000			13.040			-3.260
164904.000			13.041			-3.260
165004.000			13.041			-3.260
165105.000			13.039			-3.260
165204.000			13.039			-3.260
165304.000			13.038			-3.259
165405.000			13.038			-3.260
165504.000			13.039			-3.260
165603.000			13.038			-3.260
165705.000			13.039			-3.260
165804.000			13.039			-3.260
165904.000			13.038			-3.260
166005.000			13.038			-3.259
166104.000			13.037			-3.259
166204.000			13.037			-3.259
166304.000			13.037			-3.259
166404.000			13.037			-3.259
166504.000			13.037			-3.259
166604.000			13.036			-3.259
166704.000			13.037			-3.259
166805.000			13.036			-3.259
166904.000			13.035			-3.259
167004.000			13.036			-3.259
167105.000			13.035			-3.259
167204.000			13.035			-3.259
167304.000			13.034			-3.259
167404.000			13.034			-3.259
167504.000			13.034			-3.259
167604.000			13.034			-3.258
167705.000			13.035			-3.259
167804.000			13.034			-3.259
167904.000			13.033			-3.258
168005.000			13.033			-3.258
168103.000			13.033			-3.258
168204.000			13.033			-3.258
168305.000			13.033			-3.258
168404.000			13.033			-3.258
168504.000			13.031			-3.258
168605.000			13.031			-3.258
168704.000			13.031			-3.258
168804.000			13.032			-3.258
168905.000			13.031			-3.258
169003.000			13.031			-3.258
169104.000			13.030			-3.258
169205.000			13.031			-3.258
169304.000			13.030			-3.258
169404.000			13.029			-3.257
169504.000			13.030			-3.258
169604.000			13.031			-3.258
169705.000			13.031			-3.258
169804.000			13.029			-3.257
169903.000			13.029			-3.257
170005.000			13.029			-3.257
170104.000			13.029			-3.257
170204.000			13.029			-3.257
170305.000			13.028			-3.257
170404.000			13.028			-3.257
170504.000			13.029			-3.257
170604.000			13.028			-3.257
170704.000			13.028			-3.257
170803.000			13.028			-3.257
170905.000			13.027			-3.257
171004.000			13.028			-3.257
171104.000			13.027			-3.257
171205.000			13.027			-3.257
171304.000			13.027			-3.257
171404.000			13.026			-3.257
171504.000			13.026			-3.257
171604.000			13.027			-3.257
171704.000			13.026			-3.256
171805.000			13.026			-3.256
171904.000			13.026			-3.256
172004.000			13.025			-3.256
172105.000			13.025			-3.256
172203.000			13.025			-3.256
172304.000			13.026			-3.256
172404.000			13.025			-3.256
172504.000			13.025			-3.256
172604.000			13.025			-3.256
172704.000			13.024			-3.256
172804.000			13.024			-3.256
172905.000			13.024			-3.256
173004.000			13.024			-3.256
173103.000			13.024			-3.256
173205.000			13.023			-3.256
173304.000			13.023			-3.256
173404.000			13.024			-3.256
173505.000			13.023			-3.256
173604.000			13.022			-3.256
173704.000			13.022			-3.255
173805.000			13.022			-3.255
173904.000			13.022			-3.255
174003.000			13.022			-3.255
174105.000			13.022			-3.255
174204.000			13.021			-3.255
174304.000			13.021			-3.255
174405.000			13.021			-3.255
174504.000			13.020			-3.255
174604.000			13.020			-3.255
174704.000			13.020			-3.255
174804.000			13.020			-3.255
174904.000			13.020			-3.255
175005.000			13.019			-3.255
175104.000			13.018			-3.255
175204.000			13.019			-3.255
175305.000			13.019			-3.255
175404.000			13.019			-3.255
175504.000			13.018			-3.255
175604.000			13.018			-3.254
175704.000			13.017			-3.254
175804.000			13.018			-3.254
175904.000			13.019			-3.255
176004.000			13.018			-3.254
176105.000			13.017			-3.254
176204.000			13.016			-3.254
176303.000			13.016			-3.254
176405.000			13.017			-3.254
176503.000			13.017			-3.254
176604.000			13.016			-3.254
176705.000			13.015			-3.254
176804.000			13.015			-3.254
176904.000			13.014			-3.254
177005.000			13.014			-3.254
177104.000			13.014			-3.253
177203.000			13.014			-3.253
177305.000			13.014			-3.254
177404.000			13.014			-3.254
177504.000			13.013			-3.253
177605.000			13.013			-3.253
177704.000			13.012			-3.253
177804.000			13.011			-3.253
177905.000			13.012			-3.253
178004.000			13.013			-3.253
178103.000			13.013			-3.253
178205.000			13.012			-3.253
178304.000			13.012			-3.253
178404.000			13.011			-3.253
178505.000			13.010			-3.253
178604.000			13.010			-3.253
178704.000			13.010			-3.252
178805.000			13.010			-3.252
178904.000			13.010			-3.252
179003.000			13.010			-3.253
179105.000			13.010			-3.252
179204.000			13.010			-3.253
179305.000			13.011			-3.253
179404.000			13.010			-3.252
179504.000			13.009			-3.252
179605.000			13.009			-3.252
179704.000			13.008			-3.252
179804.000			13.008			-3.252
179904.000			13.009			-3.252
180004.000			13.008			-3.252
180104.000			13.007			-3.252
180205.000			13.007			-3.252
180304.000			13.008			-3.252
180404.000			13.008			-3.252
180505.000			13.008			-3.252
180603.000			13.007			-3.252
180704.000			13.006			-3.252
180805.000			13.006			-3.252
180904.000			13.007			-3.252
181004.000			13.005			-3.251
181105.000			13.005			-3.251
181204.000			13.005			-3.251
181304.000			13.006			-3.251
181405.000			13.006			-3.251
181503.000			13.006			-3.251
181604.000			13.005			-3.251
181705.000			13.004			-3.251
181804.000			13.003			-3.251
181904.000			13.005			-3.251
182005.000			13.006			-3.251
182104.000			13.005			-3.251
182203.000			13.004			-3.251
182305.000			13.004			-3.251
182403.000			13.004			-3.251
182505.000			13.002			-3.251
182604.000			13.002			-3.250
182704.000			13.002			-3.250
182805.000			13.002			-3.251
182904.000			13.003			-3.251
183004.000			13.003			-3.251
183104.000			13.003			-3.251
183204.000			13.003			-3.251
183304.000			13.002			-3.251
183405.000			13.002			-3.250
183504.000			13.002			-3.250
183604.000			13.001			-3.250
183705.000			13.001			-3.250
183804.000			13.001			-3.250
183904.000			13.001			-3.250
184004.000			13.000			-3.250
184104.000			13.000			-3.250
184204.000			13.000			-3.250
184305.000			13.000			-3.250
184404.000			12.999			-3.250
184504.000			12.999			-3.250
184605.000			13.000			-3.250
184703.000			12.999			-3.250
184804.000			12.997			-3.249
184904.000			12.998			-3.249
185004.000			12.998			-3.250
185104.000			12.998			-3.249
185205.000			12.997			-3.249
185304.000			12.997			-3.249
185404.000			12.998			-3.249
185505.000			12.997			-3.249
185604.000			12.997			-3.249
185705.000			12.997			-3.249
185803.000			12.997			-3.249
185904.000			12.997			-3.249
186004.000			12.997			-3.249
186104.000			12.996			-3.249
186204.000			12.995			-3.249
186305.000			12.995			-3.249
186404.000			12.996			-3.249
186504.000			12.996			-3.249
186605.000			12.996			-3.249
186704.000			12.996			-3.249
186804.000			12.994			-3.249
186904.000			12.995			-3.249
187004.000			12.994			-3.248
187104.000			12.993			-3.248
187205.000			12.993			-3.248
187304.000			12.993			-3.248
187404.000			12.993			-3.248
187505.000			12.993			-3.248
187604.000			12.993			-3.248
187704.000			12.992			-3.248
187804.000			12.992			-3.248
187904.000			12.992			-3.248
188003.000			12.993			-3.248
188105.000			12.992			-3.248
188204.000			12.993			-3.248
188304.000			12.992			-3.248
188405.000			12.991			-3.248
188504.000			12.992			-3.248
188604.000			12.991			-3.248
188703.000			12.991			-3.248
188804.000			12.991			-3.248
188904.000			12.991			-3.248
189004.000			12.991			-3.248
189104.000			12.991			-3.248
189205.000			12.990			-3.248
189304.000			12.990			-3.247
189404.000			12.990			-3.247
189505.000			12.989			-3.247
189604.000			12.989			-3.247
189704.000			12.989			-3.247
189804.000			12.989			-3.247
189904.000			12.988			-3.247
190003.000			12.987			-3.247
190105.000			12.988			-3.247
190204.000			12.987			-3.247
190304.000			12.987			-3.247
190405.000			12.988			-3.247
190504.000			12.987			-3.247
190604.000			12.987			-3.247
190704.000			12.987			-3.247
190804.000			12.987			-3.247
190903.000			12.986			-3.247
191005.000			12.986			-3.246
191104.000			12.985			-3.246
191204.000			12.985			-3.246
191305.000			12.985			-3.246
191404.000			12.985			-3.246
191504.000			12.984			-3.246
191605.000			12.985			-3.246
191704.000			12.985			-3.246
191803.000			12.985			-3.246
191905.000			12.985			-3.246
192004.000			12.985			-3.246
192105.000			12.984			-3.246
192204.000			12.983			-3.246
192304.000			12.984			-3.246
192405.000			12.984			-3.246
192504.000			12.983			-3.246
192604.000			12.983			-3.246
192704.000			12.984			-3.246
192804.000			12.982			-3.245
192904.000			12.981			-3.245
193005.000			12.983			-3.246
193104.000			12.982			-3.246
193204.000			12.983			-3.246
193305.000			12.982			-3.245
193404.000			12.981			-3.245
193504.000			12.981			-3.245
193604.000			12.982			-3.245
193704.000			12.981			-3.245
193803.000			12.981			-3.245
193905.000			12.980			-3.245
194004.000			12.980			-3.245
194104.000			12.980			-3.245
194205.000			12.980			-3.245
194304.000			12.979			-3.245
194404.000			12.979			-3.245
194505.000			12.979			-3.245
194604.000			12.980			-3.245
194703.000			12.980			-3.245
194805.000			12.979			-3.245
194904.000			12.979			-3.245
195004.000			12.977			-3.244
195105.000			12.977			-3.244
195204.000			12.977			-3.244
195305.000			12.977			-3.244
195404.000			12.977			-3.244
195504.000			12.977			-3.244
195604.000			12.976			-3.244
195704.000			12.977			-3.244
195803.000			12.977			-3.244
195905.000			12.977			-3.244
196004.000			12.976			-3.244
196104.000			12.977			-3.244
196205.000			12.976			-3.244
196304.000			12.976			-3.244
196404.000			12.976			-3.244
196505.000			12.976			-3.244
196604.000			12.975			-3.244
196703.000			12.975			-3.244
196805.000			12.975			-3.244
196904.000			12.976			-3.244
197004.000			12.976			-3.244
197105.000			12.975			-3.244
197204.000			12.974			-3.244
197304.000			12.974			-3.243
197405.000			12.973			-3.243
197504.000			12.974			-3.243
197603.000			12.973			-3.243
197705.000			12.973			-3.243
197803.000			12.973			-3.243
197904.000			12.974			-3.243
198005.000			12.973			-3.243
198104.000			12.972			-3.243
198204.000			12.972			-3.243
198304.000			12.972			-3.243
198404.000			12.972			-3.243
198505.000			12.971			-3.243
198604.000			12.970			-3.243
198703.000			12.971			-3.243
198805.000			12.970			-3.243
198904.000			12.970			-3.242
199004.000			12.970			-3.243
199105.000			12.972			-3.243
199204.000			12.970			-3.243
199304.000			12.970			-3.243
199405.000			12.970			-3.242
199504.000			12.970			-3.242
199603.000			12.970			-3.242
199705.000			12.969			-3.242
199803.000			12.968			-3.242
199904.000			12.969			-3.242
200005.000			12.969			-3.242
200104.000			12.968			-3.242
200204.000			12.967			-3.242
200305.000			12.967			-3.242
200404.000			12.968			-3.242
200503.000			12.967			-3.242
200605.000			12.967			-3.242
200703.000			12.968			-3.242
200804.000			12.968			-3.242
200905.000			12.968			-3.242
201004.000			12.967			-3.242
201104.000			12.967			-3.242
201205.000			12.966			-3.242
201304.000			12.966			-3.242
201403.000			12.967			-3.242
201505.000			12.966			-3.241
201603.000			12.966			-3.241
201705.000			12.966			-3.241
201804.000			12.964			-3.241
201904.000			12.964			-3.241
202005.000			12.965			-3.241
202104.000			12.964			-3.241
202204.000			12.964			-3.241
202304.000			12.964			-3.241
202404.000			12.964			-3.241
202503.000			12.964			-3.241
202605.000			12.964			-3.241
202704.000			12.963			-3.241
202804.000			12.963			-3.241
202905.000			12.963			-3.241
203004.000			12.962			-3.241
203104.000			12.963			-3.241
203204.000			12.962			-3.241
203304.000			12.962			-3.241
203404.000			12.963			-3.241
203505.000			12.963			-3.241
203604.000			12.963			-3.241
203704.000			12.962			-3.240
203805.000			12.962			-3.240
203904.000			12.963			-3.241
204004.000			12.963			-3.241
204104.000			12.961			-3.240
204204.000			12.961			-3.240
204304.000			12.961			-3.240
204405.000			12.960			-3.240
204504.000			12.960			-3.240
204604.000			12.959			-3.240
204705.000			12.960			-3.240
204804.000			12.960			-3.240
204905.000			12.960			-3.240
205003.000			12.961			-3.240
205104.000			12.960			-3.240
205205.000			12.960			-3.240
205304.000			12.960			-3.240
205404.000			12.959			-3.240
205505.000			12.959			-3.240
205604.000			12.959			-3.240
205704.000			12.959			-3.240
205805.000			12.958			-3.239
205903.000			12.959			-3.240
206004.000			12.959			-3.240
206105.000			12.959			-3.240
206204.000			12.958			-3.240
206304.000			12.958			-3.240
206405.000			12.958			-3.240
206504.000			12.958			-3.240
206604.000			12.957			-3.239
206705.000			12.956			-3.239
206803.000			12.957			-3.239
206904.000			12.957			-3.239
207005.000			12.958			-3.239
207104.000			12.958			-3.239
207204.000			12.956			-3.239
207305.000			12.957			-3.239
207404.000			12.957			-3.239
207504.000			12.956			-3.239
207605.000			12.955			-3.239
207703.000			12.954			-3.239
207804.000			12.953			-3.238
207905.000			12.954			-3.238
208004.000			12.954			-3.239
208105.000			12.955			-3.239
208204.000			12.954			-3.239
208304.000			12.954			-3.238
208405.000			12.954			-3.239
208504.000			12.954			-3.238
208603.000			12.954			-3.238
208705.000			12.953			-3.238
208804.000			12.953			-3.238
208904.000			12.953			-3.238
209005.000			12.953			-3.238
209104.000			12.953			-3.238
209204.000			12.953			-3.238
209305.000			12.953			-3.238
209404.000			12.954			-3.238
209503.000			12.953			-3.238
209605.000			12.952			-3.238
209704.000			12.951			-3.238
209804.000			12.951			-3.238
209905.000			12.952			-3.238
210004.000			12.951			-3.238
210104.000			12.951			-3.238
210205.000			12.950			-3.238
210304.000			12.951			-3.238
210403.000			12.951			-3.238
210505.000			12.951			-3.238
210604.000			12.950			-3.237
210704.000			12.950			-3.237
210805.000			12.950			-3.237
210904.000			12.950			-3.237
211004.000			12.949			-3.237
211103.000			12.949			-3.237
211204.000			12.948			-3.237
211304.000			12.948			-3.237
211404.000			12.949			-3.237
211504.000			12.949			-3.237
211605.000			12.949			-3.237
211704.000			12.947			-3.237
211804.000			12.948			-3.237
211905.000			12.947			-3.237
212003.000			12.947			-3.237
212104.000			12.946			-3.236
212205.000			12.946			-3.237
212304.000			12.946			-3.237
212404.000			12.946			-3.237
212505.000			12.947			-3.237
212604.000			12.947			-3.237
212704.000			12.946			-3.237
212805.000			12.946			-3.236
212903.000			12.947			-3.237
213004.000			12.946			-3.237
213105.000			12.945			-3.236
213204.000			12.945			-3.236
213304.000			12.945			-3.236
213405.000			12.945			-3.236
213504.000			12.946			-3.237
213604.000			12.944			-3.236
213705.000			12.944			-3.236
213803.000			12.943			-3.236
213904.000			12.943			-3.236
214005.000			12.944			-3.236
214104.000			12.944			-3.236
214204.000			12.944			-3.236
214304.000			12.944			-3.236
214404.000			12.944			-3.236
214504.000			12.944			-3.236
214604.000			12.943			-3.236
214703.000			12.943			-3.236
214805.000			12.942			-3.236
214904.000			12.943			-3.236
215004.000			12.943			-3.236
215105.000			12.943			-3.236
215204.000			12.943			-3.236
215304.000			12.942			-3.235
215404.000			12.942			-3.235
215504.000			12.942			-3.235
215603.000			12.941			-3.235
215705.000			12.941			-3.235
215804.000			12.941			-3.235
215904.000			12.939			-3.235
216005.000			12.941			-3.235
216104.000			12.941			-3.235
216204.000			12.941			-3.235
216304.000			12.941			-3.235
216404.000			12.941			-3.235
216504.000			12.940			-3.235
216605.000			12.940			-3.235
216704.000			12.941			-3.235
216804.000			12.940			-3.235
216905.000			12.940			-3.235
217004.000			12.939			-3.235
217104.000			12.940			-3.235
217204.000			12.939			-3.235
217304.000			12.939			-3.235
217404.000			12.939			-3.235
217504.000			12.938			-3.235
217604.000			12.937			-3.234
217705.000			12.938			-3.235
217804.000			12.938			-3.235
217904.000			12.938			-3.234
218005.000			12.937			-3.234
218103.000			12.937			-3.234
218204.000			12.937			-3.234
218305.000			12.937			-3.234
218404.000			12.936			-3.234
218504.000			12.936			-3.234
218605.000			12.937			-3.234
218704.000			12.936			-3.234
218804.000			12.936			-3.234
218905.000			12.937			-3.234
219003.000			12.936			-3.234
219104.000			12.936			-3.234
219205.000			12.936			-3.234
219304.000			12.936			-3.234
219404.000			12.936			-3.234
219505.000			12.935			-3.234
219604.000			12.935			-3.234
219704.000			12.935			-3.234
219805.000			12.934			-3.234
219903.000			12.934			-3.233
220004.000			12.934			-3.233
220105.000			12.933			-3.233
220204.000			12.934			-3.233
220304.000			12.934			-3.233
220405.000			12.934			-3.233
220504.000			12.934			-3.233
220604.000			12.933			-3.233
220705.000			12.932			-3.233
220803.000			12.933			-3.233
220905.000			12.933			-3.233
221004.000			12.932			-3.233
221104.000			12.932			-3.233
221205.000			12.931			-3.233
221304.000			12.932			-3.233
221404.000			12.933			-3.233
221504.000			12.933			-3.233
221604.000			12.931			-3.233
221704.000			12.930			-3.233
221805.000			12.930			-3.232
221904.000			12.931			-3.233
222004.000			12.931			-3.233
222105.000			12.930			-3.233
222204.000			12.929			-3.232
222304.000			12.929			-3.232
222404.000			12.929			-3.232
222504.000			12.930			-3.232
222604.000			12.930			-3.233
222705.000			12.930			-3.232
222804.000			12.929			-3.232
222904.000			12.929			-3.232
223005.000			12.929			-3.232
223104.000			12.929			-3.232
223204.000			12.928			-3.232
223304.000			12.928			-3.232
223404.000			12.929			-3.232
223504.000			12.928			-3.232
223605.000			12.928			-3.232
223704.000			12.928			-3.232
223804.000			12.928			-3.232
223905.000			12.928			-3.232
224004.000			12.928			-3.232
224105.000			12.927			-3.232
224203.000			12.926			-3.232
224304.000			12.927			-3.232
224405.000			12.927			-3.232
224504.000			12.927			-3.232
224604.000			12.925			-3.231
224705.000			12.925			-3.231
224804.000			12.926			-3.232
224903.000			12.926			-3.232
225005.000			12.925			-3.231
225103.000			12.925			-3.231
225204.000			12.925			-3.231
225305.000			12.925			-3.231
225404.000			12.924			-3.231
225504.000			12.925			-3.231
225605.000			12.924			-3.231
225704.000			12.924			-3.231
225803.000			12.924			-3.231
225905.000			12.924			-3.231
226004.000			12.924			-3.231
226104.000			12.924			-3.231
226205.000			12.924			-3.231
226304.000			12.923			-3.231
226404.000			12.923			-3.231
226505.000			12.924			-3.231
226604.000			12.923			-3.231
226703.000			12.922			-3.231
226805.000			12.922			-3.231
226904.000			12.922			-3.231
227004.000			12.922			-3.231
227105.000			12.922			-3.230
227204.000			12.921			-3.230
227305.000			12.922			-3.230
227404.000			12.921			-3.230
227504.000			12.921			-3.230
227604.000			12.921			-3.230
227704.000			12.921			-3.230
227804.000			12.921			-3.230
227905.000			12.921			-3.230
228004.000			12.920			-3.230
228104.000			12.920			-3.230
228205.000			12.920			-3.230
228304.000			12.919			-3.230
228404.000			12.920			-3.230
228504.000			12.919			-3.230
228604.000			12.920			-3.230
228704.000			12.919			-3.230
228805.000			12.919			-3.230
228904.000			12.919			-3.230
229004.000			12.919			-3.230
229105.000			12.919			-3.230
229204.000			12.917			-3.229
229304.000			12.918			-3.230
229404.000			12.918			-3.230
229504.000			12.919			-3.230
229604.000			12.919			-3.230
229705.000			12.918			-3.230
229804.000			12.916			-3.229
229904.000			12.917			-3.229
230005.000			12.917			-3.229
230104.000			12.916			-3.229
230204.000			12.917			-3.229
230303.000			12.917			-3.229
230404.000			12.916			-3.229
230505.000			12.916			-3.229
230604.000			12.917			-3.229
230704.000			12.916			-3.229
230805.000			12.915			-3.229
230904.000			12.916			-3.229
231004.000			12.915			-3.229
231105.000			12.914			-3.229
231203.000			12.915			-3.229
231304.000			12.915			-3.229
231405.000			12.914			-3.229
231504.000			12.914			-3.229
231604.000			12.914			-3.229
231705.000			12.914			-3.229
231804.000			12.914			-3.229
231903.000			12.914			-3.229
232005.000			12.914			-3.228
232104.000			12.914			-3.229
232204.000			12.913			-3.228
232305.000			12.914			-3.229
232404.000			12.914			-3.228
232504.000			12.912			-3.228
232605.000			12.913			-3.228
232704.000			12.912			-3.228
232803.000			12.912			-3.228
232905.000			12.911			-3.228
233004.000			12.911			-3.228
233104.000			12.911			-3.228
233205.000			12.912			-3.228
233304.000			12.912			-3.228
233404.000			12.912			-3.228
233503.000			12.910			-3.228
233604.000			12.910			-3.227
233704.000			12.911			-3.228
233804.000			12.912			-3.228
233904.000			12.911			-3.228
234005.000			12.911			-3.228
234104.000			12.911			-3.228
234204.000			12.910			-3.228
234305.000			12.911			-3.228
234403.000			12.910			-3.228
234504.000			12.910			-3.228
234605.000			12.910			-3.228
234704.000			12.909			-3.227
234804.000			12.910			-3.228
234905.000			12.909			-3.227
235004.000			12.909			-3.227
235104.000			12.909			-3.227
235205.000			12.908			-3.227
235303.000			12.908			-3.227
235404.000			12.908			-3.227
235505.000			12.908			-3.227
235604.000			12.908			-3.227
235704.000			12.909			-3.227
235805.000			12.907			-3.227
235904.000			12.907			-3.227
236004.000			12.907			-3.227
236105.000			12.907			-3.227
236203.000			12.908			-3.227
236304.000			12.908			-3.227
236405.000			12.909			-3.227
236504.000			12.907			-3.227
236604.000			12.907			-3.227
236704.000			12.907			-3.227
236804.000			12.907			-3.227
236905.000			12.907			-3.227
237004.000			12.906			-3.226
237103.000			12.906			-3.226
237205.000			12.905			-3.226
237304.000			12.905			-3.226
237404.000			12.906			-3.226
237505.000			12.905			-3.226
237604.000			12.906			-3.226
237704.000			12.905			-3.226
237804.000			12.904			-3.226
237904.000			12.904			-3.226
238003.000			12.903			-3.226
238105.000			12.904			-3.226
238204.000			12.904			-3.226
238304.000			12.903			-3.226
238405.000			12.903			-3.226
238504.000			12.903			-3.226
238604.000			12.904			-3.226
238704.000			12.904			-3.226
238804.000			12.903			-3.226
238903.000			12.903			-3.226
239005.000			12.903			-3.226
239104.000			12.903			-3.226
239204.000			12.902			-3.226
239305.000			12.902			-3.226
239404.000			12.901			-3.225
239504.000			12.902			-3.225
239604.000			12.902			-3.225
239704.000			12.900			-3.225
239804.000			12.901			-3.225
239904.000			12.902			-3.226
240004.000			12.901			-3.225
240105.000			12.901			-3.225
240204.000			12.901			-3.225
240304.000			12.901			-3.225
240405.000			12.901			-3.225
240503.000			12.900			-3.225
240604.000			12.901			-3.225
240705.000			12.900			-3.225
240804.000			12.899			-3.225
240904.000			12.900			-3.225
241005.000			12.900			-3.225
241104.000			12.900			-3.225
241203.000			12.899			-3.225
241305.000			12.899			-3.225
241403.000			12.900			-3.225
241504.000			12.899			-3.225
241605.000			12.899			-3.225
241704.000			12.898			-3.225
241804.000			12.898			-3.224
241905.000			12.898			-3.224
242004.000			12.898			-3.225
242104.000			12.899			-3.225
242205.000			12.899			-3.225
242303.000			12.898			-3.224
242404.000			12.897			-3.224
242505.000			12.896			-3.224
242604.000			12.897			-3.224
242704.000			12.897			-3.224
242805.000			12.896			-3.224
242904.000			12.896			-3.224
243004.000			12.896			-3.224
243105.000			12.896			-3.224
243203.000			12.896			-3.224
243305.000			12.897			-3.224
243404.000			12.897			-3.224
243504.000			12.895			-3.224
243605.000			12.896			-3.224
243704.000			12.896			-3.224
243804.000			12.896			-3.224
243905.000			12.896			-3.224
244004.000			12.895			-3.224
244103.000			12.894			-3.224
244205.000			12.894			-3.224
244304.000			12.895			-3.224
244404.000			12.896			-3.224
244505.000			12.894			-3.223
244604.000			12.894			-3.223
244704.000			12.894			-3.223
244805.000			12.894			-3.223
244904.000			12.893			-3.223
245003.000			12.894			-3.224
245105.000			12.893			-3.223
245204.000			12.892			-3.223
245304.000			12.893			-3.223
245405.000			12.893			-3.223
245504.000			12.893			-3.223
245604.000			12.893			-3.223
245705.000			12.893			-3.223
245804.000			12.892			-3.223
245903.000			12.892			-3.223
246005.000			12.892			-3.223
246104.000			12.893			-3.223
246204.000			12.892			-3.223
246305.000			12.891			-3.223
246404.000			12.891			-3.223
246505.000			12.891			-3.223
246604.000			12.890			-3.223
246704.000			12.892			-3.223
246804.000			12.892			-3.223
246904.000			12.891			-3.223
247003.000			12.890			-3.223
247105.000			12.889			-3.222
247204.000			12.890			-3.223
247304.000			12.890			-3.222
247405.000			12.890			-3.223
247504.000			12.890			-3.223
247604.000			12.890			-3.223
247704.000			12.890			-3.222
247804.000			12.889			-3.222
247903.000			12.890			-3.222
248005.000			12.890			-3.223
248104.000			12.890			-3.222
248204.000			12.890			-3.223
248305.000			12.890			-3.222
248404.000			12.889			-3.222
248504.000			12.889			-3.222
248605.000			12.888			-3.222
248704.000			12.888			-3.222
248803.000			12.888			-3.222
248905.000			12.887			-3.222
249004.000			12.887			-3.222
249104.000			12.886			-3.222
249205.000			12.886			-3.222
249304.000			12.887			-3.222
249404.000			12.887			-3.222
249504.000			12.888			-3.222
249604.000			12.885			-3.221
249704.000			12.885			-3.221
249804.000			12.886			-3.222
249903.000			12.887			-3.222
250005.000			12.887			-3.222
250104.000			12.886			-3.222
250204.000			12.886			-3.221
250305.000			12.886			-3.221
250404.000			12.885			-3.221
250504.000			12.886			-3.221
250605.000			12.885			-3.221
250704.000			12.885			-3.221
250803.000			12.885			-3.221
250905.000			12.885			-3.221
251004.000			12.886			-3.221
251104.000			12.883			-3.221
251205.000			12.884			-3.221
251304.000			12.884			-3.221
251404.000			12.883			-3.221
251505.000			12.884			-3.221
251604.000			12.884			-3.221
251703.000			12.884			-3.221
251805.000			12.883			-3.221
251904.000			12.883			-3.221
252004.000			12.882			-3.220
252105.000			12.882			-3.220
252204.000			12.882			-3.221
252304.000			12.882			-3.221
252405.000			12.882			-3.220
252504.000			12.882			-3.221
252603.000			12.882			-3.220
252705.000			12.882			-3.220
252804.000			12.883			-3.221
252905.000			12.882			-3.221
253004.000			12.882			-3.220
253104.000			12.880			-3.220
253205.000			12.881			-3.220
253304.000			12.881			-3.220
253404.000			12.881			-3.220
253504.000			12.880			-3.220
253604.000			12.880			-3.220
253704.000			12.880			-3.220
253805.000			12.880			-3.220
253904.000			12.879			-3.220
254004.000			12.879			-3.220
254105.000			12.879			-3.220
254204.000			12.879			-3.220
254304.000			12.878			-3.220
254404.000			12.879			-3.220
254504.000			12.879			-3.220
254603.000			12.879			-3.220
254705.000			12.879			-3.220
254804.000			12.878			-3.220
254904.000			12.878			-3.219
255005.000			12.878			-3.219
255104.000			12.878			-3.220
255204.000			12.878			-3.219
255304.000			12.877			-3.219
255404.000			12.877			-3.219
255503.000			12.877			-3.219
255605.000			12.877			-3.219
255704.000			12.878			-3.219
255804.000			12.878			-3.219
255905.000			12.877			-3.219
256004.000			12.877			-3.219
256105.000			12.877			-3.219
256204.000			12.877			-3.219
256304.000			12.876			-3.219
256404.000			12.876			-3.219
256504.000			12.876			-3.219
256604.000			12.876			-3.219
256705.000			12.876			-3.219
256804.000			12.877			-3.219
256904.000			12.876			-3.219
257005.000			12.875			-3.219
257104.000			12.874			-3.219
257204.000			12.875			-3.219
257304.000			12.876			-3.219
257404.000			12.876			-3.219
257504.000			12.875			-3.219
257605.000			12.874			-3.219
257704.000			12.875			-3.219
257804.000			12.876			-3.219
257905.000			12.874			-3.219
258004.000			12.874			-3.218
258104.000			12.874			-3.218
258204.000			12.874			-3.219
258304.000			12.874			-3.219
258403.000			12.873			-3.218
258505.000			12.873			-3.218
258604.000			12.873			-3.218
258704.000			12.872			-3.218
258805.000			12.872			-3.218
258904.000			12.872			-3.218
259004.000			12.873			-3.218
259103.000			12.873			-3.218
259204.000			12.872			-3.218
259304.000			12.872			-3.218
259404.000			12.872			-3.218
259504.000			12.872			-3.218
259605.000			12.872			-3.218
259704.000			12.871			-3.218
259804.000			12.872			-3.218
259905.000			12.871			-3.218
260004.000			12.871			-3.218
260104.000			12.870			-3.218
260204.000			12.871			-3.218
260304.000			12.872			-3.218
260404.000			12.871			-3.218
260505.000			12.870			-3.218
260604.000			12.869			-3.217
260704.000			12.869			-3.217
260805.000			12.870			-3.218
260903.000			12.869			-3.217
261004.000			12.869			-3.217
261104.000			12.869			-3.217
261204.000			12.868			-3.217
261304.000			12.868			-3.217
261405.000			12.868			-3.217
261504.000			12.868			-3.217
261604.000			12.868			-3.217
261705.000			12.868			-3.217
261803.000			12.869			-3.217
261904.000			12.869			-3.217
262004.000			12.868			-3.217
262104.000			12.867			-3.217
262204.000			12.867			-3.217
262304.000			12.868			-3.217
262404.000			12.868			-3.217
262505.000			12.868			-3.217
262604.000			12.868			-3.217
262703.000			12.868			-3.217
262805.000			12.867			-3.217
262903.000			12.866			-3.217
263004.000			12.867			-3.217
263105.000			12.867			-3.217
263204.000			12.867			-3.217
263304.000			12.867			-3.217
263405.000			12.866			-3.216
263504.000			12.868			-3.217
263603.000			12.866			-3.217
263705.000			12.866			-3.217
263803.000			12.866			-3.217
263904.000			12.866			-3.217
264005.000			12.865			-3.216
264104.000			12.866			-3.216
264204.000			12.865			-3.216
264305.000			12.865			-3.216
264404.000			12.865			-3.216
264503.000			12.864			-3.216
264605.000			12.865			-3.216
264703.000			12.864			-3.216
264804.000			12.865			-3.216
264905.000			12.864			-3.216
265004.000			12.865			-3.216
265104.000			12.864			-3.216
265205.000			12.863			-3.216
265304.000			12.863			-3.216
265403.000			12.864			-3.216
265505.000			12.864			-3.216
265604.000			12.863			-3.216
265705.000			12.862			-3.215
265804.000			12.862			-3.216
265904.000			12.863			-3.216
266005.000			12.863			-3.216
266104.000			12.864			-3.216
266204.000			12.862			-3.216
266304.000			12.862			-3.216
266404.000			12.863			-3.216
266503.000			12.861			-3.215
266605.000			12.860			-3.215
266704.000			12.861			-3.215
266804.000			12.862			-3.215
266905.000			12.862			-3.215
267004.000			12.861			-3.215
267104.000			12.860			-3.215
267204.000			12.861			-3.215
267304.000			12.861			-3.215
267403.000			12.861			-3.215
267505.000			12.861			-3.215
267604.000			12.860			-3.215
267704.000			12.860			-3.215
267805.000			12.860			-3.215
267904.000			12.860			-3.215
268004.000			12.860			-3.215
268105.000			12.859			-3.215
268204.000			12.860			-3.215
268303.000			12.860			-3.215
268405.000			12.859			-3.215
268504.000			12.859			-3.215
268604.000			12.859			-3.215
268705.000			12.858			-3.215
268804.000			12.858			-3.215
268905.000			12.858			-3.215
269004.000			12.858			-3.215
269104.000			12.858			-3.214
269204.000			12.858			-3.214
269304.000			12.858			-3.215
269403.000			12.858			-3.214
269505.000			12.858			-3.214
269604.000			12.858			-3.214
269704.000			12.857			-3.214
269805.000			12.856			-3.214
269904.000			12.856			-3.214
270004.000			12.856			-3.214
270104.000			12.857			-3.214
270204.000			12.856			-3.214
270303.000			12.856			-3.214
270405.000			12.856			-3.214
270504.000			12.856			-3.214
270604.000			12.856			-3.214
270705.000			12.855			-3.214
270804.000			12.856			-3.214
270904.000			12.855			-3.214
271004.000			12.855			-3.214
271104.000			12.855			-3.214
271203.000			12.855			-3.214
271305.000			12.855			-3.214
271404.000			12.854			-3.214
271504.000			12.854			-3.214
271605.000			12.854			-3.214
271704.000			12.854			-3.213
271804.000			12.854			-3.214
271903.000			12.854			-3.214
272004.000			12.854			-3.214
272104.000			12.854			-3.213
272204.000			12.853			-3.213
272304.000			12.851			-3.213
272405.000			12.852			-3.213
272504.000			12.852			-3.213
272604.000			12.853			-3.213
272705.000			12.853			-3.213
272803.000			12.851			-3.213
272904.000			12.852			-3.213
273005.000			12.852			-3.213
273104.000			12.852			-3.213
273204.000			12.853			-3.213
273305.000			12.852			-3.213
273404.000			12.851			-3.213
273504.000			12.852			-3.213
273605.000			12.852			-3.213
273703.000			12.851			-3.213
273804.000			12.852			-3.213
273905.000			12.851			-3.213
274004.000			12.851			-3.213
274104.000			12.851			-3.213
274205.000			12.851			-3.213
274304.000			12.850			-3.212
274404.000			12.850			-3.213
274505.000			12.851			-3.213
274603.000			12.850			-3.213
274704.000			12.850			-3.212
274805.000			12.850			-3.212
274904.000			12.850			-3.212
275004.000			12.849			-3.212
275104.000			12.849			-3.212
275204.000			12.848			-3.212
275305.000			12.849			-3.212
275404.000			12.849			-3.212
275503.000			12.848			-3.212
275605.000			12.847			-3.212
275703.000			12.848			-3.212
275804.000			12.848			-3.212
275905.000			12.848			-3.212
276004.000			12.849			-3.212
276104.000			12.849			-3.212
276205.000			12.849			-3.212
276304.000			12.849			-3.212
276403.000			12.849			-3.212
276505.000			12.849			-3.212
276603.000			12.847			-3.212
276704.000			12.846			-3.212
276805.000			12.847			-3.212
276904.000			12.848			-3.212
277004.000			12.848			-3.212
277105.000			12.847			-3.212
277204.000			12.846			-3.212
277304.000			12.845			-3.211
277405.000			12.845			-3.211
277503.000			12.845			-3.211
277604.000			12.846			-3.211
277705.000			12.845			-3.211
277804.000			12.845			-3.211
277904.000			12.846			-3.211
278005.000			12.845			-3.211
278104.000			12.845			-3.211
278204.000			12.844			-3.211
278305.000			12.844			-3.211
278403.000			12.844			-3.211
278505.000			12.844			-3.211
278603.000			12.844			-3.211
278704.000			12.844			-3.211
278805.000			12.844			-3.211
278904.000			12.843			-3.211
279004.000			12.843			-3.211
279105.000			12.843			-3.211
279204.000			12.843			-3.211
279303.000			12.842			-3.211
279405.000			12.842			-3.210
279503.000			12.843			-3.211
279604.000			12.843			-3.211
279705.000			12.843			-3.211
279804.000			12.843			-3.211
279904.000			12.842			-3.210
280005.000			12.842			-3.210
280104.000			12.842			-3.210
280203.000			12.842			-3.210
280305.000			12.842			-3.210
280404.000			12.841			-3.210
280504.000			12.841			-3.210
280605.000			12.841			-3.210
280704.000			12.842			-3.210
280804.000			12.841			-3.210
280905.000			12.841			-3.210
281004.000			12.841			-3.210
281103.000			12.840			-3.210
281205.000			12.840			-3.210
281304.000			12.841			-3.210
281404.000			12.840			-3.210
281505.000			12.840			-3.210
281604.000			12.839			-3.210
281705.000			12.839			-3.210
281804.000			12.840			-3.210
281904.000			12.840			-3.210
282004.000			12.840			-3.210
282104.000			12.839			-3.210
282203.000			12.838			-3.210
282305.000			12.840			-3.210
282404.000			12.839			-3.210
282504.000			12.838			-3.209
282605.000			12.838			-3.210
282704.000			12.839			-3.210
282804.000			12.839			-3.210
282904.000			12.838			-3.210
283004.000			12.838			-3.209
283103.000			12.838			-3.210
283205.000			12.837			-3.209
283304.000			12.837			-3.209
283404.000			12.836			-3.209
283505.000			12.837			-3.209
283604.000			12.837			-3.209
283704.000			12.836			-3.209
283804.000			12.836			-3.209
283904.000			12.836			-3.209
284003.000			12.836			-3.209
284105.000			12.837			-3.209
284204.000			12.836			-3.209
284304.000			12.835			-3.209
284405.000			12.835			-3.209
284504.000			12.836			-3.209
284604.000			12.835			-3.209
284703.000			12.835			-3.209
284804.000			12.835			-3.209
284904.000			12.835			-3.209
285004.000			12.835			-3.209
285104.000			12.835			-3.209
285205.000			12.835			-3.209
285304.000			12.834			-3.209
285404.000			12.834			-3.208
285505.000			12.835			-3.209
285603.000			12.835			-3.209
285704.000			12.835			-3.209
285804.000			12.833			-3.208
285904.000			12.833			-3.208
286004.000			12.834			-3.208
286105.000			12.834			-3.208
286204.000			12.834			-3.208
286304.000			12.834			-3.208
286405.000			12.833			-3.208
286504.000			12.834			-3.208
286604.000			12.833			-3.208
286704.000			12.833			-3.208
286804.000			12.831			-3.208
286904.000			12.832			-3.208
287005.000			12.832			-3.208
287104.000			12.832			-3.208
287204.000			12.832			-3.208
287305.000			12.832			-3.208
287404.000			12.832			-3.208
287504.000			12.831			-3.208
287604.000			12.831			-3.208
287704.000			12.832			-3.208
287804.000			12.831			-3.208
287904.000			12.831			-3.208
288004.000			12.831			-3.208
288105.000			12.831			-3.208
288204.000			12.831			-3.208
288304.000			12.831			-3.208
288405.000			12.830			-3.208
288503.000			12.831			-3.208
288604.000			12.831			-3.208
288705.000			12.830			-3.208
288804.000			12.831			-3.208
288904.000			12.830			-3.207
289005.000			12.830			-3.208
289104.000			12.831			-3.208
289204.000			12.830			-3.208
289305.000			12.829			-3.207
289403.000			12.829			-3.207
289504.000			12.829			-3.207
289605.000			12.829			-3.207
289704.000			12.829			-3.207
289804.000			12.828			-3.207
289905.000			12.827			-3.207
290004.000			12.827			-3.207
290104.000			12.828			-3.207
290205.000			12.828			-3.207
290303.000			12.827			-3.207
290404.000			12.827			-3.207
290505.000			12.827			-3.207
290604.000			12.827			-3.207
290704.000			12.828			-3.207
290805.000			12.828			-3.207
290904.000			12.827			-3.207
291004.000			12.827			-3.207
291105.000			12.827			-3.207
291203.000			12.826			-3.207
291305.000			12.826			-3.207
291404.000			12.826			-3.207
291504.000			12.826			-3.207
291605.000			12.826			-3.207
291704.000			12.826			-3.207
291804.000			12.826			-3.206
291905.000			12.824			-3.206
292004.000			12.826			-3.206
292103.000			12.827			-3.207
292205.000			12.827			-3.207
292304.000			12.826			-3.207
292404.000			12.825			-3.206
292505.000			12.825			-3.206
292604.000			12.824			-3.206
292704.000			12.824			-3.206
292804.000			12.825			-3.206
292904.000			12.824			-3.206
293003.000			12.824			-3.206
293105.000			12.825			-3.206
293204.000			12.825			-3.206
293304.000			12.825			-3.206
293405.000			12.824			-3.206
293504.000			12.824			-3.206
293604.000			12.823			-3.206
293704.000			12.823			-3.206
293804.000			12.823			-3.206
293903.000			12.824			-3.206
294005.000			12.824			-3.206
294104.000			12.823			-3.206
294204.000			12.823			-3.206
294305.000			12.823			-3.206
294404.000			12.823			-3.206
294505.000			12.823			-3.206
294603.000			12.823			-3.206
294704.000			12.822			-3.206
294804.000			12.823			-3.206
294904.000			12.822			-3.205
295004.000			12.821			-3.205
295105.000			12.822			-3.206
295204.000			12.823			-3.206
295304.000			12.823			-3.206
295405.000			12.823			-3.206
295503.000			12.822			-3.206
295604.000			12.822			-3.205
295704.000			12.822			-3.205
295804.000			12.821			-3.205
295904.000			12.822			-3.205
296005.000			12.822			-3.206
296104.000			12.822			-3.205
296204.000			12.821			-3.205
296305.000			12.820			-3.205
296403.000			12.820			-3.205
296504.000			12.821			-3.205
296605.000			12.820			-3.205
296704.000			12.820			-3.205
296804.000			12.820			-3.205
296905.000			12.820			-3.205
297004.000			12.820			-3.205
297104.000			12.821			-3.205
297205.000			12.820			-3.205
297303.000			12.820			-3.205
297404.000			12.820			-3.205
297505.000			12.819			-3.205
297604.000			12.818			-3.205
297705.000			12.819			-3.205
297804.000			12.818			-3.205
297904.000			12.818			-3.205
298005.000			12.818			-3.205
298104.000			12.819			-3.205
298203.000			12.818			-3.205
298305.000			12.818			-3.204
298403.000			12.818			-3.205
298504.000			12.818			-3.204
298605.000			12.818			-3.204
298704.000			12.818			-3.204
298804.000			12.817			-3.204
298905.000			12.817			-3.204
299004.000			12.816			-3.204
299104.000			12.816			-3.204
299205.000			12.817			-3.204
299303.000			12.818			-3.204
299404.000			12.817			-3.204
299505.000			12.817			-3.204
299604.000			12.818			-3.204
299704.000			12.817			-3.204
299805.000			12.816			-3.204
299904.000			12.816			-3.204
