# Acquired on 21/12/2023 15:19:10 
# SPIDER: Creep_-9mm_07714532B-2
# CREEP MEASUREMENT

# time [ms]		force [N]		stiffness [N/mm]
0.000			37.410			-4.157
100.000			39.404			-4.378
201.000			40.269			-4.474
301.000			40.322			-4.480
400.000			39.926			-4.436
501.000			39.784			-4.420
600.000			39.664			-4.407
700.000			39.559			-4.395
801.000			39.466			-4.385
900.000			39.383			-4.376
1001.000			39.308			-4.368
1102.000			39.176			-4.353
1200.000			39.116			-4.346
1300.000			39.061			-4.340
1401.000			39.010			-4.334
1500.000			38.962			-4.329
1600.000			38.916			-4.324
1701.000			38.872			-4.319
1801.000			38.793			-4.310
1902.000			38.757			-4.306
2000.000			38.719			-4.302
2100.000			38.684			-4.298
2201.000			38.652			-4.295
2300.000			38.621			-4.291
2400.000			38.591			-4.288
2502.000			38.562			-4.285
2601.000			38.505			-4.278
2701.000			38.479			-4.275
2801.000			38.454			-4.273
2900.000			38.430			-4.270
3000.000			38.406			-4.267
3101.000			38.384			-4.265
3200.000			38.362			-4.262
3301.000			38.318			-4.258
3402.000			38.297			-4.255
3500.000			38.277			-4.253
3600.000			38.258			-4.251
3701.000			38.238			-4.249
3800.000			38.219			-4.247
3900.000			38.201			-4.245
4001.000			38.165			-4.241
4101.000			38.149			-4.239
4201.000			38.132			-4.237
4301.000			38.116			-4.235
4400.000			38.100			-4.233
4500.000			38.085			-4.232
4601.000			38.069			-4.230
4700.000			38.054			-4.228
4800.000			38.024			-4.225
4902.000			38.010			-4.223
5001.000			37.996			-4.222
5100.000			37.982			-4.220
5200.000			37.969			-4.219
5300.000			37.956			-4.217
5401.000			37.943			-4.216
5500.000			37.917			-4.213
5601.000			37.905			-4.212
5702.000			37.892			-4.210
5801.000			37.881			-4.209
5900.000			37.870			-4.208
6001.000			37.857			-4.206
6100.000			37.846			-4.205
6200.000			37.824			-4.203
6301.000			37.813			-4.201
6401.000			37.801			-4.200
6501.000			37.791			-4.199
6601.000			37.780			-4.198
6700.000			37.769			-4.197
6800.000			37.760			-4.196
6901.000			37.750			-4.194
7000.000			37.730			-4.192
7100.000			37.720			-4.191
7202.000			37.710			-4.190
7301.000			37.700			-4.189
7400.000			37.691			-4.188
7501.000			37.682			-4.187
7600.000			37.673			-4.186
7700.000			37.654			-4.184
7801.000			37.646			-4.183
7900.000			37.637			-4.182
8001.000			37.629			-4.181
8102.000			37.622			-4.180
8200.000			37.613			-4.179
8300.000			37.604			-4.178
8400.000			37.587			-4.176
8500.000			37.579			-4.175
8601.000			37.571			-4.175
8700.000			37.563			-4.174
8801.000			37.554			-4.173
8902.000			37.547			-4.172
9000.000			37.541			-4.171
9100.000			37.533			-4.170
9201.000			37.517			-4.169
9300.000			37.510			-4.168
9400.000			37.504			-4.167
9501.000			37.496			-4.166
9601.000			37.488			-4.165
9701.000			37.481			-4.165
9801.000			37.474			-4.164
9900.000			37.460			-4.162
10000.000			37.453			-4.161
10101.000			37.447			-4.161
10200.000			37.441			-4.160
10300.000			37.434			-4.159
10402.000			37.427			-4.159
10501.000			37.421			-4.158
10600.000			37.408			-4.156
10701.000			37.402			-4.156
10800.000			37.395			-4.155
10900.000			37.389			-4.154
11001.000			37.382			-4.154
11100.000			37.376			-4.153
11201.000			37.370			-4.152
11302.000			37.365			-4.152
11400.000			37.353			-4.150
11500.000			37.346			-4.150
11600.000			37.340			-4.149
11700.000			37.335			-4.148
11801.000			37.329			-4.148
11900.000			37.323			-4.147
12001.000			37.318			-4.146
12102.000			37.305			-4.145
12200.000			37.300			-4.144
12300.000			37.295			-4.144
12401.000			37.290			-4.143
12500.000			37.284			-4.143
12600.000			37.279			-4.142
12701.000			37.274			-4.142
12801.000			37.262			-4.140
12901.000			37.256			-4.140
13001.000			37.251			-4.139
13100.000			37.247			-4.139
13200.000			37.242			-4.138
13301.000			37.238			-4.138
13400.000			37.232			-4.137
13500.000			37.227			-4.136
13602.000			37.216			-4.135
13701.000			37.211			-4.135
13800.000			37.207			-4.134
13901.000			37.202			-4.134
14000.000			37.198			-4.133
14100.000			37.192			-4.132
14201.000			37.187			-4.132
14301.000			37.177			-4.131
14401.000			37.173			-4.130
14501.000			37.168			-4.130
14600.000			37.164			-4.129
14700.000			37.159			-4.129
14800.000			37.156			-4.128
14900.000			37.151			-4.128
15001.000			37.142			-4.127
15101.000			37.138			-4.126
15201.000			37.133			-4.126
15302.000			37.128			-4.125
15400.000			37.124			-4.125
15500.000			37.120			-4.124
15601.000			37.116			-4.124
15700.000			37.111			-4.123
15800.000			37.102			-4.122
15902.000			37.098			-4.122
16001.000			37.093			-4.121
16101.000			37.090			-4.121
16201.000			37.085			-4.121
16300.000			37.081			-4.120
16400.000			37.077			-4.120
16501.000			37.068			-4.119
16600.000			37.065			-4.118
16700.000			37.062			-4.118
16802.000			37.058			-4.118
16901.000			37.053			-4.117
17000.000			37.049			-4.117
17101.000			37.044			-4.116
17200.000			37.038			-4.115
17300.000			37.034			-4.115
17401.000			37.030			-4.114
17500.000			37.026			-4.114
17601.000			37.022			-4.114
17702.000			37.019			-4.113
17800.000			37.015			-4.113
17900.000			37.010			-4.112
18000.000			37.003			-4.111
18100.000			36.999			-4.111
18201.000			36.995			-4.111
18300.000			36.992			-4.110
18401.000			36.989			-4.110
18502.000			36.985			-4.109
18600.000			36.982			-4.109
18700.000			36.974			-4.108
18801.000			36.970			-4.108
18900.000			36.967			-4.107
19000.000			36.963			-4.107
19101.000			36.960			-4.107
19201.000			36.957			-4.106
19301.000			36.953			-4.106
19401.000			36.946			-4.105
19500.000			36.942			-4.105
19600.000			36.939			-4.104
19701.000			36.936			-4.104
19800.000			36.934			-4.104
19900.000			36.931			-4.103
20001.000			36.926			-4.103
20101.000			36.922			-4.102
20201.000			36.917			-4.102
20301.000			36.914			-4.102
20400.000			36.909			-4.101
20500.000			36.906			-4.101
20601.000			36.903			-4.100
20700.000			36.900			-4.100
20800.000			36.896			-4.100
20902.000			36.891			-4.099
21001.000			36.888			-4.099
21100.000			36.884			-4.098
21200.000			36.881			-4.098
21300.000			36.877			-4.097
21401.000			36.874			-4.097
21500.000			36.871			-4.097
21600.000			36.868			-4.096
21702.000			36.862			-4.096
21801.000			36.859			-4.095
21900.000			36.857			-4.095
22001.000			36.853			-4.095
22100.000			36.850			-4.094
22200.000			36.847			-4.094
22301.000			36.844			-4.094
22400.000			36.837			-4.093
22501.000			36.835			-4.093
22602.000			36.833			-4.093
22700.000			36.830			-4.092
22800.000			36.826			-4.092
22901.000			36.822			-4.091
23000.000			36.820			-4.091
23100.000			36.815			-4.091
23201.000			36.813			-4.090
23301.000			36.810			-4.090
23401.000			36.807			-4.090
23501.000			36.804			-4.089
23600.000			36.801			-4.089
23700.000			36.797			-4.089
23801.000			36.794			-4.088
23900.000			36.789			-4.088
24000.000			36.786			-4.087
24102.000			36.784			-4.087
24201.000			36.781			-4.087
24300.000			36.779			-4.087
24400.000			36.776			-4.086
24500.000			36.773			-4.086
24601.000			36.767			-4.085
24700.000			36.765			-4.085
24800.000			36.764			-4.085
24902.000			36.760			-4.084
25001.000			36.757			-4.084
25101.000			36.755			-4.084
25201.000			36.753			-4.084
25300.000			36.746			-4.083
25400.000			36.743			-4.083
25501.000			36.741			-4.082
25600.000			36.738			-4.082
25700.000			36.735			-4.082
25802.000			36.734			-4.082
25901.000			36.732			-4.081
26000.000			36.728			-4.081
26101.000			36.722			-4.080
26200.000			36.721			-4.080
26300.000			36.719			-4.080
26401.000			36.715			-4.079
26500.000			36.713			-4.079
26601.000			36.711			-4.079
26702.000			36.708			-4.079
26800.000			36.703			-4.078
26900.000			36.701			-4.078
27001.000			36.698			-4.078
27100.000			36.696			-4.077
27200.000			36.694			-4.077
27301.000			36.691			-4.077
27401.000			36.688			-4.076
27502.000			36.683			-4.076
27600.000			36.681			-4.076
27700.000			36.679			-4.075
27801.000			36.676			-4.075
27900.000			36.675			-4.075
28000.000			36.673			-4.075
28101.000			36.669			-4.074
28201.000			36.667			-4.074
28301.000			36.664			-4.074
28401.000			36.661			-4.073
28500.000			36.658			-4.073
28600.000			36.656			-4.073
28701.000			36.653			-4.073
28800.000			36.651			-4.072
28900.000			36.649			-4.072
29001.000			36.644			-4.072
29101.000			36.642			-4.071
29201.000			36.640			-4.071
29301.000			36.638			-4.071
29400.000			36.635			-4.071
29500.000			36.632			-4.070
29601.000			36.630			-4.070
29700.000			36.626			-4.070
29800.000			36.624			-4.069
29902.000			36.621			-4.069
30001.000			36.620			-4.069
30100.000			36.617			-4.069
30201.000			36.615			-4.068
30300.000			36.612			-4.068
30400.000			36.610			-4.068
30501.000			36.605			-4.067
30600.000			36.604			-4.067
30702.000			36.602			-4.067
30801.000			36.601			-4.067
30900.000			36.598			-4.066
31001.000			36.596			-4.066
31100.000			36.594			-4.066
31200.000			36.590			-4.066
31301.000			36.588			-4.065
31400.000			36.585			-4.065
31501.000			36.582			-4.065
31602.000			36.581			-4.065
31700.000			36.579			-4.064
31800.000			36.576			-4.064
31901.000			36.572			-4.064
32000.000			36.570			-4.063
32100.000			36.570			-4.063
32201.000			36.567			-4.063
32301.000			36.565			-4.063
32401.000			36.563			-4.063
32501.000			36.560			-4.062
32600.000			36.557			-4.062
32700.000			36.555			-4.062
32801.000			36.553			-4.061
32900.000			36.551			-4.061
33000.000			36.548			-4.061
33102.000			36.547			-4.061
33201.000			36.544			-4.060
33300.000			36.542			-4.060
33401.000			36.539			-4.060
33500.000			36.537			-4.060
33600.000			36.535			-4.059
33701.000			36.533			-4.059
33800.000			36.530			-4.059
33902.000			36.527			-4.059
34001.000			36.526			-4.058
34100.000			36.522			-4.058
34201.000			36.521			-4.058
34300.000			36.519			-4.058
34400.000			36.517			-4.057
34501.000			36.515			-4.057
34600.000			36.513			-4.057
34701.000			36.511			-4.057
34802.000			36.510			-4.057
34900.000			36.506			-4.056
35000.000			36.504			-4.056
35101.000			36.502			-4.056
35200.000			36.500			-4.056
35300.000			36.498			-4.055
35401.000			36.496			-4.055
35501.000			36.495			-4.055
35601.000			36.490			-4.054
35701.000			36.489			-4.054
35800.000			36.487			-4.054
35900.000			36.485			-4.054
36001.000			36.483			-4.054
36100.000			36.482			-4.054
36200.000			36.480			-4.053
36302.000			36.476			-4.053
36401.000			36.474			-4.053
36500.000			36.473			-4.053
36601.000			36.471			-4.052
36700.000			36.469			-4.052
36800.000			36.467			-4.052
36901.000			36.464			-4.052
37000.000			36.463			-4.051
37102.000			36.460			-4.051
37201.000			36.458			-4.051
37300.000			36.456			-4.051
37401.000			36.455			-4.051
37500.000			36.453			-4.050
37600.000			36.452			-4.050
37701.000			36.451			-4.050
37800.000			36.446			-4.050
37901.000			36.443			-4.049
38002.000			36.441			-4.049
38100.000			36.440			-4.049
38200.000			36.439			-4.049
38301.000			36.437			-4.049
38400.000			36.435			-4.048
38500.000			36.434			-4.048
38601.000			36.430			-4.048
38701.000			36.429			-4.048
38801.000			36.428			-4.048
38901.000			36.425			-4.047
39000.000			36.423			-4.047
39100.000			36.422			-4.047
39201.000			36.421			-4.047
39300.000			36.418			-4.046
39400.000			36.417			-4.046
39502.000			36.415			-4.046
39601.000			36.413			-4.046
39700.000			36.411			-4.046
39801.000			36.409			-4.045
39900.000			36.407			-4.045
40000.000			36.404			-4.045
40101.000			36.403			-4.045
40200.000			36.401			-4.045
40302.000			36.398			-4.044
40401.000			36.396			-4.044
40501.000			36.395			-4.044
40601.000			36.394			-4.044
40700.000			36.392			-4.044
40800.000			36.389			-4.043
40901.000			36.387			-4.043
41000.000			36.385			-4.043
41101.000			36.384			-4.043
41202.000			36.382			-4.042
41300.000			36.381			-4.042
41400.000			36.380			-4.042
41501.000			36.376			-4.042
41600.000			36.375			-4.042
41700.000			36.374			-4.042
41801.000			36.372			-4.041
41901.000			36.370			-4.041
42001.000			36.369			-4.041
42101.000			36.367			-4.041
42200.000			36.363			-4.040
42300.000			36.362			-4.040
42401.000			36.361			-4.040
42500.000			36.359			-4.040
42600.000			36.357			-4.040
42702.000			36.356			-4.040
42801.000			36.355			-4.039
42900.000			36.353			-4.039
43001.000			36.350			-4.039
43100.000			36.349			-4.039
43200.000			36.346			-4.038
43301.000			36.345			-4.038
43400.000			36.344			-4.038
43502.000			36.343			-4.038
43601.000			36.341			-4.038
43700.000			36.339			-4.038
43801.000			36.336			-4.037
43900.000			36.334			-4.037
44000.000			36.332			-4.037
44101.000			36.331			-4.037
44200.000			36.331			-4.037
44301.000			36.329			-4.037
44402.000			36.326			-4.036
44500.000			36.325			-4.036
44600.000			36.323			-4.036
44701.000			36.321			-4.036
44800.000			36.320			-4.036
44900.000			36.319			-4.035
45001.000			36.318			-4.035
45101.000			36.316			-4.035
45201.000			36.313			-4.035
45301.000			36.311			-4.035
45400.000			36.310			-4.034
45500.000			36.309			-4.034
45601.000			36.307			-4.034
45700.000			36.305			-4.034
45800.000			36.303			-4.034
45902.000			36.302			-4.034
46001.000			36.300			-4.033
46100.000			36.299			-4.033
46201.000			36.297			-4.033
46300.000			36.296			-4.033
46400.000			36.295			-4.033
46501.000			36.294			-4.033
46600.000			36.289			-4.032
46702.000			36.288			-4.032
46801.000			36.287			-4.032
46901.000			36.286			-4.032
47001.000			36.285			-4.032
47100.000			36.283			-4.031
47200.000			36.282			-4.031
47301.000			36.281			-4.031
47400.000			36.276			-4.031
47500.000			36.276			-4.031
47602.000			36.274			-4.030
47701.000			36.273			-4.030
47800.000			36.273			-4.030
47901.000			36.270			-4.030
48000.000			36.270			-4.030
48100.000			36.266			-4.030
48201.000			36.265			-4.029
48300.000			36.264			-4.029
48401.000			36.263			-4.029
48502.000			36.261			-4.029
48600.000			36.258			-4.029
48700.000			36.258			-4.029
48801.000			36.256			-4.028
48900.000			36.254			-4.028
49000.000			36.252			-4.028
49101.000			36.251			-4.028
49201.000			36.250			-4.028
49301.000			36.249			-4.028
49401.000			36.248			-4.028
49500.000			36.247			-4.027
49600.000			36.244			-4.027
49701.000			36.243			-4.027
49800.000			36.241			-4.027
49900.000			36.240			-4.027
50002.000			36.239			-4.027
50101.000			36.238			-4.026
50201.000			36.237			-4.026
50300.000			36.234			-4.026
50400.000			36.232			-4.026
50501.000			36.231			-4.026
50600.000			36.230			-4.026
50700.000			36.229			-4.025
50802.000			36.228			-4.025
50901.000			36.225			-4.025
51000.000			36.223			-4.025
51101.000			36.222			-4.025
51200.000			36.221			-4.025
51300.000			36.220			-4.024
51401.000			36.219			-4.024
51500.000			36.217			-4.024
51601.000			36.216			-4.024
51702.000			36.214			-4.024
51800.000			36.211			-4.023
51900.000			36.209			-4.023
52001.000			36.208			-4.023
52100.000			36.208			-4.023
52200.000			36.206			-4.023
52302.000			36.205			-4.023
52401.000			36.203			-4.023
52500.000			36.201			-4.022
52601.000			36.200			-4.022
52700.000			36.199			-4.022
52800.000			36.198			-4.022
52901.000			36.197			-4.022
53000.000			36.196			-4.022
53102.000			36.194			-4.022
53201.000			36.191			-4.021
53300.000			36.190			-4.021
53401.000			36.190			-4.021
53500.000			36.188			-4.021
53600.000			36.187			-4.021
53701.000			36.185			-4.021
53800.000			36.184			-4.020
53900.000			36.183			-4.020
54002.000			36.180			-4.020
54101.000			36.179			-4.020
54200.000			36.178			-4.020
54301.000			36.176			-4.020
54400.000			36.175			-4.019
54500.000			36.174			-4.019
54601.000			36.174			-4.019
54701.000			36.171			-4.019
54801.000			36.170			-4.019
54902.000			36.168			-4.019
55000.000			36.167			-4.019
55100.000			36.166			-4.018
55201.000			36.166			-4.018
55300.000			36.164			-4.018
55400.000			36.162			-4.018
55502.000			36.161			-4.018
55601.000			36.160			-4.018
55701.000			36.159			-4.018
55801.000			36.158			-4.018
55900.000			36.155			-4.017
56000.000			36.155			-4.017
56101.000			36.153			-4.017
56200.000			36.151			-4.017
56300.000			36.149			-4.017
56402.000			36.148			-4.016
56501.000			36.147			-4.016
56601.000			36.146			-4.016
56700.000			36.146			-4.016
56800.000			36.144			-4.016
56901.000			36.141			-4.016
57000.000			36.141			-4.016
57100.000			36.140			-4.016
57202.000			36.138			-4.015
57301.000			36.138			-4.015
57400.000			36.136			-4.015
57501.000			36.134			-4.015
57600.000			36.133			-4.015
57700.000			36.132			-4.015
57801.000			36.130			-4.014
57900.000			36.128			-4.014
58001.000			36.127			-4.014
58102.000			36.127			-4.014
58200.000			36.126			-4.014
58300.000			36.124			-4.014
58401.000			36.123			-4.014
58500.000			36.122			-4.014
58600.000			36.120			-4.013
58701.000			36.119			-4.013
58801.000			36.119			-4.013
58901.000			36.117			-4.013
59001.000			36.116			-4.013
59100.000			36.114			-4.013
59200.000			36.113			-4.013
59301.000			36.112			-4.012
59400.000			36.111			-4.012
59500.000			36.110			-4.012
59602.000			36.109			-4.012
59701.000			36.108			-4.012
59801.000			36.106			-4.012
59900.000			36.103			-4.011
60000.000			36.103			-4.011
60101.000			36.102			-4.011
60200.000			36.100			-4.011
60300.000			36.099			-4.011
60402.000			36.098			-4.011
60501.000			36.097			-4.011
60600.000			36.096			-4.011
60701.000			36.094			-4.010
60800.000			36.093			-4.010
60900.000			36.092			-4.010
61001.000			36.092			-4.010
61100.000			36.090			-4.010
61201.000			36.089			-4.010
61302.000			36.086			-4.010
61400.000			36.084			-4.009
61500.000			36.083			-4.009
61601.000			36.084			-4.009
61700.000			36.083			-4.009
61800.000			36.081			-4.009
61901.000			36.080			-4.009
62001.000			36.079			-4.009
62101.000			36.078			-4.009
62201.000			36.076			-4.008
62300.000			36.075			-4.008
62400.000			36.074			-4.008
62501.000			36.073			-4.008
62600.000			36.071			-4.008
62700.000			36.070			-4.008
62802.000			36.068			-4.008
62901.000			36.068			-4.008
63001.000			36.066			-4.007
63100.000			36.065			-4.007
63200.000			36.064			-4.007
63301.000			36.064			-4.007
63400.000			36.063			-4.007
63500.000			36.061			-4.007
63602.000			36.060			-4.007
63701.000			36.058			-4.006
63800.000			36.056			-4.006
63901.000			36.057			-4.006
64000.000			36.056			-4.006
64100.000			36.054			-4.006
64201.000			36.052			-4.006
64300.000			36.051			-4.006
64401.000			36.050			-4.006
64502.000			36.049			-4.005
64600.000			36.048			-4.005
64700.000			36.048			-4.005
64801.000			36.046			-4.005
64900.000			36.044			-4.005
65000.000			36.044			-4.005
65101.000			36.043			-4.005
65201.000			36.040			-4.004
65301.000			36.041			-4.005
65401.000			36.039			-4.004
65500.000			36.038			-4.004
65600.000			36.037			-4.004
65701.000			36.035			-4.004
65800.000			36.035			-4.004
65900.000			36.034			-4.004
66002.000			36.032			-4.004
66101.000			36.031			-4.003
66201.000			36.030			-4.003
66300.000			36.028			-4.003
66400.000			36.027			-4.003
66501.000			36.027			-4.003
66600.000			36.026			-4.003
66700.000			36.024			-4.003
66802.000			36.023			-4.003
66901.000			36.022			-4.002
67000.000			36.021			-4.002
67101.000			36.021			-4.002
67200.000			36.019			-4.002
67300.000			36.019			-4.002
67401.000			36.017			-4.002
67500.000			36.016			-4.002
67601.000			36.014			-4.002
67702.000			36.014			-4.002
67800.000			36.012			-4.001
67900.000			36.009			-4.001
68001.000			36.009			-4.001
68100.000			36.008			-4.001
68200.000			36.007			-4.001
68301.000			36.007			-4.001
68401.000			36.005			-4.001
68501.000			36.004			-4.000
68601.000			36.004			-4.000
68700.000			36.003			-4.000
68800.000			36.001			-4.000
68901.000			36.001			-4.000
69000.000			36.000			-4.000
69100.000			35.999			-4.000
69202.000			35.997			-4.000
69301.000			35.996			-4.000
69402.000			35.994			-3.999
69500.000			35.992			-3.999
69600.000			35.993			-3.999
69701.000			35.991			-3.999
69800.000			35.990			-3.999
69900.000			35.990			-3.999
70001.000			35.989			-3.999
70101.000			35.987			-3.999
70201.000			35.986			-3.998
70301.000			35.984			-3.998
70400.000			35.984			-3.998
70500.000			35.982			-3.998
70601.000			35.981			-3.998
70700.000			35.981			-3.998
70800.000			35.979			-3.998
70901.000			35.978			-3.998
71001.000			35.977			-3.997
71101.000			35.977			-3.997
71201.000			35.976			-3.997
71300.000			35.975			-3.997
71400.000			35.974			-3.997
71501.000			35.973			-3.997
71600.000			35.971			-3.997
71700.000			35.970			-3.997
71802.000			35.969			-3.997
71901.000			35.968			-3.996
72001.000			35.969			-3.997
72101.000			35.968			-3.996
72200.000			35.966			-3.996
72300.000			35.963			-3.996
72400.000			35.963			-3.996
72500.000			35.962			-3.996
72601.000			35.962			-3.996
72701.000			35.961			-3.996
72801.000			35.960			-3.996
72901.000			35.959			-3.995
73000.000			35.957			-3.995
73100.000			35.955			-3.995
73201.000			35.954			-3.995
73300.000			35.954			-3.995
73400.000			35.953			-3.995
73502.000			35.953			-3.995
73601.000			35.952			-3.995
73700.000			35.950			-3.994
73801.000			35.949			-3.994
73900.000			35.947			-3.994
74000.000			35.947			-3.994
74101.000			35.945			-3.994
74200.000			35.944			-3.994
74301.000			35.944			-3.994
74402.000			35.944			-3.994
74501.000			35.941			-3.993
74600.000			35.941			-3.993
74701.000			35.939			-3.993
74800.000			35.940			-3.993
74900.000			35.938			-3.993
75001.000			35.937			-3.993
75100.000			35.937			-3.993
75201.000			35.935			-3.993
75302.000			35.934			-3.993
75400.000			35.933			-3.993
75500.000			35.932			-3.992
75600.000			35.930			-3.992
75700.000			35.929			-3.992
75801.000			35.929			-3.992
75900.000			35.928			-3.992
76001.000			35.927			-3.992
76102.000			35.925			-3.992
76200.000			35.924			-3.992
76300.000			35.923			-3.991
76401.000			35.923			-3.991
76500.000			35.924			-3.992
76600.000			35.922			-3.991
76701.000			35.920			-3.991
76800.000			35.919			-3.991
76901.000			35.918			-3.991
77002.000			35.916			-3.991
77100.000			35.916			-3.991
77200.000			35.916			-3.991
77301.000			35.915			-3.991
77400.000			35.914			-3.990
77500.000			35.912			-3.990
77601.000			35.911			-3.990
77701.000			35.910			-3.990
77801.000			35.910			-3.990
77901.000			35.909			-3.990
78000.000			35.908			-3.990
78100.000			35.907			-3.990
78201.000			35.905			-3.989
78300.000			35.904			-3.989
78400.000			35.904			-3.989
78502.000			35.904			-3.989
78601.000			35.902			-3.989
78702.000			35.902			-3.989
78800.000			35.901			-3.989
78900.000			35.898			-3.989
79001.000			35.898			-3.989
79100.000			35.897			-3.989
79200.000			35.896			-3.988
79301.000			35.896			-3.988
79401.000			35.894			-3.988
79501.000			35.893			-3.988
79601.000			35.891			-3.988
79700.000			35.890			-3.988
79800.000			35.890			-3.988
79901.000			35.889			-3.988
80000.000			35.888			-3.988
80100.000			35.887			-3.987
80201.000			35.887			-3.987
80301.000			35.887			-3.987
80401.000			35.885			-3.987
80501.000			35.884			-3.987
80600.000			35.883			-3.987
80700.000			35.883			-3.987
80801.000			35.882			-3.987
80900.000			35.881			-3.987
81000.000			35.880			-3.987
81102.000			35.878			-3.986
81201.000			35.877			-3.986
81301.000			35.877			-3.986
81401.000			35.875			-3.986
81500.000			35.875			-3.986
81600.000			35.875			-3.986
81701.000			35.873			-3.986
81800.000			35.873			-3.986
81900.000			35.872			-3.986
82002.000			35.870			-3.986
82101.000			35.868			-3.985
82201.000			35.868			-3.985
82300.000			35.867			-3.985
82400.000			35.866			-3.985
82501.000			35.866			-3.985
82600.000			35.864			-3.985
82700.000			35.863			-3.985
82802.000			35.863			-3.985
82901.000			35.862			-3.985
83001.000			35.861			-3.985
83101.000			35.860			-3.984
83200.000			35.858			-3.984
83300.000			35.858			-3.984
83401.000			35.858			-3.984
83500.000			35.857			-3.984
83600.000			35.856			-3.984
83702.000			35.855			-3.984
83801.000			35.853			-3.984
83900.000			35.852			-3.984
84001.000			35.851			-3.983
84100.000			35.851			-3.983
84200.000			35.850			-3.983
84301.000			35.850			-3.983
84400.000			35.850			-3.983
84501.000			35.848			-3.983
84602.000			35.847			-3.983
84701.000			35.845			-3.983
84800.000			35.845			-3.983
84901.000			35.844			-3.983
85000.000			35.843			-3.983
85100.000			35.843			-3.983
85200.000			35.842			-3.982
85300.000			35.841			-3.982
85402.000			35.841			-3.982
85501.000			35.837			-3.982
85600.000			35.837			-3.982
85701.000			35.836			-3.982
85800.000			35.836			-3.982
85900.000			35.835			-3.982
86001.000			35.834			-3.982
86100.000			35.833			-3.981
86201.000			35.834			-3.982
86302.000			35.832			-3.981
86401.000			35.831			-3.981
86500.000			35.829			-3.981
86601.000			35.829			-3.981
86700.000			35.829			-3.981
86800.000			35.828			-3.981
86901.000			35.827			-3.981
87000.000			35.826			-3.981
87101.000			35.825			-3.981
87202.000			35.823			-3.980
87300.000			35.823			-3.980
87400.000			35.822			-3.980
87501.000			35.821			-3.980
87600.000			35.821			-3.980
87700.000			35.820			-3.980
87801.000			35.819			-3.980
87901.000			35.818			-3.980
88001.000			35.817			-3.980
88102.000			35.816			-3.980
88200.000			35.815			-3.979
88300.000			35.814			-3.979
88400.000			35.815			-3.979
88500.000			35.814			-3.979
88601.000			35.814			-3.979
88700.000			35.812			-3.979
88801.000			35.810			-3.979
88902.000			35.810			-3.979
89000.000			35.810			-3.979
89100.000			35.809			-3.979
89201.000			35.807			-3.979
89300.000			35.807			-3.979
89400.000			35.807			-3.979
89501.000			35.805			-3.978
89601.000			35.804			-3.978
89701.000			35.804			-3.978
89801.000			35.803			-3.978
89900.000			35.802			-3.978
90000.000			35.802			-3.978
90101.000			35.800			-3.978
90200.000			35.799			-3.978
90300.000			35.798			-3.978
90401.000			35.798			-3.978
90501.000			35.798			-3.978
90601.000			35.796			-3.977
90701.000			35.795			-3.977
90800.000			35.794			-3.977
90900.000			35.792			-3.977
91001.000			35.792			-3.977
91100.000			35.791			-3.977
91200.000			35.790			-3.977
91302.000			35.789			-3.977
91401.000			35.788			-3.976
91502.000			35.787			-3.976
91600.000			35.787			-3.976
91700.000			35.786			-3.976
91801.000			35.786			-3.976
91900.000			35.785			-3.976
92000.000			35.784			-3.976
92101.000			35.783			-3.976
92201.000			35.781			-3.976
92301.000			35.781			-3.976
92401.000			35.781			-3.976
92500.000			35.780			-3.976
92600.000			35.780			-3.976
92701.000			35.779			-3.975
92800.000			35.778			-3.975
92900.000			35.777			-3.975
93002.000			35.777			-3.975
93101.000			35.775			-3.975
93201.000			35.774			-3.975
93301.000			35.773			-3.975
93400.000			35.773			-3.975
93500.000			35.773			-3.975
93601.000			35.771			-3.975
93700.000			35.771			-3.975
93800.000			35.770			-3.974
93902.000			35.769			-3.974
94001.000			35.769			-3.974
94100.000			35.768			-3.974
94201.000			35.767			-3.974
94300.000			35.766			-3.974
94400.000			35.764			-3.974
94501.000			35.764			-3.974
94600.000			35.763			-3.974
94700.000			35.762			-3.974
94802.000			35.761			-3.973
94901.000			35.761			-3.973
95001.000			35.761			-3.973
95100.000			35.760			-3.973
95200.000			35.759			-3.973
95301.000			35.759			-3.973
95400.000			35.758			-3.973
95500.000			35.756			-3.973
95602.000			35.756			-3.973
95701.000			35.756			-3.973
95800.000			35.753			-3.973
95901.000			35.752			-3.972
96000.000			35.752			-3.972
96100.000			35.752			-3.972
96201.000			35.751			-3.972
96300.000			35.750			-3.972
96400.000			35.750			-3.972
96502.000			35.749			-3.972
96601.000			35.748			-3.972
96700.000			35.747			-3.972
96801.000			35.747			-3.972
96900.000			35.746			-3.972
97000.000			35.744			-3.972
97101.000			35.744			-3.972
97200.000			35.743			-3.971
97301.000			35.741			-3.971
97402.000			35.742			-3.971
97500.000			35.741			-3.971
97600.000			35.740			-3.971
97701.000			35.738			-3.971
97800.000			35.737			-3.971
97900.000			35.737			-3.971
98000.000			35.736			-3.971
98100.000			35.736			-3.971
98202.000			35.736			-3.971
98301.000			35.735			-3.971
98400.000			35.734			-3.970
98501.000			35.734			-3.970
98600.000			35.733			-3.970
98700.000			35.731			-3.970
98801.000			35.730			-3.970
98900.000			35.729			-3.970
99001.000			35.729			-3.970
99102.000			35.729			-3.970
99200.000			35.729			-3.970
99300.000			35.727			-3.970
99401.000			35.725			-3.969
99500.000			35.725			-3.969
99600.000			35.725			-3.969
99701.000			35.725			-3.969
99801.000			35.723			-3.969
99901.000			35.722			-3.969
100002.000			35.722			-3.969
100100.000			35.721			-3.969
100200.000			35.718			-3.969
100301.000			35.718			-3.969
100400.000			35.718			-3.969
100500.000			35.717			-3.969
100601.000			35.718			-3.969
100701.000			35.717			-3.969
100801.000			35.717			-3.969
100901.000			35.714			-3.968
101000.000			35.712			-3.968
101100.000			35.713			-3.968
101200.000			35.713			-3.968
101300.000			35.712			-3.968
101401.000			35.712			-3.968
101501.000			35.711			-3.968
101601.000			35.711			-3.968
101701.000			35.708			-3.968
101800.000			35.708			-3.968
101900.000			35.708			-3.968
102001.000			35.707			-3.967
102100.000			35.706			-3.967
102200.000			35.704			-3.967
102302.000			35.704			-3.967
102401.000			35.704			-3.967
102501.000			35.704			-3.967
102601.000			35.703			-3.967
102700.000			35.702			-3.967
102800.000			35.701			-3.967
102901.000			35.700			-3.967
103000.000			35.699			-3.967
103100.000			35.697			-3.966
103202.000			35.697			-3.966
103301.000			35.697			-3.966
103400.000			35.697			-3.966
103501.000			35.696			-3.966
103600.000			35.695			-3.966
103700.000			35.694			-3.966
103801.000			35.694			-3.966
103900.000			35.693			-3.966
104000.000			35.693			-3.966
104102.000			35.691			-3.966
104201.000			35.691			-3.966
104300.000			35.690			-3.966
104400.000			35.689			-3.965
104500.000			35.689			-3.965
104601.000			35.688			-3.965
104700.000			35.687			-3.965
104800.000			35.686			-3.965
104901.000			35.686			-3.965
105001.000			35.685			-3.965
105101.000			35.683			-3.965
105201.000			35.683			-3.965
105300.000			35.682			-3.965
105400.000			35.682			-3.965
105501.000			35.681			-3.965
105600.000			35.680			-3.964
105700.000			35.679			-3.964
105802.000			35.679			-3.964
105901.000			35.678			-3.964
106001.000			35.678			-3.964
106101.000			35.676			-3.964
106200.000			35.677			-3.964
106300.000			35.676			-3.964
106401.000			35.675			-3.964
106500.000			35.674			-3.964
106600.000			35.673			-3.964
106702.000			35.672			-3.964
106801.000			35.672			-3.964
106900.000			35.670			-3.963
107001.000			35.670			-3.963
107100.000			35.669			-3.963
107200.000			35.669			-3.963
107301.000			35.669			-3.963
107400.000			35.669			-3.963
107500.000			35.666			-3.963
107602.000			35.666			-3.963
107701.000			35.667			-3.963
107801.000			35.665			-3.963
107900.000			35.664			-3.963
108000.000			35.665			-3.963
108101.000			35.664			-3.963
108200.000			35.663			-3.963
108300.000			35.662			-3.962
108402.000			35.661			-3.962
108501.000			35.661			-3.962
108601.000			35.660			-3.962
108701.000			35.659			-3.962
108800.000			35.658			-3.962
108900.000			35.659			-3.962
109001.000			35.658			-3.962
109100.000			35.657			-3.962
109200.000			35.657			-3.962
109302.000			35.655			-3.962
109401.000			35.653			-3.961
109500.000			35.653			-3.961
109601.000			35.653			-3.961
109700.000			35.652			-3.961
109800.000			35.651			-3.961
109901.000			35.651			-3.961
110000.000			35.650			-3.961
110100.000			35.649			-3.961
110202.000			35.648			-3.961
110301.000			35.648			-3.961
110400.000			35.647			-3.961
110501.000			35.647			-3.961
110600.000			35.645			-3.961
110700.000			35.645			-3.961
110800.000			35.645			-3.961
110900.000			35.644			-3.960
111002.000			35.643			-3.960
111101.000			35.643			-3.960
111200.000			35.642			-3.960
111301.000			35.642			-3.960
111400.000			35.640			-3.960
111500.000			35.640			-3.960
111601.000			35.639			-3.960
111700.000			35.639			-3.960
111801.000			35.638			-3.960
111902.000			35.636			-3.960
112001.000			35.636			-3.960
112100.000			35.636			-3.960
112201.000			35.636			-3.960
112300.000			35.634			-3.959
112400.000			35.634			-3.959
112501.000			35.633			-3.959
112600.000			35.632			-3.959
112701.000			35.632			-3.959
112802.000			35.632			-3.959
112900.000			35.631			-3.959
113000.000			35.631			-3.959
113101.000			35.630			-3.959
113200.000			35.630			-3.959
113300.000			35.629			-3.959
113401.000			35.627			-3.959
113501.000			35.626			-3.958
113601.000			35.626			-3.958
113701.000			35.625			-3.958
113800.000			35.624			-3.958
113900.000			35.624			-3.958
114000.000			35.624			-3.958
114100.000			35.623			-3.958
114201.000			35.622			-3.958
114301.000			35.622			-3.958
114401.000			35.621			-3.958
114501.000			35.621			-3.958
114600.000			35.620			-3.958
114700.000			35.618			-3.958
114801.000			35.618			-3.958
114900.000			35.616			-3.957
115000.000			35.615			-3.957
115101.000			35.614			-3.957
115201.000			35.615			-3.957
115301.000			35.615			-3.957
115401.000			35.614			-3.957
115500.000			35.613			-3.957
115600.000			35.612			-3.957
115701.000			35.611			-3.957
115800.000			35.611			-3.957
115900.000			35.611			-3.957
116002.000			35.610			-3.957
116101.000			35.610			-3.957
116201.000			35.611			-3.957
116301.000			35.609			-3.957
116400.000			35.606			-3.956
116500.000			35.606			-3.956
116601.000			35.606			-3.956
116700.000			35.606			-3.956
116800.000			35.605			-3.956
116902.000			35.605			-3.956
117001.000			35.604			-3.956
117100.000			35.602			-3.956
117200.000			35.602			-3.956
117300.000			35.601			-3.956
117401.000			35.601			-3.956
117500.000			35.601			-3.956
117600.000			35.600			-3.956
117702.000			35.600			-3.956
117801.000			35.599			-3.955
117901.000			35.598			-3.955
118001.000			35.597			-3.955
118100.000			35.596			-3.955
118200.000			35.595			-3.955
118301.000			35.595			-3.955
118400.000			35.595			-3.955
118500.000			35.595			-3.955
118602.000			35.594			-3.955
118701.000			35.593			-3.955
118800.000			35.592			-3.955
118901.000			35.592			-3.955
119000.000			35.592			-3.955
119100.000			35.590			-3.954
119201.000			35.589			-3.954
119300.000			35.588			-3.954
119400.000			35.589			-3.954
119502.000			35.589			-3.954
119601.000			35.588			-3.954
119700.000			35.586			-3.954
119801.000			35.586			-3.954
119900.000			35.586			-3.954
120000.000			35.585			-3.954
120101.000			35.584			-3.954
120200.000			35.583			-3.954
120300.000			35.583			-3.954
120402.000			35.583			-3.954
120501.000			35.582			-3.954
120601.000			35.582			-3.954
120700.000			35.581			-3.953
120800.000			35.579			-3.953
120901.000			35.579			-3.953
121000.000			35.579			-3.953
121100.000			35.579			-3.953
121202.000			35.577			-3.953
121301.000			35.577			-3.953
121400.000			35.576			-3.953
121501.000			35.575			-3.953
121600.000			35.575			-3.953
121700.000			35.575			-3.953
121801.000			35.574			-3.953
121900.000			35.573			-3.953
122000.000			35.572			-3.952
122102.000			35.572			-3.952
122201.000			35.571			-3.952
122300.000			35.570			-3.952
122401.000			35.570			-3.952
122500.000			35.570			-3.952
122600.000			35.569			-3.952
122701.000			35.569			-3.952
122800.000			35.567			-3.952
122901.000			35.567			-3.952
123002.000			35.566			-3.952
123101.000			35.565			-3.952
123200.000			35.564			-3.952
123301.000			35.564			-3.952
123400.000			35.564			-3.952
123500.000			35.564			-3.952
123600.000			35.563			-3.951
123700.000			35.561			-3.951
123802.000			35.561			-3.951
123901.000			35.560			-3.951
124000.000			35.559			-3.951
124101.000			35.559			-3.951
124200.000			35.560			-3.951
124300.000			35.558			-3.951
124401.000			35.558			-3.951
124500.000			35.558			-3.951
124600.000			35.557			-3.951
124702.000			35.555			-3.951
124801.000			35.555			-3.951
124900.000			35.555			-3.951
125001.000			35.554			-3.950
125100.000			35.553			-3.950
125200.000			35.553			-3.950
125301.000			35.553			-3.950
125400.000			35.552			-3.950
125501.000			35.551			-3.950
125602.000			35.550			-3.950
125700.000			35.549			-3.950
125800.000			35.549			-3.950
125901.000			35.549			-3.950
126000.000			35.548			-3.950
126100.000			35.548			-3.950
126201.000			35.547			-3.950
126301.000			35.546			-3.950
126401.000			35.546			-3.950
126502.000			35.545			-3.949
126600.000			35.544			-3.949
126700.000			35.544			-3.949
126800.000			35.543			-3.949
126900.000			35.542			-3.949
127001.000			35.541			-3.949
127100.000			35.541			-3.949
127201.000			35.541			-3.949
127302.000			35.540			-3.949
127401.000			35.540			-3.949
127500.000			35.540			-3.949
127601.000			35.539			-3.949
127700.000			35.538			-3.949
127800.000			35.538			-3.949
127901.000			35.538			-3.949
128000.000			35.537			-3.949
128101.000			35.535			-3.948
128202.000			35.535			-3.948
128300.000			35.535			-3.948
128400.000			35.533			-3.948
128501.000			35.533			-3.948
128600.000			35.532			-3.948
128700.000			35.532			-3.948
128801.000			35.531			-3.948
128901.000			35.532			-3.948
129001.000			35.531			-3.948
129102.000			35.530			-3.948
129200.000			35.529			-3.948
129300.000			35.528			-3.948
129401.000			35.527			-3.947
129500.000			35.527			-3.947
129600.000			35.526			-3.947
129701.000			35.527			-3.947
129801.000			35.526			-3.947
129902.000			35.525			-3.947
130001.000			35.525			-3.947
130100.000			35.525			-3.947
130201.000			35.524			-3.947
130300.000			35.523			-3.947
130400.000			35.522			-3.947
130501.000			35.522			-3.947
130600.000			35.521			-3.947
130701.000			35.520			-3.947
130802.000			35.519			-3.947
130900.000			35.519			-3.947
131000.000			35.519			-3.947
131101.000			35.519			-3.947
131200.000			35.518			-3.946
131300.000			35.517			-3.946
131401.000			35.518			-3.946
131501.000			35.516			-3.946
131601.000			35.514			-3.946
131702.000			35.514			-3.946
131800.000			35.514			-3.946
131900.000			35.513			-3.946
132001.000			35.513			-3.946
132100.000			35.512			-3.946
132200.000			35.512			-3.946
132301.000			35.511			-3.946
132401.000			35.510			-3.946
132501.000			35.510			-3.946
132602.000			35.509			-3.945
132700.000			35.509			-3.945
132800.000			35.509			-3.945
132901.000			35.508			-3.945
133000.000			35.507			-3.945
133100.000			35.507			-3.945
133200.000			35.508			-3.945
133300.000			35.505			-3.945
133402.000			35.505			-3.945
133501.000			35.504			-3.945
133600.000			35.503			-3.945
133701.000			35.503			-3.945
133800.000			35.503			-3.945
133900.000			35.502			-3.945
134001.000			35.503			-3.945
134100.000			35.503			-3.945
134200.000			35.502			-3.945
134302.000			35.501			-3.945
134401.000			35.501			-3.945
134500.000			35.499			-3.944
134601.000			35.499			-3.944
134700.000			35.498			-3.944
134800.000			35.498			-3.944
134901.000			35.498			-3.944
135000.000			35.497			-3.944
135100.000			35.496			-3.944
135202.000			35.495			-3.944
135301.000			35.495			-3.944
135401.000			35.493			-3.944
135501.000			35.493			-3.944
135600.000			35.492			-3.944
135700.000			35.491			-3.943
135801.000			35.492			-3.944
135900.000			35.490			-3.943
136000.000			35.490			-3.943
136101.000			35.490			-3.943
136201.000			35.489			-3.943
136302.000			35.488			-3.943
136401.000			35.488			-3.943
136500.000			35.487			-3.943
136601.000			35.487			-3.943
136700.000			35.486			-3.943
136800.000			35.486			-3.943
136901.000			35.485			-3.943
137000.000			35.484			-3.943
137100.000			35.484			-3.943
137202.000			35.484			-3.943
137301.000			35.483			-3.943
137400.000			35.483			-3.943
137501.000			35.483			-3.943
137600.000			35.482			-3.942
137700.000			35.481			-3.942
137801.000			35.480			-3.942
137900.000			35.480			-3.942
138000.000			35.480			-3.942
138102.000			35.480			-3.942
138201.000			35.479			-3.942
138301.000			35.478			-3.942
138401.000			35.477			-3.942
138500.000			35.475			-3.942
138600.000			35.475			-3.942
138701.000			35.475			-3.942
138800.000			35.475			-3.942
138900.000			35.474			-3.942
139001.000			35.474			-3.942
139101.000			35.473			-3.941
139201.000			35.472			-3.941
139301.000			35.471			-3.941
139400.000			35.471			-3.941
139500.000			35.471			-3.941
139600.000			35.472			-3.941
139700.000			35.471			-3.941
139801.000			35.470			-3.941
139900.000			35.470			-3.941
140000.000			35.469			-3.941
140102.000			35.468			-3.941
140201.000			35.468			-3.941
140300.000			35.468			-3.941
140401.000			35.467			-3.941
140500.000			35.467			-3.941
140600.000			35.464			-3.940
140701.000			35.464			-3.940
140800.000			35.464			-3.940
140900.000			35.465			-3.941
141002.000			35.464			-3.940
141101.000			35.462			-3.940
141200.000			35.463			-3.940
141301.000			35.462			-3.940
141400.000			35.461			-3.940
141500.000			35.461			-3.940
141601.000			35.461			-3.940
141700.000			35.459			-3.940
141800.000			35.458			-3.940
141902.000			35.458			-3.940
142001.000			35.459			-3.940
142100.000			35.457			-3.940
142201.000			35.457			-3.940
142300.000			35.457			-3.940
142400.000			35.456			-3.940
142501.000			35.455			-3.939
142600.000			35.453			-3.939
142700.000			35.453			-3.939
142802.000			35.455			-3.939
142901.000			35.453			-3.939
143002.000			35.452			-3.939
143100.000			35.451			-3.939
143200.000			35.452			-3.939
143301.000			35.452			-3.939
143400.000			35.451			-3.939
143500.000			35.450			-3.939
143601.000			35.450			-3.939
143701.000			35.449			-3.939
143801.000			35.448			-3.939
143902.000			35.448			-3.939
144000.000			35.447			-3.939
144100.000			35.447			-3.939
144201.000			35.446			-3.938
144300.000			35.445			-3.938
144400.000			35.445			-3.938
144501.000			35.445			-3.938
144600.000			35.444			-3.938
144701.000			35.443			-3.938
144802.000			35.443			-3.938
144900.000			35.442			-3.938
145000.000			35.441			-3.938
145101.000			35.441			-3.938
145200.000			35.440			-3.938
145300.000			35.440			-3.938
145401.000			35.439			-3.938
145500.000			35.440			-3.938
145601.000			35.439			-3.938
145702.000			35.440			-3.938
145801.000			35.438			-3.938
145900.000			35.437			-3.937
146000.000			35.437			-3.937
146100.000			35.437			-3.937
146201.000			35.436			-3.937
146300.000			35.436			-3.937
146400.000			35.436			-3.937
146501.000			35.433			-3.937
146601.000			35.434			-3.937
146701.000			35.433			-3.937
146801.000			35.432			-3.937
146900.000			35.432			-3.937
147000.000			35.432			-3.937
147101.000			35.431			-3.937
147200.000			35.430			-3.937
147300.000			35.430			-3.937
147401.000			35.429			-3.937
147501.000			35.428			-3.936
147601.000			35.428			-3.936
147702.000			35.428			-3.936
147800.000			35.428			-3.936
147900.000			35.426			-3.936
148001.000			35.427			-3.936
148100.000			35.427			-3.936
148200.000			35.427			-3.936
148301.000			35.425			-3.936
148400.000			35.424			-3.936
148501.000			35.424			-3.936
148602.000			35.424			-3.936
148701.000			35.422			-3.936
148800.000			35.423			-3.936
148901.000			35.423			-3.936
149000.000			35.422			-3.936
149100.000			35.421			-3.936
149200.000			35.421			-3.936
149300.000			35.420			-3.936
149401.000			35.419			-3.935
149501.000			35.419			-3.935
149601.000			35.419			-3.935
149701.000			35.417			-3.935
149800.000			35.416			-3.935
149900.000			35.417			-3.935
150001.000			35.417			-3.935
150100.000			35.416			-3.935
150200.000			35.415			-3.935
150301.000			35.414			-3.935
150401.000			35.414			-3.935
150501.000			35.413			-3.935
150601.000			35.413			-3.935
150700.000			35.412			-3.935
150800.000			35.413			-3.935
150901.000			35.411			-3.935
151000.000			35.412			-3.935
151100.000			35.411			-3.935
151201.000			35.410			-3.934
151301.000			35.410			-3.934
151401.000			35.410			-3.934
151501.000			35.409			-3.934
151600.000			35.408			-3.934
151700.000			35.408			-3.934
151801.000			35.407			-3.934
151900.000			35.408			-3.934
152000.000			35.407			-3.934
152101.000			35.406			-3.934
152201.000			35.406			-3.934
152302.000			35.404			-3.934
152401.000			35.404			-3.934
152500.000			35.404			-3.934
152601.000			35.404			-3.934
152700.000			35.403			-3.934
152800.000			35.402			-3.934
152901.000			35.402			-3.934
153000.000			35.401			-3.933
153101.000			35.400			-3.933
153202.000			35.401			-3.933
153301.000			35.400			-3.933
153400.000			35.398			-3.933
153501.000			35.398			-3.933
153600.000			35.399			-3.933
153700.000			35.399			-3.933
153801.000			35.396			-3.933
153900.000			35.397			-3.933
154000.000			35.397			-3.933
154102.000			35.397			-3.933
154201.000			35.395			-3.933
154301.000			35.395			-3.933
154401.000			35.394			-3.933
154500.000			35.393			-3.933
154600.000			35.393			-3.933
154701.000			35.393			-3.933
154800.000			35.393			-3.933
154900.000			35.392			-3.932
155001.000			35.391			-3.932
155101.000			35.391			-3.932
155201.000			35.390			-3.932
155301.000			35.391			-3.932
155400.000			35.389			-3.932
155500.000			35.389			-3.932
155600.000			35.389			-3.932
155700.000			35.388			-3.932
155801.000			35.388			-3.932
155900.000			35.386			-3.932
156000.000			35.386			-3.932
156102.000			35.385			-3.932
156201.000			35.384			-3.932
156300.000			35.385			-3.932
156401.000			35.384			-3.932
156500.000			35.385			-3.932
156600.000			35.385			-3.932
156701.000			35.383			-3.931
156800.000			35.382			-3.931
156900.000			35.382			-3.931
157002.000			35.381			-3.931
157101.000			35.381			-3.931
157200.000			35.381			-3.931
157301.000			35.381			-3.931
157400.000			35.380			-3.931
157500.000			35.379			-3.931
157601.000			35.379			-3.931
157700.000			35.378			-3.931
157800.000			35.378			-3.931
157902.000			35.378			-3.931
158001.000			35.377			-3.931
158101.000			35.376			-3.931
158201.000			35.375			-3.931
158300.000			35.375			-3.931
158400.000			35.374			-3.930
158501.000			35.374			-3.930
158600.000			35.374			-3.930
158700.000			35.373			-3.930
158800.000			35.372			-3.930
158901.000			35.372			-3.930
159002.000			35.372			-3.930
159101.000			35.372			-3.930
159200.000			35.372			-3.930
159301.000			35.371			-3.930
159400.000			35.370			-3.930
159500.000			35.369			-3.930
159601.000			35.369			-3.930
159700.000			35.368			-3.930
159800.000			35.369			-3.930
159902.000			35.368			-3.930
160001.000			35.367			-3.930
160100.000			35.367			-3.930
160201.000			35.367			-3.930
160300.000			35.367			-3.930
160400.000			35.366			-3.930
160501.000			35.365			-3.929
160600.000			35.364			-3.929
160700.000			35.364			-3.929
160802.000			35.364			-3.929
160901.000			35.363			-3.929
161001.000			35.363			-3.929
161101.000			35.362			-3.929
161200.000			35.361			-3.929
161300.000			35.360			-3.929
161401.000			35.360			-3.929
161500.000			35.360			-3.929
161600.000			35.360			-3.929
161702.000			35.360			-3.929
161801.000			35.360			-3.929
161902.000			35.358			-3.929
162000.000			35.359			-3.929
162100.000			35.358			-3.929
162201.000			35.357			-3.929
162300.000			35.357			-3.929
162400.000			35.355			-3.928
162501.000			35.355			-3.928
162600.000			35.356			-3.928
162701.000			35.355			-3.928
162802.000			35.354			-3.928
162901.000			35.354			-3.928
163000.000			35.353			-3.928
163101.000			35.353			-3.928
163200.000			35.352			-3.928
163300.000			35.351			-3.928
163401.000			35.351			-3.928
163500.000			35.350			-3.928
163601.000			35.350			-3.928
163702.000			35.351			-3.928
163801.000			35.350			-3.928
163900.000			35.349			-3.928
164001.000			35.348			-3.928
164100.000			35.348			-3.928
164200.000			35.347			-3.927
164301.000			35.346			-3.927
164400.000			35.346			-3.927
164500.000			35.346			-3.927
164602.000			35.346			-3.927
164701.000			35.346			-3.927
164800.000			35.345			-3.927
164901.000			35.344			-3.927
165000.000			35.344			-3.927
165100.000			35.344			-3.927
165200.000			35.343			-3.927
165300.000			35.343			-3.927
165401.000			35.343			-3.927
165501.000			35.342			-3.927
165601.000			35.342			-3.927
165701.000			35.342			-3.927
165800.000			35.341			-3.927
165900.000			35.340			-3.927
166001.000			35.340			-3.927
166100.000			35.339			-3.927
166200.000			35.338			-3.926
166301.000			35.337			-3.926
166401.000			35.338			-3.926
166501.000			35.337			-3.926
166602.000			35.336			-3.926
166700.000			35.336			-3.926
166800.000			35.336			-3.926
166901.000			35.335			-3.926
167000.000			35.334			-3.926
167100.000			35.335			-3.926
167201.000			35.334			-3.926
167300.000			35.333			-3.926
167401.000			35.333			-3.926
167502.000			35.333			-3.926
167601.000			35.332			-3.926
167700.000			35.331			-3.926
167801.000			35.331			-3.926
167900.000			35.331			-3.926
168000.000			35.330			-3.926
168101.000			35.330			-3.926
168200.000			35.330			-3.926
168300.000			35.329			-3.925
168402.000			35.330			-3.926
168501.000			35.327			-3.925
168601.000			35.326			-3.925
168700.000			35.325			-3.925
168800.000			35.326			-3.925
168901.000			35.326			-3.925
169000.000			35.325			-3.925
169100.000			35.324			-3.925
169201.000			35.325			-3.925
169301.000			35.324			-3.925
169401.000			35.323			-3.925
169502.000			35.323			-3.925
169600.000			35.323			-3.925
169700.000			35.323			-3.925
169801.000			35.322			-3.925
169900.000			35.322			-3.925
170000.000			35.321			-3.925
170101.000			35.321			-3.925
170201.000			35.321			-3.925
170301.000			35.321			-3.925
170402.000			35.320			-3.924
170500.000			35.319			-3.924
170600.000			35.319			-3.924
170701.000			35.318			-3.924
170800.000			35.317			-3.924
170900.000			35.317			-3.924
171001.000			35.317			-3.924
171100.000			35.316			-3.924
171201.000			35.316			-3.924
171302.000			35.315			-3.924
171400.000			35.315			-3.924
171500.000			35.314			-3.924
171600.000			35.314			-3.924
171700.000			35.314			-3.924
171801.000			35.315			-3.924
171900.000			35.314			-3.924
172000.000			35.312			-3.924
172102.000			35.311			-3.923
172201.000			35.311			-3.923
172300.000			35.311			-3.923
172401.000			35.311			-3.923
172500.000			35.310			-3.923
172600.000			35.309			-3.923
172701.000			35.309			-3.923
172800.000			35.308			-3.923
172900.000			35.308			-3.923
173002.000			35.308			-3.923
173101.000			35.307			-3.923
173201.000			35.307			-3.923
173301.000			35.306			-3.923
173400.000			35.306			-3.923
173500.000			35.306			-3.923
173601.000			35.305			-3.923
173700.000			35.304			-3.923
173800.000			35.304			-3.923
173902.000			35.304			-3.923
174001.000			35.303			-3.923
174101.000			35.303			-3.923
174201.000			35.302			-3.922
174300.000			35.303			-3.923
174400.000			35.301			-3.922
174501.000			35.301			-3.922
174600.000			35.300			-3.922
174700.000			35.300			-3.922
174802.000			35.300			-3.922
174901.000			35.300			-3.922
175002.000			35.300			-3.922
175100.000			35.300			-3.922
175200.000			35.298			-3.922
175301.000			35.297			-3.922
175400.000			35.297			-3.922
175500.000			35.298			-3.922
175601.000			35.298			-3.922
175700.000			35.297			-3.922
175801.000			35.295			-3.922
175902.000			35.295			-3.922
176001.000			35.295			-3.922
176100.000			35.295			-3.922
176201.000			35.294			-3.922
176300.000			35.293			-3.921
176400.000			35.293			-3.921
176501.000			35.293			-3.921
176600.000			35.292			-3.921
176700.000			35.291			-3.921
176802.000			35.291			-3.921
176901.000			35.291			-3.921
177001.000			35.291			-3.921
177101.000			35.291			-3.921
177200.000			35.290			-3.921
177300.000			35.289			-3.921
177401.000			35.288			-3.921
177500.000			35.288			-3.921
177600.000			35.288			-3.921
177701.000			35.288			-3.921
177801.000			35.288			-3.921
177902.000			35.287			-3.921
178001.000			35.285			-3.921
178100.000			35.285			-3.921
178201.000			35.285			-3.921
178300.000			35.285			-3.921
178400.000			35.284			-3.920
178501.000			35.284			-3.920
178600.000			35.283			-3.920
178700.000			35.283			-3.920
178802.000			35.283			-3.920
178901.000			35.282			-3.920
179001.000			35.282			-3.920
179101.000			35.282			-3.920
179200.000			35.281			-3.920
179300.000			35.280			-3.920
179401.000			35.280			-3.920
179500.000			35.281			-3.920
179600.000			35.279			-3.920
179701.000			35.279			-3.920
179801.000			35.278			-3.920
179901.000			35.278			-3.920
180002.000			35.277			-3.920
180100.000			35.278			-3.920
180200.000			35.276			-3.920
180301.000			35.276			-3.920
180400.000			35.276			-3.920
180500.000			35.276			-3.920
180601.000			35.276			-3.920
180701.000			35.275			-3.919
180801.000			35.274			-3.919
180902.000			35.274			-3.919
181000.000			35.273			-3.919
181100.000			35.274			-3.919
181200.000			35.273			-3.919
181300.000			35.273			-3.919
181401.000			35.272			-3.919
181500.000			35.272			-3.919
181600.000			35.272			-3.919
181702.000			35.272			-3.919
181801.000			35.271			-3.919
181901.000			35.270			-3.919
182001.000			35.270			-3.919
182100.000			35.269			-3.919
182200.000			35.269			-3.919
182301.000			35.268			-3.919
182400.000			35.267			-3.919
182500.000			35.266			-3.918
182601.000			35.267			-3.919
182701.000			35.267			-3.919
182801.000			35.267			-3.919
182901.000			35.266			-3.918
183000.000			35.265			-3.918
183100.000			35.264			-3.918
183201.000			35.264			-3.918
183300.000			35.264			-3.918
183400.000			35.263			-3.918
183501.000			35.264			-3.918
183601.000			35.265			-3.918
183701.000			35.263			-3.918
183802.000			35.262			-3.918
183900.000			35.261			-3.918
184000.000			35.260			-3.918
184101.000			35.260			-3.918
184200.000			35.260			-3.918
184300.000			35.260			-3.918
184400.000			35.260			-3.918
184500.000			35.260			-3.918
184602.000			35.259			-3.918
184701.000			35.259			-3.918
184800.000			35.258			-3.918
184901.000			35.258			-3.918
185000.000			35.257			-3.917
185100.000			35.255			-3.917
185201.000			35.256			-3.917
185300.000			35.256			-3.917
185400.000			35.256			-3.917
185502.000			35.255			-3.917
185601.000			35.256			-3.917
185700.000			35.255			-3.917
185801.000			35.253			-3.917
185900.000			35.253			-3.917
186000.000			35.253			-3.917
186101.000			35.253			-3.917
186200.000			35.253			-3.917
186300.000			35.251			-3.917
186402.000			35.251			-3.917
186501.000			35.251			-3.917
186601.000			35.251			-3.917
186701.000			35.250			-3.917
186800.000			35.249			-3.917
186900.000			35.249			-3.917
187001.000			35.249			-3.917
187100.000			35.249			-3.917
187200.000			35.247			-3.916
187301.000			35.247			-3.916
187401.000			35.247			-3.916
187502.000			35.246			-3.916
187601.000			35.247			-3.916
187700.000			35.247			-3.916
187801.000			35.246			-3.916
187900.000			35.245			-3.916
188000.000			35.245			-3.916
188101.000			35.244			-3.916
188200.000			35.243			-3.916
188300.000			35.242			-3.916
188402.000			35.242			-3.916
188501.000			35.243			-3.916
188600.000			35.243			-3.916
188701.000			35.242			-3.916
188800.000			35.241			-3.916
188900.000			35.241			-3.916
189001.000			35.241			-3.916
189100.000			35.240			-3.916
189200.000			35.240			-3.916
189302.000			35.239			-3.915
189401.000			35.239			-3.915
189501.000			35.240			-3.916
189601.000			35.239			-3.915
189700.000			35.238			-3.915
189800.000			35.237			-3.915
189901.000			35.236			-3.915
190000.000			35.236			-3.915
190100.000			35.236			-3.915
190201.000			35.236			-3.915
190301.000			35.235			-3.915
190401.000			35.235			-3.915
190501.000			35.234			-3.915
190600.000			35.235			-3.915
190700.000			35.234			-3.915
190800.000			35.233			-3.915
190900.000			35.233			-3.915
191001.000			35.233			-3.915
191100.000			35.233			-3.915
191201.000			35.233			-3.915
191302.000			35.230			-3.914
191401.000			35.231			-3.915
191500.000			35.231			-3.915
191601.000			35.231			-3.915
191700.000			35.229			-3.914
191800.000			35.229			-3.914
191901.000			35.229			-3.914
192000.000			35.229			-3.914
192100.000			35.228			-3.914
192202.000			35.228			-3.914
192301.000			35.228			-3.914
192400.000			35.228			-3.914
192501.000			35.226			-3.914
192600.000			35.225			-3.914
192700.000			35.226			-3.914
192801.000			35.225			-3.914
192900.000			35.224			-3.914
193000.000			35.224			-3.914
193102.000			35.224			-3.914
193201.000			35.223			-3.914
193301.000			35.223			-3.914
193401.000			35.223			-3.914
193500.000			35.222			-3.914
193600.000			35.221			-3.913
193701.000			35.220			-3.913
193800.000			35.221			-3.913
193900.000			35.222			-3.914
194000.000			35.221			-3.913
194101.000			35.220			-3.913
194202.000			35.219			-3.913
194300.000			35.220			-3.913
194400.000			35.219			-3.913
194501.000			35.217			-3.913
194600.000			35.217			-3.913
194700.000			35.218			-3.913
194801.000			35.218			-3.913
194900.000			35.217			-3.913
195001.000			35.218			-3.913
195102.000			35.216			-3.913
195201.000			35.215			-3.913
195300.000			35.215			-3.913
195401.000			35.215			-3.913
195500.000			35.214			-3.913
195600.000			35.214			-3.913
195701.000			35.214			-3.913
195800.000			35.214			-3.913
195900.000			35.214			-3.913
196002.000			35.213			-3.913
196101.000			35.213			-3.913
196200.000			35.211			-3.912
196301.000			35.211			-3.912
196400.000			35.210			-3.912
196500.000			35.210			-3.912
196601.000			35.210			-3.912
196700.000			35.210			-3.912
196800.000			35.209			-3.912
196902.000			35.208			-3.912
197001.000			35.209			-3.912
197100.000			35.207			-3.912
197200.000			35.207			-3.912
197300.000			35.208			-3.912
197401.000			35.208			-3.912
197500.000			35.207			-3.912
197600.000			35.206			-3.912
197701.000			35.205			-3.912
197801.000			35.206			-3.912
197901.000			35.205			-3.912
198002.000			35.205			-3.912
198100.000			35.204			-3.912
198200.000			35.204			-3.912
198301.000			35.204			-3.912
198400.000			35.205			-3.912
198500.000			35.203			-3.911
198601.000			35.201			-3.911
198700.000			35.201			-3.911
198801.000			35.200			-3.911
198902.000			35.200			-3.911
199001.000			35.200			-3.911
199100.000			35.200			-3.911
199201.000			35.200			-3.911
199300.000			35.200			-3.911
199400.000			35.200			-3.911
199501.000			35.199			-3.911
199600.000			35.198			-3.911
199700.000			35.198			-3.911
199802.000			35.197			-3.911
199901.000			35.197			-3.911
200001.000			35.197			-3.911
200101.000			35.197			-3.911
200200.000			35.197			-3.911
200300.000			35.195			-3.911
200400.000			35.195			-3.911
200500.000			35.195			-3.911
200601.000			35.195			-3.911
200700.000			35.194			-3.910
200801.000			35.194			-3.910
200902.000			35.193			-3.910
201000.000			35.194			-3.910
201100.000			35.193			-3.910
201201.000			35.192			-3.910
201300.000			35.192			-3.910
201400.000			35.192			-3.910
201501.000			35.191			-3.910
201600.000			35.190			-3.910
201701.000			35.190			-3.910
201802.000			35.189			-3.910
201900.000			35.189			-3.910
202000.000			35.190			-3.910
202101.000			35.189			-3.910
202200.000			35.188			-3.910
202300.000			35.188			-3.910
202401.000			35.188			-3.910
202500.000			35.188			-3.910
202601.000			35.187			-3.910
202702.000			35.186			-3.910
202801.000			35.187			-3.910
202900.000			35.186			-3.910
203001.000			35.185			-3.909
203100.000			35.184			-3.909
203200.000			35.183			-3.909
203301.000			35.185			-3.909
203400.000			35.184			-3.909
203500.000			35.183			-3.909
203602.000			35.183			-3.909
203701.000			35.183			-3.909
203801.000			35.183			-3.909
203900.000			35.182			-3.909
204000.000			35.181			-3.909
204101.000			35.181			-3.909
204200.000			35.181			-3.909
204300.000			35.181			-3.909
204401.000			35.180			-3.909
204501.000			35.179			-3.909
204601.000			35.180			-3.909
204701.000			35.179			-3.909
204800.000			35.179			-3.909
204900.000			35.178			-3.909
205001.000			35.177			-3.909
205100.000			35.177			-3.909
205200.000			35.176			-3.908
205301.000			35.175			-3.908
205401.000			35.175			-3.908
205501.000			35.175			-3.908
205602.000			35.175			-3.908
205700.000			35.175			-3.908
205800.000			35.174			-3.908
205901.000			35.174			-3.908
206000.000			35.174			-3.908
206100.000			35.173			-3.908
206201.000			35.172			-3.908
206301.000			35.173			-3.908
206401.000			35.172			-3.908
206502.000			35.171			-3.908
206600.000			35.172			-3.908
206700.000			35.170			-3.908
206800.000			35.170			-3.908
206900.000			35.169			-3.908
207001.000			35.169			-3.908
207100.000			35.170			-3.908
207200.000			35.170			-3.908
207302.000			35.169			-3.908
207401.000			35.168			-3.908
207500.000			35.168			-3.908
207601.000			35.168			-3.908
207700.000			35.168			-3.908
207800.000			35.166			-3.907
207901.000			35.166			-3.907
208000.000			35.166			-3.907
208100.000			35.165			-3.907
208202.000			35.164			-3.907
208301.000			35.164			-3.907
208400.000			35.165			-3.907
208501.000			35.164			-3.907
208600.000			35.164			-3.907
208700.000			35.163			-3.907
208801.000			35.162			-3.907
208900.000			35.162			-3.907
209000.000			35.162			-3.907
209102.000			35.162			-3.907
209201.000			35.161			-3.907
209300.000			35.162			-3.907
209401.000			35.161			-3.907
209500.000			35.161			-3.907
209600.000			35.160			-3.907
209701.000			35.160			-3.907
209800.000			35.160			-3.907
209900.000			35.159			-3.907
210002.000			35.158			-3.906
210101.000			35.157			-3.906
210202.000			35.158			-3.906
210300.000			35.158			-3.906
210400.000			35.155			-3.906
210501.000			35.156			-3.906
210600.000			35.155			-3.906
210700.000			35.155			-3.906
210801.000			35.155			-3.906
210901.000			35.155			-3.906
211001.000			35.154			-3.906
211102.000			35.154			-3.906
211200.000			35.153			-3.906
211300.000			35.153			-3.906
211401.000			35.152			-3.906
211500.000			35.152			-3.906
211600.000			35.153			-3.906
211701.000			35.153			-3.906
211801.000			35.151			-3.906
211901.000			35.150			-3.906
212002.000			35.150			-3.906
212100.000			35.150			-3.906
212200.000			35.149			-3.905
212301.000			35.150			-3.906
212400.000			35.149			-3.905
212500.000			35.148			-3.905
212601.000			35.149			-3.905
212701.000			35.149			-3.905
212801.000			35.148			-3.905
212902.000			35.147			-3.905
213000.000			35.147			-3.905
213100.000			35.148			-3.905
213200.000			35.147			-3.905
213300.000			35.145			-3.905
213401.000			35.145			-3.905
213500.000			35.144			-3.905
213600.000			35.143			-3.905
213702.000			35.143			-3.905
213801.000			35.143			-3.905
213900.000			35.143			-3.905
214001.000			35.143			-3.905
214100.000			35.142			-3.905
214200.000			35.141			-3.905
214301.000			35.141			-3.905
214400.000			35.141			-3.905
214500.000			35.141			-3.905
214602.000			35.140			-3.904
214701.000			35.140			-3.904
214800.000			35.140			-3.904
214901.000			35.139			-3.904
215000.000			35.139			-3.904
215100.000			35.139			-3.904
215201.000			35.138			-3.904
215300.000			35.138			-3.904
215400.000			35.139			-3.904
215502.000			35.136			-3.904
215601.000			35.136			-3.904
215701.000			35.135			-3.904
215801.000			35.136			-3.904
215900.000			35.135			-3.904
216000.000			35.134			-3.904
216101.000			35.134			-3.904
216200.000			35.134			-3.904
216300.000			35.134			-3.904
216402.000			35.135			-3.904
216501.000			35.134			-3.904
216602.000			35.133			-3.904
216700.000			35.133			-3.904
216800.000			35.132			-3.904
216901.000			35.132			-3.904
217000.000			35.133			-3.904
217100.000			35.132			-3.904
217201.000			35.131			-3.903
217301.000			35.129			-3.903
217401.000			35.129			-3.903
217502.000			35.130			-3.903
217600.000			35.129			-3.903
217700.000			35.129			-3.903
217801.000			35.128			-3.903
217900.000			35.127			-3.903
218000.000			35.127			-3.903
218101.000			35.127			-3.903
218200.000			35.127			-3.903
218301.000			35.125			-3.903
218402.000			35.126			-3.903
218501.000			35.126			-3.903
218600.000			35.125			-3.903
218701.000			35.125			-3.903
218800.000			35.125			-3.903
218900.000			35.124			-3.903
219001.000			35.124			-3.903
219100.000			35.123			-3.903
219201.000			35.124			-3.903
219302.000			35.123			-3.903
219401.000			35.123			-3.903
219500.000			35.122			-3.902
219600.000			35.123			-3.903
219700.000			35.122			-3.902
219801.000			35.121			-3.902
219900.000			35.122			-3.902
220000.000			35.121			-3.902
220102.000			35.121			-3.902
220201.000			35.119			-3.902
220301.000			35.119			-3.902
220401.000			35.119			-3.902
220500.000			35.120			-3.902
220600.000			35.120			-3.902
220701.000			35.118			-3.902
220800.000			35.118			-3.902
220900.000			35.117			-3.902
221002.000			35.116			-3.902
221101.000			35.116			-3.902
221201.000			35.116			-3.902
221301.000			35.116			-3.902
221400.000			35.114			-3.902
221500.000			35.115			-3.902
221601.000			35.114			-3.902
221700.000			35.115			-3.902
221800.000			35.114			-3.902
221902.000			35.114			-3.902
222001.000			35.114			-3.902
222100.000			35.113			-3.901
222201.000			35.112			-3.901
222300.000			35.111			-3.901
222400.000			35.112			-3.901
222501.000			35.111			-3.901
222600.000			35.110			-3.901
222700.000			35.109			-3.901
222802.000			35.110			-3.901
222901.000			35.110			-3.901
223001.000			35.109			-3.901
223100.000			35.108			-3.901
223200.000			35.108			-3.901
223301.000			35.108			-3.901
223400.000			35.108			-3.901
223500.000			35.108			-3.901
223601.000			35.107			-3.901
223701.000			35.107			-3.901
223801.000			35.106			-3.901
223901.000			35.106			-3.901
224000.000			35.105			-3.901
224100.000			35.106			-3.901
224201.000			35.105			-3.901
224300.000			35.105			-3.901
224400.000			35.105			-3.901
224501.000			35.104			-3.900
224601.000			35.104			-3.900
224701.000			35.103			-3.900
224801.000			35.102			-3.900
224900.000			35.102			-3.900
225000.000			35.103			-3.900
225101.000			35.102			-3.900
225200.000			35.102			-3.900
225300.000			35.101			-3.900
225401.000			35.101			-3.900
225501.000			35.101			-3.900
225601.000			35.100			-3.900
225701.000			35.100			-3.900
225800.000			35.100			-3.900
225900.000			35.099			-3.900
226000.000			35.098			-3.900
226100.000			35.098			-3.900
226201.000			35.098			-3.900
226300.000			35.097			-3.900
226401.000			35.097			-3.900
226502.000			35.096			-3.900
226601.000			35.097			-3.900
226700.000			35.097			-3.900
226801.000			35.095			-3.899
226900.000			35.095			-3.899
227000.000			35.095			-3.899
227101.000			35.094			-3.899
227200.000			35.094			-3.899
227301.000			35.093			-3.899
227402.000			35.092			-3.899
227501.000			35.092			-3.899
227600.000			35.093			-3.899
227701.000			35.093			-3.899
227800.000			35.093			-3.899
227900.000			35.091			-3.899
228001.000			35.090			-3.899
228100.000			35.090			-3.899
228200.000			35.091			-3.899
228302.000			35.090			-3.899
228401.000			35.090			-3.899
228500.000			35.090			-3.899
228601.000			35.090			-3.899
228700.000			35.089			-3.899
228800.000			35.089			-3.899
228901.000			35.088			-3.899
229000.000			35.088			-3.899
229100.000			35.088			-3.899
229202.000			35.088			-3.899
229301.000			35.087			-3.899
229402.000			35.086			-3.898
229500.000			35.086			-3.898
229600.000			35.086			-3.898
229701.000			35.085			-3.898
229800.000			35.085			-3.898
229900.000			35.085			-3.898
230001.000			35.085			-3.898
230100.000			35.084			-3.898
230201.000			35.084			-3.898
230302.000			35.084			-3.898
230401.000			35.083			-3.898
230500.000			35.083			-3.898
230601.000			35.082			-3.898
230700.000			35.083			-3.898
230800.000			35.082			-3.898
230901.000			35.080			-3.898
231000.000			35.080			-3.898
231101.000			35.081			-3.898
231202.000			35.081			-3.898
231300.000			35.080			-3.898
231400.000			35.081			-3.898
231501.000			35.080			-3.898
231600.000			35.078			-3.898
231700.000			35.079			-3.898
231801.000			35.079			-3.898
231900.000			35.078			-3.898
232001.000			35.078			-3.898
232102.000			35.078			-3.898
232201.000			35.077			-3.897
232300.000			35.076			-3.897
232400.000			35.076			-3.897
232500.000			35.076			-3.897
232601.000			35.075			-3.897
232700.000			35.074			-3.897
232800.000			35.075			-3.897
232901.000			35.075			-3.897
233001.000			35.073			-3.897
233101.000			35.074			-3.897
233201.000			35.073			-3.897
233300.000			35.072			-3.897
233400.000			35.071			-3.897
233501.000			35.072			-3.897
233600.000			35.073			-3.897
233700.000			35.073			-3.897
233801.000			35.073			-3.897
233901.000			35.071			-3.897
234001.000			35.071			-3.897
234101.000			35.071			-3.897
234200.000			35.070			-3.897
234300.000			35.071			-3.897
234401.000			35.069			-3.897
234500.000			35.068			-3.896
234600.000			35.069			-3.897
234701.000			35.069			-3.897
234801.000			35.068			-3.896
234901.000			35.068			-3.896
235001.000			35.067			-3.896
235100.000			35.067			-3.896
235200.000			35.067			-3.896
235301.000			35.066			-3.896
235400.000			35.066			-3.896
235500.000			35.067			-3.896
235600.000			35.066			-3.896
235701.000			35.065			-3.896
235802.000			35.065			-3.896
235901.000			35.065			-3.896
236000.000			35.064			-3.896
236101.000			35.063			-3.896
236200.000			35.063			-3.896
236300.000			35.063			-3.896
236401.000			35.061			-3.896
236500.000			35.061			-3.896
236600.000			35.061			-3.896
236702.000			35.060			-3.896
236801.000			35.062			-3.896
236900.000			35.061			-3.896
237001.000			35.061			-3.896
237100.000			35.061			-3.896
237200.000			35.060			-3.896
237301.000			35.060			-3.896
237400.000			35.060			-3.896
237500.000			35.059			-3.895
237602.000			35.058			-3.895
237701.000			35.059			-3.895
237801.000			35.060			-3.896
237901.000			35.059			-3.895
238000.000			35.058			-3.895
238100.000			35.057			-3.895
238201.000			35.057			-3.895
238300.000			35.057			-3.895
238400.000			35.056			-3.895
238501.000			35.055			-3.895
238601.000			35.056			-3.895
238702.000			35.055			-3.895
238800.000			35.055			-3.895
238900.000			35.054			-3.895
239001.000			35.054			-3.895
239100.000			35.053			-3.895
239200.000			35.053			-3.895
239301.000			35.053			-3.895
239400.000			35.052			-3.895
239501.000			35.053			-3.895
239602.000			35.052			-3.895
239701.000			35.051			-3.895
239800.000			35.051			-3.895
239901.000			35.051			-3.895
240000.000			35.050			-3.894
240100.000			35.050			-3.894
240201.000			35.050			-3.894
240300.000			35.049			-3.894
240400.000			35.050			-3.894
240502.000			35.049			-3.894
240601.000			35.048			-3.894
240700.000			35.048			-3.894
240801.000			35.048			-3.894
240900.000			35.048			-3.894
241000.000			35.047			-3.894
241101.000			35.047			-3.894
241200.000			35.047			-3.894
241300.000			35.047			-3.894
241402.000			35.046			-3.894
241501.000			35.046			-3.894
241600.000			35.046			-3.894
241701.000			35.045			-3.894
241800.000			35.044			-3.894
241900.000			35.044			-3.894
242000.000			35.044			-3.894
242100.000			35.045			-3.894
242201.000			35.044			-3.894
242301.000			35.043			-3.894
242401.000			35.042			-3.894
242501.000			35.042			-3.894
242600.000			35.043			-3.894
242700.000			35.041			-3.893
242801.000			35.042			-3.894
242900.000			35.042			-3.894
243000.000			35.041			-3.893
243101.000			35.041			-3.893
243201.000			35.040			-3.893
243301.000			35.039			-3.893
243401.000			35.039			-3.893
243500.000			35.039			-3.893
243600.000			35.038			-3.893
243701.000			35.038			-3.893
243800.000			35.039			-3.893
243900.000			35.038			-3.893
244001.000			35.038			-3.893
244101.000			35.036			-3.893
244201.000			35.036			-3.893
244301.000			35.036			-3.893
244400.000			35.035			-3.893
244500.000			35.035			-3.893
244601.000			35.036			-3.893
244700.000			35.036			-3.893
244800.000			35.036			-3.893
244901.000			35.034			-3.893
245001.000			35.033			-3.893
245102.000			35.033			-3.893
245201.000			35.034			-3.893
245300.000			35.034			-3.893
245401.000			35.035			-3.893
245500.000			35.034			-3.893
245600.000			35.033			-3.893
245701.000			35.032			-3.892
245800.000			35.031			-3.892
245901.000			35.030			-3.892
246002.000			35.030			-3.892
246101.000			35.031			-3.892
246200.000			35.030			-3.892
246301.000			35.029			-3.892
246400.000			35.030			-3.892
246500.000			35.031			-3.892
246601.000			35.030			-3.892
246700.000			35.029			-3.892
246800.000			35.029			-3.892
246902.000			35.028			-3.892
247001.000			35.028			-3.892
247100.000			35.028			-3.892
247201.000			35.028			-3.892
247300.000			35.027			-3.892
247400.000			35.026			-3.892
247501.000			35.026			-3.892
247600.000			35.026			-3.892
247700.000			35.025			-3.892
247802.000			35.024			-3.892
247901.000			35.024			-3.892
248000.000			35.024			-3.892
248101.000			35.023			-3.891
248200.000			35.023			-3.891
248300.000			35.024			-3.892
248400.000			35.023			-3.891
248500.000			35.024			-3.892
248601.000			35.023			-3.891
248701.000			35.022			-3.891
248801.000			35.022			-3.891
248902.000			35.021			-3.891
249000.000			35.021			-3.891
249100.000			35.021			-3.891
249201.000			35.021			-3.891
249300.000			35.021			-3.891
249400.000			35.021			-3.891
249501.000			35.021			-3.891
249601.000			35.019			-3.891
249701.000			35.019			-3.891
249802.000			35.020			-3.891
249900.000			35.020			-3.891
250000.000			35.018			-3.891
250101.000			35.017			-3.891
250200.000			35.017			-3.891
250300.000			35.017			-3.891
250401.000			35.017			-3.891
250500.000			35.016			-3.891
250601.000			35.017			-3.891
250702.000			35.016			-3.891
250800.000			35.015			-3.891
250900.000			35.014			-3.890
251001.000			35.014			-3.890
251100.000			35.014			-3.890
251200.000			35.015			-3.891
251301.000			35.015			-3.891
251401.000			35.015			-3.891
251502.000			35.013			-3.890
251601.000			35.013			-3.890
251700.000			35.013			-3.890
251801.000			35.013			-3.890
251900.000			35.012			-3.890
252000.000			35.012			-3.890
252101.000			35.012			-3.890
252200.000			35.012			-3.890
252300.000			35.012			-3.890
252402.000			35.010			-3.890
252501.000			35.010			-3.890
252600.000			35.011			-3.890
252701.000			35.010			-3.890
252800.000			35.009			-3.890
252900.000			35.009			-3.890
253001.000			35.009			-3.890
253100.000			35.008			-3.890
253200.000			35.008			-3.890
253302.000			35.008			-3.890
253401.000			35.007			-3.890
253500.000			35.007			-3.890
253601.000			35.007			-3.890
253700.000			35.007			-3.890
253800.000			35.006			-3.890
253901.000			35.006			-3.890
254000.000			35.005			-3.889
254100.000			35.004			-3.889
254202.000			35.005			-3.889
254301.000			35.005			-3.889
254400.000			35.003			-3.889
254501.000			35.004			-3.889
254600.000			35.004			-3.889
254700.000			35.004			-3.889
254800.000			35.004			-3.889
254900.000			35.003			-3.889
255001.000			35.002			-3.889
255101.000			35.002			-3.889
255201.000			35.002			-3.889
255301.000			35.002			-3.889
255400.000			35.002			-3.889
255500.000			35.002			-3.889
255601.000			35.001			-3.889
255700.000			35.001			-3.889
255800.000			35.001			-3.889
255901.000			34.999			-3.889
256001.000			34.999			-3.889
256101.000			34.999			-3.889
256202.000			34.998			-3.889
256300.000			34.998			-3.889
256400.000			34.997			-3.889
256501.000			34.997			-3.889
256600.000			34.998			-3.889
256700.000			34.998			-3.889
256801.000			34.997			-3.889
256900.000			34.997			-3.889
257000.000			34.996			-3.888
257102.000			34.996			-3.888
257201.000			34.995			-3.888
257300.000			34.994			-3.888
257401.000			34.995			-3.888
257500.000			34.994			-3.888
257600.000			34.994			-3.888
257701.000			34.994			-3.888
257800.000			34.993			-3.888
257900.000			34.994			-3.888
258002.000			34.994			-3.888
258101.000			34.993			-3.888
258202.000			34.993			-3.888
258300.000			34.992			-3.888
258400.000			34.992			-3.888
258501.000			34.992			-3.888
258600.000			34.992			-3.888
258700.000			34.990			-3.888
258801.000			34.990			-3.888
258900.000			34.990			-3.888
259000.000			34.989			-3.888
259102.000			34.989			-3.888
259201.000			34.989			-3.888
259300.000			34.989			-3.888
259401.000			34.989			-3.888
259500.000			34.989			-3.888
259600.000			34.988			-3.888
259701.000			34.988			-3.888
259800.000			34.987			-3.887
259900.000			34.987			-3.887
260001.000			34.987			-3.887
260101.000			34.986			-3.887
260201.000			34.986			-3.887
260301.000			34.987			-3.887
260400.000			34.986			-3.887
260500.000			34.985			-3.887
260601.000			34.986			-3.887
260700.000			34.986			-3.887
260800.000			34.984			-3.887
260901.000			34.984			-3.887
261001.000			34.984			-3.887
261102.000			34.982			-3.887
261201.000			34.982			-3.887
261300.000			34.983			-3.887
261401.000			34.982			-3.887
261500.000			34.983			-3.887
261600.000			34.982			-3.887
261701.000			34.981			-3.887
261800.000			34.982			-3.887
261900.000			34.982			-3.887
262002.000			34.981			-3.887
262101.000			34.981			-3.887
262201.000			34.980			-3.887
262301.000			34.979			-3.887
262400.000			34.979			-3.887
262500.000			34.980			-3.887
262601.000			34.979			-3.887
262700.000			34.980			-3.887
262800.000			34.979			-3.887
262901.000			34.978			-3.886
263001.000			34.977			-3.886
263101.000			34.978			-3.886
263202.000			34.977			-3.886
263300.000			34.976			-3.886
263400.000			34.976			-3.886
263501.000			34.976			-3.886
263600.000			34.976			-3.886
263700.000			34.976			-3.886
263801.000			34.976			-3.886
263900.000			34.975			-3.886
264001.000			34.974			-3.886
264102.000			34.974			-3.886
264201.000			34.974			-3.886
264300.000			34.973			-3.886
264400.000			34.974			-3.886
264500.000			34.973			-3.886
264601.000			34.972			-3.886
264700.000			34.972			-3.886
264800.000			34.972			-3.886
264901.000			34.972			-3.886
265001.000			34.971			-3.886
265101.000			34.971			-3.886
265201.000			34.970			-3.886
265300.000			34.971			-3.886
265400.000			34.970			-3.886
265501.000			34.970			-3.886
265600.000			34.970			-3.886
265700.000			34.970			-3.886
265801.000			34.969			-3.885
265900.000			34.969			-3.885
266001.000			34.969			-3.885
266102.000			34.969			-3.885
266200.000			34.969			-3.885
266300.000			34.968			-3.885
266401.000			34.967			-3.885
266500.000			34.967			-3.885
266600.000			34.966			-3.885
266701.000			34.966			-3.885
266800.000			34.966			-3.885
266900.000			34.966			-3.885
267002.000			34.965			-3.885
267101.000			34.965			-3.885
267200.000			34.964			-3.885
267301.000			34.965			-3.885
267400.000			34.965			-3.885
267500.000			34.964			-3.885
267600.000			34.963			-3.885
267700.000			34.963			-3.885
267801.000			34.963			-3.885
267900.000			34.963			-3.885
268001.000			34.963			-3.885
268102.000			34.964			-3.885
268200.000			34.963			-3.885
268300.000			34.962			-3.885
268401.000			34.962			-3.885
268500.000			34.961			-3.885
268600.000			34.962			-3.885
268701.000			34.962			-3.885
268800.000			34.961			-3.885
268900.000			34.960			-3.884
269002.000			34.959			-3.884
269101.000			34.959			-3.884
269200.000			34.960			-3.884
269301.000			34.960			-3.884
269400.000			34.959			-3.884
269500.000			34.958			-3.884
269601.000			34.958			-3.884
269700.000			34.958			-3.884
269800.000			34.957			-3.884
269901.000			34.956			-3.884
270001.000			34.956			-3.884
270101.000			34.956			-3.884
270201.000			34.956			-3.884
270300.000			34.956			-3.884
270400.000			34.956			-3.884
270501.000			34.956			-3.884
270600.000			34.954			-3.884
270700.000			34.955			-3.884
270800.000			34.956			-3.884
270900.000			34.955			-3.884
271002.000			34.954			-3.884
271101.000			34.954			-3.884
271200.000			34.954			-3.884
271301.000			34.952			-3.884
271400.000			34.951			-3.883
271500.000			34.951			-3.883
271601.000			34.951			-3.883
271700.000			34.951			-3.883
271800.000			34.952			-3.884
271902.000			34.952			-3.884
272001.000			34.952			-3.884
272101.000			34.951			-3.883
272201.000			34.949			-3.883
272300.000			34.949			-3.883
272400.000			34.949			-3.883
272501.000			34.949			-3.883
272600.000			34.950			-3.883
272700.000			34.948			-3.883
272801.000			34.949			-3.883
272901.000			34.949			-3.883
273001.000			34.949			-3.883
273102.000			34.948			-3.883
273200.000			34.947			-3.883
273300.000			34.947			-3.883
273401.000			34.947			-3.883
273500.000			34.945			-3.883
273600.000			34.945			-3.883
273701.000			34.946			-3.883
273800.000			34.946			-3.883
273902.000			34.945			-3.883
274001.000			34.945			-3.883
274100.000			34.945			-3.883
274201.000			34.944			-3.883
274300.000			34.944			-3.883
274400.000			34.944			-3.883
274501.000			34.944			-3.883
274600.000			34.944			-3.883
274700.000			34.943			-3.883
274802.000			34.943			-3.883
274901.000			34.943			-3.883
275001.000			34.942			-3.882
275101.000			34.942			-3.882
275200.000			34.942			-3.882
275300.000			34.941			-3.882
275401.000			34.941			-3.882
275500.000			34.940			-3.882
275600.000			34.940			-3.882
275701.000			34.941			-3.882
275801.000			34.941			-3.882
275901.000			34.940			-3.882
276002.000			34.940			-3.882
276100.000			34.939			-3.882
276200.000			34.939			-3.882
276301.000			34.939			-3.882
276400.000			34.939			-3.882
276500.000			34.937			-3.882
276601.000			34.937			-3.882
276700.000			34.938			-3.882
276801.000			34.937			-3.882
276902.000			34.937			-3.882
277001.000			34.938			-3.882
277100.000			34.937			-3.882
277200.000			34.936			-3.882
277300.000			34.935			-3.882
277401.000			34.935			-3.882
277500.000			34.935			-3.882
277600.000			34.934			-3.882
277701.000			34.933			-3.881
277801.000			34.934			-3.882
277901.000			34.933			-3.881
278001.000			34.933			-3.881
278100.000			34.933			-3.881
278200.000			34.932			-3.881
278301.000			34.932			-3.881
278400.000			34.932			-3.881
278500.000			34.932			-3.881
278601.000			34.931			-3.881
278701.000			34.931			-3.881
278801.000			34.932			-3.881
278902.000			34.931			-3.881
279000.000			34.932			-3.881
279100.000			34.931			-3.881
279201.000			34.931			-3.881
279300.000			34.930			-3.881
279400.000			34.929			-3.881
279501.000			34.929			-3.881
279600.000			34.930			-3.881
279701.000			34.928			-3.881
279802.000			34.928			-3.881
279901.000			34.929			-3.881
280000.000			34.928			-3.881
280101.000			34.927			-3.881
280200.000			34.927			-3.881
280300.000			34.927			-3.881
280400.000			34.928			-3.881
280500.000			34.927			-3.881
280601.000			34.927			-3.881
280701.000			34.926			-3.881
280801.000			34.926			-3.881
280901.000			34.925			-3.881
281000.000			34.924			-3.880
281100.000			34.925			-3.881
281201.000			34.925			-3.881
281300.000			34.924			-3.880
281400.000			34.924			-3.880
281501.000			34.924			-3.880
281601.000			34.922			-3.880
281701.000			34.923			-3.880
281802.000			34.923			-3.880
281900.000			34.922			-3.880
282000.000			34.922			-3.880
282101.000			34.923			-3.880
282200.000			34.922			-3.880
282300.000			34.923			-3.880
282401.000			34.921			-3.880
282500.000			34.921			-3.880
282601.000			34.920			-3.880
282702.000			34.920			-3.880
282800.000			34.919			-3.880
282900.000			34.919			-3.880
283001.000			34.919			-3.880
283100.000			34.920			-3.880
283200.000			34.919			-3.880
283301.000			34.918			-3.880
283400.000			34.917			-3.880
283500.000			34.917			-3.880
283602.000			34.918			-3.880
283701.000			34.918			-3.880
283801.000			34.917			-3.880
283900.000			34.917			-3.880
284000.000			34.916			-3.880
284101.000			34.917			-3.880
284200.000			34.916			-3.880
284300.000			34.916			-3.880
284401.000			34.916			-3.880
284501.000			34.915			-3.879
284601.000			34.915			-3.879
284702.000			34.914			-3.879
284800.000			34.914			-3.879
284900.000			34.913			-3.879
285001.000			34.913			-3.879
285100.000			34.914			-3.879
285200.000			34.914			-3.879
285301.000			34.914			-3.879
285400.000			34.913			-3.879
285501.000			34.912			-3.879
285602.000			34.912			-3.879
285700.000			34.912			-3.879
285800.000			34.911			-3.879
285901.000			34.911			-3.879
286000.000			34.911			-3.879
286100.000			34.910			-3.879
286201.000			34.911			-3.879
286300.000			34.911			-3.879
286401.000			34.909			-3.879
286502.000			34.909			-3.879
286601.000			34.909			-3.879
286700.000			34.908			-3.879
286800.000			34.908			-3.879
286900.000			34.909			-3.879
287001.000			34.908			-3.879
287100.000			34.907			-3.879
287200.000			34.907			-3.879
287301.000			34.907			-3.879
287401.000			34.907			-3.879
287501.000			34.906			-3.878
287602.000			34.907			-3.879
287700.000			34.907			-3.879
287800.000			34.906			-3.878
287901.000			34.905			-3.878
288000.000			34.905			-3.878
288100.000			34.905			-3.878
288201.000			34.906			-3.878
288300.000			34.904			-3.878
288401.000			34.904			-3.878
288502.000			34.904			-3.878
288600.000			34.904			-3.878
288700.000			34.903			-3.878
288801.000			34.903			-3.878
288900.000			34.904			-3.878
289000.000			34.903			-3.878
289101.000			34.902			-3.878
289200.000			34.901			-3.878
289301.000			34.901			-3.878
289402.000			34.901			-3.878
289501.000			34.901			-3.878
289600.000			34.902			-3.878
289701.000			34.901			-3.878
289800.000			34.901			-3.878
289900.000			34.900			-3.878
290000.000			34.900			-3.878
290100.000			34.899			-3.878
290201.000			34.899			-3.878
290301.000			34.900			-3.878
290401.000			34.900			-3.878
290502.000			34.899			-3.878
290600.000			34.899			-3.878
290700.000			34.899			-3.878
290801.000			34.898			-3.878
290900.000			34.897			-3.877
291000.000			34.897			-3.877
291101.000			34.897			-3.877
291200.000			34.896			-3.877
291301.000			34.896			-3.877
291402.000			34.896			-3.877
291501.000			34.896			-3.877
291600.000			34.896			-3.877
291701.000			34.896			-3.877
291800.000			34.895			-3.877
291900.000			34.895			-3.877
292001.000			34.895			-3.877
292100.000			34.895			-3.877
292200.000			34.894			-3.877
292302.000			34.894			-3.877
292401.000			34.894			-3.877
292501.000			34.894			-3.877
292601.000			34.892			-3.877
292700.000			34.892			-3.877
292800.000			34.892			-3.877
292901.000			34.891			-3.877
293000.000			34.891			-3.877
293100.000			34.891			-3.877
293200.000			34.892			-3.877
293301.000			34.892			-3.877
293402.000			34.891			-3.877
293501.000			34.891			-3.877
293600.000			34.891			-3.877
293701.000			34.891			-3.877
293800.000			34.890			-3.877
293900.000			34.890			-3.877
294001.000			34.890			-3.877
294100.000			34.888			-3.876
294200.000			34.888			-3.876
294302.000			34.889			-3.877
294401.000			34.889			-3.877
294501.000			34.889			-3.877
294601.000			34.888			-3.876
294700.000			34.887			-3.876
294800.000			34.887			-3.876
294901.000			34.887			-3.876
295000.000			34.887			-3.876
295100.000			34.887			-3.876
295201.000			34.887			-3.876
295301.000			34.887			-3.876
295401.000			34.886			-3.876
295502.000			34.886			-3.876
295600.000			34.885			-3.876
295700.000			34.884			-3.876
295801.000			34.885			-3.876
295900.000			34.885			-3.876
296000.000			34.884			-3.876
296101.000			34.884			-3.876
296200.000			34.883			-3.876
296302.000			34.884			-3.876
296401.000			34.883			-3.876
296501.000			34.883			-3.876
296601.000			34.883			-3.876
296700.000			34.881			-3.876
296800.000			34.882			-3.876
296901.000			34.883			-3.876
297000.000			34.881			-3.876
297100.000			34.881			-3.876
297201.000			34.881			-3.876
297301.000			34.881			-3.876
297401.000			34.880			-3.876
297502.000			34.880			-3.876
297600.000			34.881			-3.876
297700.000			34.880			-3.876
297801.000			34.880			-3.876
297900.000			34.879			-3.875
298000.000			34.878			-3.875
298101.000			34.879			-3.875
298200.000			34.879			-3.875
298301.000			34.879			-3.875
298402.000			34.878			-3.875
298501.000			34.877			-3.875
298600.000			34.877			-3.875
298701.000			34.878			-3.875
298800.000			34.878			-3.875
298900.000			34.876			-3.875
299001.000			34.874			-3.875
299100.000			34.875			-3.875
299200.000			34.875			-3.875
299301.000			34.875			-3.875
299401.000			34.875			-3.875
299502.000			34.875			-3.875
299600.000			34.874			-3.875
299700.000			34.874			-3.875
299801.000			34.874			-3.875
299900.000			34.873			-3.875
