# Acquired on 29/01/2024 13:53:33 
# SPIDER: Creep_-10mm_GRPCNT1454A-2
# CREEP MEASUREMENT

# time [ms]		force [N]		stiffness [N/mm]
0.000			44.979			-4.498
105.000			45.242			-4.524
204.000			44.999			-4.500
304.000			44.613			-4.461
405.000			44.320			-4.432
504.000			44.086			-4.409
604.000			43.715			-4.371
705.000			43.560			-4.356
804.000			43.423			-4.342
904.000			43.298			-4.330
1004.000			43.183			-4.318
1104.000			43.078			-4.308
1204.000			42.979			-4.298
1305.000			42.887			-4.289
1404.000			42.721			-4.272
1504.000			42.645			-4.265
1605.000			42.574			-4.257
1704.000			42.506			-4.251
1804.000			42.441			-4.244
1905.000			42.378			-4.238
2004.000			42.320			-4.232
2105.000			42.210			-4.221
2203.000			42.158			-4.216
2304.000			42.108			-4.211
2405.000			42.060			-4.206
2504.000			42.014			-4.201
2604.000			41.969			-4.197
2705.000			41.926			-4.193
2804.000			41.843			-4.184
2903.000			41.803			-4.180
3005.000			41.766			-4.177
3104.000			41.729			-4.173
3204.000			41.693			-4.169
3305.000			41.659			-4.166
3403.000			41.624			-4.162
3504.000			41.559			-4.156
3605.000			41.527			-4.153
3704.000			41.496			-4.150
3804.000			41.466			-4.147
3905.000			41.436			-4.144
4004.000			41.408			-4.141
4103.000			41.380			-4.138
4205.000			41.353			-4.135
4304.000			41.300			-4.130
4404.000			41.274			-4.127
4505.000			41.250			-4.125
4604.000			41.226			-4.123
4704.000			41.202			-4.120
4804.000			41.177			-4.118
4904.000			41.154			-4.115
5004.000			41.108			-4.111
5104.000			41.086			-4.109
5204.000			41.064			-4.106
5304.000			41.043			-4.104
5404.000			41.022			-4.102
5504.000			41.002			-4.100
5605.000			40.982			-4.098
5704.000			40.942			-4.094
5804.000			40.922			-4.092
5905.000			40.903			-4.090
6004.000			40.884			-4.088
6104.000			40.866			-4.087
6205.000			40.849			-4.085
6304.000			40.831			-4.083
6404.000			40.795			-4.080
6504.000			40.779			-4.078
6604.000			40.761			-4.076
6704.000			40.744			-4.074
6805.000			40.728			-4.073
6904.000			40.712			-4.071
7004.000			40.696			-4.070
7105.000			40.681			-4.068
7203.000			40.648			-4.065
7304.000			40.635			-4.063
7405.000			40.620			-4.062
7504.000			40.603			-4.060
7604.000			40.588			-4.059
7704.000			40.574			-4.057
7804.000			40.561			-4.056
7904.000			40.533			-4.053
8005.000			40.519			-4.052
8104.000			40.505			-4.051
8204.000			40.492			-4.049
8305.000			40.478			-4.048
8403.000			40.464			-4.046
8505.000			40.451			-4.045
8604.000			40.426			-4.043
8704.000			40.413			-4.041
8805.000			40.400			-4.040
8904.000			40.388			-4.039
9004.000			40.375			-4.038
9104.000			40.364			-4.036
9204.000			40.352			-4.035
9304.000			40.327			-4.033
9405.000			40.315			-4.032
9504.000			40.304			-4.030
9603.000			40.293			-4.029
9705.000			40.281			-4.028
9804.000			40.271			-4.027
9904.000			40.260			-4.026
10005.000			40.249			-4.025
10104.000			40.227			-4.023
10204.000			40.217			-4.022
10304.000			40.207			-4.021
10404.000			40.195			-4.020
10504.000			40.185			-4.018
10605.000			40.175			-4.017
10704.000			40.164			-4.016
10803.000			40.144			-4.014
10905.000			40.133			-4.013
11004.000			40.123			-4.012
11104.000			40.113			-4.011
11205.000			40.104			-4.010
11304.000			40.094			-4.009
11404.000			40.084			-4.008
11503.000			40.065			-4.007
11604.000			40.056			-4.006
11705.000			40.046			-4.005
11804.000			40.037			-4.004
11904.000			40.028			-4.003
12005.000			40.018			-4.002
12104.000			40.010			-4.001
12203.000			40.000			-4.000
12305.000			39.983			-3.998
12404.000			39.974			-3.997
12504.000			39.966			-3.997
12605.000			39.957			-3.996
12703.000			39.948			-3.995
12804.000			39.940			-3.994
12905.000			39.931			-3.993
13004.000			39.913			-3.991
13104.000			39.906			-3.991
13205.000			39.898			-3.990
13304.000			39.890			-3.989
13403.000			39.882			-3.988
13505.000			39.874			-3.987
13604.000			39.866			-3.987
13704.000			39.850			-3.985
13805.000			39.843			-3.984
13904.000			39.835			-3.983
14004.000			39.826			-3.983
14105.000			39.818			-3.982
14204.000			39.811			-3.981
14303.000			39.803			-3.980
14405.000			39.788			-3.979
14504.000			39.780			-3.978
14604.000			39.773			-3.977
14705.000			39.766			-3.977
14804.000			39.758			-3.976
14905.000			39.750			-3.975
15003.000			39.743			-3.974
15104.000			39.737			-3.974
15205.000			39.723			-3.972
15304.000			39.716			-3.972
15404.000			39.710			-3.971
15504.000			39.702			-3.970
15604.000			39.695			-3.969
15703.000			39.689			-3.969
15805.000			39.682			-3.968
15904.000			39.668			-3.967
16004.000			39.662			-3.966
16105.000			39.655			-3.965
16204.000			39.649			-3.965
16304.000			39.642			-3.964
16404.000			39.635			-3.963
16504.000			39.629			-3.963
16604.000			39.615			-3.962
16705.000			39.608			-3.961
16804.000			39.602			-3.960
16904.000			39.596			-3.960
17005.000			39.589			-3.959
17103.000			39.583			-3.958
17204.000			39.577			-3.958
17305.000			39.565			-3.956
17404.000			39.557			-3.956
17504.000			39.550			-3.955
17605.000			39.546			-3.955
17704.000			39.541			-3.954
17803.000			39.533			-3.953
17905.000			39.527			-3.953
18004.000			39.521			-3.952
18105.000			39.510			-3.951
18204.000			39.503			-3.950
18304.000			39.497			-3.950
18405.000			39.492			-3.949
18503.000			39.485			-3.949
18604.000			39.478			-3.948
18705.000			39.472			-3.947
18804.000			39.463			-3.946
18904.000			39.457			-3.946
19005.000			39.452			-3.945
19104.000			39.446			-3.945
19203.000			39.440			-3.944
19305.000			39.434			-3.943
19404.000			39.429			-3.943
19504.000			39.418			-3.942
19605.000			39.413			-3.941
19704.000			39.408			-3.941
19804.000			39.403			-3.940
19904.000			39.397			-3.940
20004.000			39.391			-3.939
20104.000			39.385			-3.938
20205.000			39.376			-3.938
20304.000			39.371			-3.937
20404.000			39.367			-3.937
20505.000			39.361			-3.936
20603.000			39.355			-3.935
20704.000			39.349			-3.935
20805.000			39.343			-3.934
20904.000			39.338			-3.934
21004.000			39.328			-3.933
21104.000			39.322			-3.932
21204.000			39.318			-3.932
21304.000			39.312			-3.931
21404.000			39.308			-3.931
21504.000			39.304			-3.930
21605.000			39.299			-3.930
21704.000			39.290			-3.929
21803.000			39.285			-3.929
21905.000			39.280			-3.928
22004.000			39.275			-3.927
22104.000			39.269			-3.927
22205.000			39.263			-3.926
22304.000			39.259			-3.926
22404.000			39.249			-3.925
22504.000			39.246			-3.925
22604.000			39.241			-3.924
22704.000			39.235			-3.923
22805.000			39.230			-3.923
22904.000			39.225			-3.923
23004.000			39.222			-3.922
23105.000			39.212			-3.921
23203.000			39.206			-3.921
23304.000			39.203			-3.920
23405.000			39.199			-3.920
23504.000			39.195			-3.919
23604.000			39.191			-3.919
23705.000			39.186			-3.919
23804.000			39.181			-3.918
23903.000			39.172			-3.917
24005.000			39.168			-3.917
24104.000			39.163			-3.916
24204.000			39.159			-3.916
24305.000			39.155			-3.915
24404.000			39.150			-3.915
24505.000			39.147			-3.915
24603.000			39.136			-3.914
24704.000			39.133			-3.913
24805.000			39.127			-3.913
24904.000			39.122			-3.912
25004.000			39.118			-3.912
25104.000			39.116			-3.912
25204.000			39.111			-3.911
25303.000			39.103			-3.910
25405.000			39.099			-3.910
25504.000			39.095			-3.909
25604.000			39.090			-3.909
25705.000			39.086			-3.909
25803.000			39.082			-3.908
25904.000			39.078			-3.908
26005.000			39.070			-3.907
26104.000			39.065			-3.907
26204.000			39.062			-3.906
26305.000			39.058			-3.906
26404.000			39.054			-3.905
26503.000			39.050			-3.905
26605.000			39.046			-3.905
26704.000			39.042			-3.904
26804.000			39.034			-3.903
26905.000			39.030			-3.903
27004.000			39.026			-3.903
27104.000			39.022			-3.902
27204.000			39.019			-3.902
27304.000			39.015			-3.902
27404.000			39.011			-3.901
27504.000			39.003			-3.900
27604.000			39.000			-3.900
27705.000			38.996			-3.900
27804.000			38.992			-3.899
27903.000			38.988			-3.899
28005.000			38.984			-3.898
28104.000			38.979			-3.898
28204.000			38.972			-3.897
28305.000			38.969			-3.897
28404.000			38.965			-3.897
28504.000			38.961			-3.896
28604.000			38.957			-3.896
28704.000			38.953			-3.895
28804.000			38.950			-3.895
28905.000			38.946			-3.895
29004.000			38.939			-3.894
29104.000			38.936			-3.894
29205.000			38.931			-3.893
29303.000			38.927			-3.893
29404.000			38.924			-3.892
29505.000			38.921			-3.892
29604.000			38.917			-3.892
29704.000			38.910			-3.891
29805.000			38.907			-3.891
29904.000			38.903			-3.890
30003.000			38.899			-3.890
30105.000			38.895			-3.890
30204.000			38.891			-3.889
30304.000			38.888			-3.889
30405.000			38.882			-3.888
30504.000			38.879			-3.888
30604.000			38.877			-3.888
30704.000			38.873			-3.887
30804.000			38.869			-3.887
30904.000			38.865			-3.886
31004.000			38.862			-3.886
31104.000			38.853			-3.885
31205.000			38.850			-3.885
31304.000			38.847			-3.885
31404.000			38.845			-3.885
31505.000			38.842			-3.884
31604.000			38.837			-3.884
31704.000			38.834			-3.883
31805.000			38.828			-3.883
31904.000			38.824			-3.882
32004.000			38.821			-3.882
32104.000			38.818			-3.882
32204.000			38.815			-3.882
32304.000			38.811			-3.881
32405.000			38.807			-3.881
32504.000			38.805			-3.881
32604.000			38.799			-3.880
32705.000			38.796			-3.880
32803.000			38.793			-3.879
32904.000			38.789			-3.879
33005.000			38.786			-3.879
33104.000			38.782			-3.878
33204.000			38.778			-3.878
33305.000			38.771			-3.877
33404.000			38.768			-3.877
33503.000			38.766			-3.877
33605.000			38.762			-3.876
33704.000			38.760			-3.876
33804.000			38.757			-3.876
33905.000			38.754			-3.875
34004.000			38.747			-3.875
34105.000			38.745			-3.874
34203.000			38.741			-3.874
34304.000			38.738			-3.874
34405.000			38.736			-3.874
34504.000			38.732			-3.873
34604.000			38.729			-3.873
34705.000			38.726			-3.873
34804.000			38.719			-3.872
34903.000			38.716			-3.872
35005.000			38.714			-3.871
35104.000			38.712			-3.871
35204.000			38.708			-3.871
35305.000			38.705			-3.870
35404.000			38.701			-3.870
35504.000			38.695			-3.869
35604.000			38.692			-3.869
35704.000			38.689			-3.869
35804.000			38.687			-3.869
35905.000			38.685			-3.868
36004.000			38.682			-3.868
36104.000			38.678			-3.868
36205.000			38.673			-3.867
36303.000			38.669			-3.867
36404.000			38.667			-3.867
36505.000			38.664			-3.866
36604.000			38.660			-3.866
36704.000			38.657			-3.866
36805.000			38.655			-3.866
36904.000			38.649			-3.865
37003.000			38.645			-3.865
37105.000			38.643			-3.864
37204.000			38.640			-3.864
37305.000			38.638			-3.864
37404.000			38.636			-3.864
37504.000			38.632			-3.863
37605.000			38.629			-3.863
37703.000			38.624			-3.862
37804.000			38.621			-3.862
37905.000			38.619			-3.862
38004.000			38.616			-3.862
38104.000			38.613			-3.861
38205.000			38.609			-3.861
38304.000			38.607			-3.861
38403.000			38.602			-3.860
38505.000			38.599			-3.860
38604.000			38.596			-3.860
38704.000			38.593			-3.859
38805.000			38.591			-3.859
38904.000			38.589			-3.859
39004.000			38.585			-3.859
39104.000			38.579			-3.858
39204.000			38.576			-3.858
39303.000			38.574			-3.857
39405.000			38.571			-3.857
39504.000			38.569			-3.857
39604.000			38.566			-3.857
39705.000			38.564			-3.856
39804.000			38.559			-3.856
39904.000			38.556			-3.856
40004.000			38.553			-3.855
40104.000			38.550			-3.855
40204.000			38.548			-3.855
40304.000			38.545			-3.854
40404.000			38.542			-3.854
40505.000			38.539			-3.854
40604.000			38.536			-3.854
40703.000			38.533			-3.853
40805.000			38.531			-3.853
40904.000			38.528			-3.853
41004.000			38.524			-3.852
41105.000			38.522			-3.852
41204.000			38.519			-3.852
41304.000			38.514			-3.851
41404.000			38.512			-3.851
41504.000			38.508			-3.851
41604.000			38.506			-3.851
41705.000			38.505			-3.851
41804.000			38.502			-3.850
41903.000			38.499			-3.850
42005.000			38.495			-3.849
42104.000			38.492			-3.849
42204.000			38.489			-3.849
42305.000			38.487			-3.849
42404.000			38.485			-3.848
42504.000			38.481			-3.848
42604.000			38.478			-3.848
42704.000			38.474			-3.847
42804.000			38.471			-3.847
42905.000			38.470			-3.847
43004.000			38.468			-3.847
43104.000			38.465			-3.846
43205.000			38.463			-3.846
43303.000			38.460			-3.846
43404.000			38.458			-3.846
43505.000			38.454			-3.845
43604.000			38.451			-3.845
43705.000			38.448			-3.845
43804.000			38.446			-3.845
43904.000			38.443			-3.844
44004.000			38.441			-3.844
44104.000			38.439			-3.844
44204.000			38.434			-3.843
44305.000			38.430			-3.843
44404.000			38.428			-3.843
44504.000			38.427			-3.843
44605.000			38.425			-3.842
44703.000			38.421			-3.842
44804.000			38.419			-3.842
44905.000			38.414			-3.841
45004.000			38.412			-3.841
45104.000			38.409			-3.841
45205.000			38.408			-3.841
45304.000			38.404			-3.840
45403.000			38.402			-3.840
45505.000			38.400			-3.840
45604.000			38.396			-3.840
45704.000			38.393			-3.839
45805.000			38.391			-3.839
45904.000			38.390			-3.839
46004.000			38.387			-3.839
46104.000			38.384			-3.838
46204.000			38.381			-3.838
46304.000			38.379			-3.838
46405.000			38.377			-3.838
46504.000			38.374			-3.837
46604.000			38.371			-3.837
46705.000			38.369			-3.837
46803.000			38.367			-3.837
46905.000			38.365			-3.836
47004.000			38.362			-3.836
47104.000			38.358			-3.836
47205.000			38.355			-3.835
47304.000			38.352			-3.835
47404.000			38.350			-3.835
47504.000			38.348			-3.835
47604.000			38.346			-3.835
47704.000			38.344			-3.834
47805.000			38.339			-3.834
47904.000			38.337			-3.834
48004.000			38.335			-3.834
48105.000			38.333			-3.833
48203.000			38.330			-3.833
48304.000			38.329			-3.833
48405.000			38.327			-3.833
48504.000			38.324			-3.832
48604.000			38.319			-3.832
48705.000			38.317			-3.832
48804.000			38.316			-3.832
48903.000			38.313			-3.831
49005.000			38.312			-3.831
49104.000			38.309			-3.831
49204.000			38.307			-3.831
49305.000			38.303			-3.830
49404.000			38.302			-3.830
49504.000			38.298			-3.830
49604.000			38.296			-3.830
49704.000			38.294			-3.829
49804.000			38.292			-3.829
49904.000			38.290			-3.829
50004.000			38.287			-3.829
50105.000			38.284			-3.828
50204.000			38.282			-3.828
50303.000			38.280			-3.828
50405.000			38.278			-3.828
50504.000			38.276			-3.828
50604.000			38.274			-3.827
50705.000			38.269			-3.827
50803.000			38.267			-3.827
50904.000			38.266			-3.827
51005.000			38.264			-3.826
51104.000			38.262			-3.826
51204.000			38.259			-3.826
51305.000			38.257			-3.826
51404.000			38.255			-3.826
51503.000			38.252			-3.825
51605.000			38.250			-3.825
51704.000			38.248			-3.825
51804.000			38.246			-3.825
51905.000			38.243			-3.824
52004.000			38.241			-3.824
52104.000			38.239			-3.824
52204.000			38.235			-3.823
52304.000			38.233			-3.823
52404.000			38.232			-3.823
52505.000			38.229			-3.823
52604.000			38.226			-3.823
52704.000			38.225			-3.823
52805.000			38.225			-3.822
52903.000			38.219			-3.822
53004.000			38.218			-3.822
53105.000			38.216			-3.822
53204.000			38.213			-3.821
53305.000			38.210			-3.821
53404.000			38.209			-3.821
53504.000			38.207			-3.821
53604.000			38.203			-3.820
53704.000			38.200			-3.820
53804.000			38.199			-3.820
53905.000			38.198			-3.820
54004.000			38.196			-3.820
54103.000			38.193			-3.819
54205.000			38.190			-3.819
54304.000			38.189			-3.819
54404.000			38.187			-3.819
54505.000			38.185			-3.819
54604.000			38.182			-3.818
54704.000			38.179			-3.818
54804.000			38.177			-3.818
54904.000			38.177			-3.818
55004.000			38.175			-3.817
55105.000			38.170			-3.817
55204.000			38.168			-3.817
55304.000			38.166			-3.817
55405.000			38.164			-3.816
55503.000			38.163			-3.816
55604.000			38.161			-3.816
55705.000			38.159			-3.816
55804.000			38.156			-3.816
55904.000			38.154			-3.815
56005.000			38.151			-3.815
56104.000			38.149			-3.815
56203.000			38.148			-3.815
56305.000			38.147			-3.815
56404.000			38.146			-3.815
56505.000			38.141			-3.814
56604.000			38.138			-3.814
56704.000			38.136			-3.814
56805.000			38.134			-3.813
56903.000			38.132			-3.813
57004.000			38.131			-3.813
57105.000			38.130			-3.813
57204.000			38.128			-3.813
57304.000			38.123			-3.812
57404.000			38.122			-3.812
57504.000			38.120			-3.812
57604.000			38.119			-3.812
57705.000			38.118			-3.812
57804.000			38.116			-3.812
57904.000			38.113			-3.811
58005.000			38.110			-3.811
58103.000			38.107			-3.811
58204.000			38.105			-3.811
58305.000			38.104			-3.810
58404.000			38.103			-3.810
58504.000			38.101			-3.810
58605.000			38.099			-3.810
58704.000			38.095			-3.809
58803.000			38.093			-3.809
58905.000			38.091			-3.809
59004.000			38.089			-3.809
59104.000			38.088			-3.809
59205.000			38.086			-3.809
59304.000			38.084			-3.808
59404.000			38.080			-3.808
59503.000			38.078			-3.808
59604.000			38.078			-3.808
59704.000			38.076			-3.808
59804.000			38.074			-3.807
59904.000			38.073			-3.807
60005.000			38.071			-3.807
60104.000			38.069			-3.807
60203.000			38.064			-3.806
60305.000			38.063			-3.806
60404.000			38.061			-3.806
60504.000			38.059			-3.806
60605.000			38.059			-3.806
60704.000			38.058			-3.806
60804.000			38.055			-3.805
60904.000			38.051			-3.805
61004.000			38.049			-3.805
61104.000			38.048			-3.805
61205.000			38.046			-3.805
61304.000			38.045			-3.805
61404.000			38.043			-3.804
61505.000			38.040			-3.804
61603.000			38.039			-3.804
61704.000			38.036			-3.804
61805.000			38.034			-3.803
61904.000			38.033			-3.803
62004.000			38.032			-3.803
62105.000			38.031			-3.803
62204.000			38.029			-3.803
62303.000			38.026			-3.803
62405.000			38.023			-3.802
62504.000			38.021			-3.802
62604.000			38.019			-3.802
62705.000			38.019			-3.802
62804.000			38.017			-3.802
62905.000			38.014			-3.801
63003.000			38.012			-3.801
63104.000			38.008			-3.801
63205.000			38.007			-3.801
63304.000			38.007			-3.801
63404.000			38.005			-3.800
63504.000			38.003			-3.800
63604.000			38.002			-3.800
63704.000			38.001			-3.800
63805.000			37.996			-3.800
63904.000			37.994			-3.799
64004.000			37.994			-3.799
64105.000			37.992			-3.799
64203.000			37.990			-3.799
64304.000			37.987			-3.799
64405.000			37.986			-3.799
64504.000			37.984			-3.798
64604.000			37.982			-3.798
64705.000			37.980			-3.798
64804.000			37.978			-3.798
64904.000			37.977			-3.798
65005.000			37.975			-3.798
65103.000			37.973			-3.797
65204.000			37.970			-3.797
65305.000			37.968			-3.797
65404.000			37.967			-3.797
65504.000			37.965			-3.797
65605.000			37.964			-3.796
65704.000			37.963			-3.796
65803.000			37.961			-3.796
65905.000			37.958			-3.796
66004.000			37.957			-3.796
66105.000			37.954			-3.795
66204.000			37.952			-3.795
66304.000			37.951			-3.795
66405.000			37.950			-3.795
66503.000			37.948			-3.795
66604.000			37.946			-3.795
66705.000			37.943			-3.794
66804.000			37.941			-3.794
66904.000			37.941			-3.794
67005.000			37.939			-3.794
67104.000			37.936			-3.794
67203.000			37.935			-3.793
67305.000			37.933			-3.793
67404.000			37.931			-3.793
67504.000			37.928			-3.793
67605.000			37.926			-3.793
67704.000			37.925			-3.792
67804.000			37.925			-3.792
67905.000			37.924			-3.792
68004.000			37.923			-3.792
68103.000			37.918			-3.792
68205.000			37.918			-3.792
68304.000			37.916			-3.792
68404.000			37.916			-3.792
68505.000			37.914			-3.791
68604.000			37.912			-3.791
68704.000			37.910			-3.791
68804.000			37.907			-3.791
68904.000			37.906			-3.791
69004.000			37.903			-3.790
69104.000			37.901			-3.790
69204.000			37.901			-3.790
69305.000			37.900			-3.790
69404.000			37.898			-3.790
69503.000			37.896			-3.790
69605.000			37.894			-3.789
69704.000			37.891			-3.789
69804.000			37.889			-3.789
69905.000			37.888			-3.789
70004.000			37.886			-3.789
70104.000			37.884			-3.788
70204.000			37.884			-3.788
70304.000			37.881			-3.788
70403.000			37.880			-3.788
70505.000			37.879			-3.788
70604.000			37.877			-3.788
70704.000			37.875			-3.787
70805.000			37.874			-3.787
70904.000			37.873			-3.787
71004.000			37.868			-3.787
71104.000			37.867			-3.787
71204.000			37.867			-3.787
71304.000			37.864			-3.786
71405.000			37.863			-3.786
71504.000			37.860			-3.786
71604.000			37.859			-3.786
71705.000			37.857			-3.786
71803.000			37.855			-3.786
71904.000			37.855			-3.786
72005.000			37.853			-3.785
72104.000			37.851			-3.785
72204.000			37.849			-3.785
72304.000			37.848			-3.785
72404.000			37.847			-3.785
72504.000			37.844			-3.784
72604.000			37.842			-3.784
72704.000			37.841			-3.784
72805.000			37.840			-3.784
72904.000			37.838			-3.784
73004.000			37.837			-3.784
73105.000			37.836			-3.784
73203.000			37.832			-3.783
73304.000			37.830			-3.783
73405.000			37.831			-3.783
73504.000			37.829			-3.783
73604.000			37.828			-3.783
73705.000			37.827			-3.783
73804.000			37.825			-3.782
73903.000			37.822			-3.782
74005.000			37.820			-3.782
74104.000			37.818			-3.782
74204.000			37.817			-3.782
74305.000			37.815			-3.782
74404.000			37.814			-3.781
74504.000			37.813			-3.781
74604.000			37.812			-3.781
74704.000			37.810			-3.781
74804.000			37.809			-3.781
74905.000			37.806			-3.781
75004.000			37.804			-3.780
75104.000			37.802			-3.780
75205.000			37.801			-3.780
75303.000			37.801			-3.780
75404.000			37.799			-3.780
75505.000			37.797			-3.780
75604.000			37.795			-3.780
75705.000			37.793			-3.779
75804.000			37.792			-3.779
75904.000			37.792			-3.779
76004.000			37.791			-3.779
76104.000			37.787			-3.779
76203.000			37.785			-3.778
76305.000			37.783			-3.778
76404.000			37.781			-3.778
76504.000			37.782			-3.778
76605.000			37.780			-3.778
76704.000			37.779			-3.778
76804.000			37.776			-3.778
76904.000			37.774			-3.777
77004.000			37.773			-3.777
77104.000			37.772			-3.777
77205.000			37.770			-3.777
77304.000			37.769			-3.777
77404.000			37.768			-3.777
77505.000			37.766			-3.777
77603.000			37.764			-3.776
77704.000			37.762			-3.776
77805.000			37.761			-3.776
77904.000			37.760			-3.776
78004.000			37.758			-3.776
78105.000			37.757			-3.776
78204.000			37.755			-3.776
78304.000			37.753			-3.775
78405.000			37.752			-3.775
78503.000			37.751			-3.775
78604.000			37.748			-3.775
78705.000			37.747			-3.775
78804.000			37.746			-3.775
78905.000			37.745			-3.774
79004.000			37.742			-3.774
79104.000			37.741			-3.774
79204.000			37.739			-3.774
79304.000			37.739			-3.774
79404.000			37.738			-3.774
79505.000			37.737			-3.774
79604.000			37.735			-3.773
79704.000			37.734			-3.773
79805.000			37.732			-3.773
79903.000			37.729			-3.773
80004.000			37.728			-3.773
80105.000			37.726			-3.773
80204.000			37.724			-3.772
80304.000			37.723			-3.772
80405.000			37.722			-3.772
80504.000			37.720			-3.772
80603.000			37.718			-3.772
80705.000			37.717			-3.772
80804.000			37.716			-3.772
80904.000			37.715			-3.771
81005.000			37.714			-3.771
81104.000			37.712			-3.771
81204.000			37.709			-3.771
81304.000			37.708			-3.771
81404.000			37.708			-3.771
81503.000			37.707			-3.771
81605.000			37.705			-3.770
81704.000			37.703			-3.770
81804.000			37.702			-3.770
81905.000			37.699			-3.770
82004.000			37.698			-3.770
82105.000			37.697			-3.770
82203.000			37.696			-3.770
82304.000			37.695			-3.770
82405.000			37.693			-3.769
82504.000			37.692			-3.769
82604.000			37.690			-3.769
82705.000			37.688			-3.769
82804.000			37.687			-3.769
82903.000			37.685			-3.769
83005.000			37.684			-3.768
83104.000			37.683			-3.768
83204.000			37.680			-3.768
83305.000			37.680			-3.768
83404.000			37.678			-3.768
83504.000			37.676			-3.768
83604.000			37.675			-3.768
83704.000			37.675			-3.767
83804.000			37.674			-3.767
83905.000			37.672			-3.767
84004.000			37.670			-3.767
84104.000			37.669			-3.767
84205.000			37.668			-3.767
84303.000			37.667			-3.767
84404.000			37.665			-3.766
84505.000			37.663			-3.766
84604.000			37.662			-3.766
84704.000			37.661			-3.766
84805.000			37.659			-3.766
84904.000			37.658			-3.766
85004.000			37.657			-3.766
85105.000			37.655			-3.765
85203.000			37.653			-3.765
85305.000			37.652			-3.765
85404.000			37.651			-3.765
85504.000			37.650			-3.765
85605.000			37.647			-3.765
85704.000			37.646			-3.765
85804.000			37.645			-3.765
85904.000			37.644			-3.764
86004.000			37.643			-3.764
86104.000			37.641			-3.764
86205.000			37.639			-3.764
86304.000			37.637			-3.764
86404.000			37.636			-3.764
86505.000			37.636			-3.764
86603.000			37.634			-3.763
86704.000			37.632			-3.763
86805.000			37.632			-3.763
86904.000			37.631			-3.763
87004.000			37.628			-3.763
87105.000			37.627			-3.763
87204.000			37.625			-3.763
87303.000			37.623			-3.762
87405.000			37.622			-3.762
87504.000			37.621			-3.762
87604.000			37.620			-3.762
87705.000			37.618			-3.762
87804.000			37.618			-3.762
87904.000			37.617			-3.762
88004.000			37.616			-3.762
88104.000			37.614			-3.761
88204.000			37.612			-3.761
88304.000			37.611			-3.761
88404.000			37.609			-3.761
88505.000			37.608			-3.761
88604.000			37.607			-3.761
88703.000			37.607			-3.761
88805.000			37.605			-3.760
88904.000			37.603			-3.760
89004.000			37.602			-3.760
89105.000			37.601			-3.760
89204.000			37.598			-3.760
89304.000			37.597			-3.760
89404.000			37.596			-3.760
89504.000			37.595			-3.759
89604.000			37.593			-3.759
89705.000			37.592			-3.759
89804.000			37.592			-3.759
89904.000			37.590			-3.759
90005.000			37.588			-3.759
90103.000			37.588			-3.759
90204.000			37.586			-3.759
90305.000			37.584			-3.758
90404.000			37.583			-3.758
90504.000			37.582			-3.758
90605.000			37.580			-3.758
90704.000			37.579			-3.758
90803.000			37.578			-3.758
90905.000			37.576			-3.758
91004.000			37.574			-3.757
91104.000			37.574			-3.757
91205.000			37.573			-3.757
91304.000			37.571			-3.757
91404.000			37.569			-3.757
91503.000			37.568			-3.757
91604.000			37.566			-3.757
91704.000			37.566			-3.757
91804.000			37.565			-3.756
91904.000			37.564			-3.756
92005.000			37.563			-3.756
92104.000			37.560			-3.756
92204.000			37.559			-3.756
92305.000			37.558			-3.756
92403.000			37.557			-3.756
92504.000			37.556			-3.756
92605.000			37.554			-3.755
92704.000			37.552			-3.755
92804.000			37.552			-3.755
92905.000			37.552			-3.755
93004.000			37.549			-3.755
93103.000			37.548			-3.755
93205.000			37.546			-3.755
93304.000			37.546			-3.755
93404.000			37.545			-3.754
93505.000			37.543			-3.754
93604.000			37.541			-3.754
93704.000			37.540			-3.754
93804.000			37.539			-3.754
93904.000			37.537			-3.754
94004.000			37.537			-3.754
94105.000			37.537			-3.754
94204.000			37.536			-3.754
94304.000			37.532			-3.753
94405.000			37.531			-3.753
94503.000			37.529			-3.753
94604.000			37.528			-3.753
94705.000			37.527			-3.753
94804.000			37.526			-3.753
94905.000			37.525			-3.752
95004.000			37.522			-3.752
95104.000			37.522			-3.752
95204.000			37.521			-3.752
95304.000			37.520			-3.752
95404.000			37.519			-3.752
95505.000			37.518			-3.752
95604.000			37.517			-3.752
95704.000			37.515			-3.751
95805.000			37.514			-3.751
95903.000			37.513			-3.751
96004.000			37.512			-3.751
96105.000			37.511			-3.751
96204.000			37.509			-3.751
96304.000			37.508			-3.751
96405.000			37.507			-3.751
96504.000			37.505			-3.750
96603.000			37.503			-3.750
96705.000			37.502			-3.750
96804.000			37.502			-3.750
96904.000			37.501			-3.750
97005.000			37.499			-3.750
97104.000			37.498			-3.750
97204.000			37.497			-3.750
97304.000			37.495			-3.749
97404.000			37.495			-3.749
97503.000			37.493			-3.749
97605.000			37.492			-3.749
97704.000			37.490			-3.749
97804.000			37.489			-3.749
97905.000			37.488			-3.749
98004.000			37.487			-3.749
98105.000			37.486			-3.749
98203.000			37.484			-3.748
98304.000			37.483			-3.748
98405.000			37.482			-3.748
98504.000			37.481			-3.748
98604.000			37.478			-3.748
98705.000			37.477			-3.748
98804.000			37.477			-3.748
98903.000			37.476			-3.748
99005.000			37.475			-3.747
99104.000			37.474			-3.747
99204.000			37.473			-3.747
99305.000			37.471			-3.747
99404.000			37.470			-3.747
99504.000			37.469			-3.747
99604.000			37.468			-3.747
99704.000			37.466			-3.747
99803.000			37.464			-3.746
99905.000			37.464			-3.746
100004.000			37.463			-3.746
100104.000			37.460			-3.746
100205.000			37.459			-3.746
100304.000			37.459			-3.746
100404.000			37.458			-3.746
100504.000			37.457			-3.746
100604.000			37.455			-3.746
100704.000			37.454			-3.745
100805.000			37.453			-3.745
100904.000			37.452			-3.745
101004.000			37.451			-3.745
101105.000			37.450			-3.745
101203.000			37.448			-3.745
101305.000			37.446			-3.745
101404.000			37.447			-3.745
101504.000			37.444			-3.744
101605.000			37.444			-3.744
101704.000			37.443			-3.744
101804.000			37.442			-3.744
101904.000			37.440			-3.744
102004.000			37.439			-3.744
102104.000			37.439			-3.744
102205.000			37.438			-3.744
102304.000			37.436			-3.744
102404.000			37.435			-3.743
102505.000			37.432			-3.743
102603.000			37.432			-3.743
102704.000			37.432			-3.743
102805.000			37.430			-3.743
102904.000			37.429			-3.743
103004.000			37.428			-3.743
103105.000			37.426			-3.743
103204.000			37.425			-3.743
103303.000			37.425			-3.742
103405.000			37.423			-3.742
103504.000			37.422			-3.742
103604.000			37.421			-3.742
103705.000			37.420			-3.742
103804.000			37.419			-3.742
103904.000			37.418			-3.742
104004.000			37.415			-3.742
104104.000			37.414			-3.741
104204.000			37.414			-3.741
104304.000			37.412			-3.741
104404.000			37.411			-3.741
104505.000			37.411			-3.741
104604.000			37.410			-3.741
104703.000			37.409			-3.741
104805.000			37.408			-3.741
104904.000			37.408			-3.741
105004.000			37.406			-3.741
105105.000			37.405			-3.740
105204.000			37.402			-3.740
105304.000			37.401			-3.740
105404.000			37.400			-3.740
105504.000			37.399			-3.740
105604.000			37.397			-3.740
105705.000			37.396			-3.740
105804.000			37.395			-3.740
105904.000			37.393			-3.739
106005.000			37.392			-3.739
106103.000			37.392			-3.739
106204.000			37.392			-3.739
106305.000			37.392			-3.739
106404.000			37.390			-3.739
106504.000			37.387			-3.739
106605.000			37.386			-3.739
106704.000			37.385			-3.738
106803.000			37.385			-3.738
106905.000			37.383			-3.738
107003.000			37.382			-3.738
107104.000			37.382			-3.738
107205.000			37.380			-3.738
107304.000			37.378			-3.738
107404.000			37.377			-3.738
107504.000			37.377			-3.738
107604.000			37.377			-3.738
107704.000			37.376			-3.738
107804.000			37.374			-3.737
107904.000			37.373			-3.737
108005.000			37.372			-3.737
108104.000			37.370			-3.737
108204.000			37.369			-3.737
108305.000			37.368			-3.737
108404.000			37.366			-3.737
108504.000			37.365			-3.737
108604.000			37.365			-3.736
108704.000			37.363			-3.736
108804.000			37.362			-3.736
108905.000			37.362			-3.736
109004.000			37.362			-3.736
109104.000			37.360			-3.736
109205.000			37.359			-3.736
109303.000			37.357			-3.736
109404.000			37.356			-3.736
109505.000			37.355			-3.735
109604.000			37.354			-3.735
109704.000			37.353			-3.735
109805.000			37.352			-3.735
109904.000			37.350			-3.735
110003.000			37.349			-3.735
110105.000			37.348			-3.735
110204.000			37.348			-3.735
110304.000			37.347			-3.735
110405.000			37.344			-3.734
110504.000			37.344			-3.734
110604.000			37.343			-3.734
110703.000			37.343			-3.734
110804.000			37.341			-3.734
110905.000			37.341			-3.734
111004.000			37.338			-3.734
111104.000			37.337			-3.734
111205.000			37.337			-3.734
111304.000			37.335			-3.734
111403.000			37.334			-3.733
111505.000			37.333			-3.733
111604.000			37.331			-3.733
111704.000			37.330			-3.733
111805.000			37.329			-3.733
111904.000			37.329			-3.733
112004.000			37.329			-3.733
112104.000			37.327			-3.733
112204.000			37.326			-3.733
112304.000			37.325			-3.732
112405.000			37.324			-3.732
112504.000			37.323			-3.732
112604.000			37.322			-3.732
112705.000			37.321			-3.732
112803.000			37.320			-3.732
112904.000			37.319			-3.732
113004.000			37.318			-3.732
113104.000			37.317			-3.732
113204.000			37.315			-3.731
113305.000			37.315			-3.731
113404.000			37.313			-3.731
113504.000			37.312			-3.731
113605.000			37.312			-3.731
113703.000			37.310			-3.731
113804.000			37.309			-3.731
113905.000			37.307			-3.731
114004.000			37.307			-3.731
114105.000			37.306			-3.731
114204.000			37.305			-3.730
114304.000			37.304			-3.730
114404.000			37.304			-3.730
114504.000			37.303			-3.730
114604.000			37.299			-3.730
114705.000			37.298			-3.730
114804.000			37.297			-3.730
114904.000			37.296			-3.730
115005.000			37.296			-3.730
115103.000			37.296			-3.730
115204.000			37.295			-3.729
115305.000			37.294			-3.729
115404.000			37.293			-3.729
115504.000			37.291			-3.729
115605.000			37.290			-3.729
115704.000			37.289			-3.729
115803.000			37.288			-3.729
115905.000			37.287			-3.729
116004.000			37.287			-3.729
116104.000			37.285			-3.729
116205.000			37.284			-3.728
116304.000			37.283			-3.728
116404.000			37.282			-3.728
116504.000			37.282			-3.728
116604.000			37.281			-3.728
116704.000			37.280			-3.728
116805.000			37.278			-3.728
116904.000			37.277			-3.728
117004.000			37.276			-3.728
117105.000			37.275			-3.728
117204.000			37.275			-3.728
117305.000			37.274			-3.727
117403.000			37.273			-3.727
117504.000			37.272			-3.727
117605.000			37.272			-3.727
117704.000			37.270			-3.727
117804.000			37.269			-3.727
117905.000			37.268			-3.727
118004.000			37.267			-3.727
118103.000			37.266			-3.727
118205.000			37.264			-3.726
118304.000			37.263			-3.726
118404.000			37.261			-3.726
118505.000			37.261			-3.726
118604.000			37.261			-3.726
118704.000			37.259			-3.726
118804.000			37.258			-3.726
118904.000			37.257			-3.726
119003.000			37.256			-3.726
119105.000			37.255			-3.725
119204.000			37.254			-3.725
119304.000			37.253			-3.725
119405.000			37.252			-3.725
119504.000			37.251			-3.725
119604.000			37.251			-3.725
119704.000			37.248			-3.725
119804.000			37.247			-3.725
119904.000			37.246			-3.725
120005.000			37.245			-3.725
120104.000			37.245			-3.724
120204.000			37.243			-3.724
120305.000			37.242			-3.724
120403.000			37.242			-3.724
120505.000			37.241			-3.724
120604.000			37.240			-3.724
120704.000			37.240			-3.724
120805.000			37.238			-3.724
120904.000			37.236			-3.724
121004.000			37.236			-3.724
121104.000			37.236			-3.724
121204.000			37.233			-3.723
121304.000			37.232			-3.723
121405.000			37.231			-3.723
121504.000			37.231			-3.723
121604.000			37.231			-3.723
121705.000			37.230			-3.723
121803.000			37.228			-3.723
121904.000			37.227			-3.723
122005.000			37.226			-3.723
122104.000			37.226			-3.723
122204.000			37.225			-3.723
122305.000			37.224			-3.722
122404.000			37.223			-3.722
122503.000			37.221			-3.722
122605.000			37.220			-3.722
122704.000			37.219			-3.722
122804.000			37.219			-3.722
122905.000			37.218			-3.722
123004.000			37.217			-3.722
123104.000			37.217			-3.722
123204.000			37.214			-3.721
123304.000			37.213			-3.721
123404.000			37.212			-3.721
123504.000			37.212			-3.721
123604.000			37.210			-3.721
123705.000			37.210			-3.721
123804.000			37.209			-3.721
123903.000			37.208			-3.721
124005.000			37.208			-3.721
124104.000			37.205			-3.721
124204.000			37.205			-3.721
124305.000			37.204			-3.720
124404.000			37.203			-3.720
124504.000			37.203			-3.720
124604.000			37.202			-3.720
124704.000			37.201			-3.720
124804.000			37.199			-3.720
124905.000			37.198			-3.720
125004.000			37.197			-3.720
125104.000			37.196			-3.720
125205.000			37.196			-3.720
125304.000			37.195			-3.719
125404.000			37.194			-3.719
125504.000			37.193			-3.719
125604.000			37.191			-3.719
125704.000			37.191			-3.719
125805.000			37.190			-3.719
125904.000			37.189			-3.719
126004.000			37.189			-3.719
126105.000			37.188			-3.719
126203.000			37.186			-3.719
126304.000			37.185			-3.718
126405.000			37.185			-3.719
126504.000			37.184			-3.718
126604.000			37.183			-3.718
126704.000			37.182			-3.718
126804.000			37.181			-3.718
126904.000			37.179			-3.718
127004.000			37.179			-3.718
127103.000			37.178			-3.718
127205.000			37.177			-3.718
127304.000			37.176			-3.718
127404.000			37.175			-3.717
127505.000			37.174			-3.717
127604.000			37.173			-3.717
127704.000			37.172			-3.717
127804.000			37.172			-3.717
127904.000			37.171			-3.717
128004.000			37.169			-3.717
128105.000			37.168			-3.717
128204.000			37.168			-3.717
128304.000			37.167			-3.717
128405.000			37.166			-3.717
128503.000			37.165			-3.716
128604.000			37.164			-3.716
128705.000			37.162			-3.716
128804.000			37.161			-3.716
128904.000			37.161			-3.716
129005.000			37.160			-3.716
129104.000			37.157			-3.716
129204.000			37.157			-3.716
129305.000			37.156			-3.716
129403.000			37.156			-3.716
129504.000			37.155			-3.716
129605.000			37.154			-3.715
129704.000			37.155			-3.715
129804.000			37.153			-3.715
129904.000			37.152			-3.715
130004.000			37.151			-3.715
130104.000			37.149			-3.715
130204.000			37.149			-3.715
130304.000			37.148			-3.715
130405.000			37.147			-3.715
130504.000			37.147			-3.715
130604.000			37.145			-3.715
130705.000			37.144			-3.714
130803.000			37.144			-3.714
130904.000			37.143			-3.714
131005.000			37.141			-3.714
131104.000			37.141			-3.714
131204.000			37.141			-3.714
131305.000			37.140			-3.714
131404.000			37.138			-3.714
131504.000			37.137			-3.714
131605.000			37.136			-3.714
131703.000			37.136			-3.714
131804.000			37.134			-3.713
131905.000			37.134			-3.713
132004.000			37.133			-3.713
132104.000			37.131			-3.713
132205.000			37.131			-3.713
132304.000			37.130			-3.713
132403.000			37.130			-3.713
132505.000			37.129			-3.713
132603.000			37.127			-3.713
132704.000			37.127			-3.713
132805.000			37.126			-3.713
132904.000			37.125			-3.712
133004.000			37.124			-3.712
133104.000			37.122			-3.712
133204.000			37.123			-3.712
133304.000			37.122			-3.712
133404.000			37.121			-3.712
133503.000			37.119			-3.712
133605.000			37.117			-3.712
133704.000			37.117			-3.712
133804.000			37.117			-3.712
133905.000			37.116			-3.712
134004.000			37.115			-3.712
134104.000			37.115			-3.711
134204.000			37.113			-3.711
134304.000			37.113			-3.711
134404.000			37.111			-3.711
134505.000			37.111			-3.711
134604.000			37.110			-3.711
134704.000			37.109			-3.711
134805.000			37.107			-3.711
134904.000			37.108			-3.711
135004.000			37.107			-3.711
135104.000			37.105			-3.710
135204.000			37.104			-3.710
135304.000			37.103			-3.710
135405.000			37.103			-3.710
135504.000			37.102			-3.710
135604.000			37.100			-3.710
135705.000			37.099			-3.710
135803.000			37.099			-3.710
135904.000			37.098			-3.710
136004.000			37.098			-3.710
136104.000			37.098			-3.710
136204.000			37.097			-3.710
136304.000			37.095			-3.710
136404.000			37.093			-3.709
136505.000			37.093			-3.709
136604.000			37.092			-3.709
136703.000			37.091			-3.709
136805.000			37.091			-3.709
136903.000			37.091			-3.709
137004.000			37.089			-3.709
137105.000			37.088			-3.709
137204.000			37.087			-3.709
137304.000			37.086			-3.709
137405.000			37.086			-3.709
137504.000			37.085			-3.709
137604.000			37.085			-3.708
137705.000			37.084			-3.708
137803.000			37.083			-3.708
137904.000			37.081			-3.708
138005.000			37.080			-3.708
138104.000			37.078			-3.708
138204.000			37.078			-3.708
138305.000			37.077			-3.708
138404.000			37.076			-3.708
138504.000			37.076			-3.708
138605.000			37.074			-3.707
138703.000			37.074			-3.707
138804.000			37.073			-3.707
138905.000			37.073			-3.707
139004.000			37.071			-3.707
139104.000			37.070			-3.707
139205.000			37.070			-3.707
139304.000			37.069			-3.707
139404.000			37.067			-3.707
139505.000			37.067			-3.707
139603.000			37.066			-3.707
139705.000			37.066			-3.707
139804.000			37.065			-3.706
139904.000			37.064			-3.706
140005.000			37.062			-3.706
140104.000			37.061			-3.706
140204.000			37.060			-3.706
140305.000			37.059			-3.706
140404.000			37.058			-3.706
140503.000			37.058			-3.706
140605.000			37.058			-3.706
140704.000			37.057			-3.706
140804.000			37.056			-3.706
140905.000			37.056			-3.706
141004.000			37.055			-3.705
141104.000			37.053			-3.705
141205.000			37.053			-3.705
141304.000			37.052			-3.705
141403.000			37.051			-3.705
141505.000			37.050			-3.705
141604.000			37.050			-3.705
141704.000			37.049			-3.705
141805.000			37.048			-3.705
141904.000			37.047			-3.705
142004.000			37.046			-3.705
142105.000			37.045			-3.705
142204.000			37.044			-3.704
142303.000			37.044			-3.704
142405.000			37.043			-3.704
142504.000			37.042			-3.704
142604.000			37.042			-3.704
142705.000			37.041			-3.704
142804.000			37.039			-3.704
142905.000			37.038			-3.704
143003.000			37.038			-3.704
143104.000			37.037			-3.704
143204.000			37.036			-3.704
143304.000			37.035			-3.704
143404.000			37.035			-3.703
143505.000			37.033			-3.703
143604.000			37.033			-3.703
143704.000			37.032			-3.703
143805.000			37.030			-3.703
143903.000			37.029			-3.703
144004.000			37.028			-3.703
144105.000			37.027			-3.703
144204.000			37.027			-3.703
144304.000			37.026			-3.703
144405.000			37.026			-3.703
144504.000			37.025			-3.702
144604.000			37.024			-3.702
144705.000			37.024			-3.702
144803.000			37.023			-3.702
144904.000			37.022			-3.702
145005.000			37.022			-3.702
145104.000			37.019			-3.702
145204.000			37.019			-3.702
145305.000			37.020			-3.702
145404.000			37.018			-3.702
145503.000			37.016			-3.702
145605.000			37.016			-3.702
145703.000			37.016			-3.702
145804.000			37.015			-3.701
145905.000			37.014			-3.701
146004.000			37.014			-3.701
146105.000			37.013			-3.701
146204.000			37.013			-3.701
146304.000			37.011			-3.701
146404.000			37.011			-3.701
146504.000			37.009			-3.701
146604.000			37.008			-3.701
146705.000			37.008			-3.701
146804.000			37.007			-3.701
146904.000			37.007			-3.701
147005.000			37.006			-3.701
147104.000			37.005			-3.700
147204.000			37.005			-3.700
147304.000			37.003			-3.700
147404.000			37.002			-3.700
147504.000			37.002			-3.700
147605.000			37.000			-3.700
147704.000			37.000			-3.700
147804.000			37.000			-3.700
147905.000			36.999			-3.700
148004.000			36.997			-3.700
148104.000			36.996			-3.700
148204.000			36.996			-3.700
148304.000			36.995			-3.700
148403.000			36.994			-3.699
148505.000			36.993			-3.699
148604.000			36.994			-3.699
148704.000			36.991			-3.699
148805.000			36.991			-3.699
148904.000			36.991			-3.699
149004.000			36.990			-3.699
149104.000			36.989			-3.699
149204.000			36.988			-3.699
149304.000			36.987			-3.699
149404.000			36.987			-3.699
149503.000			36.985			-3.699
149605.000			36.984			-3.698
149704.000			36.984			-3.698
149804.000			36.984			-3.698
149905.000			36.984			-3.698
150004.000			36.982			-3.698
150104.000			36.981			-3.698
150204.000			36.981			-3.698
150304.000			36.980			-3.698
150403.000			36.978			-3.698
150505.000			36.977			-3.698
150604.000			36.977			-3.698
150704.000			36.976			-3.698
150805.000			36.976			-3.698
150904.000			36.975			-3.698
151004.000			36.974			-3.697
151104.000			36.973			-3.697
151204.000			36.972			-3.697
151303.000			36.971			-3.697
151405.000			36.970			-3.697
151504.000			36.970			-3.697
151604.000			36.969			-3.697
151705.000			36.969			-3.697
151804.000			36.968			-3.697
151904.000			36.967			-3.697
152005.000			36.967			-3.697
152104.000			36.966			-3.697
152203.000			36.965			-3.696
152305.000			36.964			-3.696
152404.000			36.963			-3.696
152505.000			36.962			-3.696
152604.000			36.961			-3.696
152704.000			36.960			-3.696
152805.000			36.959			-3.696
152904.000			36.960			-3.696
153004.000			36.959			-3.696
153104.000			36.959			-3.696
153204.000			36.958			-3.696
153304.000			36.957			-3.696
153405.000			36.955			-3.696
153504.000			36.954			-3.695
153604.000			36.954			-3.695
153705.000			36.954			-3.695
153804.000			36.953			-3.695
153904.000			36.952			-3.695
154004.000			36.951			-3.695
154104.000			36.949			-3.695
154203.000			36.948			-3.695
154305.000			36.949			-3.695
154404.000			36.947			-3.695
154504.000			36.946			-3.695
154605.000			36.946			-3.695
154704.000			36.945			-3.695
154804.000			36.945			-3.695
154904.000			36.944			-3.694
155004.000			36.943			-3.694
155103.000			36.943			-3.694
155205.000			36.943			-3.694
155304.000			36.942			-3.694
155404.000			36.940			-3.694
155505.000			36.940			-3.694
155604.000			36.940			-3.694
155705.000			36.938			-3.694
155804.000			36.937			-3.694
155904.000			36.936			-3.694
156004.000			36.936			-3.694
156104.000			36.935			-3.694
156204.000			36.935			-3.693
156305.000			36.935			-3.693
156404.000			36.934			-3.693
156504.000			36.933			-3.693
156605.000			36.933			-3.693
156704.000			36.931			-3.693
156804.000			36.931			-3.693
156904.000			36.930			-3.693
157004.000			36.929			-3.693
157104.000			36.928			-3.693
157205.000			36.927			-3.693
157304.000			36.926			-3.693
157404.000			36.924			-3.692
157505.000			36.925			-3.692
157604.000			36.925			-3.692
157704.000			36.924			-3.692
157804.000			36.923			-3.692
157904.000			36.922			-3.692
158003.000			36.921			-3.692
158105.000			36.920			-3.692
158204.000			36.919			-3.692
158304.000			36.919			-3.692
158405.000			36.917			-3.692
158504.000			36.917			-3.692
158604.000			36.916			-3.692
158704.000			36.915			-3.692
158804.000			36.915			-3.691
158904.000			36.915			-3.691
159004.000			36.913			-3.691
159104.000			36.912			-3.691
159205.000			36.913			-3.691
159304.000			36.913			-3.691
159404.000			36.911			-3.691
159505.000			36.910			-3.691
159604.000			36.909			-3.691
159704.000			36.908			-3.691
159804.000			36.908			-3.691
159904.000			36.908			-3.691
160004.000			36.907			-3.691
160105.000			36.906			-3.691
160204.000			36.905			-3.691
160304.000			36.905			-3.690
160405.000			36.903			-3.690
160504.000			36.902			-3.690
160604.000			36.901			-3.690
160704.000			36.902			-3.690
160804.000			36.901			-3.690
160904.000			36.900			-3.690
161005.000			36.899			-3.690
161104.000			36.898			-3.690
161204.000			36.898			-3.690
161305.000			36.897			-3.690
161404.000			36.896			-3.690
161504.000			36.895			-3.689
161604.000			36.895			-3.689
161704.000			36.894			-3.689
161804.000			36.892			-3.689
161904.000			36.892			-3.689
162004.000			36.891			-3.689
162105.000			36.891			-3.689
162204.000			36.890			-3.689
162304.000			36.890			-3.689
162405.000			36.889			-3.689
162503.000			36.887			-3.689
162604.000			36.887			-3.689
162704.000			36.887			-3.689
162804.000			36.885			-3.688
162904.000			36.885			-3.688
163005.000			36.884			-3.688
163104.000			36.883			-3.688
163204.000			36.883			-3.688
163305.000			36.882			-3.688
163404.000			36.882			-3.688
163504.000			36.881			-3.688
163604.000			36.880			-3.688
163704.000			36.880			-3.688
163804.000			36.879			-3.688
163905.000			36.877			-3.688
164004.000			36.876			-3.688
164104.000			36.876			-3.688
164205.000			36.874			-3.687
164304.000			36.873			-3.687
164404.000			36.873			-3.687
164504.000			36.873			-3.687
164604.000			36.872			-3.687
164704.000			36.871			-3.687
164805.000			36.871			-3.687
164904.000			36.869			-3.687
165004.000			36.869			-3.687
165105.000			36.869			-3.687
165204.000			36.869			-3.687
165305.000			36.868			-3.687
165403.000			36.866			-3.687
165504.000			36.864			-3.686
165604.000			36.864			-3.686
165704.000			36.865			-3.687
165804.000			36.865			-3.686
165905.000			36.862			-3.686
166004.000			36.861			-3.686
166104.000			36.860			-3.686
166205.000			36.860			-3.686
166304.000			36.860			-3.686
166404.000			36.860			-3.686
166504.000			36.859			-3.686
166604.000			36.858			-3.686
166704.000			36.858			-3.686
166805.000			36.857			-3.686
166904.000			36.855			-3.686
167004.000			36.854			-3.685
167105.000			36.854			-3.685
167204.000			36.854			-3.685
167304.000			36.854			-3.685
167404.000			36.853			-3.685
167504.000			36.852			-3.685
167603.000			36.851			-3.685
167705.000			36.850			-3.685
167804.000			36.849			-3.685
167904.000			36.848			-3.685
168005.000			36.848			-3.685
168104.000			36.847			-3.685
168204.000			36.847			-3.685
168304.000			36.847			-3.685
168404.000			36.846			-3.685
168504.000			36.844			-3.684
168604.000			36.844			-3.684
168704.000			36.844			-3.684
168805.000			36.842			-3.684
168904.000			36.840			-3.684
169004.000			36.841			-3.684
169105.000			36.841			-3.684
169204.000			36.840			-3.684
169304.000			36.839			-3.684
169404.000			36.838			-3.684
169504.000			36.838			-3.684
169603.000			36.838			-3.684
169705.000			36.835			-3.684
169804.000			36.834			-3.683
169904.000			36.834			-3.683
170005.000			36.833			-3.683
170104.000			36.833			-3.683
170204.000			36.834			-3.683
170304.000			36.832			-3.683
170404.000			36.832			-3.683
170503.000			36.831			-3.683
170605.000			36.830			-3.683
170704.000			36.828			-3.683
170804.000			36.827			-3.683
170905.000			36.827			-3.683
171004.000			36.827			-3.683
171104.000			36.827			-3.683
171204.000			36.826			-3.683
171304.000			36.824			-3.682
171403.000			36.823			-3.682
171505.000			36.822			-3.682
171604.000			36.822			-3.682
171705.000			36.822			-3.682
171804.000			36.821			-3.682
171904.000			36.820			-3.682
172005.000			36.819			-3.682
172103.000			36.818			-3.682
172204.000			36.819			-3.682
172304.000			36.819			-3.682
172404.000			36.818			-3.682
172504.000			36.817			-3.682
172605.000			36.815			-3.681
172704.000			36.815			-3.681
172804.000			36.813			-3.681
172905.000			36.813			-3.681
173004.000			36.814			-3.681
173104.000			36.813			-3.681
173204.000			36.812			-3.681
173304.000			36.812			-3.681
173404.000			36.810			-3.681
173505.000			36.809			-3.681
173604.000			36.810			-3.681
173704.000			36.809			-3.681
173805.000			36.808			-3.681
173904.000			36.807			-3.681
174004.000			36.806			-3.681
174104.000			36.807			-3.681
174204.000			36.806			-3.681
174304.000			36.804			-3.680
174405.000			36.804			-3.680
174504.000			36.803			-3.680
174604.000			36.802			-3.680
174705.000			36.802			-3.680
174803.000			36.801			-3.680
174905.000			36.800			-3.680
175003.000			36.800			-3.680
175104.000			36.799			-3.680
175205.000			36.799			-3.680
175304.000			36.797			-3.680
175404.000			36.796			-3.680
175505.000			36.797			-3.680
175604.000			36.796			-3.680
175704.000			36.795			-3.679
175805.000			36.794			-3.679
175903.000			36.793			-3.679
176004.000			36.793			-3.679
176105.000			36.793			-3.679
176204.000			36.793			-3.679
176304.000			36.791			-3.679
176405.000			36.790			-3.679
176504.000			36.790			-3.679
176604.000			36.789			-3.679
176705.000			36.788			-3.679
176803.000			36.788			-3.679
176904.000			36.789			-3.679
177004.000			36.787			-3.679
177104.000			36.786			-3.679
177204.000			36.784			-3.678
177305.000			36.783			-3.678
177404.000			36.784			-3.678
177504.000			36.783			-3.678
177605.000			36.782			-3.678
177704.000			36.782			-3.678
177804.000			36.781			-3.678
177903.000			36.780			-3.678
178004.000			36.779			-3.678
178105.000			36.779			-3.678
178204.000			36.779			-3.678
178304.000			36.779			-3.678
178405.000			36.777			-3.678
178504.000			36.776			-3.678
178604.000			36.776			-3.678
178705.000			36.775			-3.678
178803.000			36.774			-3.677
178904.000			36.773			-3.677
179004.000			36.773			-3.677
179104.000			36.772			-3.677
179204.000			36.771			-3.677
179305.000			36.771			-3.677
179404.000			36.770			-3.677
179504.000			36.770			-3.677
179605.000			36.769			-3.677
179704.000			36.769			-3.677
179804.000			36.768			-3.677
179904.000			36.766			-3.677
180004.000			36.765			-3.677
180104.000			36.765			-3.676
180205.000			36.764			-3.676
180304.000			36.763			-3.676
180404.000			36.763			-3.676
180505.000			36.763			-3.676
180604.000			36.763			-3.676
180704.000			36.761			-3.676
180804.000			36.759			-3.676
180904.000			36.759			-3.676
181003.000			36.758			-3.676
181105.000			36.757			-3.676
181204.000			36.757			-3.676
181305.000			36.756			-3.676
181404.000			36.757			-3.676
181504.000			36.757			-3.676
181605.000			36.756			-3.676
181703.000			36.755			-3.675
181804.000			36.755			-3.676
181904.000			36.754			-3.675
182004.000			36.752			-3.675
182104.000			36.752			-3.675
182205.000			36.751			-3.675
182304.000			36.751			-3.675
182404.000			36.750			-3.675
182505.000			36.750			-3.675
182603.000			36.749			-3.675
182704.000			36.748			-3.675
182804.000			36.747			-3.675
182904.000			36.746			-3.675
183004.000			36.746			-3.675
183105.000			36.745			-3.674
183204.000			36.744			-3.674
183304.000			36.744			-3.674
183405.000			36.744			-3.674
183503.000			36.743			-3.674
183604.000			36.742			-3.674
183704.000			36.742			-3.674
183804.000			36.741			-3.674
183904.000			36.741			-3.674
184005.000			36.741			-3.674
184104.000			36.740			-3.674
184204.000			36.739			-3.674
184305.000			36.737			-3.674
184403.000			36.737			-3.674
184505.000			36.736			-3.674
184603.000			36.735			-3.673
184704.000			36.734			-3.673
184805.000			36.734			-3.673
184904.000			36.733			-3.673
185004.000			36.734			-3.673
185105.000			36.733			-3.673
185204.000			36.732			-3.673
185303.000			36.730			-3.673
185405.000			36.730			-3.673
185503.000			36.731			-3.673
185604.000			36.730			-3.673
185705.000			36.729			-3.673
185804.000			36.728			-3.673
185904.000			36.729			-3.673
186005.000			36.727			-3.673
186104.000			36.725			-3.673
186204.000			36.725			-3.672
186305.000			36.726			-3.673
186403.000			36.724			-3.672
186504.000			36.723			-3.672
186605.000			36.723			-3.672
186704.000			36.722			-3.672
186804.000			36.720			-3.672
186905.000			36.720			-3.672
187004.000			36.720			-3.672
187104.000			36.721			-3.672
187205.000			36.718			-3.672
187303.000			36.717			-3.672
187404.000			36.717			-3.672
187505.000			36.717			-3.672
187604.000			36.717			-3.672
187705.000			36.716			-3.672
187804.000			36.715			-3.672
187904.000			36.715			-3.671
188005.000			36.714			-3.671
188104.000			36.712			-3.671
188203.000			36.712			-3.671
188305.000			36.713			-3.671
188404.000			36.712			-3.671
188504.000			36.711			-3.671
188605.000			36.710			-3.671
188704.000			36.709			-3.671
188804.000			36.708			-3.671
188905.000			36.708			-3.671
189004.000			36.709			-3.671
189103.000			36.708			-3.671
189205.000			36.708			-3.671
189303.000			36.705			-3.670
189404.000			36.704			-3.670
189505.000			36.704			-3.670
189604.000			36.703			-3.670
189704.000			36.703			-3.670
189805.000			36.702			-3.670
189904.000			36.702			-3.670
190004.000			36.702			-3.670
190105.000			36.701			-3.670
190203.000			36.699			-3.670
190304.000			36.698			-3.670
190405.000			36.698			-3.670
190504.000			36.697			-3.670
190604.000			36.697			-3.670
190704.000			36.697			-3.670
190804.000			36.695			-3.670
190905.000			36.694			-3.669
191004.000			36.693			-3.669
191103.000			36.694			-3.669
191205.000			36.695			-3.669
191304.000			36.695			-3.669
191404.000			36.693			-3.669
191505.000			36.692			-3.669
191604.000			36.691			-3.669
191704.000			36.691			-3.669
191805.000			36.690			-3.669
191904.000			36.690			-3.669
192003.000			36.688			-3.669
192105.000			36.688			-3.669
192203.000			36.687			-3.669
192304.000			36.686			-3.669
192405.000			36.685			-3.668
192504.000			36.683			-3.668
192604.000			36.684			-3.668
192705.000			36.684			-3.668
192804.000			36.683			-3.668
192904.000			36.683			-3.668
193005.000			36.682			-3.668
193103.000			36.682			-3.668
193204.000			36.681			-3.668
193305.000			36.681			-3.668
193404.000			36.681			-3.668
193504.000			36.680			-3.668
193605.000			36.679			-3.668
193704.000			36.677			-3.668
193804.000			36.678			-3.668
193905.000			36.678			-3.668
194003.000			36.676			-3.668
194105.000			36.676			-3.668
194203.000			36.675			-3.667
194304.000			36.674			-3.667
194405.000			36.674			-3.667
194504.000			36.674			-3.667
194604.000			36.673			-3.667
194705.000			36.671			-3.667
194804.000			36.671			-3.667
194904.000			36.671			-3.667
195005.000			36.670			-3.667
195103.000			36.669			-3.667
195204.000			36.668			-3.667
195305.000			36.668			-3.667
195404.000			36.668			-3.667
195504.000			36.667			-3.667
195605.000			36.666			-3.667
195704.000			36.666			-3.667
195804.000			36.665			-3.666
195905.000			36.664			-3.666
196004.000			36.664			-3.666
196104.000			36.663			-3.666
196204.000			36.663			-3.666
196304.000			36.663			-3.666
196404.000			36.662			-3.666
196505.000			36.661			-3.666
196604.000			36.660			-3.666
196704.000			36.660			-3.666
196805.000			36.660			-3.666
196904.000			36.660			-3.666
197004.000			36.658			-3.666
197103.000			36.657			-3.666
197204.000			36.657			-3.666
197304.000			36.656			-3.666
197404.000			36.654			-3.665
197504.000			36.654			-3.665
197605.000			36.654			-3.665
197704.000			36.653			-3.665
197804.000			36.653			-3.665
197905.000			36.653			-3.665
198004.000			36.651			-3.665
198104.000			36.652			-3.665
198204.000			36.651			-3.665
198304.000			36.648			-3.665
198404.000			36.648			-3.665
198505.000			36.648			-3.665
198604.000			36.648			-3.665
198704.000			36.648			-3.665
198805.000			36.645			-3.665
198904.000			36.645			-3.665
199004.000			36.646			-3.665
199104.000			36.645			-3.664
199204.000			36.645			-3.664
199303.000			36.646			-3.665
199405.000			36.645			-3.664
199504.000			36.643			-3.664
199604.000			36.642			-3.664
199705.000			36.641			-3.664
199804.000			36.641			-3.664
199904.000			36.639			-3.664
200005.000			36.639			-3.664
200104.000			36.639			-3.664
200203.000			36.639			-3.664
200305.000			36.638			-3.664
200404.000			36.637			-3.664
200505.000			36.637			-3.664
200604.000			36.636			-3.664
200704.000			36.636			-3.664
200805.000			36.635			-3.663
200904.000			36.634			-3.663
201004.000			36.633			-3.663
201104.000			36.633			-3.663
201204.000			36.633			-3.663
201304.000			36.632			-3.663
201405.000			36.631			-3.663
201504.000			36.631			-3.663
201604.000			36.631			-3.663
201705.000			36.630			-3.663
201803.000			36.629			-3.663
201904.000			36.628			-3.663
202005.000			36.628			-3.663
202104.000			36.628			-3.663
202204.000			36.627			-3.663
202305.000			36.626			-3.663
202404.000			36.624			-3.662
202504.000			36.624			-3.662
202605.000			36.624			-3.662
202703.000			36.623			-3.662
202804.000			36.624			-3.662
202905.000			36.623			-3.662
203004.000			36.622			-3.662
203104.000			36.622			-3.662
203205.000			36.621			-3.662
203304.000			36.620			-3.662
203404.000			36.619			-3.662
203505.000			36.619			-3.662
203603.000			36.620			-3.662
203705.000			36.619			-3.662
203804.000			36.616			-3.662
203904.000			36.616			-3.662
204005.000			36.615			-3.662
204104.000			36.615			-3.661
204204.000			36.614			-3.661
204305.000			36.614			-3.661
204404.000			36.614			-3.661
204503.000			36.613			-3.661
204605.000			36.613			-3.661
204704.000			36.612			-3.661
204804.000			36.612			-3.661
204905.000			36.612			-3.661
205004.000			36.611			-3.661
205104.000			36.610			-3.661
205204.000			36.610			-3.661
205304.000			36.609			-3.661
205403.000			36.608			-3.661
205505.000			36.607			-3.661
205604.000			36.607			-3.661
205704.000			36.607			-3.661
205805.000			36.606			-3.661
205904.000			36.605			-3.661
206004.000			36.605			-3.660
206104.000			36.604			-3.660
206204.000			36.604			-3.660
206304.000			36.603			-3.660
206405.000			36.602			-3.660
206504.000			36.601			-3.660
206604.000			36.601			-3.660
206705.000			36.600			-3.660
206804.000			36.600			-3.660
206905.000			36.600			-3.660
207003.000			36.599			-3.660
207104.000			36.599			-3.660
207205.000			36.598			-3.660
207304.000			36.596			-3.660
207404.000			36.597			-3.660
207505.000			36.595			-3.660
207604.000			36.596			-3.660
207704.000			36.595			-3.660
207805.000			36.595			-3.659
207903.000			36.594			-3.659
208004.000			36.593			-3.659
208105.000			36.593			-3.659
208204.000			36.591			-3.659
208304.000			36.591			-3.659
208405.000			36.592			-3.659
208504.000			36.591			-3.659
208604.000			36.590			-3.659
208705.000			36.589			-3.659
208803.000			36.588			-3.659
208904.000			36.587			-3.659
209004.000			36.587			-3.659
209104.000			36.586			-3.659
209204.000			36.586			-3.659
209305.000			36.585			-3.659
209404.000			36.585			-3.659
209504.000			36.585			-3.659
209605.000			36.584			-3.658
209703.000			36.583			-3.658
209804.000			36.583			-3.658
209903.000			36.583			-3.658
210004.000			36.582			-3.658
210105.000			36.581			-3.658
210204.000			36.580			-3.658
210304.000			36.581			-3.658
210405.000			36.580			-3.658
210504.000			36.579			-3.658
210603.000			36.580			-3.658
210705.000			36.579			-3.658
210803.000			36.578			-3.658
210904.000			36.576			-3.658
211005.000			36.575			-3.658
211104.000			36.575			-3.657
211204.000			36.576			-3.658
211305.000			36.575			-3.658
211404.000			36.574			-3.657
211503.000			36.573			-3.657
211605.000			36.573			-3.657
211704.000			36.572			-3.657
211804.000			36.571			-3.657
211905.000			36.570			-3.657
212004.000			36.569			-3.657
212104.000			36.568			-3.657
212205.000			36.568			-3.657
212304.000			36.568			-3.657
212403.000			36.569			-3.657
212505.000			36.567			-3.657
212604.000			36.568			-3.657
212704.000			36.566			-3.657
212805.000			36.566			-3.657
212904.000			36.565			-3.656
213004.000			36.564			-3.656
213104.000			36.565			-3.656
213204.000			36.564			-3.656
213304.000			36.564			-3.656
213404.000			36.563			-3.656
213504.000			36.562			-3.656
213605.000			36.561			-3.656
213704.000			36.560			-3.656
213804.000			36.561			-3.656
213905.000			36.561			-3.656
214004.000			36.559			-3.656
214104.000			36.558			-3.656
214204.000			36.558			-3.656
214304.000			36.558			-3.656
214404.000			36.557			-3.656
214505.000			36.556			-3.656
214604.000			36.557			-3.656
214704.000			36.556			-3.656
214805.000			36.556			-3.656
214904.000			36.555			-3.656
215004.000			36.554			-3.655
215104.000			36.553			-3.655
215204.000			36.554			-3.655
215304.000			36.552			-3.655
215405.000			36.551			-3.655
215504.000			36.550			-3.655
215604.000			36.550			-3.655
215705.000			36.550			-3.655
215804.000			36.549			-3.655
215904.000			36.548			-3.655
216004.000			36.548			-3.655
216104.000			36.548			-3.655
216204.000			36.547			-3.655
216304.000			36.546			-3.655
216404.000			36.546			-3.655
216505.000			36.546			-3.655
216604.000			36.545			-3.655
216704.000			36.544			-3.654
216805.000			36.544			-3.654
216903.000			36.544			-3.654
217004.000			36.544			-3.654
217105.000			36.542			-3.654
217204.000			36.541			-3.654
217304.000			36.542			-3.654
217405.000			36.541			-3.654
217504.000			36.541			-3.654
217604.000			36.539			-3.654
217705.000			36.539			-3.654
217803.000			36.539			-3.654
217904.000			36.538			-3.654
218005.000			36.538			-3.654
218104.000			36.537			-3.654
218204.000			36.535			-3.654
218305.000			36.536			-3.654
218404.000			36.534			-3.653
218504.000			36.534			-3.653
218605.000			36.536			-3.654
218703.000			36.535			-3.653
218804.000			36.533			-3.653
218905.000			36.533			-3.653
219004.000			36.533			-3.653
219104.000			36.531			-3.653
219205.000			36.531			-3.653
219304.000			36.530			-3.653
219404.000			36.529			-3.653
219505.000			36.528			-3.653
219603.000			36.528			-3.653
219705.000			36.528			-3.653
219803.000			36.527			-3.653
219904.000			36.527			-3.653
220005.000			36.526			-3.653
220104.000			36.526			-3.653
220204.000			36.525			-3.652
220305.000			36.524			-3.652
220404.000			36.524			-3.652
220503.000			36.523			-3.652
220605.000			36.523			-3.652
220704.000			36.523			-3.652
220804.000			36.521			-3.652
220905.000			36.521			-3.652
221004.000			36.521			-3.652
221104.000			36.522			-3.652
221205.000			36.521			-3.652
221304.000			36.519			-3.652
221403.000			36.518			-3.652
221505.000			36.518			-3.652
221604.000			36.517			-3.652
221704.000			36.517			-3.652
221805.000			36.517			-3.652
221904.000			36.518			-3.652
222004.000			36.516			-3.652
222104.000			36.515			-3.651
222204.000			36.514			-3.651
222303.000			36.513			-3.651
222405.000			36.512			-3.651
222504.000			36.513			-3.651
222604.000			36.512			-3.651
222705.000			36.513			-3.651
222804.000			36.511			-3.651
222905.000			36.510			-3.651
223003.000			36.510			-3.651
223104.000			36.509			-3.651
223205.000			36.509			-3.651
223304.000			36.509			-3.651
223404.000			36.508			-3.651
223505.000			36.508			-3.651
223604.000			36.507			-3.651
223704.000			36.506			-3.651
223805.000			36.505			-3.650
223903.000			36.506			-3.651
224004.000			36.505			-3.650
224105.000			36.505			-3.650
224204.000			36.504			-3.650
224304.000			36.504			-3.650
224405.000			36.503			-3.650
224504.000			36.503			-3.650
224604.000			36.502			-3.650
224705.000			36.502			-3.650
224803.000			36.502			-3.650
224904.000			36.499			-3.650
225005.000			36.501			-3.650
225104.000			36.500			-3.650
225204.000			36.498			-3.650
225305.000			36.499			-3.650
225404.000			36.499			-3.650
225504.000			36.498			-3.650
225605.000			36.496			-3.650
225703.000			36.495			-3.650
225804.000			36.494			-3.649
225905.000			36.494			-3.649
226004.000			36.495			-3.650
226105.000			36.495			-3.649
226204.000			36.493			-3.649
226304.000			36.491			-3.649
226405.000			36.492			-3.649
226504.000			36.491			-3.649
226603.000			36.490			-3.649
226705.000			36.490			-3.649
226804.000			36.490			-3.649
226904.000			36.489			-3.649
227005.000			36.488			-3.649
227104.000			36.488			-3.649
227204.000			36.489			-3.649
227305.000			36.488			-3.649
227404.000			36.487			-3.649
227503.000			36.487			-3.649
227605.000			36.486			-3.649
227703.000			36.486			-3.649
227804.000			36.485			-3.649
227905.000			36.484			-3.648
228004.000			36.483			-3.648
228104.000			36.482			-3.648
228205.000			36.482			-3.648
228304.000			36.482			-3.648
228403.000			36.482			-3.648
228505.000			36.481			-3.648
228603.000			36.480			-3.648
228704.000			36.480			-3.648
228805.000			36.479			-3.648
228904.000			36.480			-3.648
229004.000			36.480			-3.648
229104.000			36.479			-3.648
229204.000			36.478			-3.648
229305.000			36.477			-3.648
229404.000			36.476			-3.648
229503.000			36.476			-3.648
229605.000			36.475			-3.647
229704.000			36.474			-3.647
229804.000			36.474			-3.647
229905.000			36.474			-3.647
230004.000			36.473			-3.647
230104.000			36.473			-3.647
230205.000			36.472			-3.647
230304.000			36.472			-3.647
230403.000			36.471			-3.647
230505.000			36.470			-3.647
230604.000			36.471			-3.647
230704.000			36.471			-3.647
230805.000			36.469			-3.647
230904.000			36.469			-3.647
231004.000			36.469			-3.647
231105.000			36.469			-3.647
231204.000			36.468			-3.647
231303.000			36.467			-3.647
231405.000			36.464			-3.646
231504.000			36.465			-3.646
231604.000			36.466			-3.647
231705.000			36.465			-3.646
231804.000			36.465			-3.646
231904.000			36.463			-3.646
232005.000			36.462			-3.646
232104.000			36.462			-3.646
232203.000			36.461			-3.646
232305.000			36.460			-3.646
232404.000			36.461			-3.646
232505.000			36.461			-3.646
232604.000			36.460			-3.646
232704.000			36.459			-3.646
232805.000			36.458			-3.646
232904.000			36.458			-3.646
233004.000			36.457			-3.646
233104.000			36.457			-3.646
233204.000			36.457			-3.646
233304.000			36.456			-3.646
233405.000			36.456			-3.646
233504.000			36.455			-3.645
233604.000			36.453			-3.645
233705.000			36.454			-3.645
233804.000			36.453			-3.645
233904.000			36.453			-3.645
234004.000			36.452			-3.645
234104.000			36.451			-3.645
234204.000			36.451			-3.645
234305.000			36.450			-3.645
234404.000			36.450			-3.645
234504.000			36.450			-3.645
234605.000			36.449			-3.645
234704.000			36.448			-3.645
234804.000			36.448			-3.645
234904.000			36.449			-3.645
235004.000			36.447			-3.645
235104.000			36.447			-3.645
235205.000			36.447			-3.645
235304.000			36.446			-3.645
235404.000			36.446			-3.645
235505.000			36.446			-3.645
235604.000			36.445			-3.645
235705.000			36.446			-3.645
235803.000			36.443			-3.644
235904.000			36.442			-3.644
236005.000			36.442			-3.644
236104.000			36.442			-3.644
236204.000			36.441			-3.644
236305.000			36.441			-3.644
236404.000			36.440			-3.644
236504.000			36.439			-3.644
236605.000			36.438			-3.644
236703.000			36.437			-3.644
236804.000			36.437			-3.644
236905.000			36.437			-3.644
237004.000			36.438			-3.644
237104.000			36.436			-3.644
237205.000			36.437			-3.644
237304.000			36.436			-3.644
237404.000			36.435			-3.644
237505.000			36.435			-3.644
237603.000			36.435			-3.643
237704.000			36.435			-3.643
237805.000			36.434			-3.643
237904.000			36.433			-3.643
238004.000			36.432			-3.643
238105.000			36.432			-3.643
238204.000			36.432			-3.643
238304.000			36.430			-3.643
238405.000			36.430			-3.643
238503.000			36.430			-3.643
238604.000			36.430			-3.643
238705.000			36.429			-3.643
238804.000			36.428			-3.643
238905.000			36.426			-3.643
239004.000			36.427			-3.643
239104.000			36.427			-3.643
239205.000			36.426			-3.643
239304.000			36.425			-3.643
239403.000			36.424			-3.642
239505.000			36.424			-3.642
239604.000			36.424			-3.642
239704.000			36.424			-3.642
239805.000			36.423			-3.642
239904.000			36.422			-3.642
240004.000			36.422			-3.642
240105.000			36.421			-3.642
240204.000			36.421			-3.642
240303.000			36.421			-3.642
240405.000			36.420			-3.642
240504.000			36.419			-3.642
240604.000			36.419			-3.642
240705.000			36.419			-3.642
240804.000			36.418			-3.642
240904.000			36.418			-3.642
241005.000			36.417			-3.642
241104.000			36.416			-3.642
241203.000			36.416			-3.642
241305.000			36.415			-3.642
241404.000			36.415			-3.641
241504.000			36.415			-3.642
241605.000			36.414			-3.641
241704.000			36.414			-3.641
241804.000			36.413			-3.641
241904.000			36.412			-3.641
242004.000			36.413			-3.641
242104.000			36.412			-3.641
242204.000			36.410			-3.641
242304.000			36.410			-3.641
242405.000			36.410			-3.641
242504.000			36.411			-3.641
242604.000			36.410			-3.641
242705.000			36.410			-3.641
242803.000			36.408			-3.641
242904.000			36.408			-3.641
243004.000			36.407			-3.641
243104.000			36.408			-3.641
243204.000			36.407			-3.641
243305.000			36.406			-3.641
243404.000			36.405			-3.641
243504.000			36.406			-3.641
243605.000			36.407			-3.641
243703.000			36.404			-3.640
243804.000			36.403			-3.640
243905.000			36.403			-3.640
244004.000			36.402			-3.640
244104.000			36.401			-3.640
244205.000			36.401			-3.640
244304.000			36.400			-3.640
244404.000			36.400			-3.640
244505.000			36.399			-3.640
244603.000			36.399			-3.640
244704.000			36.400			-3.640
244805.000			36.399			-3.640
244904.000			36.398			-3.640
245004.000			36.397			-3.640
245104.000			36.397			-3.640
245204.000			36.396			-3.640
245305.000			36.397			-3.640
245404.000			36.395			-3.640
245503.000			36.395			-3.639
245605.000			36.394			-3.639
245703.000			36.394			-3.639
245804.000			36.394			-3.639
245905.000			36.394			-3.639
246004.000			36.394			-3.639
246104.000			36.393			-3.639
246205.000			36.391			-3.639
246304.000			36.391			-3.639
246403.000			36.391			-3.639
246505.000			36.391			-3.639
246603.000			36.391			-3.639
246704.000			36.390			-3.639
246805.000			36.389			-3.639
246904.000			36.389			-3.639
247004.000			36.387			-3.639
247105.000			36.387			-3.639
247204.000			36.387			-3.639
247304.000			36.387			-3.639
247405.000			36.387			-3.639
247503.000			36.387			-3.639
247604.000			36.385			-3.638
247705.000			36.385			-3.638
247804.000			36.385			-3.638
247904.000			36.383			-3.638
248005.000			36.383			-3.638
248104.000			36.383			-3.638
248204.000			36.382			-3.638
248305.000			36.382			-3.638
248403.000			36.381			-3.638
248505.000			36.380			-3.638
248604.000			36.381			-3.638
248704.000			36.381			-3.638
248805.000			36.380			-3.638
248904.000			36.379			-3.638
249004.000			36.379			-3.638
249105.000			36.378			-3.638
249204.000			36.377			-3.638
249304.000			36.377			-3.638
249405.000			36.376			-3.638
249503.000			36.376			-3.638
249604.000			36.374			-3.637
249705.000			36.375			-3.637
249804.000			36.374			-3.637
249904.000			36.373			-3.637
250005.000			36.373			-3.637
250104.000			36.372			-3.637
250204.000			36.373			-3.637
250305.000			36.372			-3.637
250403.000			36.371			-3.637
250504.000			36.371			-3.637
250605.000			36.371			-3.637
250704.000			36.370			-3.637
250804.000			36.369			-3.637
250905.000			36.369			-3.637
251004.000			36.367			-3.637
251104.000			36.367			-3.637
251205.000			36.367			-3.637
251303.000			36.367			-3.637
251404.000			36.367			-3.637
251505.000			36.367			-3.637
251604.000			36.367			-3.637
251705.000			36.365			-3.637
251804.000			36.365			-3.637
251904.000			36.364			-3.636
252005.000			36.364			-3.636
252104.000			36.364			-3.636
252203.000			36.364			-3.636
252305.000			36.363			-3.636
252404.000			36.363			-3.636
252504.000			36.362			-3.636
252605.000			36.362			-3.636
252704.000			36.361			-3.636
252804.000			36.360			-3.636
252905.000			36.360			-3.636
253004.000			36.359			-3.636
253103.000			36.359			-3.636
253205.000			36.359			-3.636
253304.000			36.358			-3.636
253404.000			36.358			-3.636
253505.000			36.357			-3.636
253604.000			36.356			-3.636
253704.000			36.357			-3.636
253805.000			36.357			-3.636
253904.000			36.356			-3.636
254003.000			36.355			-3.636
254105.000			36.354			-3.635
254203.000			36.354			-3.635
254304.000			36.354			-3.635
254405.000			36.352			-3.635
254504.000			36.351			-3.635
254604.000			36.351			-3.635
254704.000			36.350			-3.635
254804.000			36.350			-3.635
254904.000			36.351			-3.635
255004.000			36.351			-3.635
255103.000			36.350			-3.635
255205.000			36.349			-3.635
255304.000			36.349			-3.635
255404.000			36.348			-3.635
255505.000			36.348			-3.635
255604.000			36.349			-3.635
255704.000			36.347			-3.635
255804.000			36.346			-3.635
255904.000			36.346			-3.635
256003.000			36.345			-3.635
256105.000			36.345			-3.634
256204.000			36.345			-3.634
256304.000			36.344			-3.634
256405.000			36.343			-3.634
256504.000			36.343			-3.634
256604.000			36.343			-3.634
256704.000			36.342			-3.634
256804.000			36.340			-3.634
256903.000			36.340			-3.634
257005.000			36.340			-3.634
257104.000			36.339			-3.634
257204.000			36.339			-3.634
257305.000			36.338			-3.634
257404.000			36.338			-3.634
257504.000			36.337			-3.634
257604.000			36.338			-3.634
257704.000			36.337			-3.634
257803.000			36.336			-3.634
257905.000			36.336			-3.634
258004.000			36.336			-3.634
258105.000			36.335			-3.633
258204.000			36.335			-3.633
258304.000			36.335			-3.633
258405.000			36.334			-3.633
258504.000			36.333			-3.633
258604.000			36.333			-3.633
258704.000			36.332			-3.633
258804.000			36.332			-3.633
258904.000			36.331			-3.633
259005.000			36.330			-3.633
259104.000			36.330			-3.633
259204.000			36.330			-3.633
259305.000			36.329			-3.633
259404.000			36.329			-3.633
259504.000			36.329			-3.633
259604.000			36.328			-3.633
259704.000			36.328			-3.633
259804.000			36.328			-3.633
259905.000			36.327			-3.633
260004.000			36.327			-3.633
260104.000			36.327			-3.633
260205.000			36.326			-3.633
260304.000			36.325			-3.633
260404.000			36.325			-3.632
260504.000			36.324			-3.632
260604.000			36.323			-3.632
260704.000			36.324			-3.632
260805.000			36.324			-3.632
260904.000			36.323			-3.632
261004.000			36.321			-3.632
261105.000			36.321			-3.632
261204.000			36.320			-3.632
261305.000			36.321			-3.632
261403.000			36.320			-3.632
261504.000			36.320			-3.632
261605.000			36.319			-3.632
261704.000			36.319			-3.632
261804.000			36.319			-3.632
261905.000			36.318			-3.632
262004.000			36.317			-3.632
262104.000			36.317			-3.632
262205.000			36.317			-3.632
262303.000			36.317			-3.632
262404.000			36.315			-3.632
262505.000			36.315			-3.631
262604.000			36.315			-3.631
262704.000			36.314			-3.631
262805.000			36.313			-3.631
262904.000			36.313			-3.631
263004.000			36.313			-3.631
263105.000			36.313			-3.631
263203.000			36.312			-3.631
263304.000			36.311			-3.631
263405.000			36.310			-3.631
263504.000			36.310			-3.631
263604.000			36.310			-3.631
263705.000			36.309			-3.631
263804.000			36.309			-3.631
263904.000			36.309			-3.631
264005.000			36.308			-3.631
264103.000			36.308			-3.631
264204.000			36.307			-3.631
264305.000			36.307			-3.631
264404.000			36.307			-3.631
264505.000			36.307			-3.631
264604.000			36.306			-3.631
264704.000			36.305			-3.631
264805.000			36.304			-3.630
264904.000			36.305			-3.630
265003.000			36.303			-3.630
265105.000			36.303			-3.630
265204.000			36.303			-3.630
265304.000			36.303			-3.630
265405.000			36.302			-3.630
265504.000			36.301			-3.630
265604.000			36.300			-3.630
265704.000			36.299			-3.630
265804.000			36.300			-3.630
265903.000			36.300			-3.630
266005.000			36.299			-3.630
266104.000			36.299			-3.630
266204.000			36.299			-3.630
266305.000			36.298			-3.630
266404.000			36.297			-3.630
266504.000			36.298			-3.630
266605.000			36.297			-3.630
266704.000			36.296			-3.630
266803.000			36.296			-3.630
266905.000			36.295			-3.630
267004.000			36.295			-3.629
267104.000			36.294			-3.629
267205.000			36.294			-3.629
267304.000			36.294			-3.629
267404.000			36.293			-3.629
267504.000			36.293			-3.629
267604.000			36.292			-3.629
267704.000			36.292			-3.629
267804.000			36.292			-3.629
267903.000			36.291			-3.629
268005.000			36.290			-3.629
268104.000			36.290			-3.629
268204.000			36.289			-3.629
268305.000			36.288			-3.629
268404.000			36.289			-3.629
268504.000			36.288			-3.629
268604.000			36.287			-3.629
268704.000			36.286			-3.629
268803.000			36.286			-3.629
268905.000			36.287			-3.629
269004.000			36.288			-3.629
269104.000			36.286			-3.629
269205.000			36.284			-3.628
269304.000			36.284			-3.628
269404.000			36.285			-3.629
269505.000			36.285			-3.629
269604.000			36.284			-3.628
269703.000			36.283			-3.628
269805.000			36.283			-3.628
269904.000			36.281			-3.628
270004.000			36.282			-3.628
270105.000			36.281			-3.628
270204.000			36.281			-3.628
270304.000			36.280			-3.628
270405.000			36.281			-3.628
270504.000			36.281			-3.628
270603.000			36.280			-3.628
270705.000			36.278			-3.628
270804.000			36.277			-3.628
270905.000			36.277			-3.628
271004.000			36.277			-3.628
271104.000			36.276			-3.628
271205.000			36.276			-3.628
271304.000			36.276			-3.628
271404.000			36.275			-3.627
271504.000			36.274			-3.627
271604.000			36.274			-3.627
271704.000			36.273			-3.627
271805.000			36.273			-3.627
271904.000			36.273			-3.627
272004.000			36.272			-3.627
272105.000			36.272			-3.627
272204.000			36.272			-3.627
272304.000			36.271			-3.627
272404.000			36.271			-3.627
272504.000			36.270			-3.627
272604.000			36.269			-3.627
272705.000			36.269			-3.627
272804.000			36.269			-3.627
272904.000			36.269			-3.627
273005.000			36.268			-3.627
273104.000			36.268			-3.627
273204.000			36.268			-3.627
273304.000			36.267			-3.627
273404.000			36.266			-3.627
273504.000			36.266			-3.627
273605.000			36.265			-3.627
273704.000			36.265			-3.626
273804.000			36.264			-3.626
273905.000			36.264			-3.626
274004.000			36.264			-3.626
274105.000			36.263			-3.626
274203.000			36.263			-3.626
274304.000			36.262			-3.626
274405.000			36.262			-3.626
274504.000			36.262			-3.626
274604.000			36.262			-3.626
274705.000			36.260			-3.626
274804.000			36.259			-3.626
274904.000			36.258			-3.626
275005.000			36.258			-3.626
275103.000			36.259			-3.626
275204.000			36.258			-3.626
275305.000			36.258			-3.626
275404.000			36.258			-3.626
275504.000			36.257			-3.626
275605.000			36.255			-3.626
275704.000			36.255			-3.626
275804.000			36.256			-3.626
275905.000			36.255			-3.626
276003.000			36.255			-3.626
276104.000			36.254			-3.625
276204.000			36.254			-3.625
276304.000			36.254			-3.625
276404.000			36.253			-3.625
276505.000			36.252			-3.625
276604.000			36.251			-3.625
276704.000			36.251			-3.625
276805.000			36.250			-3.625
276903.000			36.251			-3.625
277004.000			36.251			-3.625
277103.000			36.250			-3.625
277204.000			36.249			-3.625
277305.000			36.249			-3.625
277404.000			36.249			-3.625
277504.000			36.248			-3.625
277605.000			36.248			-3.625
277704.000			36.248			-3.625
277803.000			36.248			-3.625
277905.000			36.247			-3.625
278003.000			36.247			-3.625
278104.000			36.246			-3.625
278205.000			36.245			-3.625
278304.000			36.245			-3.625
278404.000			36.244			-3.624
278505.000			36.244			-3.624
278604.000			36.243			-3.624
278704.000			36.243			-3.624
278805.000			36.242			-3.624
278903.000			36.242			-3.624
279004.000			36.242			-3.624
279105.000			36.242			-3.624
279204.000			36.241			-3.624
279304.000			36.241			-3.624
279405.000			36.241			-3.624
279504.000			36.240			-3.624
279604.000			36.240			-3.624
279705.000			36.239			-3.624
279803.000			36.238			-3.624
279904.000			36.238			-3.624
280005.000			36.237			-3.624
280104.000			36.236			-3.624
280204.000			36.236			-3.624
280304.000			36.236			-3.624
280404.000			36.236			-3.624
280505.000			36.236			-3.624
280604.000			36.236			-3.624
280703.000			36.235			-3.624
280805.000			36.233			-3.623
280904.000			36.234			-3.623
281004.000			36.234			-3.623
281105.000			36.233			-3.623
281204.000			36.233			-3.623
281304.000			36.233			-3.623
281405.000			36.233			-3.623
281504.000			36.231			-3.623
281603.000			36.232			-3.623
281705.000			36.231			-3.623
281804.000			36.230			-3.623
281904.000			36.230			-3.623
282005.000			36.229			-3.623
282104.000			36.229			-3.623
282204.000			36.229			-3.623
282304.000			36.229			-3.623
282404.000			36.227			-3.623
282503.000			36.227			-3.623
282605.000			36.227			-3.623
282704.000			36.226			-3.623
282804.000			36.226			-3.623
282905.000			36.224			-3.622
283004.000			36.225			-3.622
283104.000			36.225			-3.623
283204.000			36.225			-3.623
283304.000			36.224			-3.622
283403.000			36.224			-3.622
283505.000			36.223			-3.622
283604.000			36.221			-3.622
283705.000			36.220			-3.622
283804.000			36.221			-3.622
283904.000			36.220			-3.622
284005.000			36.222			-3.622
284103.000			36.221			-3.622
284204.000			36.221			-3.622
284305.000			36.220			-3.622
284404.000			36.218			-3.622
284504.000			36.219			-3.622
284605.000			36.219			-3.622
284704.000			36.218			-3.622
284804.000			36.218			-3.622
284905.000			36.218			-3.622
285003.000			36.217			-3.622
285104.000			36.215			-3.621
285204.000			36.214			-3.621
285304.000			36.215			-3.622
285404.000			36.216			-3.622
285505.000			36.215			-3.621
285604.000			36.214			-3.621
285704.000			36.214			-3.621
285805.000			36.213			-3.621
285903.000			36.213			-3.621
286004.000			36.213			-3.621
286104.000			36.211			-3.621
286204.000			36.211			-3.621
286304.000			36.212			-3.621
286405.000			36.211			-3.621
286504.000			36.211			-3.621
286604.000			36.210			-3.621
286705.000			36.210			-3.621
286803.000			36.209			-3.621
286905.000			36.208			-3.621
287004.000			36.208			-3.621
287104.000			36.207			-3.621
287205.000			36.208			-3.621
287304.000			36.205			-3.621
287404.000			36.206			-3.621
287505.000			36.207			-3.621
287604.000			36.206			-3.621
287703.000			36.206			-3.621
287805.000			36.206			-3.621
287903.000			36.205			-3.620
288004.000			36.203			-3.620
288105.000			36.204			-3.620
288204.000			36.204			-3.620
288304.000			36.202			-3.620
288405.000			36.202			-3.620
288504.000			36.202			-3.620
288603.000			36.202			-3.620
288705.000			36.200			-3.620
288803.000			36.200			-3.620
288904.000			36.199			-3.620
289005.000			36.199			-3.620
289104.000			36.200			-3.620
289204.000			36.200			-3.620
289305.000			36.200			-3.620
289404.000			36.199			-3.620
289504.000			36.198			-3.620
289605.000			36.197			-3.620
289703.000			36.197			-3.620
289804.000			36.197			-3.620
289905.000			36.196			-3.620
290004.000			36.196			-3.620
290105.000			36.196			-3.620
290204.000			36.195			-3.619
290304.000			36.195			-3.619
290405.000			36.194			-3.619
290504.000			36.194			-3.619
290603.000			36.192			-3.619
290705.000			36.193			-3.619
290803.000			36.194			-3.619
290904.000			36.192			-3.619
291005.000			36.191			-3.619
291104.000			36.192			-3.619
291204.000			36.191			-3.619
291305.000			36.191			-3.619
291404.000			36.190			-3.619
291503.000			36.189			-3.619
291605.000			36.188			-3.619
291703.000			36.188			-3.619
291804.000			36.187			-3.619
291905.000			36.188			-3.619
292004.000			36.189			-3.619
292104.000			36.188			-3.619
292205.000			36.187			-3.619
292304.000			36.186			-3.619
292404.000			36.186			-3.619
292505.000			36.185			-3.619
292603.000			36.185			-3.618
292704.000			36.184			-3.618
292805.000			36.184			-3.618
292904.000			36.184			-3.618
293004.000			36.183			-3.618
293104.000			36.182			-3.618
293204.000			36.183			-3.618
293305.000			36.182			-3.618
293404.000			36.181			-3.618
293503.000			36.180			-3.618
293605.000			36.180			-3.618
293704.000			36.181			-3.618
293804.000			36.181			-3.618
293905.000			36.180			-3.618
294004.000			36.178			-3.618
294104.000			36.177			-3.618
294205.000			36.177			-3.618
294304.000			36.178			-3.618
294403.000			36.178			-3.618
294505.000			36.176			-3.618
294604.000			36.176			-3.618
294704.000			36.176			-3.618
294805.000			36.176			-3.618
294904.000			36.176			-3.618
295004.000			36.175			-3.617
295105.000			36.175			-3.618
295204.000			36.175			-3.617
295303.000			36.174			-3.617
295405.000			36.173			-3.617
295503.000			36.174			-3.617
295604.000			36.173			-3.617
295705.000			36.172			-3.617
295804.000			36.171			-3.617
295904.000			36.171			-3.617
296005.000			36.171			-3.617
296104.000			36.171			-3.617
296203.000			36.171			-3.617
296305.000			36.170			-3.617
296403.000			36.170			-3.617
296505.000			36.169			-3.617
296604.000			36.169			-3.617
296704.000			36.168			-3.617
296805.000			36.167			-3.617
296904.000			36.167			-3.617
297004.000			36.167			-3.617
297105.000			36.167			-3.617
297204.000			36.166			-3.617
297303.000			36.167			-3.617
297405.000			36.166			-3.617
297504.000			36.165			-3.616
297604.000			36.164			-3.616
297705.000			36.164			-3.616
297804.000			36.164			-3.616
297904.000			36.164			-3.616
298005.000			36.164			-3.616
298104.000			36.163			-3.616
298203.000			36.162			-3.616
298305.000			36.161			-3.616
298404.000			36.161			-3.616
298504.000			36.160			-3.616
298605.000			36.160			-3.616
298704.000			36.161			-3.616
298804.000			36.161			-3.616
298905.000			36.160			-3.616
299004.000			36.160			-3.616
299103.000			36.159			-3.616
299205.000			36.158			-3.616
299304.000			36.158			-3.616
299404.000			36.158			-3.616
299505.000			36.158			-3.616
299604.000			36.157			-3.616
299705.000			36.156			-3.616
299804.000			36.156			-3.616
299904.000			36.155			-3.616
