# Acquired on 21/12/2023 12:49:49 
# SPIDER: Creep_-7mm_0771453C
# CREEP MEASUREMENT

# time [ms]		force [N]		stiffness [N/mm]
0.000			39.578			-5.654
101.000			41.844			-5.978
202.000			42.722			-6.103
300.000			42.688			-6.098
400.000			42.488			-6.070
501.000			42.245			-6.035
600.000			42.155			-6.022
700.000			42.076			-6.011
802.000			42.006			-6.001
901.000			41.945			-5.992
1000.000			41.888			-5.984
1101.000			41.837			-5.977
1200.000			41.744			-5.963
1300.000			41.703			-5.958
1401.000			41.665			-5.952
1501.000			41.629			-5.947
1601.000			41.594			-5.942
1701.000			41.561			-5.937
1800.000			41.530			-5.933
1900.000			41.500			-5.929
2001.000			41.445			-5.921
2100.000			41.420			-5.917
2200.000			41.394			-5.913
2302.000			41.370			-5.910
2401.000			41.347			-5.907
2500.000			41.325			-5.904
2601.000			41.304			-5.901
2700.000			41.263			-5.895
2800.000			41.243			-5.892
2901.000			41.223			-5.889
3001.000			41.205			-5.886
3101.000			41.188			-5.884
3201.000			41.170			-5.881
3300.000			41.153			-5.879
3400.000			41.121			-5.874
3500.000			41.106			-5.872
3600.000			41.090			-5.870
3701.000			41.075			-5.868
3801.000			41.059			-5.866
3901.000			41.044			-5.863
4001.000			41.031			-5.862
4100.000			41.004			-5.858
4200.000			40.990			-5.856
4301.000			40.976			-5.854
4400.000			40.965			-5.852
4501.000			40.953			-5.850
4602.000			40.941			-5.849
4700.000			40.929			-5.847
4800.000			40.916			-5.845
4901.000			40.894			-5.842
5000.000			40.883			-5.840
5100.000			40.871			-5.839
5201.000			40.860			-5.837
5301.000			40.850			-5.836
5401.000			40.840			-5.834
5501.000			40.830			-5.833
5600.000			40.809			-5.830
5700.000			40.799			-5.828
5801.000			40.790			-5.827
5900.000			40.781			-5.826
6001.000			40.771			-5.824
6102.000			40.762			-5.823
6200.000			40.752			-5.822
6300.000			40.734			-5.819
6401.000			40.726			-5.818
6500.000			40.718			-5.817
6600.000			40.709			-5.816
6700.000			40.701			-5.814
6801.000			40.692			-5.813
6902.000			40.684			-5.812
7000.000			40.676			-5.811
7100.000			40.660			-5.809
7201.000			40.652			-5.807
7300.000			40.645			-5.806
7400.000			40.637			-5.805
7501.000			40.630			-5.804
7601.000			40.623			-5.803
7701.000			40.616			-5.802
7801.000			40.600			-5.800
7900.000			40.593			-5.799
8000.000			40.585			-5.798
8101.000			40.578			-5.797
8200.000			40.571			-5.796
8300.000			40.565			-5.795
8402.000			40.559			-5.794
8501.000			40.545			-5.792
8600.000			40.539			-5.791
8701.000			40.532			-5.790
8800.000			40.525			-5.789
8900.000			40.519			-5.788
9001.000			40.513			-5.788
9101.000			40.506			-5.787
9201.000			40.500			-5.786
9301.000			40.489			-5.784
9400.000			40.483			-5.783
9500.000			40.476			-5.782
9601.000			40.470			-5.781
9700.000			40.464			-5.781
9800.000			40.459			-5.780
9902.000			40.453			-5.779
10001.000			40.440			-5.777
10101.000			40.435			-5.776
10200.000			40.430			-5.776
10300.000			40.424			-5.775
10401.000			40.419			-5.774
10500.000			40.414			-5.773
10600.000			40.409			-5.773
10702.000			40.397			-5.771
10801.000			40.392			-5.770
10900.000			40.387			-5.770
11001.000			40.383			-5.769
11100.000			40.377			-5.768
11200.000			40.372			-5.767
11301.000			40.367			-5.767
11401.000			40.357			-5.765
11501.000			40.352			-5.765
11601.000			40.347			-5.764
11700.000			40.343			-5.763
11800.000			40.338			-5.763
11901.000			40.333			-5.762
12000.000			40.329			-5.761
12100.000			40.324			-5.761
12202.000			40.313			-5.759
12301.000			40.308			-5.758
12400.000			40.304			-5.758
12501.000			40.300			-5.757
12600.000			40.296			-5.757
12700.000			40.291			-5.756
12801.000			40.286			-5.755
12900.000			40.277			-5.754
13002.000			40.273			-5.753
13101.000			40.268			-5.753
13200.000			40.264			-5.752
13301.000			40.260			-5.751
13400.000			40.256			-5.751
13500.000			40.252			-5.750
13601.000			40.245			-5.749
13701.000			40.239			-5.748
13801.000			40.236			-5.748
13902.000			40.231			-5.747
14000.000			40.228			-5.747
14100.000			40.224			-5.746
14201.000			40.220			-5.746
14300.000			40.216			-5.745
14400.000			40.207			-5.744
14502.000			40.203			-5.743
14601.000			40.199			-5.743
14700.000			40.194			-5.742
14801.000			40.191			-5.742
14900.000			40.188			-5.741
15000.000			40.184			-5.741
15101.000			40.177			-5.740
15200.000			40.174			-5.739
15301.000			40.169			-5.738
15402.000			40.165			-5.738
15500.000			40.161			-5.737
15600.000			40.157			-5.737
15701.000			40.154			-5.736
15800.000			40.147			-5.735
15900.000			40.144			-5.735
16001.000			40.140			-5.734
16101.000			40.137			-5.734
16202.000			40.132			-5.733
16300.000			40.128			-5.733
16400.000			40.126			-5.732
16501.000			40.123			-5.732
16600.000			40.116			-5.731
16700.000			40.113			-5.730
16802.000			40.109			-5.730
16901.000			40.106			-5.729
17001.000			40.102			-5.729
17101.000			40.098			-5.728
17200.000			40.095			-5.728
17300.000			40.088			-5.727
17401.000			40.084			-5.726
17500.000			40.081			-5.726
17601.000			40.078			-5.725
17702.000			40.075			-5.725
17800.000			40.072			-5.725
17900.000			40.069			-5.724
18001.000			40.062			-5.723
18100.000			40.060			-5.723
18200.000			40.056			-5.722
18301.000			40.053			-5.722
18401.000			40.050			-5.721
18501.000			40.047			-5.721
18601.000			40.044			-5.721
18700.000			40.041			-5.720
18800.000			40.035			-5.719
18901.000			40.031			-5.719
19000.000			40.029			-5.718
19100.000			40.026			-5.718
19202.000			40.022			-5.717
19301.000			40.020			-5.717
19400.000			40.016			-5.717
19500.000			40.011			-5.716
19600.000			40.008			-5.715
19701.000			40.005			-5.715
19800.000			40.002			-5.715
19900.000			39.999			-5.714
20002.000			39.997			-5.714
20101.000			39.994			-5.713
20200.000			39.988			-5.713
20301.000			39.986			-5.712
20400.000			39.983			-5.712
20500.000			39.979			-5.711
20601.000			39.976			-5.711
20700.000			39.974			-5.711
20801.000			39.971			-5.710
20902.000			39.969			-5.710
21000.000			39.963			-5.709
21100.000			39.960			-5.709
21201.000			39.958			-5.708
21300.000			39.955			-5.708
21400.000			39.951			-5.707
21501.000			39.949			-5.707
21601.000			39.947			-5.707
21701.000			39.941			-5.706
21801.000			39.940			-5.706
21900.000			39.937			-5.705
22000.000			39.934			-5.705
22101.000			39.931			-5.704
22200.000			39.928			-5.704
22300.000			39.926			-5.704
22402.000			39.921			-5.703
22501.000			39.919			-5.703
22600.000			39.916			-5.702
22700.000			39.914			-5.702
22800.000			39.912			-5.702
22901.000			39.909			-5.701
23000.000			39.907			-5.701
23100.000			39.904			-5.701
23201.000			39.899			-5.700
23301.000			39.896			-5.699
23401.000			39.894			-5.699
23501.000			39.892			-5.699
23600.000			39.889			-5.698
23700.000			39.887			-5.698
23801.000			39.884			-5.698
23900.000			39.879			-5.697
24000.000			39.877			-5.697
24102.000			39.875			-5.696
24201.000			39.873			-5.696
24300.000			39.870			-5.696
24401.000			39.867			-5.695
24500.000			39.865			-5.695
24600.000			39.860			-5.694
24701.000			39.858			-5.694
24800.000			39.856			-5.694
24900.000			39.854			-5.693
25002.000			39.851			-5.693
25101.000			39.849			-5.693
25200.000			39.847			-5.692
25301.000			39.842			-5.692
25400.000			39.839			-5.691
25500.000			39.837			-5.691
25601.000			39.835			-5.691
25700.000			39.832			-5.690
25802.000			39.830			-5.690
25901.000			39.828			-5.690
26000.000			39.826			-5.689
26101.000			39.822			-5.689
26200.000			39.820			-5.689
26300.000			39.817			-5.688
26401.000			39.815			-5.688
26500.000			39.812			-5.687
26601.000			39.810			-5.687
26702.000			39.809			-5.687
26800.000			39.803			-5.686
26900.000			39.802			-5.686
27001.000			39.802			-5.686
27100.000			39.798			-5.685
27200.000			39.797			-5.685
27301.000			39.795			-5.685
27401.000			39.792			-5.685
27501.000			39.787			-5.684
27601.000			39.786			-5.684
27700.000			39.783			-5.683
27800.000			39.781			-5.683
27901.000			39.779			-5.683
28000.000			39.777			-5.682
28100.000			39.774			-5.682
28202.000			39.772			-5.682
28301.000			39.769			-5.681
28401.000			39.767			-5.681
28501.000			39.765			-5.681
28600.000			39.764			-5.681
28700.000			39.761			-5.680
28801.000			39.759			-5.680
28900.000			39.757			-5.680
29000.000			39.754			-5.679
29102.000			39.751			-5.679
29201.000			39.749			-5.678
29301.000			39.747			-5.678
29400.000			39.745			-5.678
29500.000			39.744			-5.678
29601.000			39.741			-5.677
29700.000			39.737			-5.677
29800.000			39.735			-5.676
29902.000			39.733			-5.676
30001.000			39.731			-5.676
30100.000			39.729			-5.676
30201.000			39.727			-5.675
30300.000			39.725			-5.675
30400.000			39.723			-5.675
30501.000			39.720			-5.674
30600.000			39.719			-5.674
30701.000			39.716			-5.674
30802.000			39.713			-5.673
30901.000			39.711			-5.673
31000.000			39.711			-5.673
31101.000			39.709			-5.673
31200.000			39.705			-5.672
31300.000			39.702			-5.672
31401.000			39.701			-5.672
31501.000			39.699			-5.671
31601.000			39.698			-5.671
31701.000			39.696			-5.671
31800.000			39.694			-5.671
31900.000			39.691			-5.670
32001.000			39.689			-5.670
32100.000			39.687			-5.670
32200.000			39.686			-5.669
32300.000			39.684			-5.669
32401.000			39.681			-5.669
32502.000			39.680			-5.669
32600.000			39.678			-5.668
32700.000			39.673			-5.668
32801.000			39.673			-5.668
32900.000			39.671			-5.667
33000.000			39.668			-5.667
33101.000			39.667			-5.667
33201.000			39.666			-5.667
33301.000			39.665			-5.666
33401.000			39.662			-5.666
33500.000			39.660			-5.666
33600.000			39.658			-5.665
33701.000			39.656			-5.665
33800.000			39.653			-5.665
33900.000			39.653			-5.665
34002.000			39.651			-5.664
34101.000			39.647			-5.664
34200.000			39.645			-5.664
34301.000			39.643			-5.663
34400.000			39.642			-5.663
34500.000			39.640			-5.663
34601.000			39.638			-5.663
34700.000			39.637			-5.662
34801.000			39.633			-5.662
34902.000			39.631			-5.662
35000.000			39.630			-5.661
35100.000			39.628			-5.661
35201.000			39.626			-5.661
35300.000			39.624			-5.661
35400.000			39.623			-5.660
35500.000			39.622			-5.660
35601.000			39.618			-5.660
35702.000			39.616			-5.659
35800.000			39.614			-5.659
35900.000			39.613			-5.659
36001.000			39.611			-5.659
36100.000			39.609			-5.658
36200.000			39.608			-5.658
36301.000			39.604			-5.658
36401.000			39.603			-5.658
36501.000			39.602			-5.657
36601.000			39.601			-5.657
36700.000			39.599			-5.657
36800.000			39.596			-5.657
36901.000			39.595			-5.656
37000.000			39.592			-5.656
37100.000			39.590			-5.656
37202.000			39.590			-5.656
37301.000			39.588			-5.655
37400.000			39.586			-5.655
37501.000			39.584			-5.655
37600.000			39.583			-5.655
37700.000			39.581			-5.654
37801.000			39.578			-5.654
37900.000			39.577			-5.654
38000.000			39.576			-5.654
38102.000			39.574			-5.653
38201.000			39.571			-5.653
38300.000			39.570			-5.653
38401.000			39.571			-5.653
38500.000			39.566			-5.652
38600.000			39.566			-5.652
38700.000			39.564			-5.652
38800.000			39.562			-5.652
38902.000			39.561			-5.652
39001.000			39.560			-5.651
39100.000			39.559			-5.651
39201.000			39.555			-5.651
39300.000			39.554			-5.651
39400.000			39.552			-5.650
39501.000			39.552			-5.650
39600.000			39.549			-5.650
39701.000			39.547			-5.650
39802.000			39.546			-5.649
39900.000			39.546			-5.649
40000.000			39.543			-5.649
40101.000			39.542			-5.649
40200.000			39.539			-5.648
40300.000			39.537			-5.648
40401.000			39.537			-5.648
40501.000			39.535			-5.648
40601.000			39.534			-5.648
40701.000			39.531			-5.647
40800.000			39.529			-5.647
40900.000			39.527			-5.647
41001.000			39.526			-5.647
41100.000			39.526			-5.647
41200.000			39.524			-5.646
41302.000			39.522			-5.646
41401.000			39.521			-5.646
41500.000			39.517			-5.645
41601.000			39.516			-5.645
41700.000			39.516			-5.645
41800.000			39.515			-5.645
41900.000			39.513			-5.645
42000.000			39.512			-5.645
42102.000			39.510			-5.644
42201.000			39.506			-5.644
42300.000			39.504			-5.643
42401.000			39.504			-5.643
42500.000			39.502			-5.643
42600.000			39.501			-5.643
42701.000			39.501			-5.643
42800.000			39.498			-5.643
42901.000			39.496			-5.642
43002.000			39.496			-5.642
43100.000			39.494			-5.642
43200.000			39.492			-5.642
43301.000			39.491			-5.642
43400.000			39.489			-5.641
43500.000			39.488			-5.641
43601.000			39.486			-5.641
43701.000			39.484			-5.641
43801.000			39.483			-5.640
43901.000			39.481			-5.640
44000.000			39.481			-5.640
44100.000			39.479			-5.640
44201.000			39.478			-5.640
44300.000			39.476			-5.639
44400.000			39.473			-5.639
44502.000			39.471			-5.639
44601.000			39.469			-5.638
44700.000			39.468			-5.638
44801.000			39.468			-5.638
44900.000			39.468			-5.638
45000.000			39.467			-5.638
45100.000			39.463			-5.638
45200.000			39.462			-5.637
45302.000			39.460			-5.637
45401.000			39.459			-5.637
45501.000			39.458			-5.637
45601.000			39.456			-5.637
45700.000			39.455			-5.636
45800.000			39.453			-5.636
45901.000			39.452			-5.636
46000.000			39.451			-5.636
46100.000			39.449			-5.636
46202.000			39.448			-5.635
46301.000			39.447			-5.635
46400.000			39.445			-5.635
46501.000			39.443			-5.635
46600.000			39.442			-5.635
46700.000			39.441			-5.634
46801.000			39.439			-5.634
46900.000			39.438			-5.634
47001.000			39.436			-5.634
47102.000			39.435			-5.634
47200.000			39.434			-5.633
47300.000			39.432			-5.633
47401.000			39.430			-5.633
47500.000			39.428			-5.633
47600.000			39.428			-5.633
47701.000			39.427			-5.632
47801.000			39.426			-5.632
47901.000			39.424			-5.632
48001.000			39.422			-5.632
48100.000			39.420			-5.631
48200.000			39.420			-5.631
48300.000			39.418			-5.631
48400.000			39.418			-5.631
48501.000			39.417			-5.631
48601.000			39.415			-5.631
48701.000			39.413			-5.630
48801.000			39.411			-5.630
48900.000			39.411			-5.630
49000.000			39.410			-5.630
49101.000			39.408			-5.630
49200.000			39.407			-5.630
49300.000			39.406			-5.629
49402.000			39.404			-5.629
49501.000			39.401			-5.629
49600.000			39.400			-5.629
49701.000			39.401			-5.629
49800.000			39.401			-5.629
49900.000			39.399			-5.628
50001.000			39.397			-5.628
50100.000			39.396			-5.628
50200.000			39.394			-5.628
50302.000			39.392			-5.627
50401.000			39.390			-5.627
50500.000			39.389			-5.627
50601.000			39.388			-5.627
50700.000			39.387			-5.627
50800.000			39.386			-5.627
50901.000			39.384			-5.626
51000.000			39.382			-5.626
51101.000			39.381			-5.626
51202.000			39.380			-5.626
51300.000			39.379			-5.626
51400.000			39.378			-5.625
51500.000			39.377			-5.625
51600.000			39.375			-5.625
51701.000			39.374			-5.625
51800.000			39.373			-5.625
51901.000			39.371			-5.624
52002.000			39.369			-5.624
52100.000			39.368			-5.624
52200.000			39.369			-5.624
52301.000			39.368			-5.624
52400.000			39.364			-5.623
52500.000			39.364			-5.623
52601.000			39.364			-5.623
52701.000			39.361			-5.623
52801.000			39.361			-5.623
52901.000			39.359			-5.623
53000.000			39.358			-5.623
53100.000			39.357			-5.622
53201.000			39.355			-5.622
53300.000			39.354			-5.622
53400.000			39.353			-5.622
53502.000			39.351			-5.622
53601.000			39.350			-5.621
53700.000			39.349			-5.621
53801.000			39.348			-5.621
53900.000			39.347			-5.621
54000.000			39.346			-5.621
54101.000			39.344			-5.621
54200.000			39.342			-5.620
54301.000			39.341			-5.620
54402.000			39.339			-5.620
54500.000			39.339			-5.620
54600.000			39.337			-5.620
54700.000			39.336			-5.619
54800.000			39.335			-5.619
54901.000			39.334			-5.619
55000.000			39.332			-5.619
55101.000			39.330			-5.619
55202.000			39.330			-5.619
55300.000			39.329			-5.618
55400.000			39.328			-5.618
55501.000			39.327			-5.618
55600.000			39.326			-5.618
55700.000			39.323			-5.618
55801.000			39.323			-5.618
55901.000			39.323			-5.618
56001.000			39.321			-5.617
56101.000			39.319			-5.617
56200.000			39.318			-5.617
56300.000			39.317			-5.617
56401.000			39.316			-5.617
56500.000			39.316			-5.617
56600.000			39.315			-5.616
56702.000			39.314			-5.616
56801.000			39.312			-5.616
56900.000			39.311			-5.616
57001.000			39.309			-5.616
57100.000			39.308			-5.615
57200.000			39.306			-5.615
57301.000			39.306			-5.615
57400.000			39.306			-5.615
57501.000			39.302			-5.615
57602.000			39.302			-5.615
57701.000			39.301			-5.614
57800.000			39.300			-5.614
57900.000			39.299			-5.614
58000.000			39.299			-5.614
58101.000			39.298			-5.614
58200.000			39.295			-5.614
58300.000			39.294			-5.613
58402.000			39.293			-5.613
58501.000			39.292			-5.613
58600.000			39.291			-5.613
58701.000			39.291			-5.613
58800.000			39.290			-5.613
58900.000			39.288			-5.613
59001.000			39.286			-5.612
59100.000			39.284			-5.612
59201.000			39.284			-5.612
59302.000			39.283			-5.612
59401.000			39.282			-5.612
59500.000			39.281			-5.612
59601.000			39.280			-5.611
59700.000			39.278			-5.611
59800.000			39.277			-5.611
59901.000			39.276			-5.611
60000.000			39.276			-5.611
60101.000			39.274			-5.611
60202.000			39.273			-5.610
60300.000			39.272			-5.610
60400.000			39.270			-5.610
60501.000			39.269			-5.610
60600.000			39.268			-5.610
60700.000			39.267			-5.610
60801.000			39.266			-5.609
60901.000			39.266			-5.609
61002.000			39.265			-5.609
61100.000			39.263			-5.609
61200.000			39.261			-5.609
61301.000			39.259			-5.608
61400.000			39.259			-5.608
61500.000			39.258			-5.608
61601.000			39.257			-5.608
61701.000			39.256			-5.608
61801.000			39.256			-5.608
61901.000			39.254			-5.608
62000.000			39.252			-5.607
62100.000			39.252			-5.607
62201.000			39.250			-5.607
62300.000			39.249			-5.607
62400.000			39.249			-5.607
62502.000			39.247			-5.607
62601.000			39.246			-5.607
62700.000			39.246			-5.607
62801.000			39.245			-5.606
62900.000			39.244			-5.606
63000.000			39.242			-5.606
63101.000			39.241			-5.606
63200.000			39.239			-5.606
63301.000			39.238			-5.605
63402.000			39.238			-5.605
63500.000			39.236			-5.605
63600.000			39.235			-5.605
63701.000			39.235			-5.605
63800.000			39.234			-5.605
63900.000			39.233			-5.605
64001.000			39.233			-5.605
64101.000			39.230			-5.604
64202.000			39.229			-5.604
64300.000			39.228			-5.604
64400.000			39.228			-5.604
64501.000			39.227			-5.604
64600.000			39.226			-5.604
64700.000			39.225			-5.604
64801.000			39.223			-5.603
64901.000			39.222			-5.603
65001.000			39.222			-5.603
65101.000			39.220			-5.603
65200.000			39.220			-5.603
65300.000			39.220			-5.603
65401.000			39.219			-5.603
65500.000			39.216			-5.602
65600.000			39.216			-5.602
65702.000			39.214			-5.602
65801.000			39.213			-5.602
65900.000			39.212			-5.602
66001.000			39.211			-5.602
66100.000			39.210			-5.601
66200.000			39.210			-5.601
66301.000			39.208			-5.601
66400.000			39.207			-5.601
66501.000			39.207			-5.601
66602.000			39.205			-5.601
66700.000			39.203			-5.600
66800.000			39.204			-5.601
66901.000			39.204			-5.601
67000.000			39.201			-5.600
67100.000			39.200			-5.600
67201.000			39.199			-5.600
67301.000			39.197			-5.600
67402.000			39.196			-5.599
67501.000			39.197			-5.600
67600.000			39.196			-5.599
67701.000			39.195			-5.599
67800.000			39.194			-5.599
67900.000			39.192			-5.599
68001.000			39.191			-5.599
68100.000			39.190			-5.599
68201.000			39.190			-5.599
68302.000			39.189			-5.598
68400.000			39.188			-5.598
68500.000			39.186			-5.598
68601.000			39.186			-5.598
68700.000			39.185			-5.598
68800.000			39.184			-5.598
68901.000			39.184			-5.598
69001.000			39.183			-5.598
69101.000			39.182			-5.597
69202.000			39.180			-5.597
69300.000			39.179			-5.597
69400.000			39.179			-5.597
69501.000			39.177			-5.597
69600.000			39.177			-5.597
69700.000			39.176			-5.597
69801.000			39.175			-5.596
69901.000			39.172			-5.596
70001.000			39.172			-5.596
70101.000			39.172			-5.596
70200.000			39.170			-5.596
70300.000			39.168			-5.595
70401.000			39.168			-5.595
70500.000			39.168			-5.595
70600.000			39.167			-5.595
70702.000			39.165			-5.595
70801.000			39.165			-5.595
70901.000			39.164			-5.595
71000.000			39.162			-5.595
71100.000			39.162			-5.595
71201.000			39.161			-5.594
71300.000			39.160			-5.594
71400.000			39.159			-5.594
71502.000			39.158			-5.594
71601.000			39.158			-5.594
71701.000			39.156			-5.594
71801.000			39.156			-5.594
71900.000			39.155			-5.594
72000.000			39.155			-5.594
72101.000			39.152			-5.593
72200.000			39.151			-5.593
72300.000			39.150			-5.593
72402.000			39.150			-5.593
72501.000			39.149			-5.593
72600.000			39.147			-5.592
72701.000			39.147			-5.592
72800.000			39.144			-5.592
72900.000			39.144			-5.592
73001.000			39.143			-5.592
73100.000			39.142			-5.592
73201.000			39.142			-5.592
73302.000			39.142			-5.592
73400.000			39.142			-5.592
73500.000			39.140			-5.591
73601.000			39.138			-5.591
73700.000			39.137			-5.591
73800.000			39.136			-5.591
73900.000			39.136			-5.591
74001.000			39.135			-5.591
74102.000			39.134			-5.591
74200.000			39.134			-5.591
74300.000			39.132			-5.590
74401.000			39.131			-5.590
74500.000			39.129			-5.590
74600.000			39.128			-5.590
74701.000			39.128			-5.590
74801.000			39.129			-5.590
74901.000			39.128			-5.590
75001.000			39.125			-5.589
75100.000			39.125			-5.589
75200.000			39.124			-5.589
75301.000			39.123			-5.589
75400.000			39.123			-5.589
75500.000			39.122			-5.589
75602.000			39.121			-5.589
75701.000			39.121			-5.589
75800.000			39.119			-5.588
75901.000			39.117			-5.588
76000.000			39.116			-5.588
76100.000			39.116			-5.588
76201.000			39.116			-5.588
76300.000			39.115			-5.588
76401.000			39.113			-5.588
76502.000			39.113			-5.588
76600.000			39.112			-5.587
76700.000			39.110			-5.587
76801.000			39.110			-5.587
76900.000			39.110			-5.587
77000.000			39.109			-5.587
77100.000			39.107			-5.587
77200.000			39.106			-5.587
77302.000			39.106			-5.587
77401.000			39.105			-5.586
77500.000			39.104			-5.586
77601.000			39.102			-5.586
77700.000			39.101			-5.586
77800.000			39.102			-5.586
77901.000			39.102			-5.586
78000.000			39.101			-5.586
78101.000			39.100			-5.586
78202.000			39.098			-5.585
78300.000			39.096			-5.585
78400.000			39.096			-5.585
78501.000			39.096			-5.585
78600.000			39.095			-5.585
78700.000			39.093			-5.585
78801.000			39.093			-5.585
78901.000			39.093			-5.585
79001.000			39.091			-5.584
79101.000			39.091			-5.584
79200.000			39.091			-5.584
79300.000			39.090			-5.584
79401.000			39.087			-5.584
79500.000			39.085			-5.584
79600.000			39.085			-5.584
79701.000			39.084			-5.583
79801.000			39.084			-5.583
79901.000			39.084			-5.583
80001.000			39.083			-5.583
80100.000			39.081			-5.583
80200.000			39.080			-5.583
80300.000			39.080			-5.583
80400.000			39.080			-5.583
80501.000			39.079			-5.583
80601.000			39.078			-5.583
80701.000			39.078			-5.583
80801.000			39.076			-5.582
80900.000			39.075			-5.582
81000.000			39.073			-5.582
81101.000			39.074			-5.582
81200.000			39.073			-5.582
81300.000			39.072			-5.582
81402.000			39.072			-5.582
81501.000			39.071			-5.582
81600.000			39.069			-5.581
81701.000			39.070			-5.581
81800.000			39.068			-5.581
81900.000			39.067			-5.581
82001.000			39.066			-5.581
82100.000			39.066			-5.581
82200.000			39.065			-5.581
82302.000			39.063			-5.580
82401.000			39.062			-5.580
82500.000			39.062			-5.580
82601.000			39.062			-5.580
82700.000			39.062			-5.580
82800.000			39.060			-5.580
82901.000			39.059			-5.580
83000.000			39.059			-5.580
83101.000			39.058			-5.580
83202.000			39.056			-5.579
83300.000			39.056			-5.579
83400.000			39.056			-5.579
83500.000			39.055			-5.579
83600.000			39.054			-5.579
83701.000			39.053			-5.579
83800.000			39.052			-5.579
83901.000			39.051			-5.579
84002.000			39.050			-5.579
84100.000			39.050			-5.579
84200.000			39.048			-5.578
84301.000			39.047			-5.578
84400.000			39.046			-5.578
84500.000			39.046			-5.578
84601.000			39.045			-5.578
84701.000			39.043			-5.578
84801.000			39.044			-5.578
84901.000			39.043			-5.578
85000.000			39.042			-5.577
85100.000			39.042			-5.577
85201.000			39.041			-5.577
85300.000			39.040			-5.577
85400.000			39.039			-5.577
85502.000			39.038			-5.577
85601.000			39.038			-5.577
85701.000			39.037			-5.577
85801.000			39.035			-5.576
85900.000			39.034			-5.576
86000.000			39.034			-5.576
86101.000			39.033			-5.576
86200.000			39.032			-5.576
86300.000			39.032			-5.576
86402.000			39.032			-5.576
86501.000			39.031			-5.576
86600.000			39.030			-5.576
86700.000			39.028			-5.575
86800.000			39.028			-5.575
86901.000			39.027			-5.575
87000.000			39.025			-5.575
87100.000			39.025			-5.575
87202.000			39.024			-5.575
87301.000			39.024			-5.575
87400.000			39.024			-5.575
87501.000			39.023			-5.575
87600.000			39.022			-5.575
87700.000			39.021			-5.574
87801.000			39.021			-5.574
87900.000			39.020			-5.574
88001.000			39.019			-5.574
88102.000			39.019			-5.574
88200.000			39.017			-5.574
88300.000			39.016			-5.574
88401.000			39.017			-5.574
88500.000			39.015			-5.574
88600.000			39.014			-5.573
88701.000			39.014			-5.573
88801.000			39.013			-5.573
88901.000			39.012			-5.573
89001.000			39.012			-5.573
89100.000			39.011			-5.573
89200.000			39.009			-5.573
89301.000			39.009			-5.573
89400.000			39.009			-5.573
89500.000			39.007			-5.572
89601.000			39.006			-5.572
89701.000			39.005			-5.572
89802.000			39.005			-5.572
89900.000			39.005			-5.572
90000.000			39.005			-5.572
90101.000			39.003			-5.572
90200.000			39.002			-5.572
90300.000			39.001			-5.572
90401.000			39.001			-5.572
90501.000			39.001			-5.572
90601.000			39.000			-5.571
90701.000			38.999			-5.571
90800.000			38.997			-5.571
90900.000			38.996			-5.571
91001.000			38.996			-5.571
91100.000			38.994			-5.571
91200.000			38.995			-5.571
91302.000			38.993			-5.570
91401.000			38.992			-5.570
91500.000			38.993			-5.570
91601.000			38.992			-5.570
91700.000			38.992			-5.570
91800.000			38.990			-5.570
91901.000			38.989			-5.570
92000.000			38.989			-5.570
92100.000			38.989			-5.570
92202.000			38.987			-5.570
92301.000			38.987			-5.570
92400.000			38.987			-5.570
92501.000			38.985			-5.569
92600.000			38.985			-5.569
92700.000			38.983			-5.569
92801.000			38.982			-5.569
92900.000			38.982			-5.569
93000.000			38.983			-5.569
93102.000			38.983			-5.569
93201.000			38.981			-5.569
93301.000			38.979			-5.568
93400.000			38.978			-5.568
93500.000			38.977			-5.568
93601.000			38.977			-5.568
93700.000			38.977			-5.568
93800.000			38.977			-5.568
93902.000			38.976			-5.568
94001.000			38.975			-5.568
94101.000			38.973			-5.568
94201.000			38.972			-5.567
94300.000			38.972			-5.567
94400.000			38.972			-5.567
94501.000			38.972			-5.567
94600.000			38.971			-5.567
94700.000			38.969			-5.567
94802.000			38.968			-5.567
94901.000			38.968			-5.567
95000.000			38.969			-5.567
95101.000			38.968			-5.567
95200.000			38.967			-5.567
95300.000			38.966			-5.567
95401.000			38.965			-5.566
95500.000			38.964			-5.566
95600.000			38.964			-5.566
95702.000			38.961			-5.566
95801.000			38.961			-5.566
95900.000			38.961			-5.566
96001.000			38.960			-5.566
96100.000			38.960			-5.566
96200.000			38.960			-5.566
96300.000			38.958			-5.565
96400.000			38.958			-5.565
96502.000			38.957			-5.565
96601.000			38.956			-5.565
96701.000			38.956			-5.565
96801.000			38.955			-5.565
96900.000			38.953			-5.565
97000.000			38.953			-5.565
97101.000			38.953			-5.565
97200.000			38.953			-5.565
97300.000			38.952			-5.565
97402.000			38.951			-5.564
97501.000			38.951			-5.564
97600.000			38.949			-5.564
97701.000			38.948			-5.564
97800.000			38.948			-5.564
97900.000			38.947			-5.564
98001.000			38.946			-5.564
98100.000			38.946			-5.564
98200.000			38.945			-5.564
98302.000			38.945			-5.564
98401.000			38.943			-5.563
98500.000			38.943			-5.563
98601.000			38.942			-5.563
98700.000			38.942			-5.563
98800.000			38.942			-5.563
98901.000			38.941			-5.563
99000.000			38.941			-5.563
99100.000			38.939			-5.563
99202.000			38.939			-5.563
99301.000			38.939			-5.563
99400.000			38.938			-5.563
99500.000			38.937			-5.562
99600.000			38.936			-5.562
99701.000			38.935			-5.562
99800.000			38.935			-5.562
99900.000			38.934			-5.562
100002.000			38.932			-5.562
100101.000			38.933			-5.562
100201.000			38.932			-5.562
100301.000			38.931			-5.562
100400.000			38.930			-5.561
100500.000			38.930			-5.561
100601.000			38.929			-5.561
100700.000			38.928			-5.561
100800.000			38.927			-5.561
100902.000			38.927			-5.561
101001.000			38.926			-5.561
101100.000			38.925			-5.561
101201.000			38.925			-5.561
101300.000			38.924			-5.561
101400.000			38.923			-5.560
101501.000			38.923			-5.560
101600.000			38.923			-5.560
101700.000			38.923			-5.560
101802.000			38.923			-5.560
101901.000			38.921			-5.560
102000.000			38.920			-5.560
102101.000			38.919			-5.560
102200.000			38.919			-5.560
102300.000			38.918			-5.560
102401.000			38.918			-5.560
102500.000			38.918			-5.560
102602.000			38.917			-5.560
102701.000			38.916			-5.559
102800.000			38.914			-5.559
102901.000			38.914			-5.559
103000.000			38.914			-5.559
103100.000			38.914			-5.559
103201.000			38.912			-5.559
103300.000			38.912			-5.559
103401.000			38.910			-5.559
103502.000			38.910			-5.559
103601.000			38.910			-5.559
103700.000			38.910			-5.559
103801.000			38.909			-5.558
103900.000			38.908			-5.558
104000.000			38.907			-5.558
104101.000			38.906			-5.558
104200.000			38.906			-5.558
104301.000			38.905			-5.558
104402.000			38.905			-5.558
104500.000			38.903			-5.558
104600.000			38.903			-5.558
104701.000			38.901			-5.557
104800.000			38.902			-5.557
104900.000			38.902			-5.557
105001.000			38.902			-5.557
105101.000			38.900			-5.557
105201.000			38.901			-5.557
105302.000			38.900			-5.557
105400.000			38.898			-5.557
105500.000			38.897			-5.557
105601.000			38.897			-5.557
105700.000			38.895			-5.556
105800.000			38.896			-5.557
105900.000			38.895			-5.556
106001.000			38.894			-5.556
106102.000			38.894			-5.556
106201.000			38.894			-5.556
106300.000			38.893			-5.556
106401.000			38.892			-5.556
106500.000			38.892			-5.556
106600.000			38.890			-5.556
106701.000			38.890			-5.556
106800.000			38.889			-5.556
106901.000			38.889			-5.556
107002.000			38.888			-5.555
107101.000			38.888			-5.555
107200.000			38.886			-5.555
107301.000			38.885			-5.555
107400.000			38.885			-5.555
107500.000			38.885			-5.555
107601.000			38.885			-5.555
107700.000			38.883			-5.555
107801.000			38.883			-5.555
107902.000			38.882			-5.555
108000.000			38.882			-5.555
108100.000			38.881			-5.554
108201.000			38.880			-5.554
108300.000			38.879			-5.554
108400.000			38.878			-5.554
108501.000			38.877			-5.554
108600.000			38.878			-5.554
108701.000			38.877			-5.554
108802.000			38.876			-5.554
108901.000			38.875			-5.554
109000.000			38.876			-5.554
109100.000			38.875			-5.554
109200.000			38.874			-5.553
109301.000			38.875			-5.554
109400.000			38.872			-5.553
109500.000			38.871			-5.553
109602.000			38.871			-5.553
109701.000			38.871			-5.553
109800.000			38.870			-5.553
109901.000			38.870			-5.553
110000.000			38.870			-5.553
110100.000			38.868			-5.553
110201.000			38.867			-5.552
110300.000			38.867			-5.552
110400.000			38.867			-5.552
110502.000			38.867			-5.552
110601.000			38.866			-5.552
110700.000			38.864			-5.552
110801.000			38.865			-5.552
110900.000			38.864			-5.552
111000.000			38.863			-5.552
111101.000			38.862			-5.552
111200.000			38.861			-5.552
111300.000			38.861			-5.552
111402.000			38.860			-5.551
111501.000			38.860			-5.551
111600.000			38.861			-5.552
111701.000			38.859			-5.551
111800.000			38.859			-5.551
111900.000			38.859			-5.551
112001.000			38.858			-5.551
112100.000			38.856			-5.551
112202.000			38.855			-5.551
112301.000			38.855			-5.551
112401.000			38.855			-5.551
112501.000			38.854			-5.551
112600.000			38.852			-5.550
112700.000			38.852			-5.550
112801.000			38.852			-5.550
112900.000			38.852			-5.550
113000.000			38.852			-5.550
113102.000			38.851			-5.550
113201.000			38.850			-5.550
113300.000			38.850			-5.550
113401.000			38.849			-5.550
113500.000			38.847			-5.550
113600.000			38.846			-5.549
113701.000			38.847			-5.550
113800.000			38.846			-5.549
113900.000			38.845			-5.549
114002.000			38.845			-5.549
114101.000			38.844			-5.549
114200.000			38.844			-5.549
114301.000			38.845			-5.549
114400.000			38.843			-5.549
114500.000			38.843			-5.549
114601.000			38.842			-5.549
114700.000			38.840			-5.549
114800.000			38.840			-5.549
114902.000			38.840			-5.549
115001.000			38.839			-5.548
115100.000			38.839			-5.548
115201.000			38.838			-5.548
115300.000			38.838			-5.548
115400.000			38.838			-5.548
115500.000			38.837			-5.548
115600.000			38.836			-5.548
115702.000			38.836			-5.548
115801.000			38.835			-5.548
115901.000			38.834			-5.548
116001.000			38.834			-5.548
116100.000			38.834			-5.548
116200.000			38.832			-5.547
116301.000			38.831			-5.547
116400.000			38.830			-5.547
116500.000			38.831			-5.547
116602.000			38.831			-5.547
116701.000			38.829			-5.547
116801.000			38.829			-5.547
116901.000			38.827			-5.547
117000.000			38.827			-5.547
117100.000			38.827			-5.547
117201.000			38.827			-5.547
117300.000			38.826			-5.547
117400.000			38.824			-5.546
117502.000			38.824			-5.546
117601.000			38.824			-5.546
117700.000			38.823			-5.546
117801.000			38.823			-5.546
117900.000			38.822			-5.546
118000.000			38.821			-5.546
118101.000			38.821			-5.546
118200.000			38.821			-5.546
118300.000			38.819			-5.546
118402.000			38.819			-5.546
118501.000			38.818			-5.545
118600.000			38.817			-5.545
118700.000			38.817			-5.545
118800.000			38.816			-5.545
118901.000			38.816			-5.545
119000.000			38.816			-5.545
119100.000			38.815			-5.545
119201.000			38.815			-5.545
119301.000			38.814			-5.545
119401.000			38.813			-5.545
119501.000			38.813			-5.545
119600.000			38.812			-5.545
119700.000			38.811			-5.544
119801.000			38.810			-5.544
119900.000			38.810			-5.544
120000.000			38.810			-5.544
120102.000			38.810			-5.544
120201.000			38.809			-5.544
120300.000			38.808			-5.544
120401.000			38.807			-5.544
120500.000			38.807			-5.544
120600.000			38.807			-5.544
120701.000			38.807			-5.544
120800.000			38.806			-5.544
120900.000			38.806			-5.544
121002.000			38.803			-5.543
121101.000			38.803			-5.543
121200.000			38.804			-5.543
121301.000			38.803			-5.543
121400.000			38.802			-5.543
121500.000			38.801			-5.543
121601.000			38.802			-5.543
121700.000			38.801			-5.543
121802.000			38.799			-5.543
121901.000			38.800			-5.543
122000.000			38.799			-5.543
122101.000			38.798			-5.543
122200.000			38.798			-5.543
122300.000			38.798			-5.543
122401.000			38.797			-5.542
122500.000			38.796			-5.542
122600.000			38.795			-5.542
122702.000			38.795			-5.542
122801.000			38.795			-5.542
122900.000			38.794			-5.542
123001.000			38.793			-5.542
123100.000			38.792			-5.542
123200.000			38.792			-5.542
123301.000			38.790			-5.541
123400.000			38.791			-5.542
123500.000			38.791			-5.542
123602.000			38.790			-5.541
123701.000			38.790			-5.541
123800.000			38.790			-5.541
123901.000			38.789			-5.541
124000.000			38.788			-5.541
124100.000			38.786			-5.541
124201.000			38.786			-5.541
124300.000			38.787			-5.541
124400.000			38.786			-5.541
124502.000			38.784			-5.541
124601.000			38.785			-5.541
124700.000			38.784			-5.541
124801.000			38.785			-5.541
124900.000			38.785			-5.541
125000.000			38.784			-5.541
125100.000			38.782			-5.540
125200.000			38.781			-5.540
125302.000			38.780			-5.540
125401.000			38.780			-5.540
125501.000			38.779			-5.540
125601.000			38.779			-5.540
125700.000			38.779			-5.540
125800.000			38.779			-5.540
125901.000			38.778			-5.540
126000.000			38.777			-5.540
126100.000			38.777			-5.540
126202.000			38.775			-5.539
126301.000			38.775			-5.539
126401.000			38.774			-5.539
126501.000			38.774			-5.539
126600.000			38.773			-5.539
126700.000			38.774			-5.539
126801.000			38.772			-5.539
126900.000			38.773			-5.539
127000.000			38.773			-5.539
127102.000			38.772			-5.539
127201.000			38.771			-5.539
127301.000			38.771			-5.539
127401.000			38.769			-5.538
127500.000			38.769			-5.538
127600.000			38.767			-5.538
127701.000			38.768			-5.538
127800.000			38.768			-5.538
127900.000			38.767			-5.538
128001.000			38.766			-5.538
128101.000			38.765			-5.538
128202.000			38.766			-5.538
128300.000			38.765			-5.538
128400.000			38.765			-5.538
128501.000			38.765			-5.538
128600.000			38.764			-5.538
128700.000			38.763			-5.538
128801.000			38.761			-5.537
128901.000			38.761			-5.537
129001.000			38.761			-5.537
129102.000			38.761			-5.537
129200.000			38.759			-5.537
129300.000			38.759			-5.537
129401.000			38.759			-5.537
129500.000			38.759			-5.537
129600.000			38.759			-5.537
129701.000			38.758			-5.537
129801.000			38.756			-5.537
129901.000			38.756			-5.537
130002.000			38.756			-5.537
130100.000			38.756			-5.537
130200.000			38.755			-5.536
130301.000			38.755			-5.536
130400.000			38.753			-5.536
130500.000			38.753			-5.536
130601.000			38.753			-5.536
130701.000			38.752			-5.536
130801.000			38.752			-5.536
130901.000			38.751			-5.536
131000.000			38.751			-5.536
131100.000			38.750			-5.536
131201.000			38.749			-5.536
131300.000			38.748			-5.535
131400.000			38.748			-5.535
131500.000			38.749			-5.536
131601.000			38.748			-5.535
131702.000			38.746			-5.535
131801.000			38.746			-5.535
131900.000			38.746			-5.535
132001.000			38.746			-5.535
132100.000			38.744			-5.535
132200.000			38.744			-5.535
132301.000			38.744			-5.535
132400.000			38.743			-5.535
132501.000			38.742			-5.535
132602.000			38.741			-5.534
132701.000			38.742			-5.535
132800.000			38.742			-5.535
132901.000			38.741			-5.534
133000.000			38.740			-5.534
133100.000			38.740			-5.534
133201.000			38.739			-5.534
133300.000			38.739			-5.534
133400.000			38.737			-5.534
133502.000			38.737			-5.534
133601.000			38.736			-5.534
133700.000			38.736			-5.534
133801.000			38.736			-5.534
133900.000			38.735			-5.534
134000.000			38.735			-5.534
134101.000			38.734			-5.533
134200.000			38.734			-5.533
134300.000			38.733			-5.533
134402.000			38.733			-5.533
134501.000			38.732			-5.533
134602.000			38.732			-5.533
134700.000			38.732			-5.533
134800.000			38.732			-5.533
134901.000			38.730			-5.533
135000.000			38.730			-5.533
135100.000			38.729			-5.533
135201.000			38.729			-5.533
135300.000			38.727			-5.532
135401.000			38.728			-5.533
135502.000			38.728			-5.533
135601.000			38.727			-5.532
135700.000			38.726			-5.532
135801.000			38.726			-5.532
135900.000			38.724			-5.532
136000.000			38.724			-5.532
136101.000			38.723			-5.532
136200.000			38.723			-5.532
136300.000			38.723			-5.532
136402.000			38.722			-5.532
136501.000			38.722			-5.532
136600.000			38.722			-5.532
136701.000			38.722			-5.532
136800.000			38.722			-5.532
136900.000			38.721			-5.532
137001.000			38.720			-5.531
137100.000			38.718			-5.531
137200.000			38.719			-5.531
137302.000			38.719			-5.531
137401.000			38.717			-5.531
137501.000			38.717			-5.531
137601.000			38.718			-5.531
137700.000			38.718			-5.531
137800.000			38.716			-5.531
137900.000			38.715			-5.531
138000.000			38.715			-5.531
138101.000			38.714			-5.531
138200.000			38.714			-5.531
138301.000			38.714			-5.531
138402.000			38.713			-5.530
138500.000			38.713			-5.530
138600.000			38.712			-5.530
138701.000			38.710			-5.530
138800.000			38.711			-5.530
138900.000			38.711			-5.530
139001.000			38.710			-5.530
139100.000			38.709			-5.530
139201.000			38.709			-5.530
139302.000			38.709			-5.530
139401.000			38.709			-5.530
139500.000			38.707			-5.530
139601.000			38.708			-5.530
139700.000			38.707			-5.530
139800.000			38.707			-5.530
139901.000			38.706			-5.529
140000.000			38.705			-5.529
140100.000			38.704			-5.529
140202.000			38.704			-5.529
140301.000			38.704			-5.529
140400.000			38.703			-5.529
140501.000			38.702			-5.529
140600.000			38.702			-5.529
140700.000			38.701			-5.529
140801.000			38.701			-5.529
140900.000			38.701			-5.529
141000.000			38.700			-5.529
141102.000			38.700			-5.529
141201.000			38.699			-5.528
141301.000			38.698			-5.528
141400.000			38.698			-5.528
141500.000			38.696			-5.528
141601.000			38.696			-5.528
141700.000			38.696			-5.528
141800.000			38.696			-5.528
141901.000			38.696			-5.528
142000.000			38.695			-5.528
142101.000			38.695			-5.528
142202.000			38.694			-5.528
142300.000			38.694			-5.528
142400.000			38.694			-5.528
142501.000			38.693			-5.528
142600.000			38.691			-5.527
142700.000			38.691			-5.527
142801.000			38.691			-5.527
142900.000			38.692			-5.527
143001.000			38.691			-5.527
143102.000			38.690			-5.527
143201.000			38.690			-5.527
143300.000			38.689			-5.527
143401.000			38.688			-5.527
143500.000			38.688			-5.527
143600.000			38.687			-5.527
143701.000			38.687			-5.527
143800.000			38.686			-5.527
143900.000			38.686			-5.527
144002.000			38.685			-5.526
144101.000			38.685			-5.526
144202.000			38.685			-5.526
144300.000			38.684			-5.526
144400.000			38.684			-5.526
144501.000			38.684			-5.526
144600.000			38.683			-5.526
144700.000			38.683			-5.526
144801.000			38.682			-5.526
144900.000			38.682			-5.526
145001.000			38.682			-5.526
145102.000			38.680			-5.526
145201.000			38.680			-5.526
145300.000			38.680			-5.526
145401.000			38.679			-5.526
145500.000			38.679			-5.526
145600.000			38.678			-5.525
145701.000			38.677			-5.525
145800.000			38.677			-5.525
145900.000			38.677			-5.525
146002.000			38.677			-5.525
146101.000			38.676			-5.525
146201.000			38.674			-5.525
146301.000			38.675			-5.525
146400.000			38.674			-5.525
146500.000			38.674			-5.525
146601.000			38.674			-5.525
146700.000			38.673			-5.525
146800.000			38.673			-5.525
146901.000			38.672			-5.525
147001.000			38.672			-5.525
147101.000			38.672			-5.525
147201.000			38.670			-5.524
147300.000			38.670			-5.524
147400.000			38.669			-5.524
147500.000			38.669			-5.524
147600.000			38.669			-5.524
147701.000			38.669			-5.524
147800.000			38.669			-5.524
147900.000			38.668			-5.524
148002.000			38.666			-5.524
148101.000			38.665			-5.524
148200.000			38.665			-5.524
148301.000			38.664			-5.523
148400.000			38.664			-5.523
148500.000			38.664			-5.523
148601.000			38.664			-5.523
148700.000			38.664			-5.523
148800.000			38.663			-5.523
148902.000			38.663			-5.523
149001.000			38.663			-5.523
149101.000			38.663			-5.523
149201.000			38.662			-5.523
149300.000			38.661			-5.523
149400.000			38.660			-5.523
149501.000			38.660			-5.523
149600.000			38.659			-5.523
149700.000			38.657			-5.522
149801.000			38.658			-5.523
149901.000			38.658			-5.523
150001.000			38.657			-5.522
150102.000			38.658			-5.523
150200.000			38.658			-5.523
150300.000			38.657			-5.522
150401.000			38.656			-5.522
150500.000			38.655			-5.522
150600.000			38.655			-5.522
150700.000			38.654			-5.522
150800.000			38.655			-5.522
150902.000			38.654			-5.522
151001.000			38.652			-5.522
151100.000			38.652			-5.522
151201.000			38.653			-5.522
151300.000			38.653			-5.522
151400.000			38.653			-5.522
151501.000			38.652			-5.522
151600.000			38.651			-5.522
151700.000			38.650			-5.521
151802.000			38.650			-5.521
151901.000			38.650			-5.521
152001.000			38.649			-5.521
152101.000			38.649			-5.521
152200.000			38.649			-5.521
152300.000			38.648			-5.521
152401.000			38.646			-5.521
152500.000			38.646			-5.521
152600.000			38.645			-5.521
152701.000			38.645			-5.521
152801.000			38.645			-5.521
152901.000			38.645			-5.521
153001.000			38.645			-5.521
153100.000			38.644			-5.521
153200.000			38.642			-5.520
153301.000			38.643			-5.520
153400.000			38.642			-5.520
153500.000			38.643			-5.520
153601.000			38.642			-5.520
153701.000			38.641			-5.520
153802.000			38.642			-5.520
153901.000			38.639			-5.520
154000.000			38.640			-5.520
154101.000			38.640			-5.520
154200.000			38.639			-5.520
154300.000			38.639			-5.520
154401.000			38.639			-5.520
154500.000			38.638			-5.520
154600.000			38.636			-5.519
154702.000			38.636			-5.519
154801.000			38.636			-5.519
154901.000			38.635			-5.519
155001.000			38.634			-5.519
155100.000			38.635			-5.519
155200.000			38.634			-5.519
155301.000			38.633			-5.519
155400.000			38.633			-5.519
155500.000			38.634			-5.519
155601.000			38.632			-5.519
155701.000			38.632			-5.519
155801.000			38.632			-5.519
155901.000			38.632			-5.519
156000.000			38.632			-5.519
156100.000			38.631			-5.519
156201.000			38.630			-5.519
156300.000			38.629			-5.518
156400.000			38.629			-5.518
156501.000			38.629			-5.518
156601.000			38.628			-5.518
156701.000			38.628			-5.518
156802.000			38.628			-5.518
156900.000			38.627			-5.518
157000.000			38.627			-5.518
157100.000			38.627			-5.518
157200.000			38.626			-5.518
157301.000			38.625			-5.518
157400.000			38.625			-5.518
157500.000			38.624			-5.518
157602.000			38.623			-5.518
157701.000			38.623			-5.518
157801.000			38.623			-5.518
157901.000			38.623			-5.518
158000.000			38.622			-5.517
158100.000			38.623			-5.518
158201.000			38.621			-5.517
158300.000			38.620			-5.517
158400.000			38.620			-5.517
158501.000			38.620			-5.517
158601.000			38.620			-5.517
158701.000			38.619			-5.517
158801.000			38.619			-5.517
158900.000			38.619			-5.517
159000.000			38.617			-5.517
159101.000			38.617			-5.517
159200.000			38.617			-5.517
159300.000			38.617			-5.517
159401.000			38.617			-5.517
159501.000			38.616			-5.517
159601.000			38.616			-5.517
159702.000			38.614			-5.516
159800.000			38.614			-5.516
159900.000			38.614			-5.516
160001.000			38.614			-5.516
160100.000			38.614			-5.516
160200.000			38.613			-5.516
160300.000			38.612			-5.516
160400.000			38.612			-5.516
160502.000			38.612			-5.516
160601.000			38.611			-5.516
160700.000			38.610			-5.516
160801.000			38.610			-5.516
160900.000			38.609			-5.516
161000.000			38.609			-5.516
161101.000			38.609			-5.516
161200.000			38.609			-5.516
161300.000			38.608			-5.515
161402.000			38.608			-5.515
161501.000			38.608			-5.515
161601.000			38.606			-5.515
161701.000			38.606			-5.515
161800.000			38.606			-5.515
161900.000			38.604			-5.515
162001.000			38.604			-5.515
162100.000			38.604			-5.515
162200.000			38.604			-5.515
162301.000			38.603			-5.515
162401.000			38.603			-5.515
162501.000			38.603			-5.515
162601.000			38.603			-5.515
162700.000			38.602			-5.515
162800.000			38.601			-5.514
162901.000			38.602			-5.515
163000.000			38.602			-5.515
163100.000			38.601			-5.514
163201.000			38.600			-5.514
163301.000			38.600			-5.514
163402.000			38.599			-5.514
163501.000			38.599			-5.514
163600.000			38.598			-5.514
163701.000			38.598			-5.514
163800.000			38.598			-5.514
163900.000			38.598			-5.514
164001.000			38.596			-5.514
164100.000			38.596			-5.514
164200.000			38.596			-5.514
164302.000			38.596			-5.514
164401.000			38.595			-5.514
164500.000			38.595			-5.514
164601.000			38.595			-5.514
164700.000			38.594			-5.513
164800.000			38.594			-5.513
164901.000			38.593			-5.513
165000.000			38.592			-5.513
165100.000			38.592			-5.513
165201.000			38.591			-5.513
165301.000			38.591			-5.513
165401.000			38.591			-5.513
165501.000			38.590			-5.513
165600.000			38.589			-5.513
165700.000			38.590			-5.513
165801.000			38.591			-5.513
165900.000			38.589			-5.513
166000.000			38.588			-5.513
166101.000			38.587			-5.512
166200.000			38.588			-5.513
166301.000			38.586			-5.512
166402.000			38.586			-5.512
166500.000			38.586			-5.512
166600.000			38.586			-5.512
166700.000			38.585			-5.512
166800.000			38.585			-5.512
166901.000			38.584			-5.512
167000.000			38.584			-5.512
167100.000			38.583			-5.512
167201.000			38.583			-5.512
167301.000			38.584			-5.512
167401.000			38.583			-5.512
167501.000			38.582			-5.512
167600.000			38.581			-5.512
167700.000			38.581			-5.512
167801.000			38.581			-5.512
167900.000			38.580			-5.511
168000.000			38.580			-5.511
168101.000			38.580			-5.511
168201.000			38.580			-5.511
168301.000			38.579			-5.511
168402.000			38.577			-5.511
168500.000			38.577			-5.511
168600.000			38.577			-5.511
168701.000			38.576			-5.511
168800.000			38.576			-5.511
168900.000			38.577			-5.511
169001.000			38.576			-5.511
169100.000			38.576			-5.511
169200.000			38.575			-5.511
169302.000			38.575			-5.511
169401.000			38.574			-5.511
169500.000			38.574			-5.511
169601.000			38.574			-5.511
169700.000			38.573			-5.510
169800.000			38.573			-5.510
169900.000			38.572			-5.510
170000.000			38.572			-5.510
170101.000			38.572			-5.510
170201.000			38.572			-5.510
170301.000			38.572			-5.510
170402.000			38.570			-5.510
170500.000			38.569			-5.510
170600.000			38.569			-5.510
170701.000			38.570			-5.510
170800.000			38.569			-5.510
170900.000			38.569			-5.510
171001.000			38.568			-5.510
171100.000			38.568			-5.510
171201.000			38.568			-5.510
171302.000			38.567			-5.510
171401.000			38.566			-5.509
171500.000			38.566			-5.509
171601.000			38.566			-5.509
171700.000			38.565			-5.509
171800.000			38.565			-5.509
171901.000			38.565			-5.509
172000.000			38.565			-5.509
172100.000			38.563			-5.509
172202.000			38.563			-5.509
172301.000			38.563			-5.509
172400.000			38.563			-5.509
172501.000			38.563			-5.509
172600.000			38.561			-5.509
172700.000			38.561			-5.509
172801.000			38.561			-5.509
172900.000			38.560			-5.509
173000.000			38.560			-5.509
173102.000			38.561			-5.509
173201.000			38.559			-5.508
173301.000			38.559			-5.508
173400.000			38.558			-5.508
173500.000			38.558			-5.508
173601.000			38.558			-5.508
173700.000			38.558			-5.508
173800.000			38.557			-5.508
173901.000			38.556			-5.508
174001.000			38.556			-5.508
174101.000			38.556			-5.508
174202.000			38.556			-5.508
174300.000			38.555			-5.508
174400.000			38.555			-5.508
174501.000			38.554			-5.508
174600.000			38.554			-5.508
174700.000			38.553			-5.508
174801.000			38.553			-5.508
174900.000			38.553			-5.508
175001.000			38.553			-5.508
175102.000			38.552			-5.507
175201.000			38.551			-5.507
175300.000			38.551			-5.507
175401.000			38.552			-5.507
175500.000			38.551			-5.507
175600.000			38.550			-5.507
175701.000			38.550			-5.507
175800.000			38.548			-5.507
175900.000			38.548			-5.507
176002.000			38.548			-5.507
176101.000			38.548			-5.507
176202.000			38.547			-5.507
176300.000			38.547			-5.507
176400.000			38.547			-5.507
176501.000			38.546			-5.507
176600.000			38.544			-5.506
176700.000			38.544			-5.506
176801.000			38.545			-5.506
176900.000			38.544			-5.506
177001.000			38.543			-5.506
177102.000			38.543			-5.506
177200.000			38.544			-5.506
177300.000			38.543			-5.506
177401.000			38.543			-5.506
177500.000			38.542			-5.506
177600.000			38.542			-5.506
177701.000			38.542			-5.506
177800.000			38.541			-5.506
177900.000			38.540			-5.506
178002.000			38.541			-5.506
178101.000			38.541			-5.506
178200.000			38.541			-5.506
178301.000			38.539			-5.506
178400.000			38.538			-5.505
178500.000			38.538			-5.505
178601.000			38.538			-5.505
178700.000			38.539			-5.506
178800.000			38.538			-5.505
178901.000			38.537			-5.505
179001.000			38.535			-5.505
179101.000			38.535			-5.505
179201.000			38.535			-5.505
179300.000			38.535			-5.505
179400.000			38.535			-5.505
179500.000			38.535			-5.505
179600.000			38.534			-5.505
179701.000			38.533			-5.505
179800.000			38.533			-5.505
179901.000			38.532			-5.505
180002.000			38.533			-5.505
180101.000			38.532			-5.505
180200.000			38.531			-5.504
180301.000			38.532			-5.505
180400.000			38.532			-5.505
180500.000			38.531			-5.504
180601.000			38.531			-5.504
180700.000			38.531			-5.504
180800.000			38.530			-5.504
180902.000			38.528			-5.504
181001.000			38.528			-5.504
181100.000			38.528			-5.504
181201.000			38.528			-5.504
181300.000			38.528			-5.504
181400.000			38.527			-5.504
181501.000			38.527			-5.504
181600.000			38.526			-5.504
181700.000			38.526			-5.504
181802.000			38.526			-5.504
181901.000			38.525			-5.504
182001.000			38.525			-5.504
182101.000			38.525			-5.504
182200.000			38.524			-5.503
182300.000			38.524			-5.503
182401.000			38.523			-5.503
182500.000			38.523			-5.503
182600.000			38.523			-5.503
182700.000			38.522			-5.503
182801.000			38.522			-5.503
182902.000			38.522			-5.503
183000.000			38.522			-5.503
183100.000			38.522			-5.503
183201.000			38.520			-5.503
183300.000			38.520			-5.503
183400.000			38.520			-5.503
183501.000			38.520			-5.503
183600.000			38.520			-5.503
183701.000			38.519			-5.503
183802.000			38.518			-5.503
183901.000			38.517			-5.502
184000.000			38.517			-5.502
184101.000			38.517			-5.502
184200.000			38.516			-5.502
184300.000			38.516			-5.502
184401.000			38.516			-5.502
184500.000			38.516			-5.502
184600.000			38.516			-5.502
184702.000			38.514			-5.502
184801.000			38.514			-5.502
184900.000			38.514			-5.502
185001.000			38.513			-5.502
185100.000			38.514			-5.502
185200.000			38.514			-5.502
185301.000			38.513			-5.502
185400.000			38.513			-5.502
185500.000			38.512			-5.502
185602.000			38.512			-5.502
185701.000			38.512			-5.502
185800.000			38.512			-5.502
185900.000			38.511			-5.502
186000.000			38.510			-5.501
186101.000			38.510			-5.501
186200.000			38.510			-5.501
186300.000			38.510			-5.501
186401.000			38.510			-5.501
186501.000			38.509			-5.501
186601.000			38.509			-5.501
186702.000			38.507			-5.501
186800.000			38.506			-5.501
186900.000			38.507			-5.501
187001.000			38.507			-5.501
187100.000			38.505			-5.501
187200.000			38.505			-5.501
187301.000			38.505			-5.501
187400.000			38.505			-5.501
187501.000			38.505			-5.501
187602.000			38.505			-5.501
187701.000			38.504			-5.501
187800.000			38.503			-5.500
187901.000			38.503			-5.500
188000.000			38.504			-5.501
188100.000			38.502			-5.500
188201.000			38.502			-5.500
188300.000			38.501			-5.500
188400.000			38.501			-5.500
188502.000			38.501			-5.500
188601.000			38.500			-5.500
188700.000			38.500			-5.500
188801.000			38.500			-5.500
188900.000			38.499			-5.500
189000.000			38.499			-5.500
189100.000			38.500			-5.500
189200.000			38.499			-5.500
189301.000			38.498			-5.500
189400.000			38.498			-5.500
189501.000			38.498			-5.500
189602.000			38.497			-5.500
189701.000			38.496			-5.499
189800.000			38.495			-5.499
189901.000			38.496			-5.499
190000.000			38.496			-5.499
190100.000			38.497			-5.500
190201.000			38.495			-5.499
190300.000			38.494			-5.499
190400.000			38.493			-5.499
190502.000			38.493			-5.499
190601.000			38.493			-5.499
190700.000			38.493			-5.499
190801.000			38.492			-5.499
190900.000			38.492			-5.499
191000.000			38.492			-5.499
191101.000			38.492			-5.499
191200.000			38.491			-5.499
191300.000			38.490			-5.499
191401.000			38.490			-5.499
191501.000			38.490			-5.499
191601.000			38.490			-5.499
191701.000			38.490			-5.499
191800.000			38.489			-5.498
191900.000			38.489			-5.498
192001.000			38.489			-5.498
192100.000			38.487			-5.498
192200.000			38.488			-5.498
192300.000			38.488			-5.498
192400.000			38.486			-5.498
192502.000			38.487			-5.498
192601.000			38.486			-5.498
192700.000			38.485			-5.498
192801.000			38.486			-5.498
192900.000			38.485			-5.498
193000.000			38.485			-5.498
193101.000			38.485			-5.498
193200.000			38.483			-5.498
193300.000			38.483			-5.498
193402.000			38.482			-5.497
193501.000			38.483			-5.498
193601.000			38.483			-5.498
193701.000			38.483			-5.498
193800.000			38.481			-5.497
193900.000			38.482			-5.497
194001.000			38.480			-5.497
194100.000			38.480			-5.497
194200.000			38.481			-5.497
194301.000			38.480			-5.497
194401.000			38.480			-5.497
194501.000			38.480			-5.497
194602.000			38.479			-5.497
194700.000			38.478			-5.497
194800.000			38.478			-5.497
194901.000			38.478			-5.497
195000.000			38.478			-5.497
195100.000			38.477			-5.497
195201.000			38.478			-5.497
195300.000			38.478			-5.497
195402.000			38.476			-5.497
195501.000			38.475			-5.496
195601.000			38.476			-5.497
195701.000			38.476			-5.497
195800.000			38.476			-5.497
195900.000			38.473			-5.496
196001.000			38.474			-5.496
196100.000			38.475			-5.496
196200.000			38.473			-5.496
196301.000			38.473			-5.496
196401.000			38.473			-5.496
196501.000			38.473			-5.496
196602.000			38.472			-5.496
196700.000			38.472			-5.496
196800.000			38.471			-5.496
196901.000			38.471			-5.496
197000.000			38.472			-5.496
197100.000			38.472			-5.496
197201.000			38.470			-5.496
197300.000			38.469			-5.496
197401.000			38.469			-5.496
197502.000			38.469			-5.496
197601.000			38.468			-5.495
197700.000			38.468			-5.495
197801.000			38.469			-5.496
197900.000			38.468			-5.495
198000.000			38.466			-5.495
198101.000			38.466			-5.495
198200.000			38.467			-5.495
198300.000			38.466			-5.495
198402.000			38.466			-5.495
198501.000			38.466			-5.495
198602.000			38.466			-5.495
198700.000			38.466			-5.495
198800.000			38.466			-5.495
198901.000			38.465			-5.495
199000.000			38.465			-5.495
199100.000			38.465			-5.495
199201.000			38.464			-5.495
199300.000			38.464			-5.495
199400.000			38.463			-5.495
199502.000			38.463			-5.495
199601.000			38.463			-5.495
199700.000			38.462			-5.495
199801.000			38.461			-5.494
199900.000			38.461			-5.494
200000.000			38.460			-5.494
200101.000			38.460			-5.494
200200.000			38.460			-5.494
200300.000			38.459			-5.494
200402.000			38.458			-5.494
200501.000			38.459			-5.494
200601.000			38.460			-5.494
200701.000			38.457			-5.494
200800.000			38.457			-5.494
200900.000			38.458			-5.494
201001.000			38.458			-5.494
201100.000			38.456			-5.494
201200.000			38.457			-5.494
201301.000			38.456			-5.494
201401.000			38.456			-5.494
201501.000			38.456			-5.494
201601.000			38.455			-5.494
201700.000			38.455			-5.494
201800.000			38.455			-5.494
201900.000			38.455			-5.494
202000.000			38.453			-5.493
202101.000			38.453			-5.493
202200.000			38.452			-5.493
202301.000			38.452			-5.493
202402.000			38.452			-5.493
202500.000			38.451			-5.493
202600.000			38.450			-5.493
202701.000			38.451			-5.493
202800.000			38.450			-5.493
202900.000			38.450			-5.493
203001.000			38.451			-5.493
203100.000			38.451			-5.493
203201.000			38.450			-5.493
203302.000			38.450			-5.493
203401.000			38.449			-5.493
203500.000			38.448			-5.493
203601.000			38.449			-5.493
203700.000			38.448			-5.493
203800.000			38.448			-5.493
203901.000			38.448			-5.493
204000.000			38.447			-5.492
204100.000			38.446			-5.492
204202.000			38.446			-5.492
204301.000			38.447			-5.492
204400.000			38.446			-5.492
204501.000			38.445			-5.492
204600.000			38.444			-5.492
204700.000			38.444			-5.492
204801.000			38.444			-5.492
204900.000			38.444			-5.492
205000.000			38.444			-5.492
205102.000			38.443			-5.492
205201.000			38.442			-5.492
205302.000			38.442			-5.492
205400.000			38.442			-5.492
205500.000			38.442			-5.492
205601.000			38.441			-5.492
205700.000			38.442			-5.492
205800.000			38.441			-5.492
205901.000			38.441			-5.492
206001.000			38.441			-5.492
206101.000			38.440			-5.491
206202.000			38.440			-5.491
206300.000			38.440			-5.491
206400.000			38.438			-5.491
206501.000			38.438			-5.491
206600.000			38.438			-5.491
206700.000			38.438			-5.491
206801.000			38.437			-5.491
206900.000			38.437			-5.491
207001.000			38.437			-5.491
207102.000			38.437			-5.491
207200.000			38.435			-5.491
207300.000			38.434			-5.491
207401.000			38.435			-5.491
207500.000			38.434			-5.491
207600.000			38.434			-5.491
207701.000			38.434			-5.491
207800.000			38.435			-5.491
207901.000			38.434			-5.491
208002.000			38.433			-5.490
208101.000			38.432			-5.490
208200.000			38.432			-5.490
208300.000			38.431			-5.490
208400.000			38.432			-5.490
208501.000			38.431			-5.490
208600.000			38.430			-5.490
208700.000			38.430			-5.490
208802.000			38.431			-5.490
208901.000			38.431			-5.490
209001.000			38.431			-5.490
209101.000			38.430			-5.490
209200.000			38.430			-5.490
209300.000			38.428			-5.490
209401.000			38.429			-5.490
209500.000			38.429			-5.490
209600.000			38.428			-5.490
209701.000			38.428			-5.490
209801.000			38.428			-5.490
209901.000			38.428			-5.490
210001.000			38.426			-5.489
210100.000			38.427			-5.490
210200.000			38.426			-5.489
210301.000			38.425			-5.489
210400.000			38.426			-5.489
210500.000			38.425			-5.489
210601.000			38.424			-5.489
210701.000			38.425			-5.489
210801.000			38.424			-5.489
210901.000			38.423			-5.489
211000.000			38.423			-5.489
211100.000			38.423			-5.489
211201.000			38.423			-5.489
211300.000			38.423			-5.489
211400.000			38.422			-5.489
211500.000			38.422			-5.489
211601.000			38.422			-5.489
211702.000			38.422			-5.489
211800.000			38.421			-5.489
211900.000			38.421			-5.489
212001.000			38.419			-5.488
212100.000			38.419			-5.488
212200.000			38.418			-5.488
212301.000			38.419			-5.488
212400.000			38.419			-5.488
212501.000			38.419			-5.488
212602.000			38.418			-5.488
212701.000			38.417			-5.488
212800.000			38.417			-5.488
212901.000			38.417			-5.488
213000.000			38.417			-5.488
213100.000			38.417			-5.488
213201.000			38.416			-5.488
213300.000			38.415			-5.488
213401.000			38.415			-5.488
213502.000			38.416			-5.488
213601.000			38.415			-5.488
213700.000			38.415			-5.488
213801.000			38.415			-5.488
213900.000			38.414			-5.488
214000.000			38.414			-5.488
214101.000			38.413			-5.488
214200.000			38.412			-5.487
214301.000			38.412			-5.487
214402.000			38.412			-5.487
214501.000			38.412			-5.487
214600.000			38.413			-5.488
214700.000			38.412			-5.487
214800.000			38.411			-5.487
214901.000			38.410			-5.487
215000.000			38.410			-5.487
215100.000			38.410			-5.487
215202.000			38.410			-5.487
215301.000			38.409			-5.487
215401.000			38.410			-5.487
215501.000			38.409			-5.487
215600.000			38.409			-5.487
215700.000			38.409			-5.487
215801.000			38.408			-5.487
215900.000			38.407			-5.487
216000.000			38.408			-5.487
216101.000			38.408			-5.487
216201.000			38.407			-5.487
216301.000			38.406			-5.487
216401.000			38.405			-5.486
216500.000			38.406			-5.487
216600.000			38.405			-5.486
216701.000			38.405			-5.486
216800.000			38.404			-5.486
216900.000			38.404			-5.486
217001.000			38.405			-5.486
217101.000			38.405			-5.486
217201.000			38.404			-5.486
217301.000			38.402			-5.486
217400.000			38.402			-5.486
217500.000			38.404			-5.486
217601.000			38.403			-5.486
217700.000			38.403			-5.486
217800.000			38.403			-5.486
217900.000			38.402			-5.486
218001.000			38.402			-5.486
218102.000			38.401			-5.486
218201.000			38.401			-5.486
218300.000			38.400			-5.486
218401.000			38.400			-5.486
218500.000			38.400			-5.486
218600.000			38.400			-5.486
218701.000			38.400			-5.486
218800.000			38.398			-5.485
218900.000			38.397			-5.485
219002.000			38.397			-5.485
219101.000			38.397			-5.485
219200.000			38.396			-5.485
219301.000			38.397			-5.485
219400.000			38.397			-5.485
219500.000			38.397			-5.485
219601.000			38.396			-5.485
219700.000			38.395			-5.485
219800.000			38.396			-5.485
219901.000			38.395			-5.485
220001.000			38.394			-5.485
220101.000			38.394			-5.485
220201.000			38.394			-5.485
220300.000			38.394			-5.485
220400.000			38.394			-5.485
220501.000			38.393			-5.485
220600.000			38.392			-5.485
220700.000			38.393			-5.485
220801.000			38.393			-5.485
220901.000			38.392			-5.485
221002.000			38.392			-5.485
221101.000			38.391			-5.484
221200.000			38.390			-5.484
221301.000			38.390			-5.484
221400.000			38.389			-5.484
221500.000			38.389			-5.484
221601.000			38.390			-5.484
221700.000			38.389			-5.484
221801.000			38.389			-5.484
221902.000			38.390			-5.484
222001.000			38.389			-5.484
222100.000			38.388			-5.484
222201.000			38.388			-5.484
222300.000			38.388			-5.484
222400.000			38.388			-5.484
222501.000			38.388			-5.484
222600.000			38.387			-5.484
222700.000			38.386			-5.484
222802.000			38.386			-5.484
222901.000			38.387			-5.484
223000.000			38.386			-5.484
223101.000			38.386			-5.484
223200.000			38.385			-5.484
223300.000			38.384			-5.483
223401.000			38.385			-5.484
223500.000			38.385			-5.484
223600.000			38.384			-5.483
223702.000			38.384			-5.483
223801.000			38.383			-5.483
223901.000			38.383			-5.483
224001.000			38.382			-5.483
224100.000			38.382			-5.483
224200.000			38.381			-5.483
224300.000			38.380			-5.483
224400.000			38.381			-5.483
224501.000			38.381			-5.483
224600.000			38.381			-5.483
224701.000			38.380			-5.483
224802.000			38.379			-5.483
224900.000			38.379			-5.483
225000.000			38.379			-5.483
225101.000			38.379			-5.483
225200.000			38.379			-5.483
225300.000			38.379			-5.483
225401.000			38.378			-5.483
225500.000			38.378			-5.483
225600.000			38.378			-5.483
225702.000			38.377			-5.482
225801.000			38.377			-5.482
225900.000			38.376			-5.482
226001.000			38.377			-5.482
226100.000			38.377			-5.482
226200.000			38.376			-5.482
226301.000			38.376			-5.482
226400.000			38.375			-5.482
226500.000			38.374			-5.482
226602.000			38.374			-5.482
226701.000			38.375			-5.482
226801.000			38.374			-5.482
226901.000			38.374			-5.482
227000.000			38.373			-5.482
227100.000			38.373			-5.482
227201.000			38.373			-5.482
227300.000			38.372			-5.482
227400.000			38.373			-5.482
227500.000			38.373			-5.482
227601.000			38.371			-5.482
227702.000			38.371			-5.482
227800.000			38.371			-5.482
227900.000			38.370			-5.481
228001.000			38.370			-5.481
228100.000			38.370			-5.481
228200.000			38.370			-5.481
228301.000			38.369			-5.481
228400.000			38.369			-5.481
228501.000			38.369			-5.481
228602.000			38.370			-5.481
228701.000			38.368			-5.481
228800.000			38.368			-5.481
228901.000			38.369			-5.481
229000.000			38.368			-5.481
229100.000			38.367			-5.481
229201.000			38.368			-5.481
229300.000			38.367			-5.481
229400.000			38.365			-5.481
229502.000			38.365			-5.481
229601.000			38.365			-5.481
229701.000			38.365			-5.481
229801.000			38.366			-5.481
229900.000			38.366			-5.481
230000.000			38.365			-5.481
230101.000			38.364			-5.481
230200.000			38.364			-5.481
230300.000			38.364			-5.481
230401.000			38.364			-5.481
230501.000			38.363			-5.480
230602.000			38.362			-5.480
230700.000			38.362			-5.480
230800.000			38.362			-5.480
230901.000			38.362			-5.480
231000.000			38.362			-5.480
231100.000			38.362			-5.480
231201.000			38.361			-5.480
231300.000			38.361			-5.480
231401.000			38.361			-5.480
231502.000			38.361			-5.480
231600.000			38.361			-5.480
231700.000			38.360			-5.480
231801.000			38.359			-5.480
231900.000			38.359			-5.480
232000.000			38.358			-5.480
232101.000			38.357			-5.480
232200.000			38.358			-5.480
232301.000			38.358			-5.480
232402.000			38.358			-5.480
232501.000			38.358			-5.480
232600.000			38.357			-5.480
232701.000			38.356			-5.479
232800.000			38.356			-5.479
232900.000			38.356			-5.479
233001.000			38.356			-5.479
233100.000			38.355			-5.479
233200.000			38.354			-5.479
233302.000			38.354			-5.479
233401.000			38.354			-5.479
233500.000			38.354			-5.479
233601.000			38.354			-5.479
233700.000			38.354			-5.479
233800.000			38.354			-5.479
233900.000			38.354			-5.479
234000.000			38.354			-5.479
234101.000			38.353			-5.479
234201.000			38.353			-5.479
234301.000			38.352			-5.479
234402.000			38.352			-5.479
234500.000			38.352			-5.479
234600.000			38.352			-5.479
234701.000			38.352			-5.479
234800.000			38.351			-5.479
234900.000			38.350			-5.479
235001.000			38.349			-5.478
235101.000			38.350			-5.479
235201.000			38.350			-5.479
235302.000			38.349			-5.478
235400.000			38.348			-5.478
235500.000			38.348			-5.478
235601.000			38.348			-5.478
235700.000			38.347			-5.478
235800.000			38.347			-5.478
235901.000			38.347			-5.478
236000.000			38.346			-5.478
236101.000			38.346			-5.478
236202.000			38.346			-5.478
236301.000			38.345			-5.478
236400.000			38.346			-5.478
236501.000			38.345			-5.478
236600.000			38.345			-5.478
236700.000			38.345			-5.478
236801.000			38.343			-5.478
236900.000			38.344			-5.478
237000.000			38.344			-5.478
237102.000			38.345			-5.478
237201.000			38.343			-5.478
237301.000			38.343			-5.478
237400.000			38.342			-5.477
237500.000			38.342			-5.477
237601.000			38.342			-5.477
237700.000			38.341			-5.477
237800.000			38.342			-5.477
237901.000			38.341			-5.477
238001.000			38.340			-5.477
238101.000			38.340			-5.477
238201.000			38.340			-5.477
238300.000			38.340			-5.477
238400.000			38.340			-5.477
238501.000			38.339			-5.477
238600.000			38.339			-5.477
238700.000			38.338			-5.477
238801.000			38.338			-5.477
238901.000			38.338			-5.477
239001.000			38.338			-5.477
239102.000			38.337			-5.477
239200.000			38.337			-5.477
239300.000			38.337			-5.477
239401.000			38.337			-5.477
239500.000			38.336			-5.477
239600.000			38.336			-5.477
239701.000			38.335			-5.476
239800.000			38.336			-5.477
239901.000			38.336			-5.477
240002.000			38.336			-5.477
240101.000			38.335			-5.476
240200.000			38.334			-5.476
240300.000			38.333			-5.476
240400.000			38.334			-5.476
240501.000			38.334			-5.476
240600.000			38.334			-5.476
240700.000			38.333			-5.476
240802.000			38.333			-5.476
240901.000			38.333			-5.476
241001.000			38.333			-5.476
241101.000			38.332			-5.476
241200.000			38.331			-5.476
241300.000			38.329			-5.476
241401.000			38.331			-5.476
241500.000			38.331			-5.476
241600.000			38.330			-5.476
241702.000			38.329			-5.476
241801.000			38.330			-5.476
241901.000			38.330			-5.476
242001.000			38.329			-5.476
242100.000			38.329			-5.476
242200.000			38.328			-5.475
242301.000			38.328			-5.475
242400.000			38.328			-5.475
242500.000			38.328			-5.475
242601.000			38.327			-5.475
242701.000			38.327			-5.475
242801.000			38.327			-5.475
242901.000			38.327			-5.475
243000.000			38.327			-5.475
243100.000			38.325			-5.475
243201.000			38.325			-5.475
243300.000			38.326			-5.475
243400.000			38.325			-5.475
243500.000			38.325			-5.475
243601.000			38.325			-5.475
243702.000			38.325			-5.475
243801.000			38.323			-5.475
243900.000			38.323			-5.475
244001.000			38.323			-5.475
244100.000			38.324			-5.475
244200.000			38.323			-5.475
244301.000			38.323			-5.475
244400.000			38.323			-5.475
244501.000			38.321			-5.474
244602.000			38.321			-5.474
244701.000			38.321			-5.474
244800.000			38.321			-5.474
244901.000			38.320			-5.474
245000.000			38.321			-5.474
245100.000			38.322			-5.475
245201.000			38.321			-5.474
245300.000			38.319			-5.474
245400.000			38.319			-5.474
245502.000			38.319			-5.474
245601.000			38.320			-5.474
245700.000			38.318			-5.474
245801.000			38.317			-5.474
245900.000			38.317			-5.474
246000.000			38.318			-5.474
246101.000			38.318			-5.474
246200.000			38.317			-5.474
246300.000			38.317			-5.474
246402.000			38.316			-5.474
246501.000			38.316			-5.474
246602.000			38.315			-5.474
246700.000			38.315			-5.474
246800.000			38.315			-5.474
246901.000			38.315			-5.474
247000.000			38.315			-5.474
247100.000			38.315			-5.474
247201.000			38.315			-5.474
247301.000			38.314			-5.473
247401.000			38.314			-5.473
247502.000			38.313			-5.473
247600.000			38.313			-5.473
247700.000			38.314			-5.473
247801.000			38.314			-5.473
247900.000			38.312			-5.473
248000.000			38.311			-5.473
248101.000			38.311			-5.473
248200.000			38.312			-5.473
248301.000			38.311			-5.473
248402.000			38.311			-5.473
248500.000			38.310			-5.473
248600.000			38.310			-5.473
248701.000			38.309			-5.473
248800.000			38.309			-5.473
248900.000			38.309			-5.473
249001.000			38.309			-5.473
249100.000			38.309			-5.473
249201.000			38.310			-5.473
249302.000			38.309			-5.473
249401.000			38.309			-5.473
249500.000			38.309			-5.473
249601.000			38.309			-5.473
249700.000			38.308			-5.473
249800.000			38.308			-5.473
249900.000			38.307			-5.472
250000.000			38.307			-5.472
250101.000			38.306			-5.472
250201.000			38.307			-5.472
250301.000			38.306			-5.472
250401.000			38.306			-5.472
250500.000			38.305			-5.472
250600.000			38.305			-5.472
250701.000			38.305			-5.472
250800.000			38.305			-5.472
250900.000			38.303			-5.472
251001.000			38.303			-5.472
251101.000			38.303			-5.472
251201.000			38.303			-5.472
251301.000			38.303			-5.472
251400.000			38.303			-5.472
251500.000			38.303			-5.472
251601.000			38.302			-5.472
251700.000			38.302			-5.472
251800.000			38.301			-5.472
251901.000			38.301			-5.472
252001.000			38.300			-5.471
252101.000			38.301			-5.472
252201.000			38.302			-5.472
252300.000			38.301			-5.472
252400.000			38.300			-5.471
252501.000			38.299			-5.471
252600.000			38.299			-5.471
252700.000			38.299			-5.471
252801.000			38.299			-5.471
252901.000			38.299			-5.471
253002.000			38.299			-5.471
253101.000			38.297			-5.471
253200.000			38.297			-5.471
253301.000			38.298			-5.471
253400.000			38.297			-5.471
253500.000			38.297			-5.471
253601.000			38.297			-5.471
253700.000			38.297			-5.471
253800.000			38.296			-5.471
253902.000			38.296			-5.471
254001.000			38.296			-5.471
254101.000			38.295			-5.471
254201.000			38.294			-5.471
254300.000			38.295			-5.471
254400.000			38.295			-5.471
254501.000			38.295			-5.471
254600.000			38.295			-5.471
254700.000			38.294			-5.471
254801.000			38.293			-5.470
254901.000			38.293			-5.470
255001.000			38.293			-5.470
255101.000			38.292			-5.470
255200.000			38.292			-5.470
255300.000			38.291			-5.470
255401.000			38.291			-5.470
255500.000			38.291			-5.470
255600.000			38.291			-5.470
255701.000			38.291			-5.470
255801.000			38.290			-5.470
255901.000			38.290			-5.470
256002.000			38.289			-5.470
256100.000			38.288			-5.470
256200.000			38.289			-5.470
256300.000			38.289			-5.470
256400.000			38.289			-5.470
256501.000			38.289			-5.470
256600.000			38.289			-5.470
256700.000			38.288			-5.470
256802.000			38.288			-5.470
256901.000			38.287			-5.470
257001.000			38.287			-5.470
257101.000			38.287			-5.470
257200.000			38.287			-5.470
257300.000			38.287			-5.470
257401.000			38.287			-5.470
257500.000			38.286			-5.469
257600.000			38.286			-5.469
257701.000			38.286			-5.469
257801.000			38.285			-5.469
257901.000			38.286			-5.469
258002.000			38.285			-5.469
258100.000			38.283			-5.469
258200.000			38.285			-5.469
258301.000			38.284			-5.469
258400.000			38.283			-5.469
258500.000			38.283			-5.469
258601.000			38.283			-5.469
258700.000			38.283			-5.469
258801.000			38.282			-5.469
258902.000			38.282			-5.469
259001.000			38.281			-5.469
259100.000			38.281			-5.469
259201.000			38.281			-5.469
259300.000			38.281			-5.469
259400.000			38.282			-5.469
259500.000			38.280			-5.469
259600.000			38.280			-5.469
259701.000			38.280			-5.469
259801.000			38.280			-5.469
259901.000			38.280			-5.469
260002.000			38.279			-5.468
260100.000			38.279			-5.468
260200.000			38.279			-5.468
260301.000			38.278			-5.468
260400.000			38.278			-5.468
260500.000			38.277			-5.468
260601.000			38.276			-5.468
260700.000			38.277			-5.468
260801.000			38.277			-5.468
260902.000			38.277			-5.468
261000.000			38.277			-5.468
261100.000			38.277			-5.468
261201.000			38.276			-5.468
261300.000			38.275			-5.468
261400.000			38.275			-5.468
261501.000			38.275			-5.468
261600.000			38.275			-5.468
261701.000			38.275			-5.468
261802.000			38.274			-5.468
261901.000			38.274			-5.468
262000.000			38.273			-5.468
262101.000			38.273			-5.468
262200.000			38.272			-5.467
262300.000			38.273			-5.468
262401.000			38.272			-5.467
262500.000			38.273			-5.468
262600.000			38.272			-5.467
262702.000			38.272			-5.467
262801.000			38.271			-5.467
262901.000			38.270			-5.467
263000.000			38.271			-5.467
263100.000			38.269			-5.467
263201.000			38.270			-5.467
263300.000			38.271			-5.467
263400.000			38.270			-5.467
263501.000			38.271			-5.467
263601.000			38.270			-5.467
263701.000			38.269			-5.467
263801.000			38.269			-5.467
263900.000			38.269			-5.467
264000.000			38.269			-5.467
264101.000			38.269			-5.467
264200.000			38.269			-5.467
264300.000			38.267			-5.467
264401.000			38.267			-5.467
264501.000			38.267			-5.467
264601.000			38.266			-5.467
264702.000			38.266			-5.467
264800.000			38.266			-5.467
264900.000			38.266			-5.467
265001.000			38.265			-5.466
265100.000			38.265			-5.466
265200.000			38.265			-5.466
265301.000			38.265			-5.466
265400.000			38.266			-5.467
265501.000			38.264			-5.466
265602.000			38.264			-5.466
265701.000			38.264			-5.466
265800.000			38.264			-5.466
265900.000			38.264			-5.466
266000.000			38.264			-5.466
266101.000			38.263			-5.466
266200.000			38.263			-5.466
266300.000			38.263			-5.466
266401.000			38.263			-5.466
266501.000			38.263			-5.466
266601.000			38.262			-5.466
266701.000			38.261			-5.466
266800.000			38.261			-5.466
266900.000			38.260			-5.466
267001.000			38.260			-5.466
267100.000			38.260			-5.466
267200.000			38.260			-5.466
267301.000			38.260			-5.466
267401.000			38.259			-5.466
267501.000			38.259			-5.466
267602.000			38.259			-5.466
267700.000			38.258			-5.465
267800.000			38.257			-5.465
267901.000			38.257			-5.465
268000.000			38.258			-5.465
268100.000			38.258			-5.465
268201.000			38.258			-5.465
268300.000			38.257			-5.465
268401.000			38.258			-5.465
268502.000			38.256			-5.465
268601.000			38.256			-5.465
268700.000			38.256			-5.465
268801.000			38.255			-5.465
268900.000			38.255			-5.465
269000.000			38.255			-5.465
269100.000			38.254			-5.465
269200.000			38.254			-5.465
269301.000			38.254			-5.465
269401.000			38.253			-5.465
269501.000			38.253			-5.465
269601.000			38.254			-5.465
269700.000			38.254			-5.465
269800.000			38.253			-5.465
269901.000			38.253			-5.465
270000.000			38.252			-5.465
270100.000			38.252			-5.465
270201.000			38.252			-5.465
270301.000			38.252			-5.465
270401.000			38.252			-5.465
270502.000			38.251			-5.464
270600.000			38.251			-5.464
270700.000			38.251			-5.464
270801.000			38.250			-5.464
270900.000			38.250			-5.464
271000.000			38.251			-5.464
271101.000			38.250			-5.464
271200.000			38.250			-5.464
271301.000			38.249			-5.464
271402.000			38.248			-5.464
271500.000			38.249			-5.464
271600.000			38.249			-5.464
271701.000			38.248			-5.464
271800.000			38.248			-5.464
271900.000			38.248			-5.464
272001.000			38.247			-5.464
272100.000			38.247			-5.464
272200.000			38.247			-5.464
272302.000			38.247			-5.464
272401.000			38.246			-5.464
272501.000			38.246			-5.464
272600.000			38.246			-5.464
272700.000			38.246			-5.464
272801.000			38.245			-5.464
272900.000			38.244			-5.463
273000.000			38.245			-5.464
273101.000			38.245			-5.464
273201.000			38.245			-5.464
273301.000			38.244			-5.463
273401.000			38.244			-5.463
273500.000			38.243			-5.463
273600.000			38.243			-5.463
273701.000			38.244			-5.463
273800.000			38.244			-5.463
273900.000			38.243			-5.463
274001.000			38.242			-5.463
274101.000			38.241			-5.463
274201.000			38.242			-5.463
274302.000			38.242			-5.463
274400.000			38.241			-5.463
274500.000			38.241			-5.463
274601.000			38.241			-5.463
274700.000			38.241			-5.463
274800.000			38.241			-5.463
274901.000			38.240			-5.463
275000.000			38.240			-5.463
275101.000			38.240			-5.463
275202.000			38.239			-5.463
275300.000			38.239			-5.463
275400.000			38.239			-5.463
275500.000			38.239			-5.463
275600.000			38.238			-5.463
275701.000			38.237			-5.462
275800.000			38.237			-5.462
275900.000			38.237			-5.462
276002.000			38.237			-5.462
276101.000			38.237			-5.462
276201.000			38.236			-5.462
276301.000			38.235			-5.462
276400.000			38.236			-5.462
276500.000			38.235			-5.462
276601.000			38.235			-5.462
276700.000			38.235			-5.462
276800.000			38.235			-5.462
276901.000			38.235			-5.462
277001.000			38.235			-5.462
277101.000			38.234			-5.462
277201.000			38.234			-5.462
277300.000			38.235			-5.462
277400.000			38.234			-5.462
277501.000			38.234			-5.462
277600.000			38.234			-5.462
277700.000			38.233			-5.462
277801.000			38.233			-5.462
277901.000			38.232			-5.462
278001.000			38.231			-5.462
278102.000			38.232			-5.462
278200.000			38.232			-5.462
278300.000			38.230			-5.461
278401.000			38.231			-5.462
278500.000			38.231			-5.462
278600.000			38.230			-5.461
278700.000			38.230			-5.461
278800.000			38.230			-5.461
278902.000			38.230			-5.461
279001.000			38.229			-5.461
279101.000			38.228			-5.461
279201.000			38.228			-5.461
279300.000			38.228			-5.461
279400.000			38.228			-5.461
279501.000			38.228			-5.461
279600.000			38.228			-5.461
279700.000			38.227			-5.461
279801.000			38.227			-5.461
279901.000			38.227			-5.461
280001.000			38.226			-5.461
280101.000			38.226			-5.461
280200.000			38.226			-5.461
280300.000			38.226			-5.461
280401.000			38.226			-5.461
280500.000			38.227			-5.461
280600.000			38.225			-5.461
280701.000			38.225			-5.461
280801.000			38.225			-5.461
280901.000			38.225			-5.461
281002.000			38.223			-5.460
281100.000			38.224			-5.461
281200.000			38.225			-5.461
281301.000			38.224			-5.461
281400.000			38.224			-5.461
281500.000			38.223			-5.460
281601.000			38.222			-5.460
281701.000			38.223			-5.460
281802.000			38.223			-5.460
281901.000			38.222			-5.460
282000.000			38.222			-5.460
282101.000			38.221			-5.460
282200.000			38.221			-5.460
282300.000			38.220			-5.460
282401.000			38.221			-5.460
282500.000			38.222			-5.460
282600.000			38.220			-5.460
282702.000			38.219			-5.460
282801.000			38.219			-5.460
282900.000			38.219			-5.460
283001.000			38.219			-5.460
283100.000			38.219			-5.460
283200.000			38.218			-5.460
283301.000			38.218			-5.460
283400.000			38.218			-5.460
283500.000			38.218			-5.460
283602.000			38.218			-5.460
283701.000			38.217			-5.460
283801.000			38.217			-5.460
283901.000			38.217			-5.460
284000.000			38.217			-5.460
284100.000			38.216			-5.459
284201.000			38.216			-5.459
284300.000			38.216			-5.459
284400.000			38.216			-5.459
284501.000			38.215			-5.459
284601.000			38.215			-5.459
284701.000			38.215			-5.459
284801.000			38.215			-5.459
284900.000			38.215			-5.459
285000.000			38.214			-5.459
285100.000			38.215			-5.459
285200.000			38.214			-5.459
285301.000			38.214			-5.459
285400.000			38.213			-5.459
285501.000			38.214			-5.459
285602.000			38.213			-5.459
285701.000			38.212			-5.459
285800.000			38.212			-5.459
285901.000			38.213			-5.459
286000.000			38.213			-5.459
286100.000			38.211			-5.459
286201.000			38.211			-5.459
286300.000			38.211			-5.459
286401.000			38.210			-5.459
286502.000			38.209			-5.458
286601.000			38.209			-5.458
286700.000			38.210			-5.459
286801.000			38.209			-5.458
286900.000			38.209			-5.458
287000.000			38.209			-5.458
287101.000			38.209			-5.458
287200.000			38.210			-5.459
287300.000			38.209			-5.458
287402.000			38.209			-5.458
287501.000			38.209			-5.458
287600.000			38.208			-5.458
287701.000			38.208			-5.458
287800.000			38.207			-5.458
287900.000			38.207			-5.458
288001.000			38.207			-5.458
288100.000			38.206			-5.458
288200.000			38.207			-5.458
288302.000			38.206			-5.458
288401.000			38.206			-5.458
288502.000			38.206			-5.458
288600.000			38.205			-5.458
288700.000			38.205			-5.458
288801.000			38.205			-5.458
288900.000			38.205			-5.458
289000.000			38.204			-5.458
289101.000			38.204			-5.458
289200.000			38.204			-5.458
289301.000			38.204			-5.458
289402.000			38.204			-5.458
289501.000			38.204			-5.458
289600.000			38.203			-5.458
289701.000			38.203			-5.458
289800.000			38.202			-5.457
289900.000			38.201			-5.457
290001.000			38.201			-5.457
290100.000			38.201			-5.457
290201.000			38.202			-5.457
290302.000			38.201			-5.457
290401.000			38.200			-5.457
290500.000			38.200			-5.457
290601.000			38.200			-5.457
290700.000			38.200			-5.457
290800.000			38.200			-5.457
290901.000			38.200			-5.457
291000.000			38.199			-5.457
291101.000			38.199			-5.457
291202.000			38.199			-5.457
291301.000			38.198			-5.457
291400.000			38.198			-5.457
291500.000			38.198			-5.457
291600.000			38.198			-5.457
291701.000			38.197			-5.457
291800.000			38.198			-5.457
291900.000			38.198			-5.457
292001.000			38.196			-5.457
292101.000			38.196			-5.457
292201.000			38.195			-5.456
292302.000			38.196			-5.457
292400.000			38.196			-5.457
292500.000			38.196			-5.457
292601.000			38.197			-5.457
292700.000			38.197			-5.457
292800.000			38.196			-5.457
292901.000			38.195			-5.456
293000.000			38.195			-5.456
293101.000			38.195			-5.456
293202.000			38.195			-5.456
293301.000			38.194			-5.456
293400.000			38.194			-5.456
293501.000			38.194			-5.456
293600.000			38.194			-5.456
293700.000			38.193			-5.456
293801.000			38.193			-5.456
293900.000			38.193			-5.456
294000.000			38.191			-5.456
294102.000			38.191			-5.456
294201.000			38.192			-5.456
294300.000			38.192			-5.456
294401.000			38.192			-5.456
294500.000			38.191			-5.456
294600.000			38.190			-5.456
294700.000			38.189			-5.456
294800.000			38.190			-5.456
294901.000			38.190			-5.456
295000.000			38.190			-5.456
295101.000			38.190			-5.456
295202.000			38.189			-5.456
295301.000			38.187			-5.455
295400.000			38.188			-5.455
295501.000			38.188			-5.455
295600.000			38.188			-5.455
295700.000			38.187			-5.455
295801.000			38.187			-5.455
295900.000			38.187			-5.455
296000.000			38.187			-5.455
296102.000			38.187			-5.455
296201.000			38.187			-5.455
296300.000			38.187			-5.455
296401.000			38.186			-5.455
296500.000			38.186			-5.455
296600.000			38.186			-5.455
296701.000			38.186			-5.455
296800.000			38.186			-5.455
296900.000			38.185			-5.455
297001.000			38.185			-5.455
297101.000			38.185			-5.455
297201.000			38.185			-5.455
297301.000			38.185			-5.455
297400.000			38.185			-5.455
297500.000			38.184			-5.455
297601.000			38.183			-5.455
297700.000			38.183			-5.455
297800.000			38.183			-5.455
297900.000			38.183			-5.455
298001.000			38.183			-5.455
298102.000			38.182			-5.455
298201.000			38.181			-5.454
298300.000			38.182			-5.455
298401.000			38.182			-5.455
298500.000			38.180			-5.454
298600.000			38.180			-5.454
298701.000			38.181			-5.454
298800.000			38.180			-5.454
298900.000			38.180			-5.454
299002.000			38.181			-5.454
299101.000			38.180			-5.454
299201.000			38.180			-5.454
299301.000			38.180			-5.454
299400.000			38.179			-5.454
299500.000			38.179			-5.454
299601.000			38.178			-5.454
299700.000			38.179			-5.454
299800.000			38.178			-5.454
299901.000			38.179			-5.454
