# Acquired on 10/01/2024 17:33:24 
# SPIDER: Creep_-9mm_07714532C-1
# CREEP MEASUREMENT

# time [ms]		force [N]		stiffness [N/mm]
0.000			17.513			-1.946
100.000			18.551			-2.061
201.000			18.989			-2.110
301.000			18.999			-2.111
401.000			18.806			-2.090
501.000			18.740			-2.082
600.000			18.685			-2.076
700.000			18.638			-2.071
801.000			18.596			-2.066
900.000			18.558			-2.062
1001.000			18.523			-2.058
1102.000			18.463			-2.051
1200.000			18.436			-2.048
1300.000			18.411			-2.046
1401.000			18.388			-2.043
1500.000			18.366			-2.041
1600.000			18.346			-2.038
1701.000			18.327			-2.036
1801.000			18.289			-2.032
1901.000			18.271			-2.030
2001.000			18.256			-2.028
2100.000			18.240			-2.027
2200.000			18.226			-2.025
2301.000			18.210			-2.023
2400.000			18.197			-2.022
2500.000			18.183			-2.020
2602.000			18.159			-2.018
2701.000			18.147			-2.016
2800.000			18.135			-2.015
2901.000			18.124			-2.014
3000.000			18.113			-2.013
3100.000			18.101			-2.011
3201.000			18.090			-2.010
3301.000			18.070			-2.008
3402.000			18.061			-2.007
3500.000			18.051			-2.006
3600.000			18.043			-2.005
3701.000			18.034			-2.004
3800.000			18.025			-2.003
3900.000			18.016			-2.002
4001.000			18.001			-2.000
4101.000			17.992			-1.999
4201.000			17.983			-1.998
4301.000			17.975			-1.997
4400.000			17.968			-1.996
4500.000			17.961			-1.996
4601.000			17.954			-1.995
4700.000			17.947			-1.994
4800.000			17.932			-1.992
4902.000			17.926			-1.992
5001.000			17.919			-1.991
5100.000			17.914			-1.990
5201.000			17.907			-1.990
5300.000			17.900			-1.989
5400.000			17.895			-1.988
5501.000			17.882			-1.987
5601.000			17.875			-1.986
5701.000			17.870			-1.986
5802.000			17.864			-1.985
5900.000			17.858			-1.984
6000.000			17.852			-1.984
6101.000			17.847			-1.983
6200.000			17.837			-1.982
6300.000			17.831			-1.981
6401.000			17.827			-1.981
6501.000			17.821			-1.980
6602.000			17.815			-1.979
6700.000			17.810			-1.979
6800.000			17.806			-1.978
6901.000			17.796			-1.977
7000.000			17.791			-1.977
7100.000			17.786			-1.976
7202.000			17.782			-1.976
7301.000			17.777			-1.975
7401.000			17.772			-1.975
7501.000			17.767			-1.974
7600.000			17.764			-1.974
7700.000			17.755			-1.973
7801.000			17.752			-1.972
7900.000			17.748			-1.972
8001.000			17.744			-1.972
8102.000			17.739			-1.971
8201.000			17.734			-1.970
8300.000			17.730			-1.970
8401.000			17.723			-1.969
8500.000			17.718			-1.969
8600.000			17.714			-1.968
8701.000			17.710			-1.968
8801.000			17.706			-1.967
8901.000			17.703			-1.967
9001.000			17.699			-1.967
9100.000			17.691			-1.966
9200.000			17.687			-1.965
9301.000			17.684			-1.965
9400.000			17.680			-1.964
9500.000			17.677			-1.964
9602.000			17.674			-1.964
9701.000			17.671			-1.963
9801.000			17.663			-1.963
9900.000			17.660			-1.962
10000.000			17.657			-1.962
10101.000			17.654			-1.962
10200.000			17.650			-1.961
10300.000			17.647			-1.961
10402.000			17.644			-1.960
10501.000			17.639			-1.960
10600.000			17.633			-1.959
10701.000			17.630			-1.959
10800.000			17.627			-1.959
10900.000			17.623			-1.958
11001.000			17.620			-1.958
11100.000			17.618			-1.958
11201.000			17.615			-1.957
11302.000			17.610			-1.957
11400.000			17.606			-1.956
11500.000			17.603			-1.956
11601.000			17.600			-1.956
11700.000			17.597			-1.955
11800.000			17.594			-1.955
11901.000			17.591			-1.955
12001.000			17.586			-1.954
12101.000			17.584			-1.954
12201.000			17.580			-1.953
12300.000			17.578			-1.953
12400.000			17.576			-1.953
12501.000			17.572			-1.952
12600.000			17.570			-1.952
12700.000			17.564			-1.952
12802.000			17.561			-1.951
12901.000			17.559			-1.951
13001.000			17.557			-1.951
13100.000			17.555			-1.951
13200.000			17.552			-1.950
13301.000			17.550			-1.950
13400.000			17.547			-1.950
13500.000			17.540			-1.949
13602.000			17.538			-1.949
13701.000			17.536			-1.948
13800.000			17.533			-1.948
13901.000			17.531			-1.948
14000.000			17.528			-1.948
14100.000			17.526			-1.947
14201.000			17.520			-1.947
14300.000			17.519			-1.947
14401.000			17.517			-1.946
14502.000			17.516			-1.946
14600.000			17.513			-1.946
14700.000			17.510			-1.946
14801.000			17.508			-1.945
14900.000			17.503			-1.945
15000.000			17.500			-1.944
15101.000			17.500			-1.944
15201.000			17.497			-1.944
15301.000			17.494			-1.944
15401.000			17.492			-1.944
15500.000			17.489			-1.943
15600.000			17.487			-1.943
15701.000			17.483			-1.943
15800.000			17.480			-1.942
15900.000			17.479			-1.942
16002.000			17.479			-1.942
16101.000			17.476			-1.942
16201.000			17.474			-1.942
16300.000			17.471			-1.941
16400.000			17.467			-1.941
16501.000			17.464			-1.940
16600.000			17.463			-1.940
16700.000			17.461			-1.940
16802.000			17.459			-1.940
16901.000			17.456			-1.940
17000.000			17.454			-1.939
17101.000			17.450			-1.939
17200.000			17.449			-1.939
17300.000			17.447			-1.939
17401.000			17.444			-1.938
17500.000			17.442			-1.938
17601.000			17.440			-1.938
17702.000			17.439			-1.938
17800.000			17.435			-1.937
17900.000			17.434			-1.937
18001.000			17.432			-1.937
18100.000			17.430			-1.937
18200.000			17.428			-1.936
18301.000			17.427			-1.936
18401.000			17.424			-1.936
18501.000			17.422			-1.936
18601.000			17.419			-1.935
18700.000			17.418			-1.935
18800.000			17.416			-1.935
18901.000			17.413			-1.935
19000.000			17.412			-1.935
19100.000			17.410			-1.934
19202.000			17.408			-1.934
19301.000			17.405			-1.934
19401.000			17.402			-1.934
19500.000			17.400			-1.933
19600.000			17.399			-1.933
19701.000			17.398			-1.933
19800.000			17.396			-1.933
19900.000			17.394			-1.933
20002.000			17.390			-1.932
20101.000			17.388			-1.932
20200.000			17.386			-1.932
20301.000			17.385			-1.932
20400.000			17.384			-1.932
20500.000			17.383			-1.931
20601.000			17.381			-1.931
20700.000			17.377			-1.931
20801.000			17.376			-1.931
20902.000			17.375			-1.931
21000.000			17.373			-1.930
21100.000			17.370			-1.930
21201.000			17.368			-1.930
21300.000			17.367			-1.930
21400.000			17.365			-1.929
21501.000			17.361			-1.929
21601.000			17.361			-1.929
21701.000			17.360			-1.929
21801.000			17.359			-1.929
21900.000			17.357			-1.929
22000.000			17.355			-1.928
22101.000			17.354			-1.928
22200.000			17.351			-1.928
22300.000			17.350			-1.928
22402.000			17.348			-1.928
22501.000			17.347			-1.927
22601.000			17.345			-1.927
22700.000			17.344			-1.927
22800.000			17.341			-1.927
22901.000			17.338			-1.926
23000.000			17.336			-1.926
23101.000			17.335			-1.926
23202.000			17.334			-1.926
23300.000			17.333			-1.926
23400.000			17.331			-1.926
23501.000			17.329			-1.925
23600.000			17.329			-1.925
23700.000			17.325			-1.925
23801.000			17.324			-1.925
23901.000			17.322			-1.925
24001.000			17.322			-1.925
24101.000			17.319			-1.924
24200.000			17.318			-1.924
24300.000			17.317			-1.924
24401.000			17.315			-1.924
24500.000			17.314			-1.924
24600.000			17.311			-1.923
24702.000			17.309			-1.923
24801.000			17.308			-1.923
24900.000			17.307			-1.923
25001.000			17.307			-1.923
25100.000			17.303			-1.923
25200.000			17.302			-1.922
25301.000			17.300			-1.922
25400.000			17.300			-1.922
25501.000			17.299			-1.922
25602.000			17.297			-1.922
25700.000			17.295			-1.922
25801.000			17.293			-1.921
25900.000			17.292			-1.921
26000.000			17.290			-1.921
26101.000			17.288			-1.921
26200.000			17.287			-1.921
26301.000			17.286			-1.921
26402.000			17.284			-1.920
26500.000			17.283			-1.920
26600.000			17.282			-1.920
26701.000			17.280			-1.920
26800.000			17.279			-1.920
26900.000			17.277			-1.920
27001.000			17.276			-1.920
27101.000			17.274			-1.919
27201.000			17.273			-1.919
27301.000			17.270			-1.919
27400.000			17.269			-1.919
27500.000			17.268			-1.919
27601.000			17.268			-1.919
27700.000			17.267			-1.919
27800.000			17.265			-1.918
27902.000			17.265			-1.918
28001.000			17.261			-1.918
28100.000			17.260			-1.918
28201.000			17.258			-1.918
28300.000			17.257			-1.917
28400.000			17.257			-1.917
28501.000			17.255			-1.917
28600.000			17.254			-1.917
28701.000			17.251			-1.917
28802.000			17.251			-1.917
28901.000			17.250			-1.917
29001.000			17.250			-1.917
29100.000			17.248			-1.916
29200.000			17.245			-1.916
29301.000			17.244			-1.916
29400.000			17.243			-1.916
29500.000			17.241			-1.916
29602.000			17.239			-1.915
29701.000			17.240			-1.916
29800.000			17.239			-1.915
29901.000			17.238			-1.915
30000.000			17.236			-1.915
30100.000			17.234			-1.915
30201.000			17.233			-1.915
30301.000			17.231			-1.915
30401.000			17.229			-1.914
30502.000			17.229			-1.914
30600.000			17.229			-1.914
30700.000			17.228			-1.914
30801.000			17.227			-1.914
30900.000			17.223			-1.914
31000.000			17.223			-1.914
31101.000			17.222			-1.914
31201.000			17.221			-1.913
31301.000			17.220			-1.913
31401.000			17.218			-1.913
31500.000			17.217			-1.913
31600.000			17.216			-1.913
31701.000			17.214			-1.913
31800.000			17.212			-1.912
31900.000			17.210			-1.912
32002.000			17.210			-1.912
32101.000			17.209			-1.912
32201.000			17.209			-1.912
32300.000			17.208			-1.912
32400.000			17.205			-1.912
32501.000			17.204			-1.912
32600.000			17.204			-1.912
32701.000			17.203			-1.911
32802.000			17.201			-1.911
32900.000			17.200			-1.911
33000.000			17.198			-1.911
33101.000			17.197			-1.911
33200.000			17.196			-1.911
33300.000			17.195			-1.911
33401.000			17.195			-1.911
33501.000			17.193			-1.910
33601.000			17.192			-1.910
33701.000			17.190			-1.910
33800.000			17.189			-1.910
33900.000			17.189			-1.910
34001.000			17.187			-1.910
34100.000			17.184			-1.909
34200.000			17.185			-1.909
34302.000			17.185			-1.909
34401.000			17.184			-1.909
34500.000			17.183			-1.909
34601.000			17.179			-1.909
34700.000			17.178			-1.909
34800.000			17.178			-1.909
34901.000			17.178			-1.909
35000.000			17.176			-1.908
35101.000			17.175			-1.908
35202.000			17.174			-1.908
35300.000			17.172			-1.908
35401.000			17.171			-1.908
35500.000			17.170			-1.908
35600.000			17.170			-1.908
35701.000			17.168			-1.908
35800.000			17.168			-1.908
35901.000			17.167			-1.907
36002.000			17.164			-1.907
36101.000			17.162			-1.907
36200.000			17.162			-1.907
36301.000			17.161			-1.907
36400.000			17.161			-1.907
36500.000			17.159			-1.907
36601.000			17.159			-1.907
36701.000			17.157			-1.906
36801.000			17.155			-1.906
36901.000			17.154			-1.906
37000.000			17.153			-1.906
37100.000			17.152			-1.906
37201.000			17.152			-1.906
37300.000			17.151			-1.906
37400.000			17.151			-1.906
37502.000			17.148			-1.905
37601.000			17.147			-1.905
37700.000			17.146			-1.905
37801.000			17.145			-1.905
37900.000			17.145			-1.905
38000.000			17.144			-1.905
38101.000			17.143			-1.905
38200.000			17.141			-1.905
38301.000			17.141			-1.905
38402.000			17.140			-1.904
38500.000			17.138			-1.904
38601.000			17.138			-1.904
38700.000			17.137			-1.904
38800.000			17.137			-1.904
38901.000			17.133			-1.904
39000.000			17.133			-1.904
39101.000			17.132			-1.904
39202.000			17.131			-1.903
39300.000			17.130			-1.903
39400.000			17.129			-1.903
39501.000			17.129			-1.903
39600.000			17.129			-1.903
39700.000			17.127			-1.903
39801.000			17.125			-1.903
39901.000			17.124			-1.903
40001.000			17.124			-1.903
40101.000			17.123			-1.903
40200.000			17.122			-1.902
40300.000			17.122			-1.902
40401.000			17.120			-1.902
40500.000			17.120			-1.902
40600.000			17.119			-1.902
40702.000			17.117			-1.902
40801.000			17.116			-1.902
40900.000			17.116			-1.902
41001.000			17.115			-1.902
41100.000			17.113			-1.901
41200.000			17.113			-1.901
41301.000			17.111			-1.901
41400.000			17.110			-1.901
41501.000			17.110			-1.901
41602.000			17.110			-1.901
41700.000			17.109			-1.901
41801.000			17.107			-1.901
41900.000			17.105			-1.901
42000.000			17.105			-1.901
42101.000			17.104			-1.900
42201.000			17.103			-1.900
42301.000			17.102			-1.900
42401.000			17.102			-1.900
42500.000			17.101			-1.900
42600.000			17.099			-1.900
42701.000			17.098			-1.900
42800.000			17.097			-1.900
42900.000			17.097			-1.900
43002.000			17.097			-1.900
43101.000			17.096			-1.900
43201.000			17.095			-1.899
43301.000			17.093			-1.899
43400.000			17.092			-1.899
43500.000			17.092			-1.899
43601.000			17.091			-1.899
43700.000			17.090			-1.899
43801.000			17.088			-1.899
43902.000			17.088			-1.899
44001.000			17.087			-1.899
44100.000			17.086			-1.898
44201.000			17.085			-1.898
44300.000			17.084			-1.898
44400.000			17.083			-1.898
44501.000			17.082			-1.898
44601.000			17.082			-1.898
44701.000			17.081			-1.898
44801.000			17.080			-1.898
44900.000			17.078			-1.898
45001.000			17.078			-1.898
45100.000			17.078			-1.898
45200.000			17.077			-1.897
45301.000			17.076			-1.897
45401.000			17.074			-1.897
45501.000			17.073			-1.897
45601.000			17.073			-1.897
45700.000			17.072			-1.897
45800.000			17.072			-1.897
45901.000			17.071			-1.897
46000.000			17.071			-1.897
46100.000			17.069			-1.897
46202.000			17.067			-1.896
46301.000			17.066			-1.896
46400.000			17.065			-1.896
46501.000			17.065			-1.896
46600.000			17.064			-1.896
46700.000			17.064			-1.896
46801.000			17.063			-1.896
46900.000			17.062			-1.896
47000.000			17.061			-1.896
47102.000			17.060			-1.896
47201.000			17.060			-1.896
47300.000			17.060			-1.896
47401.000			17.059			-1.895
47500.000			17.058			-1.895
47600.000			17.057			-1.895
47701.000			17.054			-1.895
47801.000			17.054			-1.895
47901.000			17.053			-1.895
48001.000			17.053			-1.895
48100.000			17.052			-1.895
48201.000			17.051			-1.895
48300.000			17.050			-1.894
48400.000			17.049			-1.894
48501.000			17.048			-1.894
48601.000			17.047			-1.894
48701.000			17.046			-1.894
48802.000			17.046			-1.894
48900.000			17.046			-1.894
49000.000			17.045			-1.894
49101.000			17.043			-1.894
49200.000			17.042			-1.894
49300.000			17.042			-1.894
49401.000			17.041			-1.893
49501.000			17.040			-1.893
49601.000			17.039			-1.893
49701.000			17.039			-1.893
49800.000			17.039			-1.893
49900.000			17.038			-1.893
50001.000			17.037			-1.893
50100.000			17.036			-1.893
50200.000			17.035			-1.893
50302.000			17.035			-1.893
50401.000			17.033			-1.893
50500.000			17.032			-1.892
50601.000			17.032			-1.892
50700.000			17.032			-1.892
50800.000			17.031			-1.892
50901.000			17.029			-1.892
51001.000			17.028			-1.892
51101.000			17.028			-1.892
51201.000			17.028			-1.892
51300.000			17.026			-1.892
51401.000			17.026			-1.892
51500.000			17.024			-1.892
51600.000			17.024			-1.892
51701.000			17.023			-1.891
51801.000			17.022			-1.891
51901.000			17.022			-1.891
52001.000			17.021			-1.891
52100.000			17.021			-1.891
52200.000			17.021			-1.891
52301.000			17.020			-1.891
52400.000			17.019			-1.891
52500.000			17.018			-1.891
52602.000			17.017			-1.891
52701.000			17.017			-1.891
52800.000			17.014			-1.890
52901.000			17.015			-1.891
53000.000			17.014			-1.890
53100.000			17.013			-1.890
53201.000			17.012			-1.890
53300.000			17.011			-1.890
53401.000			17.011			-1.890
53502.000			17.010			-1.890
53600.000			17.009			-1.890
53700.000			17.009			-1.890
53801.000			17.009			-1.890
53900.000			17.008			-1.890
54000.000			17.007			-1.890
54101.000			17.005			-1.889
54201.000			17.004			-1.889
54301.000			17.004			-1.889
54401.000			17.003			-1.889
54500.000			17.002			-1.889
54601.000			17.002			-1.889
54700.000			17.001			-1.889
54800.000			17.000			-1.889
54902.000			16.999			-1.889
55001.000			16.998			-1.889
55101.000			16.998			-1.889
55201.000			16.997			-1.889
55300.000			16.996			-1.888
55400.000			16.996			-1.888
55501.000			16.995			-1.888
55600.000			16.994			-1.888
55700.000			16.995			-1.888
55802.000			16.994			-1.888
55901.000			16.992			-1.888
56000.000			16.991			-1.888
56101.000			16.992			-1.888
56200.000			16.992			-1.888
56300.000			16.991			-1.888
56401.000			16.990			-1.888
56500.000			16.989			-1.888
56601.000			16.988			-1.888
56702.000			16.987			-1.887
56800.000			16.987			-1.887
56900.000			16.987			-1.887
57001.000			16.986			-1.887
57100.000			16.985			-1.887
57200.000			16.985			-1.887
57301.000			16.984			-1.887
57400.000			16.983			-1.887
57501.000			16.982			-1.887
57602.000			16.980			-1.887
57700.000			16.980			-1.887
57801.000			16.980			-1.887
57900.000			16.979			-1.887
58000.000			16.979			-1.887
58101.000			16.977			-1.886
58200.000			16.977			-1.886
58301.000			16.977			-1.886
58402.000			16.977			-1.886
58501.000			16.976			-1.886
58600.000			16.973			-1.886
58701.000			16.974			-1.886
58800.000			16.975			-1.886
58900.000			16.973			-1.886
59001.000			16.972			-1.886
59100.000			16.971			-1.886
59201.000			16.971			-1.886
59302.000			16.970			-1.886
59400.000			16.969			-1.885
59500.000			16.968			-1.885
59601.000			16.968			-1.885
59700.000			16.967			-1.885
59800.000			16.967			-1.885
59901.000			16.966			-1.885
60001.000			16.965			-1.885
60101.000			16.966			-1.885
60201.000			16.965			-1.885
60300.000			16.964			-1.885
60400.000			16.963			-1.885
60501.000			16.963			-1.885
60600.000			16.962			-1.885
60700.000			16.961			-1.885
60802.000			16.961			-1.885
60901.000			16.961			-1.885
61002.000			16.960			-1.884
61100.000			16.959			-1.884
61200.000			16.959			-1.884
61301.000			16.959			-1.884
61400.000			16.957			-1.884
61500.000			16.956			-1.884
61601.000			16.955			-1.884
61701.000			16.953			-1.884
61801.000			16.953			-1.884
61901.000			16.953			-1.884
62000.000			16.952			-1.884
62100.000			16.952			-1.884
62201.000			16.952			-1.884
62300.000			16.951			-1.883
62400.000			16.951			-1.883
62502.000			16.950			-1.883
62601.000			16.949			-1.883
62700.000			16.949			-1.883
62801.000			16.948			-1.883
62900.000			16.948			-1.883
63000.000			16.946			-1.883
63101.000			16.945			-1.883
63200.000			16.945			-1.883
63301.000			16.945			-1.883
63402.000			16.944			-1.883
63500.000			16.943			-1.883
63600.000			16.943			-1.883
63701.000			16.942			-1.882
63800.000			16.941			-1.882
63900.000			16.941			-1.882
64001.000			16.941			-1.882
64101.000			16.939			-1.882
64202.000			16.939			-1.882
64301.000			16.939			-1.882
64400.000			16.938			-1.882
64501.000			16.938			-1.882
64600.000			16.937			-1.882
64700.000			16.937			-1.882
64801.000			16.937			-1.882
64900.000			16.935			-1.882
65001.000			16.934			-1.882
65102.000			16.933			-1.881
65200.000			16.933			-1.881
65300.000			16.931			-1.881
65401.000			16.931			-1.881
65500.000			16.932			-1.881
65600.000			16.932			-1.881
65701.000			16.931			-1.881
65801.000			16.928			-1.881
65901.000			16.928			-1.881
66001.000			16.929			-1.881
66100.000			16.928			-1.881
66200.000			16.926			-1.881
66301.000			16.926			-1.881
66400.000			16.926			-1.881
66500.000			16.926			-1.881
66602.000			16.924			-1.880
66701.000			16.923			-1.880
66800.000			16.922			-1.880
66901.000			16.923			-1.880
67000.000			16.923			-1.880
67100.000			16.923			-1.880
67201.000			16.922			-1.880
67300.000			16.921			-1.880
67401.000			16.920			-1.880
67501.000			16.920			-1.880
67601.000			16.919			-1.880
67701.000			16.919			-1.880
67800.000			16.918			-1.880
67900.000			16.918			-1.880
68001.000			16.917			-1.880
68100.000			16.917			-1.880
68200.000			16.915			-1.879
68302.000			16.915			-1.879
68401.000			16.914			-1.879
68501.000			16.913			-1.879
68601.000			16.913			-1.879
68700.000			16.912			-1.879
68800.000			16.913			-1.879
68901.000			16.912			-1.879
69000.000			16.911			-1.879
69100.000			16.909			-1.879
69202.000			16.909			-1.879
69301.000			16.909			-1.879
69400.000			16.909			-1.879
69501.000			16.907			-1.879
69600.000			16.907			-1.879
69700.000			16.907			-1.879
69801.000			16.906			-1.878
69900.000			16.906			-1.878
70001.000			16.905			-1.878
70102.000			16.905			-1.878
70200.000			16.903			-1.878
70300.000			16.903			-1.878
70401.000			16.902			-1.878
70500.000			16.901			-1.878
70601.000			16.902			-1.878
70700.000			16.901			-1.878
70801.000			16.901			-1.878
70902.000			16.901			-1.878
71001.000			16.899			-1.878
71100.000			16.898			-1.878
71201.000			16.898			-1.878
71300.000			16.897			-1.877
71400.000			16.896			-1.877
71501.000			16.896			-1.877
71600.000			16.896			-1.877
71701.000			16.894			-1.877
71802.000			16.893			-1.877
71900.000			16.893			-1.877
72000.000			16.893			-1.877
72101.000			16.893			-1.877
72200.000			16.891			-1.877
72300.000			16.892			-1.877
72401.000			16.892			-1.877
72501.000			16.891			-1.877
72601.000			16.890			-1.877
72701.000			16.889			-1.877
72800.000			16.888			-1.876
72900.000			16.888			-1.876
73001.000			16.888			-1.876
73100.000			16.887			-1.876
73200.000			16.887			-1.876
73301.000			16.887			-1.876
73401.000			16.886			-1.876
73501.000			16.886			-1.876
73601.000			16.884			-1.876
73700.000			16.884			-1.876
73801.000			16.883			-1.876
73900.000			16.882			-1.876
74000.000			16.881			-1.876
74101.000			16.882			-1.876
74200.000			16.882			-1.876
74301.000			16.880			-1.876
74402.000			16.879			-1.875
74500.000			16.880			-1.876
74600.000			16.880			-1.876
74701.000			16.880			-1.876
74800.000			16.878			-1.875
74900.000			16.877			-1.875
75001.000			16.877			-1.875
75101.000			16.876			-1.875
75201.000			16.876			-1.875
75302.000			16.875			-1.875
75400.000			16.875			-1.875
75500.000			16.875			-1.875
75601.000			16.874			-1.875
75700.000			16.874			-1.875
75800.000			16.873			-1.875
75901.000			16.873			-1.875
76001.000			16.871			-1.875
76101.000			16.871			-1.875
76201.000			16.871			-1.875
76300.000			16.871			-1.875
76400.000			16.870			-1.874
76501.000			16.870			-1.874
76600.000			16.868			-1.874
76700.000			16.868			-1.874
76802.000			16.868			-1.874
76901.000			16.867			-1.874
77002.000			16.867			-1.874
77100.000			16.867			-1.874
77200.000			16.865			-1.874
77301.000			16.866			-1.874
77400.000			16.865			-1.874
77500.000			16.865			-1.874
77601.000			16.864			-1.874
77701.000			16.863			-1.874
77801.000			16.863			-1.874
77901.000			16.862			-1.874
78000.000			16.863			-1.874
78100.000			16.862			-1.874
78201.000			16.860			-1.873
78300.000			16.859			-1.873
78400.000			16.860			-1.873
78502.000			16.859			-1.873
78601.000			16.859			-1.873
78701.000			16.859			-1.873
78801.000			16.859			-1.873
78900.000			16.857			-1.873
79000.000			16.856			-1.873
79101.000			16.857			-1.873
79200.000			16.855			-1.873
79300.000			16.855			-1.873
79402.000			16.856			-1.873
79501.000			16.855			-1.873
79600.000			16.855			-1.873
79701.000			16.852			-1.872
79800.000			16.853			-1.873
79900.000			16.853			-1.873
80001.000			16.852			-1.872
80100.000			16.852			-1.872
80201.000			16.852			-1.872
80301.000			16.851			-1.872
80401.000			16.850			-1.872
80501.000			16.849			-1.872
80600.000			16.848			-1.872
80700.000			16.848			-1.872
80801.000			16.848			-1.872
80900.000			16.848			-1.872
81000.000			16.848			-1.872
81102.000			16.847			-1.872
81201.000			16.845			-1.872
81300.000			16.844			-1.872
81401.000			16.845			-1.872
81500.000			16.844			-1.872
81600.000			16.844			-1.872
81701.000			16.843			-1.871
81800.000			16.843			-1.871
81901.000			16.843			-1.871
82002.000			16.842			-1.871
82100.000			16.841			-1.871
82200.000			16.840			-1.871
82301.000			16.842			-1.871
82400.000			16.840			-1.871
82500.000			16.840			-1.871
82601.000			16.839			-1.871
82701.000			16.839			-1.871
82801.000			16.839			-1.871
82902.000			16.839			-1.871
83000.000			16.838			-1.871
83100.000			16.838			-1.871
83201.000			16.837			-1.871
83300.000			16.836			-1.871
83401.000			16.835			-1.871
83500.000			16.835			-1.871
83601.000			16.834			-1.870
83702.000			16.834			-1.870
83800.000			16.833			-1.870
83900.000			16.833			-1.870
84001.000			16.833			-1.870
84100.000			16.834			-1.870
84200.000			16.833			-1.870
84301.000			16.832			-1.870
84401.000			16.831			-1.870
84501.000			16.831			-1.870
84601.000			16.830			-1.870
84700.000			16.829			-1.870
84800.000			16.829			-1.870
84901.000			16.829			-1.870
85000.000			16.828			-1.870
85100.000			16.828			-1.870
85202.000			16.828			-1.870
85301.000			16.827			-1.870
85401.000			16.826			-1.870
85501.000			16.825			-1.869
85600.000			16.825			-1.869
85700.000			16.825			-1.869
85801.000			16.825			-1.869
85900.000			16.824			-1.869
86000.000			16.823			-1.869
86102.000			16.823			-1.869
86201.000			16.822			-1.869
86300.000			16.823			-1.869
86401.000			16.823			-1.869
86500.000			16.822			-1.869
86601.000			16.821			-1.869
86700.000			16.820			-1.869
86800.000			16.821			-1.869
86901.000			16.821			-1.869
87001.000			16.819			-1.869
87101.000			16.820			-1.869
87201.000			16.818			-1.869
87300.000			16.817			-1.869
87400.000			16.817			-1.869
87501.000			16.817			-1.869
87600.000			16.817			-1.869
87700.000			16.815			-1.868
87802.000			16.814			-1.868
87901.000			16.815			-1.868
88000.000			16.815			-1.868
88101.000			16.814			-1.868
88200.000			16.814			-1.868
88300.000			16.812			-1.868
88401.000			16.811			-1.868
88500.000			16.811			-1.868
88600.000			16.811			-1.868
88702.000			16.811			-1.868
88801.000			16.811			-1.868
88900.000			16.810			-1.868
89001.000			16.809			-1.868
89100.000			16.809			-1.868
89200.000			16.808			-1.868
89301.000			16.808			-1.868
89400.000			16.808			-1.868
89501.000			16.807			-1.867
89602.000			16.807			-1.867
89701.000			16.807			-1.867
89801.000			16.807			-1.867
89900.000			16.805			-1.867
90000.000			16.805			-1.867
90101.000			16.804			-1.867
90200.000			16.803			-1.867
90300.000			16.803			-1.867
90402.000			16.803			-1.867
90501.000			16.803			-1.867
90600.000			16.802			-1.867
90701.000			16.801			-1.867
90800.000			16.801			-1.867
90900.000			16.800			-1.867
91001.000			16.801			-1.867
91100.000			16.801			-1.867
91201.000			16.800			-1.867
91302.000			16.798			-1.866
91400.000			16.798			-1.866
91500.000			16.798			-1.866
91601.000			16.798			-1.866
91700.000			16.797			-1.866
91800.000			16.797			-1.866
91901.000			16.797			-1.866
92001.000			16.796			-1.866
92101.000			16.795			-1.866
92202.000			16.796			-1.866
92300.000			16.795			-1.866
92400.000			16.794			-1.866
92501.000			16.795			-1.866
92600.000			16.794			-1.866
92700.000			16.794			-1.866
92801.000			16.793			-1.866
92901.000			16.792			-1.866
93002.000			16.791			-1.866
93100.000			16.791			-1.866
93200.000			16.791			-1.866
93301.000			16.791			-1.866
93400.000			16.790			-1.866
93500.000			16.789			-1.865
93601.000			16.789			-1.865
93701.000			16.789			-1.865
93801.000			16.789			-1.865
93902.000			16.788			-1.865
94000.000			16.787			-1.865
94100.000			16.787			-1.865
94201.000			16.786			-1.865
94300.000			16.786			-1.865
94400.000			16.786			-1.865
94501.000			16.786			-1.865
94601.000			16.785			-1.865
94701.000			16.785			-1.865
94801.000			16.786			-1.865
94900.000			16.786			-1.865
95000.000			16.784			-1.865
95101.000			16.784			-1.865
95200.000			16.784			-1.865
95300.000			16.783			-1.865
95401.000			16.782			-1.865
95501.000			16.782			-1.865
95601.000			16.781			-1.865
95701.000			16.781			-1.865
95800.000			16.781			-1.865
95900.000			16.781			-1.865
96001.000			16.780			-1.864
96100.000			16.780			-1.864
96201.000			16.779			-1.864
96301.000			16.779			-1.864
96401.000			16.779			-1.864
96501.000			16.778			-1.864
96600.000			16.777			-1.864
96700.000			16.777			-1.864
96801.000			16.777			-1.864
96900.000			16.776			-1.864
97000.000			16.776			-1.864
97101.000			16.777			-1.864
97201.000			16.776			-1.864
97301.000			16.776			-1.864
97401.000			16.775			-1.864
97500.000			16.775			-1.864
97600.000			16.774			-1.864
97701.000			16.776			-1.864
97800.000			16.774			-1.864
97900.000			16.772			-1.864
98002.000			16.773			-1.864
98101.000			16.773			-1.864
98200.000			16.773			-1.864
98301.000			16.772			-1.864
98400.000			16.772			-1.864
98500.000			16.772			-1.864
98601.000			16.770			-1.863
98700.000			16.770			-1.863
98800.000			16.770			-1.863
98902.000			16.770			-1.863
99001.000			16.769			-1.863
99100.000			16.769			-1.863
99201.000			16.768			-1.863
99300.000			16.768			-1.863
99401.000			16.767			-1.863
99500.000			16.767			-1.863
99600.000			16.766			-1.863
99701.000			16.766			-1.863
99801.000			16.766			-1.863
99901.000			16.766			-1.863
100001.000			16.766			-1.863
100100.000			16.765			-1.863
100200.000			16.765			-1.863
100301.000			16.765			-1.863
100400.000			16.764			-1.863
100500.000			16.763			-1.863
100601.000			16.764			-1.863
100701.000			16.764			-1.863
100801.000			16.761			-1.862
100901.000			16.761			-1.862
101000.000			16.761			-1.862
101100.000			16.761			-1.862
101201.000			16.761			-1.862
101300.000			16.760			-1.862
101400.000			16.759			-1.862
101502.000			16.759			-1.862
101601.000			16.759			-1.862
101700.000			16.758			-1.862
101801.000			16.758			-1.862
101900.000			16.756			-1.862
102000.000			16.756			-1.862
102101.000			16.757			-1.862
102200.000			16.756			-1.862
102301.000			16.755			-1.862
102402.000			16.755			-1.862
102501.000			16.755			-1.862
102601.000			16.755			-1.862
102700.000			16.754			-1.862
102800.000			16.753			-1.861
102901.000			16.752			-1.861
103000.000			16.753			-1.861
103100.000			16.753			-1.861
103202.000			16.752			-1.861
103301.000			16.752			-1.861
103400.000			16.751			-1.861
103501.000			16.752			-1.861
103600.000			16.751			-1.861
103700.000			16.750			-1.861
103801.000			16.748			-1.861
103900.000			16.747			-1.861
104000.000			16.749			-1.861
104102.000			16.749			-1.861
104201.000			16.748			-1.861
104300.000			16.748			-1.861
104401.000			16.747			-1.861
104500.000			16.746			-1.861
104600.000			16.746			-1.861
104701.000			16.746			-1.861
104800.000			16.745			-1.861
104901.000			16.744			-1.860
105002.000			16.743			-1.860
105100.000			16.743			-1.860
105200.000			16.744			-1.860
105301.000			16.743			-1.860
105400.000			16.744			-1.860
105500.000			16.743			-1.860
105601.000			16.742			-1.860
105701.000			16.742			-1.860
105802.000			16.742			-1.860
105901.000			16.740			-1.860
106000.000			16.741			-1.860
106101.000			16.740			-1.860
106200.000			16.739			-1.860
106300.000			16.739			-1.860
106401.000			16.739			-1.860
106500.000			16.738			-1.860
106601.000			16.738			-1.860
106702.000			16.738			-1.860
106801.000			16.738			-1.860
106900.000			16.738			-1.860
107001.000			16.737			-1.860
107100.000			16.736			-1.860
107200.000			16.736			-1.860
107301.000			16.736			-1.860
107400.000			16.735			-1.859
107501.000			16.735			-1.859
107602.000			16.736			-1.860
107700.000			16.735			-1.859
107800.000			16.734			-1.859
107901.000			16.734			-1.859
108000.000			16.734			-1.859
108100.000			16.734			-1.859
108201.000			16.734			-1.859
108301.000			16.733			-1.859
108401.000			16.733			-1.859
108502.000			16.733			-1.859
108600.000			16.731			-1.859
108700.000			16.731			-1.859
108801.000			16.730			-1.859
108900.000			16.729			-1.859
109001.000			16.729			-1.859
109100.000			16.729			-1.859
109201.000			16.729			-1.859
109302.000			16.729			-1.859
109401.000			16.728			-1.859
109500.000			16.727			-1.859
109601.000			16.727			-1.859
109700.000			16.726			-1.858
109800.000			16.726			-1.858
109901.000			16.727			-1.859
110000.000			16.726			-1.858
110101.000			16.725			-1.858
110202.000			16.725			-1.858
110300.000			16.724			-1.858
110400.000			16.724			-1.858
110501.000			16.723			-1.858
110600.000			16.722			-1.858
110700.000			16.722			-1.858
110801.000			16.722			-1.858
110901.000			16.722			-1.858
111001.000			16.722			-1.858
111101.000			16.722			-1.858
111200.000			16.721			-1.858
111300.000			16.721			-1.858
111401.000			16.720			-1.858
111500.000			16.719			-1.858
111600.000			16.718			-1.858
111701.000			16.718			-1.858
111801.000			16.718			-1.858
111901.000			16.719			-1.858
112001.000			16.718			-1.858
112100.000			16.717			-1.857
112201.000			16.718			-1.858
112300.000			16.718			-1.858
112400.000			16.717			-1.857
112501.000			16.716			-1.857
112601.000			16.716			-1.857
112701.000			16.715			-1.857
112801.000			16.715			-1.857
112900.000			16.714			-1.857
113000.000			16.714			-1.857
113101.000			16.714			-1.857
113200.000			16.714			-1.857
113300.000			16.713			-1.857
113401.000			16.713			-1.857
113501.000			16.713			-1.857
113601.000			16.712			-1.857
113701.000			16.712			-1.857
113800.000			16.712			-1.857
113900.000			16.710			-1.857
114001.000			16.710			-1.857
114100.000			16.709			-1.857
114200.000			16.709			-1.857
114302.000			16.709			-1.857
114401.000			16.709			-1.857
114500.000			16.709			-1.857
114601.000			16.709			-1.857
114700.000			16.708			-1.856
114800.000			16.708			-1.856
114901.000			16.708			-1.856
115000.000			16.707			-1.856
115101.000			16.707			-1.856
115202.000			16.706			-1.856
115301.000			16.706			-1.856
115401.000			16.705			-1.856
115500.000			16.705			-1.856
115600.000			16.704			-1.856
115701.000			16.704			-1.856
115800.000			16.704			-1.856
115900.000			16.704			-1.856
116002.000			16.704			-1.856
116101.000			16.703			-1.856
116200.000			16.702			-1.856
116301.000			16.702			-1.856
116400.000			16.702			-1.856
116500.000			16.702			-1.856
116601.000			16.702			-1.856
116700.000			16.702			-1.856
116801.000			16.702			-1.856
116902.000			16.701			-1.856
117000.000			16.700			-1.856
117100.000			16.700			-1.856
117201.000			16.699			-1.855
117300.000			16.698			-1.855
117400.000			16.699			-1.855
117501.000			16.698			-1.855
117600.000			16.697			-1.855
117701.000			16.696			-1.855
117802.000			16.697			-1.855
117900.000			16.697			-1.855
118000.000			16.697			-1.855
118101.000			16.697			-1.855
118200.000			16.696			-1.855
118300.000			16.695			-1.855
118401.000			16.694			-1.855
118500.000			16.694			-1.855
118602.000			16.694			-1.855
118701.000			16.694			-1.855
118800.000			16.694			-1.855
118901.000			16.694			-1.855
119000.000			16.694			-1.855
119100.000			16.693			-1.855
119201.000			16.693			-1.855
119300.000			16.693			-1.855
119400.000			16.691			-1.855
119502.000			16.691			-1.855
119601.000			16.691			-1.855
119700.000			16.691			-1.855
119801.000			16.690			-1.854
119900.000			16.690			-1.854
120000.000			16.690			-1.854
120101.000			16.689			-1.854
120200.000			16.689			-1.854
120300.000			16.688			-1.854
120402.000			16.688			-1.854
120501.000			16.688			-1.854
120600.000			16.687			-1.854
120701.000			16.687			-1.854
120800.000			16.688			-1.854
120900.000			16.688			-1.854
121001.000			16.687			-1.854
121100.000			16.687			-1.854
121201.000			16.686			-1.854
121302.000			16.684			-1.854
121400.000			16.683			-1.854
121500.000			16.684			-1.854
121601.000			16.685			-1.854
121700.000			16.685			-1.854
121801.000			16.685			-1.854
121900.000			16.685			-1.854
122000.000			16.683			-1.854
122102.000			16.682			-1.854
122201.000			16.683			-1.854
122300.000			16.682			-1.854
122401.000			16.681			-1.853
122500.000			16.682			-1.854
122600.000			16.682			-1.854
122701.000			16.683			-1.854
122800.000			16.681			-1.853
122901.000			16.680			-1.853
123002.000			16.679			-1.853
123101.000			16.680			-1.853
123200.000			16.679			-1.853
123301.000			16.679			-1.853
123400.000			16.680			-1.853
123500.000			16.679			-1.853
123601.000			16.678			-1.853
123700.000			16.678			-1.853
123801.000			16.678			-1.853
123902.000			16.677			-1.853
124000.000			16.676			-1.853
124100.000			16.676			-1.853
124201.000			16.676			-1.853
124300.000			16.676			-1.853
124400.000			16.675			-1.853
124501.000			16.675			-1.853
124600.000			16.676			-1.853
124701.000			16.675			-1.853
124802.000			16.675			-1.853
124900.000			16.673			-1.853
125001.000			16.674			-1.853
125100.000			16.674			-1.853
125200.000			16.673			-1.853
125301.000			16.672			-1.852
125400.000			16.672			-1.852
125501.000			16.672			-1.852
125602.000			16.672			-1.852
125700.000			16.672			-1.852
125800.000			16.672			-1.852
125901.000			16.672			-1.852
126000.000			16.672			-1.852
126100.000			16.671			-1.852
126201.000			16.670			-1.852
126300.000			16.668			-1.852
126401.000			16.670			-1.852
126502.000			16.669			-1.852
126600.000			16.669			-1.852
126700.000			16.668			-1.852
126801.000			16.668			-1.852
126900.000			16.669			-1.852
127000.000			16.669			-1.852
127101.000			16.668			-1.852
127200.000			16.668			-1.852
127301.000			16.667			-1.852
127402.000			16.667			-1.852
127500.000			16.666			-1.852
127600.000			16.666			-1.852
127701.000			16.666			-1.852
127800.000			16.666			-1.852
127900.000			16.665			-1.852
128001.000			16.666			-1.852
128100.000			16.664			-1.852
128202.000			16.664			-1.852
128301.000			16.665			-1.852
128400.000			16.664			-1.852
128501.000			16.663			-1.851
128600.000			16.663			-1.851
128700.000			16.664			-1.852
128801.000			16.663			-1.851
128900.000			16.663			-1.851
129000.000			16.663			-1.851
129102.000			16.663			-1.851
129201.000			16.662			-1.851
129300.000			16.662			-1.851
129401.000			16.660			-1.851
129500.000			16.660			-1.851
129600.000			16.660			-1.851
129701.000			16.660			-1.851
129800.000			16.660			-1.851
129901.000			16.659			-1.851
130002.000			16.659			-1.851
130101.000			16.659			-1.851
130200.000			16.659			-1.851
130301.000			16.659			-1.851
130400.000			16.658			-1.851
130500.000			16.659			-1.851
130601.000			16.659			-1.851
130700.000			16.658			-1.851
130801.000			16.657			-1.851
130902.000			16.657			-1.851
131000.000			16.656			-1.851
131100.000			16.656			-1.851
131201.000			16.656			-1.851
131300.000			16.656			-1.851
131401.000			16.656			-1.851
131500.000			16.655			-1.851
131600.000			16.655			-1.851
131702.000			16.654			-1.850
131801.000			16.654			-1.850
131900.000			16.653			-1.850
132001.000			16.653			-1.850
132100.000			16.653			-1.850
132200.000			16.652			-1.850
132301.000			16.652			-1.850
132400.000			16.653			-1.850
132500.000			16.652			-1.850
132602.000			16.653			-1.850
132701.000			16.653			-1.850
132800.000			16.652			-1.850
132901.000			16.651			-1.850
133000.000			16.651			-1.850
133100.000			16.651			-1.850
133201.000			16.650			-1.850
133300.000			16.650			-1.850
133400.000			16.649			-1.850
133502.000			16.650			-1.850
133601.000			16.648			-1.850
133701.000			16.648			-1.850
133801.000			16.648			-1.850
133900.000			16.648			-1.850
134000.000			16.649			-1.850
134101.000			16.648			-1.850
134200.000			16.648			-1.850
134300.000			16.647			-1.850
134402.000			16.647			-1.850
134501.000			16.646			-1.850
134602.000			16.646			-1.850
134700.000			16.645			-1.849
134800.000			16.645			-1.849
134901.000			16.645			-1.849
135000.000			16.645			-1.849
135100.000			16.644			-1.849
135201.000			16.643			-1.849
135300.000			16.643			-1.849
135401.000			16.643			-1.849
135502.000			16.643			-1.849
135601.000			16.643			-1.849
135700.000			16.642			-1.849
135801.000			16.642			-1.849
135900.000			16.641			-1.849
136000.000			16.641			-1.849
136101.000			16.641			-1.849
136200.000			16.640			-1.849
136301.000			16.640			-1.849
136402.000			16.641			-1.849
136501.000			16.640			-1.849
136600.000			16.639			-1.849
136701.000			16.639			-1.849
136800.000			16.639			-1.849
136900.000			16.639			-1.849
137001.000			16.638			-1.849
137100.000			16.638			-1.849
137200.000			16.638			-1.849
137302.000			16.637			-1.849
137401.000			16.637			-1.849
137500.000			16.637			-1.849
137601.000			16.636			-1.848
137700.000			16.636			-1.848
137801.000			16.636			-1.848
137900.000			16.635			-1.848
138000.000			16.634			-1.848
138101.000			16.635			-1.848
138201.000			16.635			-1.848
138301.000			16.635			-1.848
138402.000			16.635			-1.848
138500.000			16.635			-1.848
138600.000			16.633			-1.848
138701.000			16.633			-1.848
138800.000			16.633			-1.848
138900.000			16.633			-1.848
139001.000			16.632			-1.848
139100.000			16.632			-1.848
139201.000			16.632			-1.848
139302.000			16.632			-1.848
139400.000			16.631			-1.848
139500.000			16.631			-1.848
139601.000			16.630			-1.848
139700.000			16.630			-1.848
139800.000			16.630			-1.848
139901.000			16.629			-1.848
140000.000			16.629			-1.848
140101.000			16.628			-1.848
140202.000			16.629			-1.848
140301.000			16.629			-1.848
140400.000			16.628			-1.848
140501.000			16.628			-1.848
140600.000			16.627			-1.847
140700.000			16.627			-1.847
140801.000			16.628			-1.848
140900.000			16.626			-1.847
141001.000			16.625			-1.847
141101.000			16.624			-1.847
141201.000			16.625			-1.847
141301.000			16.625			-1.847
141400.000			16.624			-1.847
141500.000			16.624			-1.847
141601.000			16.625			-1.847
141700.000			16.624			-1.847
141800.000			16.624			-1.847
141901.000			16.623			-1.847
142001.000			16.624			-1.847
142101.000			16.623			-1.847
142201.000			16.622			-1.847
142300.000			16.622			-1.847
142400.000			16.622			-1.847
142501.000			16.622			-1.847
142600.000			16.622			-1.847
142700.000			16.621			-1.847
142801.000			16.620			-1.847
142901.000			16.620			-1.847
143001.000			16.621			-1.847
143101.000			16.621			-1.847
143200.000			16.619			-1.847
143300.000			16.619			-1.847
143401.000			16.619			-1.847
143500.000			16.618			-1.846
143600.000			16.619			-1.847
143701.000			16.619			-1.847
143801.000			16.617			-1.846
143901.000			16.617			-1.846
144002.000			16.617			-1.846
144100.000			16.616			-1.846
144201.000			16.616			-1.846
144300.000			16.617			-1.846
144400.000			16.616			-1.846
144501.000			16.616			-1.846
144600.000			16.615			-1.846
144700.000			16.614			-1.846
144802.000			16.614			-1.846
144901.000			16.614			-1.846
145000.000			16.615			-1.846
145101.000			16.614			-1.846
145200.000			16.614			-1.846
145300.000			16.612			-1.846
145401.000			16.612			-1.846
145500.000			16.613			-1.846
145600.000			16.613			-1.846
145702.000			16.612			-1.846
145801.000			16.610			-1.846
145901.000			16.611			-1.846
146001.000			16.612			-1.846
146100.000			16.611			-1.846
146200.000			16.610			-1.846
146301.000			16.610			-1.846
146400.000			16.610			-1.846
146500.000			16.610			-1.846
146602.000			16.611			-1.846
146701.000			16.609			-1.845
146801.000			16.609			-1.845
146901.000			16.609			-1.845
147000.000			16.609			-1.845
147100.000			16.608			-1.845
147201.000			16.609			-1.845
147300.000			16.608			-1.845
147401.000			16.607			-1.845
147500.000			16.608			-1.845
147601.000			16.606			-1.845
147702.000			16.606			-1.845
147801.000			16.605			-1.845
147900.000			16.605			-1.845
148001.000			16.605			-1.845
148100.000			16.605			-1.845
148200.000			16.606			-1.845
148301.000			16.605			-1.845
148400.000			16.604			-1.845
148501.000			16.603			-1.845
148602.000			16.603			-1.845
148701.000			16.603			-1.845
148800.000			16.604			-1.845
148901.000			16.602			-1.845
149000.000			16.603			-1.845
149100.000			16.602			-1.845
149201.000			16.602			-1.845
149300.000			16.602			-1.845
149400.000			16.600			-1.844
149502.000			16.600			-1.844
149601.000			16.600			-1.844
149700.000			16.600			-1.844
149801.000			16.599			-1.844
149900.000			16.600			-1.844
150000.000			16.600			-1.844
150101.000			16.600			-1.844
150200.000			16.599			-1.844
150300.000			16.599			-1.844
150402.000			16.599			-1.844
150501.000			16.597			-1.844
150602.000			16.597			-1.844
150700.000			16.598			-1.844
150800.000			16.597			-1.844
150901.000			16.597			-1.844
151000.000			16.597			-1.844
151100.000			16.597			-1.844
151201.000			16.597			-1.844
151300.000			16.597			-1.844
151401.000			16.596			-1.844
151502.000			16.596			-1.844
151600.000			16.596			-1.844
151700.000			16.596			-1.844
151801.000			16.595			-1.844
151900.000			16.595			-1.844
152000.000			16.594			-1.844
152101.000			16.593			-1.844
152200.000			16.593			-1.844
152301.000			16.594			-1.844
152402.000			16.594			-1.844
152501.000			16.594			-1.844
152600.000			16.592			-1.844
152701.000			16.592			-1.844
152800.000			16.592			-1.844
152900.000			16.592			-1.844
153001.000			16.592			-1.844
153100.000			16.591			-1.843
153200.000			16.591			-1.843
153302.000			16.592			-1.844
153401.000			16.591			-1.843
153500.000			16.590			-1.843
153601.000			16.590			-1.843
153700.000			16.589			-1.843
153801.000			16.589			-1.843
153900.000			16.589			-1.843
154000.000			16.590			-1.843
154101.000			16.589			-1.843
154200.000			16.588			-1.843
154301.000			16.588			-1.843
154402.000			16.588			-1.843
154500.000			16.588			-1.843
154600.000			16.588			-1.843
154701.000			16.588			-1.843
154800.000			16.588			-1.843
154900.000			16.588			-1.843
155001.000			16.587			-1.843
155100.000			16.587			-1.843
155200.000			16.587			-1.843
155302.000			16.586			-1.843
155401.000			16.585			-1.843
155500.000			16.585			-1.843
155601.000			16.585			-1.843
155700.000			16.584			-1.843
155800.000			16.584			-1.843
155901.000			16.584			-1.843
156000.000			16.583			-1.843
156100.000			16.583			-1.843
156202.000			16.584			-1.843
156301.000			16.583			-1.843
156401.000			16.582			-1.842
156501.000			16.581			-1.842
156600.000			16.582			-1.842
156700.000			16.582			-1.842
156801.000			16.582			-1.842
156900.000			16.582			-1.842
157001.000			16.581			-1.842
157100.000			16.580			-1.842
157201.000			16.581			-1.842
157302.000			16.581			-1.842
157400.000			16.582			-1.842
157500.000			16.580			-1.842
157601.000			16.580			-1.842
157700.000			16.580			-1.842
157800.000			16.580			-1.842
157901.000			16.579			-1.842
158000.000			16.578			-1.842
158100.000			16.579			-1.842
158202.000			16.578			-1.842
158301.000			16.578			-1.842
158400.000			16.577			-1.842
158501.000			16.578			-1.842
158600.000			16.577			-1.842
158700.000			16.577			-1.842
158801.000			16.576			-1.842
158900.000			16.576			-1.842
159000.000			16.575			-1.842
159102.000			16.576			-1.842
159201.000			16.576			-1.842
159301.000			16.575			-1.842
159401.000			16.575			-1.842
159500.000			16.575			-1.842
159600.000			16.574			-1.842
159701.000			16.574			-1.842
159800.000			16.574			-1.842
159900.000			16.574			-1.842
160001.000			16.574			-1.842
160101.000			16.574			-1.842
160202.000			16.573			-1.841
160301.000			16.573			-1.841
160400.000			16.572			-1.841
160501.000			16.572			-1.841
160600.000			16.572			-1.841
160700.000			16.573			-1.841
160801.000			16.572			-1.841
160900.000			16.572			-1.841
161000.000			16.571			-1.841
161102.000			16.571			-1.841
161201.000			16.570			-1.841
161300.000			16.570			-1.841
161401.000			16.570			-1.841
161500.000			16.570			-1.841
161600.000			16.569			-1.841
161701.000			16.569			-1.841
161800.000			16.568			-1.841
161900.000			16.568			-1.841
162002.000			16.568			-1.841
162101.000			16.568			-1.841
162201.000			16.568			-1.841
162301.000			16.567			-1.841
162400.000			16.567			-1.841
162500.000			16.568			-1.841
162601.000			16.568			-1.841
162700.000			16.568			-1.841
162800.000			16.567			-1.841
162901.000			16.566			-1.841
163001.000			16.567			-1.841
163101.000			16.566			-1.841
163201.000			16.566			-1.841
163300.000			16.565			-1.841
163401.000			16.566			-1.841
163500.000			16.566			-1.841
163600.000			16.566			-1.841
163701.000			16.565			-1.841
163800.000			16.564			-1.840
163900.000			16.564			-1.840
164002.000			16.564			-1.840
164101.000			16.563			-1.840
164200.000			16.563			-1.840
164301.000			16.563			-1.840
164400.000			16.563			-1.840
164500.000			16.564			-1.840
164601.000			16.563			-1.840
164700.000			16.562			-1.840
164800.000			16.563			-1.840
164902.000			16.562			-1.840
165001.000			16.563			-1.840
165100.000			16.562			-1.840
165201.000			16.561			-1.840
165300.000			16.562			-1.840
165400.000			16.562			-1.840
165501.000			16.561			-1.840
165600.000			16.560			-1.840
165700.000			16.560			-1.840
165802.000			16.559			-1.840
165901.000			16.560			-1.840
166001.000			16.560			-1.840
166101.000			16.560			-1.840
166200.000			16.559			-1.840
166300.000			16.558			-1.840
166401.000			16.558			-1.840
166500.000			16.559			-1.840
166601.000			16.558			-1.840
166700.000			16.558			-1.840
166801.000			16.558			-1.840
166902.000			16.558			-1.840
167001.000			16.558			-1.840
167100.000			16.557			-1.840
167201.000			16.557			-1.840
167300.000			16.556			-1.840
167400.000			16.556			-1.840
167501.000			16.556			-1.840
167600.000			16.556			-1.840
167700.000			16.555			-1.839
167802.000			16.556			-1.840
167901.000			16.555			-1.839
168001.000			16.556			-1.840
168101.000			16.555			-1.839
168200.000			16.554			-1.839
168300.000			16.554			-1.839
168401.000			16.555			-1.839
168500.000			16.555			-1.839
168600.000			16.553			-1.839
168701.000			16.553			-1.839
168801.000			16.553			-1.839
168901.000			16.553			-1.839
169001.000			16.552			-1.839
169100.000			16.552			-1.839
169200.000			16.552			-1.839
169301.000			16.552			-1.839
169400.000			16.551			-1.839
169500.000			16.551			-1.839
169601.000			16.552			-1.839
169701.000			16.552			-1.839
169802.000			16.551			-1.839
169901.000			16.550			-1.839
170000.000			16.549			-1.839
170101.000			16.549			-1.839
170200.000			16.549			-1.839
170300.000			16.550			-1.839
170401.000			16.549			-1.839
170500.000			16.548			-1.839
170600.000			16.548			-1.839
170702.000			16.548			-1.839
170801.000			16.547			-1.839
170901.000			16.547			-1.839
171001.000			16.547			-1.839
171100.000			16.548			-1.839
171200.000			16.547			-1.839
171301.000			16.547			-1.839
171400.000			16.547			-1.839
171500.000			16.546			-1.838
171601.000			16.546			-1.838
171701.000			16.546			-1.838
171801.000			16.546			-1.838
171901.000			16.546			-1.838
172000.000			16.545			-1.838
172100.000			16.544			-1.838
172201.000			16.544			-1.838
172300.000			16.544			-1.838
172400.000			16.543			-1.838
172501.000			16.543			-1.838
172601.000			16.543			-1.838
172701.000			16.544			-1.838
172801.000			16.544			-1.838
172900.000			16.542			-1.838
173001.000			16.541			-1.838
173100.000			16.541			-1.838
173200.000			16.542			-1.838
173301.000			16.543			-1.838
173400.000			16.542			-1.838
173501.000			16.542			-1.838
173602.000			16.541			-1.838
173701.000			16.540			-1.838
173800.000			16.540			-1.838
173901.000			16.540			-1.838
174000.000			16.540			-1.838
174100.000			16.540			-1.838
174201.000			16.540			-1.838
174300.000			16.538			-1.838
174400.000			16.538			-1.838
174502.000			16.538			-1.838
174601.000			16.538			-1.838
174700.000			16.538			-1.838
174801.000			16.538			-1.838
174900.000			16.538			-1.838
175000.000			16.538			-1.838
175101.000			16.538			-1.838
175200.000			16.537			-1.837
175300.000			16.537			-1.837
175402.000			16.537			-1.837
175501.000			16.536			-1.837
175601.000			16.535			-1.837
175701.000			16.535			-1.837
175800.000			16.536			-1.837
175900.000			16.536			-1.837
176001.000			16.535			-1.837
176100.000			16.536			-1.837
176201.000			16.536			-1.837
176300.000			16.535			-1.837
176401.000			16.535			-1.837
176502.000			16.534			-1.837
176601.000			16.534			-1.837
176700.000			16.533			-1.837
176801.000			16.533			-1.837
176900.000			16.535			-1.837
177000.000			16.534			-1.837
177101.000			16.532			-1.837
177200.000			16.532			-1.837
177300.000			16.532			-1.837
177402.000			16.532			-1.837
177501.000			16.531			-1.837
177600.000			16.530			-1.837
177701.000			16.531			-1.837
177800.000			16.531			-1.837
177900.000			16.531			-1.837
178001.000			16.530			-1.837
178100.000			16.531			-1.837
178200.000			16.531			-1.837
178302.000			16.530			-1.837
178401.000			16.530			-1.837
178501.000			16.529			-1.837
178601.000			16.529			-1.837
178700.000			16.528			-1.836
178800.000			16.528			-1.836
178901.000			16.528			-1.836
179000.000			16.529			-1.837
179100.000			16.528			-1.836
179201.000			16.528			-1.836
179301.000			16.527			-1.836
179402.000			16.528			-1.836
179500.000			16.527			-1.836
179600.000			16.526			-1.836
179701.000			16.527			-1.836
179800.000			16.526			-1.836
179900.000			16.526			-1.836
180001.000			16.525			-1.836
180100.000			16.525			-1.836
180200.000			16.526			-1.836
180302.000			16.525			-1.836
180401.000			16.525			-1.836
180500.000			16.525			-1.836
180601.000			16.523			-1.836
180700.000			16.523			-1.836
180800.000			16.524			-1.836
180901.000			16.523			-1.836
181000.000			16.523			-1.836
181100.000			16.523			-1.836
181202.000			16.523			-1.836
181301.000			16.523			-1.836
181400.000			16.523			-1.836
181501.000			16.522			-1.836
181600.000			16.521			-1.836
181700.000			16.522			-1.836
181801.000			16.520			-1.836
181900.000			16.521			-1.836
182000.000			16.521			-1.836
182102.000			16.521			-1.836
182201.000			16.521			-1.836
182301.000			16.520			-1.836
182401.000			16.520			-1.836
182500.000			16.520			-1.836
182601.000			16.520			-1.836
182700.000			16.519			-1.835
182800.000			16.520			-1.836
182901.000			16.521			-1.836
183001.000			16.520			-1.836
183101.000			16.519			-1.835
183202.000			16.519			-1.835
183300.000			16.519			-1.835
183400.000			16.517			-1.835
183501.000			16.517			-1.835
183600.000			16.517			-1.835
183700.000			16.517			-1.835
183801.000			16.517			-1.835
183900.000			16.516			-1.835
184001.000			16.517			-1.835
184102.000			16.517			-1.835
184201.000			16.516			-1.835
184300.000			16.516			-1.835
184401.000			16.516			-1.835
184500.000			16.515			-1.835
184600.000			16.516			-1.835
184701.000			16.516			-1.835
184800.000			16.515			-1.835
184900.000			16.514			-1.835
185002.000			16.514			-1.835
185101.000			16.514			-1.835
185200.000			16.513			-1.835
185301.000			16.514			-1.835
185400.000			16.514			-1.835
185500.000			16.514			-1.835
185601.000			16.514			-1.835
185700.000			16.513			-1.835
185801.000			16.513			-1.835
185901.000			16.514			-1.835
186001.000			16.512			-1.835
186101.000			16.512			-1.835
186200.000			16.511			-1.835
186300.000			16.511			-1.835
186401.000			16.511			-1.835
186500.000			16.512			-1.835
186600.000			16.511			-1.835
186701.000			16.510			-1.834
186801.000			16.511			-1.835
186901.000			16.511			-1.835
187002.000			16.510			-1.834
187100.000			16.510			-1.834
187200.000			16.509			-1.834
187301.000			16.509			-1.834
187400.000			16.508			-1.834
187500.000			16.508			-1.834
187601.000			16.508			-1.834
187700.000			16.508			-1.834
187801.000			16.508			-1.834
187902.000			16.508			-1.834
188000.000			16.508			-1.834
188100.000			16.507			-1.834
188201.000			16.508			-1.834
188300.000			16.507			-1.834
188400.000			16.507			-1.834
188501.000			16.506			-1.834
188600.000			16.506			-1.834
188700.000			16.507			-1.834
188802.000			16.507			-1.834
188901.000			16.507			-1.834
189001.000			16.507			-1.834
189100.000			16.507			-1.834
189200.000			16.505			-1.834
189301.000			16.504			-1.834
189400.000			16.504			-1.834
189500.000			16.505			-1.834
189601.000			16.503			-1.834
189701.000			16.504			-1.834
189801.000			16.504			-1.834
189902.000			16.505			-1.834
190000.000			16.504			-1.834
190100.000			16.504			-1.834
190201.000			16.503			-1.834
190300.000			16.502			-1.834
190400.000			16.502			-1.834
190501.000			16.502			-1.834
190601.000			16.503			-1.834
190701.000			16.502			-1.834
190802.000			16.502			-1.834
190900.000			16.502			-1.834
191000.000			16.501			-1.833
191101.000			16.501			-1.833
191200.000			16.501			-1.833
191300.000			16.502			-1.834
191401.000			16.501			-1.833
191500.000			16.501			-1.833
191601.000			16.501			-1.833
191702.000			16.500			-1.833
191800.000			16.500			-1.833
191900.000			16.500			-1.833
192001.000			16.500			-1.833
192100.000			16.500			-1.833
192201.000			16.499			-1.833
192300.000			16.500			-1.833
192400.000			16.500			-1.833
192502.000			16.499			-1.833
192601.000			16.498			-1.833
192701.000			16.498			-1.833
192801.000			16.498			-1.833
192900.000			16.497			-1.833
193000.000			16.496			-1.833
193101.000			16.496			-1.833
193200.000			16.496			-1.833
193300.000			16.496			-1.833
193401.000			16.496			-1.833
193501.000			16.496			-1.833
193601.000			16.495			-1.833
193702.000			16.495			-1.833
193800.000			16.496			-1.833
193900.000			16.496			-1.833
194001.000			16.495			-1.833
194100.000			16.495			-1.833
194200.000			16.495			-1.833
194301.000			16.494			-1.833
194400.000			16.495			-1.833
194501.000			16.495			-1.833
194602.000			16.494			-1.833
194701.000			16.493			-1.833
194800.000			16.493			-1.833
194901.000			16.493			-1.833
195000.000			16.492			-1.832
195100.000			16.493			-1.833
195201.000			16.492			-1.832
195300.000			16.492			-1.832
195401.000			16.492			-1.832
195501.000			16.493			-1.833
195601.000			16.491			-1.832
195701.000			16.491			-1.832
195800.000			16.493			-1.833
195900.000			16.491			-1.832
196001.000			16.490			-1.832
196100.000			16.490			-1.832
196200.000			16.490			-1.832
196301.000			16.490			-1.832
196401.000			16.491			-1.832
196501.000			16.490			-1.832
196602.000			16.491			-1.832
196700.000			16.490			-1.832
196800.000			16.489			-1.832
196901.000			16.488			-1.832
197000.000			16.488			-1.832
197100.000			16.488			-1.832
197201.000			16.487			-1.832
197300.000			16.487			-1.832
197401.000			16.489			-1.832
197502.000			16.489			-1.832
197601.000			16.488			-1.832
197700.000			16.488			-1.832
197801.000			16.487			-1.832
197900.000			16.488			-1.832
198000.000			16.487			-1.832
198101.000			16.487			-1.832
198200.000			16.487			-1.832
198300.000			16.488			-1.832
198402.000			16.487			-1.832
198501.000			16.486			-1.832
198602.000			16.485			-1.832
198700.000			16.484			-1.832
198800.000			16.484			-1.832
198901.000			16.485			-1.832
199000.000			16.486			-1.832
199100.000			16.485			-1.832
199201.000			16.483			-1.831
199300.000			16.483			-1.831
199400.000			16.483			-1.831
199502.000			16.483			-1.831
199601.000			16.483			-1.831
199700.000			16.483			-1.831
199801.000			16.481			-1.831
199900.000			16.482			-1.831
200000.000			16.483			-1.831
200101.000			16.482			-1.831
200200.000			16.482			-1.831
200300.000			16.481			-1.831
200402.000			16.481			-1.831
200501.000			16.482			-1.831
200601.000			16.482			-1.831
200701.000			16.481			-1.831
200800.000			16.480			-1.831
200900.000			16.481			-1.831
201001.000			16.480			-1.831
201100.000			16.480			-1.831
201200.000			16.481			-1.831
201302.000			16.480			-1.831
201401.000			16.481			-1.831
201501.000			16.480			-1.831
201601.000			16.479			-1.831
201700.000			16.479			-1.831
201801.000			16.478			-1.831
201900.000			16.478			-1.831
202000.000			16.479			-1.831
202101.000			16.478			-1.831
202201.000			16.478			-1.831
202301.000			16.477			-1.831
202402.000			16.479			-1.831
202500.000			16.478			-1.831
202600.000			16.477			-1.831
202701.000			16.476			-1.831
202800.000			16.477			-1.831
202900.000			16.477			-1.831
203001.000			16.478			-1.831
203100.000			16.478			-1.831
203201.000			16.476			-1.831
203302.000			16.475			-1.831
203401.000			16.475			-1.831
203500.000			16.475			-1.831
203601.000			16.475			-1.831
203700.000			16.474			-1.830
203800.000			16.474			-1.830
203901.000			16.474			-1.830
204000.000			16.474			-1.830
204100.000			16.474			-1.830
204202.000			16.473			-1.830
204301.000			16.474			-1.830
204400.000			16.473			-1.830
204501.000			16.472			-1.830
204600.000			16.474			-1.830
204700.000			16.473			-1.830
204801.000			16.473			-1.830
204900.000			16.473			-1.830
205001.000			16.473			-1.830
205101.000			16.473			-1.830
205201.000			16.472			-1.830
205301.000			16.473			-1.830
205400.000			16.472			-1.830
205500.000			16.472			-1.830
205601.000			16.471			-1.830
205700.000			16.471			-1.830
205800.000			16.472			-1.830
205901.000			16.471			-1.830
206001.000			16.470			-1.830
206101.000			16.470			-1.830
206201.000			16.470			-1.830
206300.000			16.469			-1.830
206400.000			16.469			-1.830
206501.000			16.469			-1.830
206600.000			16.470			-1.830
206700.000			16.469			-1.830
206801.000			16.468			-1.830
206900.000			16.469			-1.830
207001.000			16.469			-1.830
207102.000			16.469			-1.830
207200.000			16.468			-1.830
207300.000			16.467			-1.830
207401.000			16.467			-1.830
207500.000			16.468			-1.830
207600.000			16.467			-1.830
207701.000			16.467			-1.830
207800.000			16.467			-1.830
207901.000			16.466			-1.830
208002.000			16.466			-1.830
208101.000			16.466			-1.830
208201.000			16.465			-1.829
208300.000			16.465			-1.829
208400.000			16.467			-1.830
208501.000			16.466			-1.830
208600.000			16.465			-1.829
208700.000			16.465			-1.829
208801.000			16.465			-1.829
208901.000			16.465			-1.829
209001.000			16.464			-1.829
209101.000			16.463			-1.829
209200.000			16.465			-1.829
209300.000			16.464			-1.829
209401.000			16.464			-1.829
209500.000			16.464			-1.829
209600.000			16.464			-1.829
209701.000			16.463			-1.829
209801.000			16.462			-1.829
209901.000			16.463			-1.829
210002.000			16.463			-1.829
210100.000			16.463			-1.829
210200.000			16.461			-1.829
210301.000			16.462			-1.829
210400.000			16.463			-1.829
210500.000			16.461			-1.829
210601.000			16.461			-1.829
210701.000			16.461			-1.829
210801.000			16.460			-1.829
210902.000			16.460			-1.829
211000.000			16.460			-1.829
211100.000			16.461			-1.829
211201.000			16.460			-1.829
211300.000			16.459			-1.829
211401.000			16.460			-1.829
211500.000			16.460			-1.829
211601.000			16.460			-1.829
211702.000			16.460			-1.829
211801.000			16.459			-1.829
211900.000			16.459			-1.829
212001.000			16.458			-1.829
212100.000			16.458			-1.829
212200.000			16.458			-1.829
212301.000			16.458			-1.829
212400.000			16.459			-1.829
212500.000			16.458			-1.829
212602.000			16.457			-1.829
212701.000			16.456			-1.828
212800.000			16.457			-1.829
212901.000			16.457			-1.829
213000.000			16.457			-1.829
213100.000			16.456			-1.828
213201.000			16.456			-1.828
213300.000			16.457			-1.829
213400.000			16.457			-1.829
213502.000			16.456			-1.828
213601.000			16.456			-1.828
213700.000			16.456			-1.828
213801.000			16.455			-1.828
213900.000			16.455			-1.828
214000.000			16.454			-1.828
214101.000			16.454			-1.828
214200.000			16.454			-1.828
214300.000			16.454			-1.828
214402.000			16.454			-1.828
214501.000			16.454			-1.828
214602.000			16.454			-1.828
214700.000			16.453			-1.828
214800.000			16.453			-1.828
214901.000			16.454			-1.828
215000.000			16.453			-1.828
215100.000			16.452			-1.828
215201.000			16.452			-1.828
215301.000			16.453			-1.828
215401.000			16.452			-1.828
215502.000			16.451			-1.828
215600.000			16.452			-1.828
215700.000			16.452			-1.828
215801.000			16.452			-1.828
215900.000			16.452			-1.828
216000.000			16.451			-1.828
216101.000			16.450			-1.828
216201.000			16.450			-1.828
216301.000			16.451			-1.828
216402.000			16.451			-1.828
216500.000			16.450			-1.828
216600.000			16.450			-1.828
216701.000			16.450			-1.828
216800.000			16.449			-1.828
216900.000			16.448			-1.828
217001.000			16.448			-1.828
217100.000			16.449			-1.828
217201.000			16.449			-1.828
217302.000			16.449			-1.828
217400.000			16.448			-1.828
217500.000			16.448			-1.828
217601.000			16.448			-1.828
217700.000			16.447			-1.827
217801.000			16.447			-1.827
217900.000			16.447			-1.827
218000.000			16.447			-1.827
218101.000			16.446			-1.827
218201.000			16.446			-1.827
218301.000			16.447			-1.827
218401.000			16.447			-1.827
218500.000			16.447			-1.827
218600.000			16.446			-1.827
218701.000			16.445			-1.827
218800.000			16.445			-1.827
218900.000			16.446			-1.827
219001.000			16.446			-1.827
219101.000			16.445			-1.827
219201.000			16.445			-1.827
219301.000			16.444			-1.827
219400.000			16.445			-1.827
219500.000			16.445			-1.827
219601.000			16.444			-1.827
219700.000			16.443			-1.827
219800.000			16.443			-1.827
219901.000			16.443			-1.827
220001.000			16.443			-1.827
220101.000			16.444			-1.827
220202.000			16.443			-1.827
220300.000			16.442			-1.827
220400.000			16.443			-1.827
220501.000			16.443			-1.827
220600.000			16.442			-1.827
220700.000			16.442			-1.827
220801.000			16.442			-1.827
220901.000			16.442			-1.827
221002.000			16.442			-1.827
221101.000			16.442			-1.827
221200.000			16.442			-1.827
221301.000			16.441			-1.827
221400.000			16.440			-1.827
221500.000			16.440			-1.827
221601.000			16.440			-1.827
221700.000			16.440			-1.827
221801.000			16.440			-1.827
221902.000			16.441			-1.827
222001.000			16.440			-1.827
222100.000			16.439			-1.827
222201.000			16.439			-1.827
222300.000			16.440			-1.827
222400.000			16.440			-1.827
222501.000			16.440			-1.827
222600.000			16.440			-1.827
222700.000			16.438			-1.826
222802.000			16.437			-1.826
222901.000			16.438			-1.826
223000.000			16.437			-1.826
223101.000			16.437			-1.826
223200.000			16.438			-1.826
223300.000			16.438			-1.826
223401.000			16.437			-1.826
223500.000			16.436			-1.826
223600.000			16.437			-1.826
223702.000			16.437			-1.826
223801.000			16.438			-1.826
223900.000			16.437			-1.826
224001.000			16.435			-1.826
224100.000			16.435			-1.826
224201.000			16.437			-1.826
224300.000			16.437			-1.826
224400.000			16.436			-1.826
224501.000			16.436			-1.826
224601.000			16.435			-1.826
224701.000			16.434			-1.826
224801.000			16.435			-1.826
224900.000			16.434			-1.826
225000.000			16.434			-1.826
225101.000			16.435			-1.826
225200.000			16.434			-1.826
225300.000			16.433			-1.826
225401.000			16.434			-1.826
225501.000			16.435			-1.826
225601.000			16.433			-1.826
225702.000			16.433			-1.826
225800.000			16.432			-1.826
225900.000			16.432			-1.826
226001.000			16.432			-1.826
226100.000			16.433			-1.826
226200.000			16.432			-1.826
226301.000			16.431			-1.826
226401.000			16.432			-1.826
226501.000			16.431			-1.826
226602.000			16.431			-1.826
226700.000			16.430			-1.826
226800.000			16.432			-1.826
226901.000			16.432			-1.826
227000.000			16.430			-1.826
227100.000			16.431			-1.826
227201.000			16.431			-1.826
227300.000			16.430			-1.826
227402.000			16.430			-1.826
227501.000			16.430			-1.826
227600.000			16.429			-1.825
227701.000			16.429			-1.825
227800.000			16.429			-1.825
227900.000			16.429			-1.825
228001.000			16.429			-1.825
228100.000			16.428			-1.825
228200.000			16.428			-1.825
228302.000			16.429			-1.825
228401.000			16.430			-1.826
228501.000			16.428			-1.825
228601.000			16.427			-1.825
228700.000			16.428			-1.825
228800.000			16.427			-1.825
228901.000			16.427			-1.825
229000.000			16.427			-1.825
229100.000			16.427			-1.825
229201.000			16.427			-1.825
229301.000			16.426			-1.825
229401.000			16.426			-1.825
229501.000			16.425			-1.825
229600.000			16.425			-1.825
229700.000			16.425			-1.825
229801.000			16.425			-1.825
229900.000			16.425			-1.825
230000.000			16.424			-1.825
230101.000			16.425			-1.825
230201.000			16.425			-1.825
230301.000			16.424			-1.825
230402.000			16.425			-1.825
230500.000			16.425			-1.825
230601.000			16.425			-1.825
230700.000			16.424			-1.825
230800.000			16.424			-1.825
230901.000			16.424			-1.825
231000.000			16.424			-1.825
231100.000			16.423			-1.825
231202.000			16.424			-1.825
231301.000			16.423			-1.825
231400.000			16.423			-1.825
231501.000			16.424			-1.825
231600.000			16.423			-1.825
231700.000			16.423			-1.825
231801.000			16.423			-1.825
231900.000			16.422			-1.825
232000.000			16.423			-1.825
232102.000			16.422			-1.825
232201.000			16.421			-1.825
232300.000			16.421			-1.825
232401.000			16.421			-1.825
232500.000			16.422			-1.825
232600.000			16.421			-1.825
232701.000			16.421			-1.825
232800.000			16.421			-1.825
232901.000			16.421			-1.825
233002.000			16.421			-1.825
233101.000			16.421			-1.825
233200.000			16.421			-1.825
233301.000			16.421			-1.825
233400.000			16.421			-1.825
233500.000			16.419			-1.824
233601.000			16.419			-1.824
233700.000			16.419			-1.824
233802.000			16.418			-1.824
233901.000			16.419			-1.824
234001.000			16.419			-1.824
234101.000			16.418			-1.824
234200.000			16.418			-1.824
234300.000			16.419			-1.824
234401.000			16.418			-1.824
234500.000			16.418			-1.824
234600.000			16.418			-1.824
234701.000			16.417			-1.824
234801.000			16.416			-1.824
234901.000			16.417			-1.824
235001.000			16.416			-1.824
235100.000			16.417			-1.824
235200.000			16.417			-1.824
235301.000			16.416			-1.824
235400.000			16.415			-1.824
235500.000			16.416			-1.824
235601.000			16.415			-1.824
235701.000			16.413			-1.824
235801.000			16.414			-1.824
235901.000			16.416			-1.824
236000.000			16.415			-1.824
236100.000			16.415			-1.824
236201.000			16.414			-1.824
236300.000			16.415			-1.824
236400.000			16.415			-1.824
236501.000			16.415			-1.824
236601.000			16.414			-1.824
236701.000			16.414			-1.824
236802.000			16.413			-1.824
236900.000			16.413			-1.824
237001.000			16.413			-1.824
237100.000			16.413			-1.824
237200.000			16.413			-1.824
237301.000			16.413			-1.824
237400.000			16.412			-1.824
237500.000			16.412			-1.824
237602.000			16.412			-1.824
237701.000			16.411			-1.823
237800.000			16.411			-1.823
237901.000			16.412			-1.824
238000.000			16.412			-1.824
238100.000			16.412			-1.824
238201.000			16.412			-1.824
238300.000			16.411			-1.823
238400.000			16.411			-1.823
238502.000			16.411			-1.823
238601.000			16.410			-1.823
238700.000			16.411			-1.823
238801.000			16.410			-1.823
238900.000			16.410			-1.823
239000.000			16.409			-1.823
239101.000			16.410			-1.823
239200.000			16.410			-1.823
239300.000			16.409			-1.823
239402.000			16.409			-1.823
239501.000			16.408			-1.823
239601.000			16.408			-1.823
239701.000			16.409			-1.823
239800.000			16.408			-1.823
239900.000			16.407			-1.823
240001.000			16.407			-1.823
240100.000			16.408			-1.823
240201.000			16.408			-1.823
240300.000			16.407			-1.823
240401.000			16.407			-1.823
240502.000			16.408			-1.823
240600.000			16.408			-1.823
240700.000			16.406			-1.823
240801.000			16.406			-1.823
240900.000			16.406			-1.823
241000.000			16.405			-1.823
241101.000			16.405			-1.823
241200.000			16.405			-1.823
241301.000			16.405			-1.823
241402.000			16.405			-1.823
241500.000			16.406			-1.823
241600.000			16.405			-1.823
241701.000			16.405			-1.823
241800.000			16.404			-1.823
241900.000			16.403			-1.823
242001.000			16.403			-1.823
242101.000			16.404			-1.823
242201.000			16.404			-1.823
242302.000			16.405			-1.823
242400.000			16.404			-1.823
242500.000			16.405			-1.823
242601.000			16.404			-1.823
242700.000			16.403			-1.823
242800.000			16.403			-1.823
242901.000			16.402			-1.822
243000.000			16.404			-1.823
243101.000			16.404			-1.823
243202.000			16.402			-1.822
243300.000			16.401			-1.822
243401.000			16.400			-1.822
243500.000			16.401			-1.822
243600.000			16.401			-1.822
243701.000			16.400			-1.822
243800.000			16.400			-1.822
243900.000			16.401			-1.822
244002.000			16.401			-1.822
244101.000			16.401			-1.822
244200.000			16.401			-1.822
244301.000			16.401			-1.822
244400.000			16.400			-1.822
244500.000			16.400			-1.822
244601.000			16.400			-1.822
244700.000			16.400			-1.822
244800.000			16.399			-1.822
244901.000			16.400			-1.822
245001.000			16.399			-1.822
245101.000			16.399			-1.822
245201.000			16.398			-1.822
245300.000			16.398			-1.822
245400.000			16.399			-1.822
245501.000			16.399			-1.822
245600.000			16.397			-1.822
245700.000			16.397			-1.822
245801.000			16.398			-1.822
245901.000			16.398			-1.822
246001.000			16.397			-1.822
246102.000			16.396			-1.822
246200.000			16.396			-1.822
246300.000			16.396			-1.822
246401.000			16.397			-1.822
246500.000			16.396			-1.822
246601.000			16.395			-1.822
246700.000			16.395			-1.822
246800.000			16.395			-1.822
246902.000			16.395			-1.822
247001.000			16.395			-1.822
247101.000			16.396			-1.822
247201.000			16.397			-1.822
247300.000			16.396			-1.822
247400.000			16.395			-1.822
247501.000			16.393			-1.821
247600.000			16.393			-1.821
247700.000			16.394			-1.822
247801.000			16.394			-1.822
247901.000			16.393			-1.821
248001.000			16.393			-1.821
248102.000			16.393			-1.821
248200.000			16.392			-1.821
248300.000			16.393			-1.821
248401.000			16.393			-1.821
248500.000			16.393			-1.821
248600.000			16.393			-1.821
248701.000			16.394			-1.822
248800.000			16.394			-1.822
248901.000			16.393			-1.821
249002.000			16.391			-1.821
249101.000			16.391			-1.821
249200.000			16.393			-1.821
249301.000			16.392			-1.821
249400.000			16.392			-1.821
249500.000			16.390			-1.821
249601.000			16.391			-1.821
249700.000			16.391			-1.821
249801.000			16.390			-1.821
249901.000			16.390			-1.821
250001.000			16.390			-1.821
250101.000			16.390			-1.821
250200.000			16.390			-1.821
250300.000			16.390			-1.821
250401.000			16.389			-1.821
250500.000			16.389			-1.821
250600.000			16.389			-1.821
250701.000			16.390			-1.821
250801.000			16.389			-1.821
250901.000			16.389			-1.821
251002.000			16.389			-1.821
251100.000			16.388			-1.821
251200.000			16.388			-1.821
251301.000			16.389			-1.821
251400.000			16.388			-1.821
251500.000			16.389			-1.821
251601.000			16.389			-1.821
251700.000			16.387			-1.821
251801.000			16.387			-1.821
251902.000			16.387			-1.821
252000.000			16.387			-1.821
252100.000			16.387			-1.821
252201.000			16.387			-1.821
252300.000			16.388			-1.821
252400.000			16.387			-1.821
252501.000			16.386			-1.821
252600.000			16.386			-1.821
252701.000			16.386			-1.821
252802.000			16.386			-1.821
252901.000			16.386			-1.821
253001.000			16.386			-1.821
253100.000			16.386			-1.821
253200.000			16.386			-1.821
253301.000			16.386			-1.821
253400.000			16.385			-1.821
253500.000			16.385			-1.821
253601.000			16.385			-1.821
253701.000			16.385			-1.821
253801.000			16.384			-1.820
253901.000			16.384			-1.820
254000.000			16.383			-1.820
254100.000			16.384			-1.820
254201.000			16.384			-1.820
254300.000			16.383			-1.820
254400.000			16.383			-1.820
254501.000			16.382			-1.820
254601.000			16.383			-1.820
254701.000			16.384			-1.820
254802.000			16.384			-1.820
254900.000			16.383			-1.820
255000.000			16.383			-1.820
255101.000			16.382			-1.820
255200.000			16.382			-1.820
255300.000			16.382			-1.820
255401.000			16.382			-1.820
255500.000			16.382			-1.820
255601.000			16.382			-1.820
255702.000			16.381			-1.820
255801.000			16.380			-1.820
255900.000			16.380			-1.820
256001.000			16.380			-1.820
256100.000			16.379			-1.820
256201.000			16.380			-1.820
256300.000			16.381			-1.820
256400.000			16.380			-1.820
256501.000			16.379			-1.820
256601.000			16.380			-1.820
256701.000			16.379			-1.820
256801.000			16.379			-1.820
256900.000			16.380			-1.820
257000.000			16.379			-1.820
257101.000			16.378			-1.820
257200.000			16.378			-1.820
257300.000			16.379			-1.820
257401.000			16.378			-1.820
257501.000			16.378			-1.820
257601.000			16.378			-1.820
257702.000			16.378			-1.820
257800.000			16.378			-1.820
257900.000			16.377			-1.820
258001.000			16.377			-1.820
258100.000			16.377			-1.820
258200.000			16.377			-1.820
258301.000			16.377			-1.820
258400.000			16.378			-1.820
258501.000			16.378			-1.820
258602.000			16.377			-1.820
258701.000			16.376			-1.820
258800.000			16.377			-1.820
258901.000			16.377			-1.820
259000.000			16.375			-1.819
259100.000			16.376			-1.820
259201.000			16.377			-1.820
259300.000			16.376			-1.820
259401.000			16.375			-1.819
259501.000			16.374			-1.819
259601.000			16.375			-1.819
259702.000			16.375			-1.819
259800.000			16.374			-1.819
259900.000			16.374			-1.819
260001.000			16.375			-1.819
260100.000			16.374			-1.819
260200.000			16.374			-1.819
260301.000			16.374			-1.819
260400.000			16.374			-1.819
260501.000			16.374			-1.819
260602.000			16.373			-1.819
260700.000			16.372			-1.819
260800.000			16.373			-1.819
260901.000			16.373			-1.819
261000.000			16.373			-1.819
261100.000			16.373			-1.819
261201.000			16.374			-1.819
261300.000			16.373			-1.819
261401.000			16.372			-1.819
261502.000			16.372			-1.819
261601.000			16.372			-1.819
261700.000			16.372			-1.819
261801.000			16.372			-1.819
261900.000			16.371			-1.819
262000.000			16.371			-1.819
262101.000			16.372			-1.819
262200.000			16.372			-1.819
262300.000			16.372			-1.819
262402.000			16.371			-1.819
262501.000			16.371			-1.819
262601.000			16.370			-1.819
262700.000			16.370			-1.819
262800.000			16.371			-1.819
262901.000			16.370			-1.819
263000.000			16.371			-1.819
263100.000			16.371			-1.819
263201.000			16.369			-1.819
263301.000			4.836			-0.537
263476.000			16.368			-1.819
263564.000			16.369			-1.819
263652.000			16.368			-1.819
263740.000			16.368			-1.819
263828.000			16.368			-1.819
263916.000			16.368			-1.819
264003.000			16.368			-1.819
264101.000			16.369			-1.819
264200.000			16.369			-1.819
264300.000			16.368			-1.819
264401.000			16.367			-1.819
264500.000			16.368			-1.819
264600.000			16.368			-1.819
264701.000			16.367			-1.819
264801.000			16.366			-1.818
264901.000			16.366			-1.818
265001.000			16.367			-1.819
265100.000			16.367			-1.819
265200.000			16.368			-1.819
265301.000			16.366			-1.818
265400.000			16.366			-1.818
265500.000			16.366			-1.818
265601.000			16.365			-1.818
265701.000			16.365			-1.818
265802.000			16.365			-1.818
265901.000			16.365			-1.818
266000.000			16.365			-1.818
266101.000			16.366			-1.818
266200.000			16.365			-1.818
266300.000			16.364			-1.818
266401.000			16.363			-1.818
266500.000			16.364			-1.818
266600.000			16.364			-1.818
266702.000			16.364			-1.818
266801.000			16.363			-1.818
266900.000			16.364			-1.818
267001.000			16.362			-1.818
267100.000			16.362			-1.818
267200.000			16.362			-1.818
267301.000			16.362			-1.818
267400.000			16.363			-1.818
267500.000			16.363			-1.818
267602.000			16.363			-1.818
267701.000			16.363			-1.818
267801.000			16.362			-1.818
267901.000			16.362			-1.818
268000.000			16.362			-1.818
268100.000			16.361			-1.818
268201.000			16.361			-1.818
268300.000			16.362			-1.818
268400.000			16.362			-1.818
268501.000			16.362			-1.818
268601.000			16.361			-1.818
268701.000			16.361			-1.818
268801.000			16.360			-1.818
268900.000			16.360			-1.818
269001.000			16.360			-1.818
269100.000			16.360			-1.818
269200.000			16.360			-1.818
269301.000			16.361			-1.818
269400.000			16.360			-1.818
269501.000			16.359			-1.818
269602.000			16.359			-1.818
269701.000			16.360			-1.818
269800.000			16.360			-1.818
269901.000			16.360			-1.818
270000.000			16.359			-1.818
270100.000			16.358			-1.818
270201.000			16.358			-1.818
270300.000			16.358			-1.818
270400.000			16.358			-1.818
270502.000			16.358			-1.818
270601.000			16.358			-1.818
270700.000			16.358			-1.818
270801.000			16.357			-1.817
270900.000			16.358			-1.818
271000.000			16.359			-1.818
271101.000			16.357			-1.817
271200.000			16.357			-1.817
271300.000			16.357			-1.817
271402.000			16.356			-1.817
271501.000			16.357			-1.817
271601.000			16.356			-1.817
271701.000			16.356			-1.817
271800.000			16.356			-1.817
271900.000			16.357			-1.817
272001.000			16.357			-1.817
272100.000			16.356			-1.817
272201.000			16.354			-1.817
272300.000			16.355			-1.817
272401.000			16.355			-1.817
272502.000			16.354			-1.817
272600.000			16.354			-1.817
272700.000			16.354			-1.817
272801.000			16.354			-1.817
272900.000			16.354			-1.817
273000.000			16.354			-1.817
273101.000			16.354			-1.817
273200.000			16.354			-1.817
273301.000			16.353			-1.817
273402.000			16.353			-1.817
273501.000			16.354			-1.817
273600.000			16.353			-1.817
273701.000			16.353			-1.817
273800.000			16.353			-1.817
273900.000			16.352			-1.817
274001.000			16.353			-1.817
274100.000			16.354			-1.817
274201.000			16.352			-1.817
274302.000			16.351			-1.817
274401.000			16.351			-1.817
274500.000			16.352			-1.817
274601.000			16.352			-1.817
274700.000			16.351			-1.817
274800.000			16.351			-1.817
274901.000			16.352			-1.817
275000.000			16.352			-1.817
275100.000			16.351			-1.817
275202.000			16.351			-1.817
275301.000			16.350			-1.817
275401.000			16.350			-1.817
275500.000			16.351			-1.817
275600.000			16.350			-1.817
275701.000			16.350			-1.817
275800.000			16.350			-1.817
275900.000			16.350			-1.817
276001.000			16.350			-1.817
276101.000			16.350			-1.817
276201.000			16.350			-1.817
276302.000			16.350			-1.817
276400.000			16.349			-1.817
276500.000			16.349			-1.817
276601.000			16.350			-1.817
276700.000			16.349			-1.817
276800.000			16.348			-1.816
276901.000			16.347			-1.816
277000.000			16.348			-1.816
277101.000			16.348			-1.816
277202.000			16.348			-1.816
277301.000			16.348			-1.816
277400.000			16.348			-1.816
277501.000			16.347			-1.816
277600.000			16.348			-1.816
277700.000			16.347			-1.816
277801.000			16.348			-1.816
277900.000			16.346			-1.816
278000.000			16.346			-1.816
278102.000			16.346			-1.816
278201.000			16.347			-1.816
278300.000			16.346			-1.816
278401.000			16.346			-1.816
278500.000			16.346			-1.816
278601.000			16.347			-1.816
278700.000			16.346			-1.816
278800.000			16.346			-1.816
278901.000			16.346			-1.816
279001.000			16.346			-1.816
279101.000			16.346			-1.816
279202.000			16.345			-1.816
279300.000			16.344			-1.816
279400.000			16.344			-1.816
279501.000			16.344			-1.816
279600.000			16.344			-1.816
279700.000			16.344			-1.816
279801.000			16.344			-1.816
279900.000			16.343			-1.816
280001.000			16.342			-1.816
280102.000			16.344			-1.816
280200.000			16.343			-1.816
280300.000			16.343			-1.816
280401.000			16.342			-1.816
280500.000			16.342			-1.816
280600.000			16.343			-1.816
280701.000			16.343			-1.816
280800.000			16.342			-1.816
280901.000			16.343			-1.816
281002.000			16.343			-1.816
281101.000			16.343			-1.816
281200.000			16.342			-1.816
281301.000			16.341			-1.816
281400.000			16.342			-1.816
281500.000			16.343			-1.816
281601.000			16.341			-1.816
281700.000			16.341			-1.816
281802.000			16.340			-1.816
281901.000			16.340			-1.816
282001.000			16.342			-1.816
282101.000			16.342			-1.816
282200.000			16.341			-1.816
282300.000			16.340			-1.816
282401.000			16.340			-1.816
282500.000			16.340			-1.816
282600.000			16.340			-1.816
282702.000			16.340			-1.816
282801.000			16.339			-1.815
282901.000			16.339			-1.815
283001.000			16.339			-1.815
283100.000			16.339			-1.815
283200.000			16.338			-1.815
283301.000			16.339			-1.815
283400.000			16.339			-1.815
283500.000			16.339			-1.815
283601.000			16.339			-1.815
283701.000			16.338			-1.815
283801.000			16.337			-1.815
283902.000			16.337			-1.815
284000.000			16.337			-1.815
284100.000			16.338			-1.815
284201.000			16.338			-1.815
284300.000			16.337			-1.815
284400.000			16.337			-1.815
284501.000			16.336			-1.815
284600.000			16.336			-1.815
284701.000			16.337			-1.815
284802.000			16.337			-1.815
284900.000			16.337			-1.815
285001.000			16.337			-1.815
285100.000			16.337			-1.815
285200.000			16.337			-1.815
285301.000			16.336			-1.815
285400.000			16.335			-1.815
285500.000			16.335			-1.815
285602.000			16.335			-1.815
285701.000			16.335			-1.815
285801.000			16.335			-1.815
285901.000			16.335			-1.815
286000.000			16.335			-1.815
286100.000			16.335			-1.815
286201.000			16.335			-1.815
286300.000			16.335			-1.815
286400.000			16.336			-1.815
286501.000			16.335			-1.815
286601.000			16.334			-1.815
286701.000			16.334			-1.815
286801.000			16.334			-1.815
286900.000			16.334			-1.815
287000.000			16.333			-1.815
287101.000			16.333			-1.815
287200.000			16.333			-1.815
287300.000			16.332			-1.815
287401.000			16.332			-1.815
287501.000			16.333			-1.815
287601.000			16.332			-1.815
287701.000			16.332			-1.815
287800.000			16.333			-1.815
287900.000			16.332			-1.815
288001.000			16.331			-1.815
288100.000			16.332			-1.815
288201.000			16.332			-1.815
288300.000			16.332			-1.815
288400.000			16.331			-1.815
288502.000			16.330			-1.814
288601.000			16.331			-1.815
288700.000			16.332			-1.815
288801.000			16.331			-1.815
288900.000			16.330			-1.814
289000.000			16.331			-1.815
289101.000			16.331			-1.815
289200.000			16.330			-1.814
289300.000			16.330			-1.814
289402.000			16.330			-1.814
289501.000			16.330			-1.814
289600.000			16.331			-1.815
289701.000			16.330			-1.814
289800.000			16.329			-1.814
289900.000			16.329			-1.814
290001.000			16.330			-1.814
290100.000			16.329			-1.814
290200.000			16.329			-1.814
290301.000			16.328			-1.814
290401.000			16.328			-1.814
290501.000			16.328			-1.814
290601.000			16.329			-1.814
290700.000			16.329			-1.814
290800.000			16.329			-1.814
290901.000			16.328			-1.814
291000.000			16.328			-1.814
291100.000			16.328			-1.814
291201.000			16.328			-1.814
291301.000			16.327			-1.814
291402.000			16.328			-1.814
291500.000			16.327			-1.814
291600.000			16.327			-1.814
291701.000			16.327			-1.814
291800.000			16.326			-1.814
291900.000			16.326			-1.814
292001.000			16.326			-1.814
292100.000			16.327			-1.814
292201.000			16.326			-1.814
292302.000			16.325			-1.814
292401.000			16.325			-1.814
292500.000			16.327			-1.814
292601.000			16.326			-1.814
292700.000			16.326			-1.814
292800.000			16.326			-1.814
292901.000			16.324			-1.814
293000.000			16.324			-1.814
293100.000			16.324			-1.814
293202.000			16.324			-1.814
293301.000			16.325			-1.814
293400.000			16.325			-1.814
293501.000			16.324			-1.814
293600.000			16.324			-1.814
293700.000			16.324			-1.814
293801.000			16.324			-1.814
293900.000			16.323			-1.814
294000.000			16.323			-1.814
294102.000			16.323			-1.814
294201.000			16.323			-1.814
294301.000			16.323			-1.814
294401.000			16.322			-1.814
294500.000			16.322			-1.814
294601.000			16.322			-1.814
294700.000			16.322			-1.814
294800.000			16.322			-1.814
294901.000			16.322			-1.814
295001.000			16.322			-1.814
295101.000			16.323			-1.814
295202.000			16.323			-1.814
295300.000			16.322			-1.814
295400.000			16.321			-1.813
295501.000			16.322			-1.814
295600.000			16.321			-1.813
295700.000			16.320			-1.813
295801.000			16.321			-1.813
295900.000			16.321			-1.813
296001.000			16.321			-1.813
296102.000			16.321			-1.813
296200.000			16.320			-1.813
296300.000			16.320			-1.813
296401.000			16.319			-1.813
296500.000			16.319			-1.813
296600.000			16.320			-1.813
296701.000			16.320			-1.813
296800.000			16.319			-1.813
296901.000			16.319			-1.813
297002.000			16.319			-1.813
297101.000			16.318			-1.813
297200.000			16.318			-1.813
297301.000			16.319			-1.813
297400.000			16.319			-1.813
297500.000			16.319			-1.813
297601.000			16.318			-1.813
297700.000			16.318			-1.813
297801.000			16.317			-1.813
297901.000			16.317			-1.813
298001.000			16.317			-1.813
298101.000			16.317			-1.813
298200.000			16.317			-1.813
298300.000			16.317			-1.813
298401.000			16.317			-1.813
298500.000			16.318			-1.813
298600.000			16.318			-1.813
298701.000			16.317			-1.813
298800.000			16.317			-1.813
298901.000			16.317			-1.813
299002.000			16.317			-1.813
299100.000			16.316			-1.813
299200.000			16.316			-1.813
299301.000			16.315			-1.813
299400.000			16.316			-1.813
299500.000			16.316			-1.813
299601.000			16.316			-1.813
299700.000			16.316			-1.813
299800.000			16.315			-1.813
299902.000			16.315			-1.813
