# Acquired on 30/01/2024 09:24:28 
# SPIDER: Creep_11mm_GRPCNT1454A-1
# CREEP MEASUREMENT

# time [ms]		force [N]		stiffness [N/mm]
1.000			-43.399			-3.945
104.000			-44.085			-4.008
204.000			-44.067			-4.006
304.000			-43.696			-3.972
404.000			-43.118			-3.920
505.000			-42.906			-3.901
604.000			-42.723			-3.884
703.000			-42.561			-3.869
805.000			-42.416			-3.856
904.000			-42.283			-3.844
1004.000			-42.162			-3.833
1105.000			-41.953			-3.814
1204.000			-41.857			-3.805
1304.000			-41.767			-3.797
1404.000			-41.684			-3.789
1504.000			-41.604			-3.782
1605.000			-41.529			-3.775
1704.000			-41.460			-3.769
1804.000			-41.393			-3.763
1904.000			-41.267			-3.752
2004.000			-41.209			-3.746
2104.000			-41.153			-3.741
2205.000			-41.100			-3.736
2304.000			-41.048			-3.732
2404.000			-40.998			-3.727
2505.000			-40.951			-3.723
2603.000			-40.861			-3.715
2704.000			-40.818			-3.711
2805.000			-40.776			-3.707
2904.000			-40.736			-3.703
3004.000			-40.697			-3.700
3105.000			-40.659			-3.696
3204.000			-40.622			-3.693
3303.000			-40.551			-3.686
3405.000			-40.517			-3.683
3504.000			-40.483			-3.680
3604.000			-40.452			-3.677
3705.000			-40.421			-3.675
3803.000			-40.390			-3.672
3904.000			-40.359			-3.669
4005.000			-40.329			-3.666
4104.000			-40.274			-3.661
4204.000			-40.246			-3.659
4305.000			-40.218			-3.656
4404.000			-40.192			-3.654
4503.000			-40.167			-3.652
4605.000			-40.142			-3.649
4704.000			-40.118			-3.647
4805.000			-40.069			-3.643
4904.000			-40.045			-3.640
5003.000			-40.022			-3.638
5105.000			-39.999			-3.636
5204.000			-39.977			-3.634
5304.000			-39.956			-3.632
5405.000			-39.935			-3.630
5504.000			-39.894			-3.627
5604.000			-39.874			-3.625
5704.000			-39.854			-3.623
5804.000			-39.833			-3.621
5904.000			-39.813			-3.619
6005.000			-39.794			-3.618
6104.000			-39.775			-3.616
6204.000			-39.759			-3.614
6305.000			-39.722			-3.611
6403.000			-39.704			-3.609
6504.000			-39.686			-3.608
6605.000			-39.670			-3.606
6704.000			-39.653			-3.605
6804.000			-39.636			-3.603
6904.000			-39.618			-3.602
7004.000			-39.585			-3.599
7103.000			-39.568			-3.597
7205.000			-39.553			-3.596
7304.000			-39.539			-3.594
7404.000			-39.523			-3.593
7505.000			-39.508			-3.592
7603.000			-39.493			-3.590
7704.000			-39.464			-3.588
7805.000			-39.449			-3.586
7904.000			-39.435			-3.585
8005.000			-39.421			-3.584
8104.000			-39.407			-3.582
8204.000			-39.392			-3.581
8304.000			-39.378			-3.580
8404.000			-39.365			-3.579
8504.000			-39.339			-3.576
8605.000			-39.326			-3.575
8704.000			-39.314			-3.574
8804.000			-39.301			-3.573
8905.000			-39.289			-3.572
9003.000			-39.277			-3.571
9104.000			-39.263			-3.569
9205.000			-39.239			-3.567
9304.000			-39.227			-3.566
9404.000			-39.216			-3.565
9504.000			-39.203			-3.564
9604.000			-39.190			-3.563
9704.000			-39.180			-3.562
9805.000			-39.169			-3.561
9904.000			-39.147			-3.559
10004.000			-39.136			-3.558
10105.000			-39.125			-3.557
10203.000			-39.114			-3.556
10304.000			-39.103			-3.555
10405.000			-39.093			-3.554
10504.000			-39.082			-3.553
10604.000			-39.070			-3.552
10705.000			-39.050			-3.550
10804.000			-39.039			-3.549
10903.000			-39.029			-3.548
11005.000			-39.021			-3.547
11104.000			-39.010			-3.546
11205.000			-39.000			-3.545
11304.000			-38.991			-3.545
11403.000			-38.971			-3.543
11505.000			-38.960			-3.542
11604.000			-38.950			-3.541
11704.000			-38.941			-3.540
11805.000			-38.932			-3.539
11904.000			-38.923			-3.538
12004.000			-38.914			-3.538
12104.000			-38.895			-3.536
12204.000			-38.886			-3.535
12303.000			-38.877			-3.534
12405.000			-38.868			-3.533
12504.000			-38.858			-3.533
12604.000			-38.850			-3.532
12705.000			-38.841			-3.531
12804.000			-38.833			-3.530
12904.000			-38.815			-3.529
13004.000			-38.807			-3.528
13104.000			-38.800			-3.527
13204.000			-38.792			-3.527
13305.000			-38.782			-3.526
13404.000			-38.775			-3.525
13504.000			-38.768			-3.524
13605.000			-38.750			-3.523
13703.000			-38.742			-3.522
13804.000			-38.734			-3.521
13905.000			-38.725			-3.520
14004.000			-38.717			-3.520
14104.000			-38.711			-3.519
14205.000			-38.703			-3.518
14304.000			-38.686			-3.517
14403.000			-38.679			-3.516
14504.000			-38.672			-3.516
14604.000			-38.664			-3.515
14705.000			-38.657			-3.514
14804.000			-38.650			-3.514
14904.000			-38.643			-3.513
15005.000			-38.635			-3.512
15103.000			-38.620			-3.511
15204.000			-38.614			-3.510
15305.000			-38.608			-3.510
15404.000			-38.599			-3.509
15504.000			-38.592			-3.508
15605.000			-38.585			-3.508
15704.000			-38.578			-3.507
15803.000			-38.565			-3.506
15905.000			-38.558			-3.505
16004.000			-38.550			-3.505
16104.000			-38.544			-3.504
16205.000			-38.538			-3.503
16304.000			-38.531			-3.503
16404.000			-38.524			-3.502
16504.000			-38.511			-3.501
16604.000			-38.504			-3.500
16704.000			-38.497			-3.500
16805.000			-38.491			-3.499
16904.000			-38.483			-3.498
17004.000			-38.476			-3.498
17105.000			-38.472			-3.497
17203.000			-38.467			-3.497
17304.000			-38.454			-3.496
17405.000			-38.446			-3.495
17504.000			-38.440			-3.495
17605.000			-38.435			-3.494
17704.000			-38.429			-3.494
17804.000			-38.423			-3.493
17904.000			-38.417			-3.492
18004.000			-38.403			-3.491
18104.000			-38.398			-3.491
18205.000			-38.393			-3.490
18304.000			-38.387			-3.490
18404.000			-38.379			-3.489
18505.000			-38.374			-3.489
18603.000			-38.369			-3.488
18704.000			-38.357			-3.487
18805.000			-38.352			-3.487
18904.000			-38.346			-3.486
19004.000			-38.340			-3.485
19105.000			-38.334			-3.485
19204.000			-38.328			-3.484
19303.000			-38.323			-3.484
19405.000			-38.317			-3.483
19504.000			-38.305			-3.482
19604.000			-38.301			-3.482
19705.000			-38.296			-3.481
19804.000			-38.290			-3.481
19904.000			-38.284			-3.480
20004.000			-38.280			-3.480
20104.000			-38.275			-3.480
20204.000			-38.263			-3.478
20305.000			-38.258			-3.478
20404.000			-38.253			-3.478
20503.000			-38.247			-3.477
20605.000			-38.242			-3.477
20704.000			-38.237			-3.476
20805.000			-38.232			-3.476
20904.000			-38.221			-3.475
21004.000			-38.216			-3.474
21105.000			-38.212			-3.474
21203.000			-38.206			-3.473
21304.000			-38.202			-3.473
21405.000			-38.196			-3.472
21504.000			-38.191			-3.472
21604.000			-38.186			-3.471
21705.000			-38.175			-3.470
21804.000			-38.170			-3.470
21903.000			-38.166			-3.470
22005.000			-38.162			-3.469
22104.000			-38.156			-3.469
22204.000			-38.151			-3.468
22305.000			-38.146			-3.468
22404.000			-38.136			-3.467
22504.000			-38.132			-3.467
22604.000			-38.128			-3.466
22704.000			-38.123			-3.466
22804.000			-38.118			-3.465
22905.000			-38.113			-3.465
23004.000			-38.108			-3.464
23103.000			-38.099			-3.464
23205.000			-38.094			-3.463
23304.000			-38.090			-3.463
23404.000			-38.085			-3.462
23505.000			-38.081			-3.462
23604.000			-38.076			-3.461
23704.000			-38.071			-3.461
23804.000			-38.067			-3.461
23904.000			-38.058			-3.460
24005.000			-38.054			-3.459
24104.000			-38.050			-3.459
24204.000			-38.045			-3.459
24305.000			-38.040			-3.458
24404.000			-38.036			-3.458
24503.000			-38.032			-3.457
24605.000			-38.023			-3.457
24704.000			-38.018			-3.456
24804.000			-38.014			-3.456
24905.000			-38.010			-3.455
25004.000			-38.006			-3.455
25104.000			-38.002			-3.455
25204.000			-37.997			-3.454
25304.000			-37.989			-3.454
25404.000			-37.985			-3.453
25505.000			-37.981			-3.453
25604.000			-37.977			-3.452
25704.000			-37.973			-3.452
25805.000			-37.967			-3.452
25903.000			-37.963			-3.451
26004.000			-37.959			-3.451
26105.000			-37.952			-3.450
26204.000			-37.947			-3.450
26304.000			-37.943			-3.449
26405.000			-37.939			-3.449
26504.000			-37.935			-3.449
26603.000			-37.932			-3.448
26705.000			-37.928			-3.448
26804.000			-37.919			-3.447
26904.000			-37.915			-3.447
27005.000			-37.911			-3.446
27104.000			-37.908			-3.446
27205.000			-37.905			-3.446
27303.000			-37.900			-3.445
27404.000			-37.896			-3.445
27505.000			-37.888			-3.444
27604.000			-37.885			-3.444
27704.000			-37.881			-3.444
27805.000			-37.877			-3.443
27904.000			-37.872			-3.443
28003.000			-37.869			-3.443
28105.000			-37.865			-3.442
28204.000			-37.856			-3.441
28304.000			-37.853			-3.441
28405.000			-37.850			-3.441
28504.000			-37.846			-3.441
28604.000			-37.842			-3.440
28704.000			-37.838			-3.440
28804.000			-37.835			-3.440
28904.000			-37.831			-3.439
29005.000			-37.824			-3.439
29104.000			-37.821			-3.438
29204.000			-37.817			-3.438
29305.000			-37.814			-3.438
29403.000			-37.810			-3.437
29504.000			-37.806			-3.437
29605.000			-37.801			-3.436
29704.000			-37.795			-3.436
29804.000			-37.793			-3.436
29905.000			-37.788			-3.435
30004.000			-37.784			-3.435
30103.000			-37.781			-3.435
30205.000			-37.778			-3.434
30304.000			-37.774			-3.434
30405.000			-37.767			-3.433
30504.000			-37.764			-3.433
30604.000			-37.761			-3.433
30705.000			-37.756			-3.432
30803.000			-37.752			-3.432
30904.000			-37.750			-3.432
31005.000			-37.747			-3.432
31104.000			-37.743			-3.431
31204.000			-37.737			-3.431
31305.000			-37.733			-3.430
31404.000			-37.729			-3.430
31503.000			-37.726			-3.430
31605.000			-37.723			-3.429
31704.000			-37.720			-3.429
31804.000			-37.715			-3.429
31905.000			-37.709			-3.428
32004.000			-37.706			-3.428
32104.000			-37.703			-3.428
32204.000			-37.700			-3.427
32304.000			-37.696			-3.427
32404.000			-37.693			-3.427
32505.000			-37.689			-3.426
32604.000			-37.683			-3.426
32703.000			-37.680			-3.425
32805.000			-37.677			-3.425
32904.000			-37.675			-3.425
33004.000			-37.671			-3.425
33105.000			-37.668			-3.424
33204.000			-37.665			-3.424
33304.000			-37.662			-3.424
33404.000			-37.655			-3.423
33504.000			-37.652			-3.423
33605.000			-37.649			-3.423
33704.000			-37.645			-3.422
33804.000			-37.643			-3.422
33905.000			-37.640			-3.422
34004.000			-37.635			-3.421
34103.000			-37.630			-3.421
34205.000			-37.626			-3.421
34304.000			-37.624			-3.420
34404.000			-37.620			-3.420
34505.000			-37.616			-3.420
34604.000			-37.613			-3.419
34704.000			-37.611			-3.419
34804.000			-37.605			-3.419
34904.000			-37.601			-3.418
35004.000			-37.599			-3.418
35105.000			-37.597			-3.418
35204.000			-37.593			-3.418
35304.000			-37.590			-3.417
35405.000			-37.587			-3.417
35503.000			-37.584			-3.417
35604.000			-37.579			-3.416
35705.000			-37.576			-3.416
35804.000			-37.572			-3.416
35904.000			-37.569			-3.415
36005.000			-37.566			-3.415
36104.000			-37.563			-3.415
36203.000			-37.560			-3.415
36305.000			-37.554			-3.414
36404.000			-37.552			-3.414
36504.000			-37.549			-3.414
36605.000			-37.547			-3.413
36704.000			-37.543			-3.413
36805.000			-37.540			-3.413
36903.000			-37.538			-3.413
37004.000			-37.531			-3.412
37105.000			-37.528			-3.412
37204.000			-37.525			-3.411
37304.000			-37.523			-3.411
37405.000			-37.521			-3.411
37504.000			-37.518			-3.411
37603.000			-37.515			-3.410
37705.000			-37.513			-3.410
37804.000			-37.506			-3.410
37904.000			-37.503			-3.409
38005.000			-37.500			-3.409
38104.000			-37.498			-3.409
38204.000			-37.496			-3.409
38304.000			-37.493			-3.408
38404.000			-37.490			-3.408
38504.000			-37.484			-3.408
38605.000			-37.481			-3.407
38704.000			-37.478			-3.407
38804.000			-37.475			-3.407
38905.000			-37.473			-3.407
39003.000			-37.471			-3.406
39104.000			-37.468			-3.406
39205.000			-37.462			-3.406
39304.000			-37.459			-3.405
39404.000			-37.456			-3.405
39505.000			-37.454			-3.405
39604.000			-37.452			-3.405
39703.000			-37.450			-3.405
39805.000			-37.447			-3.404
39904.000			-37.443			-3.404
40005.000			-37.438			-3.403
40104.000			-37.436			-3.403
40204.000			-37.433			-3.403
40305.000			-37.431			-3.403
40403.000			-37.428			-3.403
40504.000			-37.425			-3.402
40605.000			-37.423			-3.402
40704.000			-37.419			-3.402
40804.000			-37.415			-3.401
40905.000			-37.413			-3.401
41004.000			-37.410			-3.401
41103.000			-37.407			-3.401
41205.000			-37.405			-3.400
41304.000			-37.404			-3.400
41404.000			-37.397			-3.400
41505.000			-37.393			-3.399
41603.000			-37.391			-3.399
41704.000			-37.389			-3.399
41805.000			-37.387			-3.399
41904.000			-37.384			-3.399
42004.000			-37.382			-3.398
42105.000			-37.379			-3.398
42204.000			-37.375			-3.398
42303.000			-37.371			-3.397
42405.000			-37.369			-3.397
42504.000			-37.366			-3.397
42604.000			-37.364			-3.397
42705.000			-37.362			-3.397
42804.000			-37.361			-3.396
42904.000			-37.355			-3.396
43004.000			-37.353			-3.396
43104.000			-37.350			-3.395
43205.000			-37.348			-3.395
43304.000			-37.346			-3.395
43404.000			-37.343			-3.395
43505.000			-37.340			-3.395
43604.000			-37.336			-3.394
43703.000			-37.333			-3.394
43805.000			-37.331			-3.394
43904.000			-37.329			-3.394
44004.000			-37.327			-3.393
44105.000			-37.323			-3.393
44204.000			-37.321			-3.393
44304.000			-37.320			-3.393
44404.000			-37.313			-3.392
44504.000			-37.311			-3.392
44604.000			-37.309			-3.392
44705.000			-37.306			-3.391
44804.000			-37.304			-3.391
44903.000			-37.303			-3.391
45005.000			-37.301			-3.391
45104.000			-37.296			-3.391
45204.000			-37.294			-3.390
45305.000			-37.291			-3.390
45404.000			-37.289			-3.390
45504.000			-37.286			-3.390
45604.000			-37.284			-3.389
45704.000			-37.282			-3.389
45804.000			-37.278			-3.389
45905.000			-37.276			-3.389
46004.000			-37.274			-3.389
46104.000			-37.271			-3.388
46205.000			-37.268			-3.388
46303.000			-37.265			-3.388
46405.000			-37.263			-3.388
46504.000			-37.261			-3.387
46604.000			-37.257			-3.387
46705.000			-37.255			-3.387
46804.000			-37.252			-3.387
46904.000			-37.249			-3.386
47004.000			-37.248			-3.386
47104.000			-37.245			-3.386
47204.000			-37.243			-3.386
47305.000			-37.239			-3.385
47404.000			-37.236			-3.385
47504.000			-37.235			-3.385
47605.000			-37.232			-3.385
47703.000			-37.230			-3.385
47804.000			-37.228			-3.384
47905.000			-37.226			-3.384
48004.000			-37.222			-3.384
48104.000			-37.218			-3.383
48205.000			-37.216			-3.383
48304.000			-37.215			-3.383
48403.000			-37.214			-3.383
48505.000			-37.212			-3.383
48604.000			-37.210			-3.383
48704.000			-37.207			-3.382
48805.000			-37.202			-3.382
48904.000			-37.199			-3.382
49004.000			-37.197			-3.382
49104.000			-37.195			-3.381
49204.000			-37.193			-3.381
49304.000			-37.191			-3.381
49405.000			-37.189			-3.381
49504.000			-37.186			-3.381
49605.000			-37.183			-3.380
49704.000			-37.181			-3.380
49803.000			-37.179			-3.380
49905.000			-37.177			-3.380
50004.000			-37.175			-3.380
50104.000			-37.173			-3.379
50205.000			-37.169			-3.379
50304.000			-37.166			-3.379
50404.000			-37.164			-3.379
50504.000			-37.162			-3.378
50604.000			-37.160			-3.378
50704.000			-37.158			-3.378
50805.000			-37.155			-3.378
50904.000			-37.153			-3.378
51004.000			-37.149			-3.377
51105.000			-37.148			-3.377
51203.000			-37.146			-3.377
51304.000			-37.143			-3.377
51405.000			-37.142			-3.377
51504.000			-37.140			-3.376
51604.000			-37.137			-3.376
51704.000			-37.134			-3.376
51804.000			-37.132			-3.376
51904.000			-37.130			-3.375
52005.000			-37.127			-3.375
52104.000			-37.125			-3.375
52204.000			-37.123			-3.375
52305.000			-37.122			-3.375
52403.000			-37.118			-3.374
52504.000			-37.116			-3.374
52605.000			-37.114			-3.374
52704.000			-37.112			-3.374
52805.000			-37.110			-3.374
52904.000			-37.108			-3.373
53004.000			-37.106			-3.373
53104.000			-37.104			-3.373
53204.000			-37.101			-3.373
53304.000			-37.098			-3.373
53405.000			-37.096			-3.372
53504.000			-37.094			-3.372
53604.000			-37.092			-3.372
53705.000			-37.090			-3.372
53803.000			-37.088			-3.372
53904.000			-37.084			-3.371
54005.000			-37.082			-3.371
54104.000			-37.081			-3.371
54204.000			-37.079			-3.371
54304.000			-37.076			-3.371
54404.000			-37.074			-3.370
54504.000			-37.073			-3.370
54605.000			-37.070			-3.370
54704.000			-37.068			-3.370
54804.000			-37.065			-3.370
54905.000			-37.064			-3.369
55003.000			-37.061			-3.369
55104.000			-37.058			-3.369
55205.000			-37.058			-3.369
55304.000			-37.056			-3.369
55404.000			-37.052			-3.368
55505.000			-37.051			-3.368
55604.000			-37.048			-3.368
55703.000			-37.046			-3.368
55805.000			-37.044			-3.368
55904.000			-37.042			-3.367
56005.000			-37.041			-3.367
56104.000			-37.038			-3.367
56204.000			-37.036			-3.367
56305.000			-37.033			-3.367
56403.000			-37.031			-3.366
56504.000			-37.030			-3.366
56605.000			-37.029			-3.366
56704.000			-37.026			-3.366
56804.000			-37.023			-3.366
56904.000			-37.020			-3.365
57004.000			-37.019			-3.365
57103.000			-37.017			-3.365
57205.000			-37.015			-3.365
57304.000			-37.013			-3.365
57404.000			-37.010			-3.365
57505.000			-37.007			-3.364
57603.000			-37.006			-3.364
57704.000			-37.005			-3.364
57805.000			-37.004			-3.364
57904.000			-37.002			-3.364
58004.000			-36.999			-3.364
58105.000			-36.997			-3.363
58204.000			-36.995			-3.363
58303.000			-36.992			-3.363
58405.000			-36.990			-3.363
58504.000			-36.989			-3.363
58604.000			-36.987			-3.362
58705.000			-36.984			-3.362
58804.000			-36.982			-3.362
58904.000			-36.979			-3.362
59004.000			-36.976			-3.361
59104.000			-36.975			-3.361
59203.000			-36.974			-3.361
59304.000			-36.972			-3.361
59404.000			-36.971			-3.361
59505.000			-36.969			-3.361
59604.000			-36.966			-3.361
59704.000			-36.964			-3.360
59805.000			-36.963			-3.360
59903.000			-36.960			-3.360
60004.000			-36.956			-3.360
60105.000			-36.955			-3.360
60204.000			-36.956			-3.360
60304.000			-36.954			-3.359
60405.000			-36.951			-3.359
60504.000			-36.948			-3.359
60603.000			-36.946			-3.359
60705.000			-36.945			-3.359
60804.000			-36.943			-3.358
60904.000			-36.941			-3.358
61005.000			-36.939			-3.358
61104.000			-36.937			-3.358
61204.000			-36.933			-3.358
61304.000			-36.932			-3.357
61404.000			-36.930			-3.357
61504.000			-36.928			-3.357
61605.000			-36.927			-3.357
61704.000			-36.925			-3.357
61803.000			-36.924			-3.357
61905.000			-36.920			-3.356
62004.000			-36.918			-3.356
62104.000			-36.916			-3.356
62205.000			-36.915			-3.356
62304.000			-36.913			-3.356
62405.000			-36.912			-3.356
62503.000			-36.910			-3.355
62604.000			-36.909			-3.355
62705.000			-36.906			-3.355
62804.000			-36.904			-3.355
62904.000			-36.903			-3.355
63005.000			-36.902			-3.355
63104.000			-36.900			-3.355
63203.000			-36.897			-3.354
63305.000			-36.895			-3.354
63404.000			-36.892			-3.354
63504.000			-36.890			-3.354
63605.000			-36.889			-3.354
63704.000			-36.888			-3.353
63804.000			-36.886			-3.353
63904.000			-36.884			-3.353
64004.000			-36.883			-3.353
64104.000			-36.880			-3.353
64205.000			-36.878			-3.353
64304.000			-36.876			-3.352
64404.000			-36.873			-3.352
64505.000			-36.872			-3.352
64603.000			-36.871			-3.352
64704.000			-36.869			-3.352
64804.000			-36.868			-3.352
64904.000			-36.864			-3.351
65004.000			-36.864			-3.351
65105.000			-36.862			-3.351
65204.000			-36.861			-3.351
65304.000			-36.860			-3.351
65405.000			-36.859			-3.351
65503.000			-36.856			-3.351
65605.000			-36.853			-3.350
65704.000			-36.851			-3.350
65804.000			-36.849			-3.350
65905.000			-36.847			-3.350
66004.000			-36.846			-3.350
66104.000			-36.844			-3.349
66204.000			-36.843			-3.349
66304.000			16.401			1.491
66480.000			-36.837			-3.349
66568.000			-36.836			-3.349
66656.000			-36.834			-3.349
66744.000			-36.832			-3.348
66832.000			-36.832			-3.348
66920.000			-36.830			-3.348
67007.000			-36.827			-3.348
67105.000			-36.826			-3.348
67203.000			-36.825			-3.348
67304.000			-36.824			-3.348
67405.000			-36.821			-3.347
67504.000			-36.818			-3.347
67604.000			-36.818			-3.347
67705.000			-36.817			-3.347
67804.000			-36.814			-3.347
67903.000			-36.813			-3.347
68005.000			-36.811			-3.346
68104.000			-36.808			-3.346
68204.000			-36.807			-3.346
68305.000			-36.806			-3.346
68404.000			-36.804			-3.346
68504.000			-36.801			-3.346
68604.000			-36.800			-3.345
68704.000			-36.799			-3.345
68805.000			-36.795			-3.345
68904.000			-36.794			-3.345
69004.000			-36.793			-3.345
69105.000			-36.791			-3.345
69204.000			-36.790			-3.345
69303.000			-36.788			-3.344
69405.000			-36.787			-3.344
69503.000			-36.785			-3.344
69604.000			-36.783			-3.344
69705.000			-36.782			-3.344
69804.000			-36.781			-3.344
69904.000			-36.780			-3.344
70005.000			-36.775			-3.343
70104.000			-36.775			-3.343
70203.000			-36.773			-3.343
70305.000			-36.771			-3.343
70404.000			-36.770			-3.343
70504.000			-36.769			-3.343
70605.000			-36.768			-3.343
70704.000			-36.766			-3.342
70804.000			-36.764			-3.342
70904.000			-36.762			-3.342
71004.000			-36.759			-3.342
71104.000			-36.758			-3.342
71205.000			-36.757			-3.342
71304.000			-36.756			-3.341
71404.000			-36.754			-3.341
71505.000			-36.751			-3.341
71603.000			-36.750			-3.341
71704.000			-36.748			-3.341
71805.000			-36.747			-3.341
71904.000			-36.746			-3.341
72005.000			-36.743			-3.340
72104.000			-36.742			-3.340
72204.000			-36.740			-3.340
72304.000			-36.738			-3.340
72404.000			-36.737			-3.340
72504.000			-36.736			-3.340
72605.000			-36.734			-3.339
72704.000			-36.733			-3.339
72804.000			-36.732			-3.339
72905.000			-36.728			-3.339
73003.000			-36.727			-3.339
73104.000			-36.725			-3.339
73205.000			-36.723			-3.338
73304.000			-36.723			-3.338
73404.000			-36.722			-3.338
73505.000			-36.719			-3.338
73604.000			-36.718			-3.338
73703.000			-36.716			-3.338
73805.000			-36.714			-3.338
73904.000			-36.713			-3.338
74004.000			-36.710			-3.337
74105.000			-36.709			-3.337
74204.000			-36.709			-3.337
74304.000			-36.707			-3.337
74404.000			-36.706			-3.337
74504.000			-36.704			-3.337
74604.000			-36.703			-3.337
74705.000			-36.701			-3.336
74804.000			-36.700			-3.336
74904.000			-36.698			-3.336
75005.000			-36.696			-3.336
75103.000			-36.693			-3.336
75205.000			-36.691			-3.336
75304.000			-36.690			-3.335
75404.000			-36.690			-3.335
75505.000			-36.689			-3.335
75604.000			-36.688			-3.335
75704.000			-36.686			-3.335
75804.000			-36.683			-3.335
75904.000			-36.681			-3.335
76003.000			-36.679			-3.334
76105.000			-36.678			-3.334
76204.000			-36.676			-3.334
76304.000			-36.675			-3.334
76405.000			-36.674			-3.334
76504.000			-36.673			-3.334
76604.000			-36.670			-3.334
76704.000			-36.668			-3.333
76804.000			-36.668			-3.333
76904.000			-36.667			-3.333
77005.000			-36.665			-3.333
77104.000			-36.664			-3.333
77204.000			-36.662			-3.333
77305.000			-36.660			-3.333
77403.000			-36.659			-3.333
77504.000			-36.657			-3.332
77605.000			-36.655			-3.332
77704.000			-36.654			-3.332
77804.000			-36.653			-3.332
77905.000			-36.651			-3.332
78004.000			-36.650			-3.332
78103.000			-36.648			-3.332
78205.000			-36.647			-3.332
78304.000			-36.645			-3.331
78405.000			-36.644			-3.331
78504.000			-36.643			-3.331
78604.000			-36.641			-3.331
78705.000			-36.639			-3.331
78804.000			-36.637			-3.331
78904.000			-36.636			-3.331
79004.000			-36.635			-3.330
79104.000			-36.632			-3.330
79204.000			-36.630			-3.330
79305.000			-36.629			-3.330
79404.000			-36.629			-3.330
79504.000			-36.626			-3.330
79605.000			-36.626			-3.330
79703.000			-36.625			-3.330
79804.000			-36.624			-3.329
79905.000			-36.623			-3.329
80004.000			-36.621			-3.329
80104.000			-36.619			-3.329
80205.000			-36.618			-3.329
80304.000			-36.614			-3.329
80403.000			-36.614			-3.329
80505.000			-36.613			-3.328
80604.000			-36.612			-3.328
80704.000			-36.611			-3.328
80805.000			-36.608			-3.328
80904.000			-36.607			-3.328
81004.000			-36.605			-3.328
81104.000			-36.604			-3.328
81204.000			-36.603			-3.328
81304.000			-36.602			-3.327
81405.000			-36.600			-3.327
81504.000			-36.598			-3.327
81605.000			-36.597			-3.327
81704.000			-36.595			-3.327
81803.000			-36.594			-3.327
81905.000			-36.592			-3.327
82004.000			-36.591			-3.326
82104.000			-36.590			-3.326
82205.000			-36.588			-3.326
82304.000			-36.586			-3.326
82404.000			-36.585			-3.326
82504.000			-36.583			-3.326
82604.000			-36.583			-3.326
82704.000			-36.582			-3.326
82805.000			-36.580			-3.325
82904.000			-36.579			-3.325
83004.000			-36.578			-3.325
83105.000			-36.576			-3.325
83203.000			-36.573			-3.325
83304.000			-36.572			-3.325
83405.000			-36.572			-3.325
83504.000			-36.571			-3.325
83604.000			-36.569			-3.324
83705.000			-36.568			-3.324
83804.000			-36.567			-3.324
83903.000			-36.564			-3.324
84005.000			-36.562			-3.324
84104.000			-36.562			-3.324
84204.000			-36.560			-3.324
84305.000			-36.559			-3.324
84404.000			-36.558			-3.323
84504.000			-36.556			-3.323
84604.000			-36.555			-3.323
84704.000			-36.553			-3.323
84803.000			-36.552			-3.323
84904.000			-36.551			-3.323
85004.000			-36.550			-3.323
85105.000			-36.549			-3.323
85204.000			-36.548			-3.323
85304.000			-36.546			-3.322
85405.000			-36.545			-3.322
85503.000			-36.542			-3.322
85604.000			-36.541			-3.322
85705.000			-36.539			-3.322
85804.000			-36.537			-3.322
85904.000			-36.536			-3.321
86005.000			-36.535			-3.321
86104.000			-36.534			-3.321
86203.000			-36.532			-3.321
86305.000			-36.531			-3.321
86404.000			-36.531			-3.321
86504.000			-36.530			-3.321
86605.000			-36.528			-3.321
86704.000			-36.527			-3.321
86804.000			-36.525			-3.320
86904.000			-36.524			-3.320
87004.000			-36.523			-3.320
87104.000			-36.522			-3.320
87205.000			-36.519			-3.320
87304.000			-36.518			-3.320
87404.000			-36.518			-3.320
87505.000			-36.516			-3.320
87603.000			-36.514			-3.319
87704.000			-36.513			-3.319
87805.000			-36.511			-3.319
87904.000			-36.510			-3.319
88005.000			-36.508			-3.319
88104.000			-36.507			-3.319
88204.000			-36.506			-3.319
88304.000			-36.504			-3.319
88404.000			-36.503			-3.318
88504.000			-36.501			-3.318
88605.000			-36.501			-3.318
88704.000			-36.500			-3.318
88804.000			-36.499			-3.318
88905.000			-36.497			-3.318
89003.000			-36.495			-3.318
89104.000			-36.495			-3.318
89205.000			-36.493			-3.318
89304.000			-36.492			-3.317
89404.000			-36.490			-3.317
89505.000			-36.490			-3.317
89604.000			-36.489			-3.317
89703.000			-36.487			-3.317
89805.000			-36.484			-3.317
89904.000			-36.483			-3.317
90004.000			-36.482			-3.317
90105.000			-36.481			-3.316
90204.000			-36.479			-3.316
90304.000			-36.478			-3.316
90404.000			-36.476			-3.316
90504.000			-36.475			-3.316
90604.000			-36.475			-3.316
90705.000			-36.473			-3.316
90804.000			-36.473			-3.316
90904.000			-36.471			-3.316
91005.000			-36.470			-3.315
91103.000			-36.469			-3.315
91205.000			-36.467			-3.315
91304.000			-36.466			-3.315
91404.000			-36.465			-3.315
91505.000			-36.463			-3.315
91604.000			-36.461			-3.315
91704.000			-36.460			-3.315
91804.000			-36.459			-3.314
91904.000			-36.458			-3.314
92003.000			-36.456			-3.314
92105.000			-36.455			-3.314
92204.000			-36.454			-3.314
92304.000			-36.453			-3.314
92405.000			-36.452			-3.314
92503.000			-36.451			-3.314
92604.000			-36.450			-3.314
92705.000			-36.447			-3.313
92804.000			-36.446			-3.313
92904.000			-36.445			-3.313
93005.000			-36.444			-3.313
93104.000			-36.443			-3.313
93203.000			-36.442			-3.313
93305.000			-36.441			-3.313
93404.000			-36.439			-3.313
93504.000			-36.437			-3.312
93605.000			-36.436			-3.312
93704.000			-36.435			-3.312
93804.000			-36.434			-3.312
93904.000			-36.433			-3.312
94004.000			-36.431			-3.312
94103.000			-36.430			-3.312
94205.000			-36.428			-3.312
94304.000			-36.427			-3.312
94405.000			-36.426			-3.311
94504.000			-36.425			-3.311
94603.000			-36.425			-3.311
94705.000			-36.424			-3.311
94804.000			-36.422			-3.311
94904.000			-36.418			-3.311
95005.000			-36.417			-3.311
95104.000			-36.418			-3.311
95204.000			-36.417			-3.311
95304.000			-36.416			-3.311
95404.000			-36.415			-3.310
95503.000			-36.413			-3.310
95605.000			-36.411			-3.310
95704.000			-36.411			-3.310
95804.000			-36.410			-3.310
95905.000			-36.408			-3.310
96004.000			-36.407			-3.310
96104.000			-36.405			-3.310
96204.000			-36.404			-3.309
96304.000			-36.404			-3.309
96404.000			-36.402			-3.309
96505.000			-36.401			-3.309
96604.000			-36.400			-3.309
96703.000			-36.401			-3.309
96805.000			-36.400			-3.309
96903.000			-36.397			-3.309
97004.000			-36.395			-3.309
97105.000			-36.393			-3.308
97204.000			-36.392			-3.308
97304.000			-36.391			-3.308
97405.000			-36.391			-3.308
97504.000			-36.390			-3.308
97603.000			-36.388			-3.308
97704.000			-36.386			-3.308
97804.000			-36.384			-3.308
97905.000			-36.383			-3.308
98004.000			-36.382			-3.307
98104.000			-36.382			-3.307
98205.000			-36.382			-3.307
98303.000			-36.381			-3.307
98404.000			-36.380			-3.307
98505.000			-36.379			-3.307
98604.000			-36.376			-3.307
98704.000			-36.375			-3.307
98805.000			-36.374			-3.307
98904.000			-36.373			-3.307
99003.000			-36.371			-3.306
99105.000			-36.371			-3.306
99204.000			-36.371			-3.306
99304.000			-36.368			-3.306
99405.000			-36.367			-3.306
99504.000			-36.366			-3.306
99604.000			-36.365			-3.306
99704.000			-36.363			-3.306
99804.000			-36.363			-3.306
99904.000			-36.362			-3.306
100005.000			-36.358			-3.305
100104.000			-36.357			-3.305
100204.000			-36.357			-3.305
100305.000			-36.357			-3.305
100404.000			-36.355			-3.305
100504.000			-36.353			-3.305
100604.000			-36.352			-3.305
100704.000			-36.351			-3.305
100805.000			-36.350			-3.305
100904.000			-36.350			-3.305
101004.000			-36.348			-3.304
101105.000			-36.347			-3.304
101204.000			-36.346			-3.304
101303.000			-36.345			-3.304
101405.000			-36.344			-3.304
101504.000			-36.343			-3.304
101604.000			-36.342			-3.304
101705.000			-36.340			-3.304
101804.000			-36.338			-3.303
101904.000			-36.337			-3.303
102004.000			-36.337			-3.303
102104.000			-36.336			-3.303
102204.000			-36.333			-3.303
102305.000			-36.332			-3.303
102404.000			-36.331			-3.303
102504.000			-36.330			-3.303
102605.000			-36.330			-3.303
102703.000			-36.330			-3.303
102804.000			-36.328			-3.303
102905.000			-36.327			-3.302
103004.000			-36.325			-3.302
103104.000			-36.323			-3.302
103205.000			-36.322			-3.302
103304.000			-36.321			-3.302
103403.000			-36.321			-3.302
103505.000			-36.320			-3.302
103604.000			-36.320			-3.302
103704.000			-36.317			-3.302
103805.000			-36.317			-3.302
103904.000			-36.316			-3.301
104005.000			-36.314			-3.301
104103.000			-36.313			-3.301
104204.000			-36.312			-3.301
104305.000			-36.312			-3.301
104404.000			-36.309			-3.301
104504.000			-36.307			-3.301
104605.000			-36.306			-3.301
104704.000			-36.306			-3.301
104803.000			-36.305			-3.300
104905.000			-36.305			-3.300
105004.000			-36.303			-3.300
105104.000			-36.302			-3.300
105205.000			-36.299			-3.300
105304.000			-36.299			-3.300
105404.000			-36.298			-3.300
105504.000			-36.297			-3.300
105604.000			-36.296			-3.300
105704.000			-36.296			-3.300
105805.000			-36.296			-3.300
105904.000			-36.293			-3.299
106004.000			-36.292			-3.299
106105.000			-36.291			-3.299
106203.000			-36.289			-3.299
106304.000			-36.288			-3.299
106405.000			-36.286			-3.299
106504.000			-36.285			-3.299
106604.000			-36.284			-3.299
106705.000			-36.283			-3.298
106804.000			-36.282			-3.298
106903.000			-36.281			-3.298
107005.000			-36.280			-3.298
107104.000			-36.280			-3.298
107205.000			-36.279			-3.298
107304.000			-36.277			-3.298
107404.000			-36.276			-3.298
107505.000			-36.275			-3.298
107603.000			-36.274			-3.298
107704.000			-36.274			-3.298
107804.000			-36.273			-3.298
107904.000			-36.272			-3.297
108004.000			-36.271			-3.297
108105.000			-36.269			-3.297
108204.000			-36.269			-3.297
108304.000			-36.267			-3.297
108405.000			-36.267			-3.297
108503.000			-36.266			-3.297
108604.000			-36.264			-3.297
108705.000			-36.263			-3.297
108804.000			-36.261			-3.296
108904.000			-36.260			-3.296
109005.000			-36.259			-3.296
109104.000			-36.259			-3.296
109203.000			-36.258			-3.296
109305.000			-36.257			-3.296
109404.000			-36.256			-3.296
109504.000			-36.253			-3.296
109605.000			-36.252			-3.296
109704.000			-36.252			-3.296
109804.000			-36.251			-3.296
109904.000			-36.250			-3.295
110004.000			-36.249			-3.295
110103.000			-36.248			-3.295
110205.000			-36.247			-3.295
110304.000			-36.245			-3.295
110405.000			-36.244			-3.295
110504.000			-36.242			-3.295
110604.000			-36.241			-3.295
110705.000			-36.241			-3.295
110803.000			-36.240			-3.295
110904.000			-36.239			-3.294
111005.000			-36.238			-3.294
111104.000			-36.238			-3.294
111204.000			-36.237			-3.294
111305.000			-36.234			-3.294
111404.000			-36.233			-3.294
111503.000			-36.233			-3.294
111605.000			-36.233			-3.294
111704.000			-36.229			-3.294
111804.000			-36.229			-3.294
111905.000			-36.229			-3.294
112004.000			-36.228			-3.293
112104.000			-36.227			-3.293
112204.000			-36.226			-3.293
112304.000			-36.225			-3.293
112404.000			-36.224			-3.293
112505.000			-36.221			-3.293
112604.000			-36.221			-3.293
112704.000			-36.220			-3.293
112805.000			-36.220			-3.293
112903.000			-36.219			-3.293
113004.000			-36.218			-3.293
113105.000			-36.217			-3.292
113204.000			-36.215			-3.292
113304.000			-36.214			-3.292
113405.000			-36.212			-3.292
113504.000			-36.212			-3.292
113603.000			-36.212			-3.292
113704.000			-36.210			-3.292
113804.000			-36.209			-3.292
113905.000			-36.208			-3.292
114004.000			-36.208			-3.292
114104.000			-36.206			-3.291
114205.000			-36.205			-3.291
114303.000			-36.204			-3.291
114404.000			-36.203			-3.291
114505.000			-36.202			-3.291
114604.000			-36.201			-3.291
114704.000			-36.198			-3.291
114805.000			-36.198			-3.291
114904.000			-36.197			-3.291
115003.000			-36.197			-3.291
115105.000			-36.196			-3.291
115204.000			-36.195			-3.290
115304.000			-36.194			-3.290
115405.000			-36.193			-3.290
115504.000			-36.191			-3.290
115604.000			-36.190			-3.290
115704.000			-36.190			-3.290
115804.000			-36.189			-3.290
115904.000			-36.188			-3.290
116005.000			-36.188			-3.290
116104.000			-36.186			-3.290
116204.000			-36.185			-3.290
116305.000			-36.184			-3.289
116404.000			-36.183			-3.289
116504.000			-36.182			-3.289
116604.000			-36.181			-3.289
116704.000			-36.180			-3.289
116805.000			-36.180			-3.289
116904.000			-36.178			-3.289
117004.000			-36.177			-3.289
117105.000			-36.176			-3.289
117204.000			-36.175			-3.289
117303.000			-36.173			-3.288
117405.000			-36.174			-3.289
117504.000			-36.173			-3.288
117604.000			-36.170			-3.288
117705.000			-36.169			-3.288
117804.000			-36.168			-3.288
117904.000			-36.168			-3.288
118004.000			-36.168			-3.288
118104.000			-36.167			-3.288
118204.000			-36.166			-3.288
118305.000			-36.163			-3.288
118404.000			-36.163			-3.288
118504.000			-36.162			-3.287
118605.000			-36.161			-3.287
118704.000			-36.160			-3.287
118804.000			-36.159			-3.287
118904.000			-36.159			-3.287
119004.000			-36.157			-3.287
119104.000			-36.157			-3.287
119205.000			-36.156			-3.287
119304.000			-36.153			-3.287
119404.000			-36.153			-3.287
119505.000			-36.152			-3.287
119603.000			-36.152			-3.287
119704.000			-36.151			-3.286
119805.000			-36.149			-3.286
119904.000			-36.148			-3.286
120005.000			-36.147			-3.286
120104.000			-36.147			-3.286
120204.000			-36.145			-3.286
120304.000			-36.145			-3.286
120404.000			-36.144			-3.286
120504.000			-36.142			-3.286
120605.000			-36.141			-3.286
120704.000			-36.141			-3.286
120804.000			-36.140			-3.285
120905.000			-36.138			-3.285
121003.000			-36.137			-3.285
121104.000			-36.136			-3.285
121205.000			-36.136			-3.285
121304.000			-36.135			-3.285
121404.000			-36.134			-3.285
121505.000			-36.131			-3.285
121604.000			-36.130			-3.285
121703.000			-36.130			-3.285
121805.000			-36.130			-3.285
121904.000			-36.128			-3.284
122004.000			-36.128			-3.284
122105.000			-36.127			-3.284
122204.000			-36.125			-3.284
122304.000			-36.124			-3.284
122404.000			-36.124			-3.284
122504.000			-36.123			-3.284
122604.000			-36.122			-3.284
122705.000			-36.122			-3.284
122804.000			-36.121			-3.284
122904.000			-36.120			-3.284
123005.000			-36.119			-3.284
123103.000			-36.118			-3.283
123205.000			-36.117			-3.283
123304.000			-36.116			-3.283
123404.000			-36.115			-3.283
123505.000			-36.113			-3.283
123604.000			-36.113			-3.283
123704.000			-36.112			-3.283
123804.000			-36.111			-3.283
123904.000			-36.111			-3.283
124004.000			-36.110			-3.283
124105.000			-36.108			-3.283
124204.000			-36.107			-3.282
124304.000			-36.106			-3.282
124405.000			-36.106			-3.282
124503.000			-36.105			-3.282
124604.000			-36.102			-3.282
124705.000			-36.102			-3.282
124804.000			-36.102			-3.282
124904.000			-36.101			-3.282
125005.000			-36.101			-3.282
125104.000			-36.100			-3.282
125203.000			-36.097			-3.282
125305.000			-36.096			-3.281
125404.000			-36.097			-3.282
125504.000			-36.096			-3.281
125605.000			-36.094			-3.281
125704.000			-36.093			-3.281
125804.000			-36.092			-3.281
125904.000			-36.092			-3.281
126004.000			-36.091			-3.281
126104.000			-36.090			-3.281
126205.000			-36.090			-3.281
126304.000			-36.088			-3.281
126405.000			-36.087			-3.281
126504.000			-36.086			-3.281
126603.000			-36.085			-3.280
126705.000			-36.084			-3.280
126804.000			-36.083			-3.280
126904.000			-36.083			-3.280
127005.000			-36.082			-3.280
127104.000			-36.081			-3.280
127204.000			-36.080			-3.280
127304.000			-36.080			-3.280
127404.000			-36.078			-3.280
127503.000			-36.077			-3.280
127605.000			-36.077			-3.280
127704.000			-36.075			-3.280
127804.000			-36.075			-3.280
127905.000			-36.072			-3.279
128004.000			-36.073			-3.279
128104.000			-36.071			-3.279
128204.000			-36.071			-3.279
128304.000			-36.070			-3.279
128404.000			-36.070			-3.279
128505.000			-36.069			-3.279
128604.000			-36.066			-3.279
128704.000			-36.065			-3.279
128805.000			-36.065			-3.279
128903.000			-36.064			-3.279
129004.000			-36.063			-3.278
129105.000			-36.063			-3.278
129204.000			-36.062			-3.278
129304.000			-36.061			-3.278
129405.000			-36.059			-3.278
129504.000			-36.058			-3.278
129603.000			-36.058			-3.278
129704.000			-36.057			-3.278
129804.000			-36.055			-3.278
129905.000			-36.054			-3.278
130004.000			-36.055			-3.278
130104.000			-36.053			-3.278
130205.000			-36.052			-3.277
130303.000			-36.052			-3.277
130404.000			-36.051			-3.277
130505.000			-36.050			-3.277
130604.000			-36.049			-3.277
130704.000			-36.049			-3.277
130805.000			-36.047			-3.277
130904.000			-36.047			-3.277
131003.000			-36.047			-3.277
131105.000			-36.046			-3.277
131203.000			-36.044			-3.277
131304.000			-36.044			-3.277
131405.000			-36.043			-3.277
131504.000			-36.040			-3.276
131604.000			-36.040			-3.276
131705.000			-36.039			-3.276
131804.000			-36.039			-3.276
131903.000			-36.038			-3.276
132005.000			-36.036			-3.276
132104.000			-36.035			-3.276
132204.000			-36.035			-3.276
132305.000			-36.034			-3.276
132404.000			-36.034			-3.276
132504.000			-36.032			-3.276
132604.000			-36.031			-3.276
132704.000			-36.030			-3.275
132803.000			-36.030			-3.275
132904.000			-36.030			-3.275
133004.000			-36.028			-3.275
133105.000			-36.026			-3.275
133204.000			-36.026			-3.275
133304.000			-36.026			-3.275
133405.000			-36.024			-3.275
133503.000			-36.023			-3.275
133604.000			-36.022			-3.275
133705.000			-36.022			-3.275
133804.000			-36.021			-3.275
133904.000			-36.020			-3.275
134005.000			-36.020			-3.275
134104.000			-36.018			-3.274
134204.000			-36.018			-3.274
134305.000			-36.017			-3.274
134403.000			-36.016			-3.274
134504.000			-36.015			-3.274
134605.000			-36.014			-3.274
134704.000			-36.013			-3.274
134804.000			-36.013			-3.274
134905.000			-36.012			-3.274
135004.000			-36.012			-3.274
135103.000			-36.011			-3.274
135205.000			-36.008			-3.273
135304.000			-36.008			-3.273
135404.000			-36.008			-3.273
135505.000			-36.007			-3.273
135604.000			-36.006			-3.273
135704.000			-36.004			-3.273
135805.000			-36.003			-3.273
135904.000			-36.004			-3.273
136003.000			-36.002			-3.273
136104.000			-36.000			-3.273
136204.000			-36.000			-3.273
136305.000			-36.000			-3.273
136404.000			-36.000			-3.273
136504.000			-35.999			-3.273
136605.000			-35.998			-3.273
136704.000			-35.997			-3.272
136804.000			-35.996			-3.272
136904.000			-35.995			-3.272
137004.000			-35.995			-3.272
137104.000			-35.994			-3.272
137205.000			-35.993			-3.272
137304.000			-35.993			-3.272
137404.000			-35.991			-3.272
137505.000			-35.989			-3.272
137604.000			-35.988			-3.272
137704.000			-35.987			-3.272
137804.000			-35.987			-3.272
137904.000			-35.987			-3.272
138003.000			-35.986			-3.271
138105.000			-35.985			-3.271
138204.000			-35.983			-3.271
138304.000			-35.982			-3.271
138405.000			-35.982			-3.271
138504.000			-35.982			-3.271
138604.000			-35.981			-3.271
138705.000			-35.979			-3.271
138804.000			-35.979			-3.271
138903.000			-35.979			-3.271
139005.000			-35.977			-3.271
139104.000			-35.976			-3.271
139205.000			-35.975			-3.270
139304.000			-35.975			-3.270
139404.000			-35.975			-3.270
139505.000			-35.975			-3.270
139604.000			-35.972			-3.270
139704.000			-35.971			-3.270
139804.000			-35.971			-3.270
139904.000			-35.970			-3.270
140003.000			-35.970			-3.270
140105.000			-35.970			-3.270
140204.000			-35.969			-3.270
140304.000			-35.965			-3.270
140405.000			-35.965			-3.270
140504.000			-35.964			-3.269
140604.000			-35.964			-3.269
140704.000			-35.964			-3.269
140804.000			-35.962			-3.269
140903.000			-35.961			-3.269
141005.000			-35.961			-3.269
141104.000			-35.959			-3.269
141204.000			-35.959			-3.269
141305.000			-35.957			-3.269
141404.000			-35.956			-3.269
141504.000			-35.957			-3.269
141604.000			-35.956			-3.269
141704.000			-35.956			-3.269
141803.000			-35.953			-3.268
141905.000			-35.953			-3.268
142004.000			-35.952			-3.268
142104.000			-35.951			-3.268
142205.000			-35.949			-3.268
142304.000			-35.949			-3.268
142405.000			-35.949			-3.268
142504.000			-35.947			-3.268
142604.000			-35.947			-3.268
142704.000			-35.947			-3.268
142804.000			-35.946			-3.268
142904.000			-35.945			-3.268
143005.000			-35.945			-3.268
143104.000			-35.944			-3.268
143204.000			-35.943			-3.268
143305.000			-35.941			-3.267
143404.000			-35.940			-3.267
143504.000			-35.939			-3.267
143604.000			-35.939			-3.267
143704.000			-35.940			-3.267
143804.000			-35.939			-3.267
143905.000			-35.938			-3.267
144004.000			-35.936			-3.267
144104.000			-35.935			-3.267
144205.000			-35.935			-3.267
144304.000			-35.934			-3.267
144404.000			-35.935			-3.267
144504.000			-35.934			-3.267
144604.000			-35.931			-3.266
144704.000			-35.930			-3.266
144805.000			-35.930			-3.266
144904.000			-35.929			-3.266
145004.000			-35.928			-3.266
145105.000			-35.927			-3.266
145204.000			-35.926			-3.266
145304.000			-35.926			-3.266
145404.000			-35.924			-3.266
145504.000			-35.924			-3.266
145605.000			-35.923			-3.266
145704.000			-35.923			-3.266
145804.000			-35.922			-3.266
145905.000			-35.922			-3.266
146004.000			-35.921			-3.266
146104.000			-35.919			-3.265
146205.000			-35.918			-3.265
146303.000			-35.917			-3.265
146404.000			-35.917			-3.265
146505.000			-35.916			-3.265
146604.000			-35.915			-3.265
146704.000			-35.915			-3.265
146805.000			-35.913			-3.265
146904.000			-35.913			-3.265
147004.000			-35.912			-3.265
147105.000			-35.911			-3.265
147203.000			-35.911			-3.265
147304.000			-35.909			-3.264
147405.000			-35.909			-3.264
147504.000			-35.909			-3.264
147604.000			-35.907			-3.264
147705.000			-35.906			-3.264
147804.000			-35.906			-3.264
147904.000			-35.904			-3.264
148005.000			-35.904			-3.264
148103.000			-35.903			-3.264
148204.000			-35.904			-3.264
148305.000			-35.901			-3.264
148404.000			-35.901			-3.264
148504.000			-35.899			-3.264
148605.000			-35.898			-3.263
148704.000			-35.898			-3.263
148805.000			-35.898			-3.263
148904.000			-35.899			-3.264
149003.000			-35.899			-3.264
149105.000			-35.895			-3.263
149203.000			-35.895			-3.263
149304.000			-35.894			-3.263
149405.000			-35.894			-3.263
149504.000			-35.893			-3.263
149604.000			-35.892			-3.263
149705.000			-35.892			-3.263
149804.000			-35.890			-3.263
149904.000			-35.889			-3.263
150005.000			-35.888			-3.263
150103.000			-35.888			-3.263
150204.000			-35.887			-3.262
150305.000			-35.888			-3.263
150404.000			-35.887			-3.262
150504.000			-35.884			-3.262
150605.000			-35.884			-3.262
150704.000			-35.883			-3.262
150804.000			-35.883			-3.262
150905.000			-35.882			-3.262
151003.000			-35.881			-3.262
151104.000			-35.881			-3.262
151205.000			-35.880			-3.262
151304.000			-35.879			-3.262
151404.000			-35.878			-3.262
151505.000			-35.878			-3.262
151604.000			-35.877			-3.262
151704.000			-35.875			-3.261
151805.000			-35.875			-3.261
151903.000			-35.875			-3.261
152005.000			-35.873			-3.261
152104.000			-35.873			-3.261
152204.000			-35.873			-3.261
152305.000			-35.872			-3.261
152404.000			-35.871			-3.261
152504.000			-35.869			-3.261
152605.000			-35.869			-3.261
152704.000			-35.867			-3.261
152803.000			-35.867			-3.261
152905.000			-35.866			-3.261
153004.000			-35.865			-3.260
153104.000			-35.864			-3.260
153205.000			-35.865			-3.260
153304.000			-35.863			-3.260
153404.000			-35.862			-3.260
153505.000			-35.861			-3.260
153604.000			-35.861			-3.260
153703.000			-35.860			-3.260
153805.000			-35.860			-3.260
153904.000			-35.859			-3.260
154004.000			-35.858			-3.260
154105.000			-35.858			-3.260
154204.000			-35.856			-3.260
154304.000			-35.855			-3.260
154405.000			-35.854			-3.259
154504.000			-35.854			-3.259
154603.000			-35.853			-3.259
154705.000			-35.853			-3.259
154804.000			-35.852			-3.259
154904.000			-35.851			-3.259
155005.000			-35.851			-3.259
155104.000			-35.850			-3.259
155205.000			-35.849			-3.259
155304.000			-35.848			-3.259
155404.000			-35.848			-3.259
155504.000			-35.847			-3.259
155604.000			-35.846			-3.259
155703.000			-35.846			-3.259
155805.000			-35.845			-3.259
155904.000			-35.843			-3.258
156004.000			-35.843			-3.258
156105.000			-35.842			-3.258
156204.000			-35.841			-3.258
156304.000			-35.841			-3.258
156404.000			-35.839			-3.258
156504.000			-35.838			-3.258
156603.000			-35.838			-3.258
156705.000			-35.837			-3.258
156804.000			-35.837			-3.258
156904.000			-35.836			-3.258
157005.000			-35.836			-3.258
157104.000			-35.834			-3.258
157204.000			-35.834			-3.258
157304.000			-35.833			-3.258
157404.000			-35.833			-3.258
157503.000			-35.832			-3.257
157605.000			-35.832			-3.257
157704.000			-35.831			-3.257
157804.000			-35.830			-3.257
157905.000			-35.829			-3.257
158004.000			-35.828			-3.257
158104.000			-35.827			-3.257
158204.000			-35.826			-3.257
158304.000			-35.826			-3.257
158403.000			-35.825			-3.257
158504.000			-35.825			-3.257
158604.000			-35.825			-3.257
158705.000			-35.823			-3.257
158804.000			-35.822			-3.257
158904.000			-35.821			-3.256
159005.000			-35.821			-3.256
159104.000			-35.820			-3.256
159204.000			-35.819			-3.256
159304.000			-35.818			-3.256
159404.000			-35.819			-3.256
159504.000			-35.819			-3.256
159605.000			-35.817			-3.256
159704.000			-35.817			-3.256
159804.000			-35.815			-3.256
159905.000			-35.814			-3.256
160004.000			-35.813			-3.256
160104.000			-35.813			-3.256
160204.000			-35.812			-3.256
160304.000			-35.811			-3.256
160404.000			-35.811			-3.256
160505.000			-35.810			-3.255
160604.000			-35.810			-3.255
160704.000			-35.809			-3.255
160805.000			-35.808			-3.255
160904.000			-35.807			-3.255
161004.000			-35.806			-3.255
161104.000			-35.804			-3.255
161204.000			-35.804			-3.255
161304.000			-35.805			-3.255
161405.000			-35.804			-3.255
161504.000			-35.803			-3.255
161605.000			-35.802			-3.255
161704.000			-35.802			-3.255
161804.000			-35.801			-3.255
161905.000			-35.800			-3.255
162003.000			-35.799			-3.254
162104.000			-35.798			-3.254
162205.000			-35.800			-3.255
162304.000			-35.798			-3.254
162404.000			-35.797			-3.254
162505.000			-35.796			-3.254
162604.000			-35.796			-3.254
162704.000			-35.795			-3.254
162805.000			-35.795			-3.254
162903.000			-35.794			-3.254
163004.000			-35.792			-3.254
163105.000			-35.792			-3.254
163204.000			-35.792			-3.254
163304.000			-35.791			-3.254
163405.000			-35.790			-3.254
163504.000			-35.789			-3.254
163604.000			-35.789			-3.254
163705.000			-35.787			-3.253
163803.000			-35.787			-3.253
163904.000			-35.786			-3.253
164004.000			-35.785			-3.253
164104.000			-35.784			-3.253
164204.000			-35.783			-3.253
164305.000			-35.782			-3.253
164404.000			-35.783			-3.253
164504.000			-35.782			-3.253
164605.000			-35.781			-3.253
164703.000			-35.781			-3.253
164805.000			-35.779			-3.253
164903.000			-35.779			-3.253
165004.000			-35.778			-3.253
165105.000			-35.776			-3.252
165204.000			-35.776			-3.252
165304.000			-35.775			-3.252
165405.000			-35.774			-3.252
165504.000			-35.774			-3.252
165604.000			-35.775			-3.252
165705.000			-35.774			-3.252
165803.000			-35.773			-3.252
165904.000			-35.772			-3.252
166005.000			-35.770			-3.252
166104.000			-35.770			-3.252
166204.000			-35.770			-3.252
166305.000			-35.770			-3.252
166404.000			-35.769			-3.252
166504.000			-35.769			-3.252
166605.000			-35.766			-3.251
166703.000			-35.766			-3.251
166804.000			-35.765			-3.251
166905.000			-35.765			-3.251
167004.000			-35.764			-3.251
167104.000			-35.764			-3.251
167205.000			-35.763			-3.251
167304.000			-35.762			-3.251
167404.000			-35.762			-3.251
167505.000			-35.761			-3.251
167603.000			-35.760			-3.251
167704.000			-35.759			-3.251
167804.000			-35.758			-3.251
167904.000			-35.759			-3.251
168005.000			-35.758			-3.251
168104.000			-35.756			-3.251
168204.000			-35.755			-3.250
168305.000			-35.755			-3.250
168404.000			-35.754			-3.250
168504.000			-35.753			-3.250
168605.000			-35.754			-3.250
168703.000			-35.753			-3.250
168804.000			-35.751			-3.250
168905.000			-35.750			-3.250
169004.000			-35.750			-3.250
169104.000			-35.751			-3.250
169205.000			-35.750			-3.250
169304.000			-35.748			-3.250
169404.000			-35.747			-3.250
169505.000			-35.746			-3.250
169603.000			-35.745			-3.250
169704.000			-35.746			-3.250
169805.000			-35.745			-3.250
169904.000			-35.744			-3.249
170004.000			-35.745			-3.250
170105.000			-35.744			-3.249
170204.000			-35.742			-3.249
170304.000			-35.741			-3.249
170405.000			-35.741			-3.249
170503.000			-35.740			-3.249
170604.000			-35.740			-3.249
170705.000			-35.739			-3.249
170804.000			-35.739			-3.249
170904.000			-35.737			-3.249
171005.000			-35.737			-3.249
171104.000			-35.736			-3.249
171205.000			-35.734			-3.249
171304.000			-35.734			-3.249
171403.000			-35.734			-3.249
171505.000			-35.734			-3.249
171604.000			-35.733			-3.248
171704.000			-35.732			-3.248
171805.000			-35.732			-3.248
171904.000			-35.731			-3.248
172004.000			-35.730			-3.248
172105.000			-35.729			-3.248
172204.000			-35.729			-3.248
172303.000			-35.729			-3.248
172405.000			-35.730			-3.248
172504.000			-35.727			-3.248
172604.000			-35.726			-3.248
172705.000			-35.724			-3.248
172804.000			-35.724			-3.248
172904.000			-35.723			-3.248
173005.000			-35.723			-3.248
173104.000			-35.722			-3.247
173203.000			-35.722			-3.247
173305.000			-35.721			-3.247
173404.000			-35.720			-3.247
173504.000			-35.719			-3.247
173605.000			-35.720			-3.247
173704.000			-35.719			-3.247
173804.000			-35.718			-3.247
173905.000			-35.717			-3.247
174004.000			-35.717			-3.247
174103.000			-35.716			-3.247
174205.000			-35.715			-3.247
174304.000			-35.715			-3.247
174405.000			-35.715			-3.247
174504.000			-35.714			-3.247
174604.000			-35.712			-3.247
174705.000			-35.711			-3.246
174804.000			-35.711			-3.246
174904.000			-35.713			-3.247
175004.000			-35.712			-3.247
175104.000			-35.710			-3.246
175204.000			-35.708			-3.246
175305.000			-35.708			-3.246
175404.000			-35.706			-3.246
175504.000			-35.706			-3.246
175605.000			-35.706			-3.246
175704.000			-35.706			-3.246
175804.000			-35.705			-3.246
175904.000			-35.704			-3.246
176004.000			-35.704			-3.246
176104.000			-35.702			-3.246
176205.000			-35.702			-3.246
176304.000			-35.700			-3.245
176404.000			-35.700			-3.245
176505.000			-35.700			-3.245
176604.000			-35.700			-3.245
176704.000			-35.699			-3.245
176804.000			-35.698			-3.245
176904.000			-35.699			-3.245
177004.000			-35.697			-3.245
177105.000			-35.695			-3.245
177204.000			-35.695			-3.245
177304.000			-35.695			-3.245
177405.000			-35.695			-3.245
177504.000			-35.694			-3.245
177605.000			-35.693			-3.245
177703.000			-35.693			-3.245
177804.000			-35.693			-3.245
177904.000			-35.692			-3.245
178004.000			-35.690			-3.245
178104.000			-35.689			-3.244
178205.000			-35.689			-3.244
178304.000			-35.688			-3.244
178404.000			-35.688			-3.244
178505.000			-35.688			-3.244
178604.000			-35.686			-3.244
178704.000			-35.686			-3.244
178804.000			-35.686			-3.244
178904.000			-35.685			-3.244
179004.000			-35.684			-3.244
179105.000			-35.683			-3.244
179204.000			-35.683			-3.244
179304.000			-35.683			-3.244
179405.000			-35.682			-3.244
179504.000			-35.681			-3.244
179604.000			-35.680			-3.244
179704.000			-35.680			-3.244
179804.000			-35.679			-3.244
179903.000			-35.678			-3.243
180005.000			-35.677			-3.243
180104.000			-35.677			-3.243
180204.000			-35.677			-3.243
180305.000			-35.676			-3.243
180404.000			-35.675			-3.243
180504.000			-35.673			-3.243
180604.000			-35.673			-3.243
180704.000			-35.673			-3.243
180803.000			-35.672			-3.243
180904.000			-35.671			-3.243
181004.000			-35.670			-3.243
181105.000			-35.671			-3.243
181204.000			-35.669			-3.243
181304.000			-35.669			-3.243
181405.000			-35.669			-3.243
181503.000			-35.668			-3.243
181604.000			-35.668			-3.243
181704.000			-35.667			-3.242
181804.000			-35.666			-3.242
181904.000			-35.665			-3.242
182005.000			-35.665			-3.242
182104.000			-35.665			-3.242
182204.000			-35.664			-3.242
182305.000			-35.664			-3.242
182404.000			-35.662			-3.242
182504.000			-35.662			-3.242
182604.000			-35.661			-3.242
182704.000			-35.660			-3.242
182804.000			-35.659			-3.242
182905.000			-35.658			-3.242
183004.000			-35.659			-3.242
183104.000			-35.658			-3.242
183205.000			-35.657			-3.242
183304.000			-35.657			-3.242
183404.000			-35.656			-3.241
183504.000			-35.656			-3.241
183604.000			-35.655			-3.241
183704.000			-35.653			-3.241
183805.000			-35.654			-3.241
183904.000			-35.653			-3.241
184005.000			-35.652			-3.241
184104.000			-35.651			-3.241
184204.000			-35.650			-3.241
184305.000			-35.650			-3.241
184403.000			-35.650			-3.241
184504.000			-35.649			-3.241
184605.000			-35.648			-3.241
184704.000			-35.648			-3.241
184804.000			-35.647			-3.241
184905.000			-35.646			-3.241
185004.000			-35.645			-3.240
185104.000			-35.646			-3.241
185205.000			-35.645			-3.240
185303.000			-35.644			-3.240
185404.000			-35.643			-3.240
185505.000			-35.643			-3.240
185604.000			-35.643			-3.240
185704.000			-35.643			-3.240
185805.000			-35.642			-3.240
185904.000			-35.641			-3.240
186004.000			-35.640			-3.240
186105.000			-35.639			-3.240
186203.000			-35.639			-3.240
186304.000			-35.639			-3.240
186405.000			-35.637			-3.240
186504.000			-35.637			-3.240
186604.000			-35.637			-3.240
186705.000			-35.636			-3.240
186804.000			-35.635			-3.240
186904.000			-35.634			-3.239
187005.000			-35.633			-3.239
187103.000			-35.632			-3.239
187205.000			-35.633			-3.239
187303.000			-35.633			-3.239
187404.000			-35.632			-3.239
187505.000			-35.631			-3.239
187604.000			-35.630			-3.239
187704.000			-35.629			-3.239
187805.000			-35.628			-3.239
187904.000			-35.628			-3.239
188004.000			-35.628			-3.239
188105.000			-35.627			-3.239
188203.000			-35.626			-3.239
188304.000			-35.626			-3.239
188405.000			-35.625			-3.239
188504.000			-35.624			-3.239
188604.000			-35.624			-3.239
188705.000			-35.623			-3.238
188804.000			-35.623			-3.238
188904.000			-35.621			-3.238
189005.000			-35.621			-3.238
189103.000			-35.621			-3.238
189204.000			-35.620			-3.238
189305.000			-35.619			-3.238
189404.000			-35.620			-3.238
189504.000			-35.618			-3.238
189605.000			-35.617			-3.238
189704.000			-35.618			-3.238
189804.000			-35.616			-3.238
189905.000			-35.616			-3.238
190003.000			-35.615			-3.238
190104.000			-35.615			-3.238
190204.000			-35.613			-3.238
190304.000			-35.613			-3.238
190405.000			-35.612			-3.237
190504.000			-35.612			-3.237
190604.000			-35.611			-3.237
190705.000			-35.610			-3.237
190804.000			-35.610			-3.237
190903.000			-35.609			-3.237
191005.000			-35.608			-3.237
191104.000			-35.609			-3.237
191204.000			-35.607			-3.237
191305.000			-35.607			-3.237
191404.000			-35.607			-3.237
191504.000			-35.606			-3.237
191605.000			-35.606			-3.237
191704.000			-35.606			-3.237
191803.000			-35.604			-3.237
191905.000			-35.603			-3.237
192004.000			-35.604			-3.237
192104.000			-35.603			-3.237
192205.000			-35.600			-3.236
192304.000			-35.599			-3.236
192404.000			-35.601			-3.236
192505.000			-35.601			-3.236
192604.000			-35.599			-3.236
192703.000			-35.598			-3.236
192805.000			-35.599			-3.236
192904.000			-35.596			-3.236
193004.000			-35.597			-3.236
193105.000			-35.596			-3.236
193204.000			-35.595			-3.236
193304.000			-35.595			-3.236
193405.000			-35.594			-3.236
193504.000			-35.594			-3.236
193603.000			-35.594			-3.236
193704.000			-35.592			-3.236
193803.000			-35.592			-3.236
193905.000			-35.592			-3.236
194004.000			-35.592			-3.236
194104.000			-35.591			-3.236
194205.000			-35.590			-3.235
194304.000			-35.590			-3.235
194404.000			-35.590			-3.235
194504.000			-35.589			-3.235
194604.000			-35.588			-3.235
194703.000			-35.587			-3.235
194805.000			-35.587			-3.235
194904.000			-35.587			-3.235
195004.000			-35.586			-3.235
195105.000			-35.585			-3.235
195204.000			-35.583			-3.235
195304.000			-35.582			-3.235
195405.000			-35.582			-3.235
195504.000			-35.583			-3.235
195603.000			-35.582			-3.235
195705.000			-35.581			-3.235
195804.000			-35.581			-3.235
195904.000			-35.580			-3.235
196005.000			-35.580			-3.235
196104.000			-35.579			-3.234
196204.000			-35.579			-3.234
196305.000			-35.578			-3.234
196404.000			-35.577			-3.234
196503.000			-35.577			-3.234
196605.000			-35.575			-3.234
196703.000			-35.575			-3.234
196805.000			-35.575			-3.234
196904.000			-35.575			-3.234
197004.000			-35.574			-3.234
197105.000			-35.573			-3.234
197204.000			-35.573			-3.234
197304.000			-35.570			-3.234
197405.000			-35.571			-3.234
197504.000			-35.570			-3.234
197603.000			-35.570			-3.234
197705.000			-35.570			-3.234
197804.000			-35.569			-3.234
197904.000			-35.569			-3.234
198005.000			-35.568			-3.233
198104.000			-35.568			-3.233
198204.000			-35.567			-3.233
198305.000			-35.566			-3.233
198404.000			-35.565			-3.233
198503.000			-35.565			-3.233
198605.000			-35.564			-3.233
198703.000			-35.563			-3.233
198804.000			-35.562			-3.233
198905.000			-35.562			-3.233
199004.000			-35.561			-3.233
199104.000			-35.561			-3.233
199205.000			-35.561			-3.233
199304.000			-35.560			-3.233
199403.000			-35.559			-3.233
199505.000			-35.559			-3.233
199603.000			-35.558			-3.233
199704.000			-35.557			-3.232
199805.000			-35.557			-3.232
199904.000			-35.557			-3.232
200005.000			-35.556			-3.232
200104.000			-35.555			-3.232
200204.000			-35.555			-3.232
200305.000			-35.553			-3.232
200404.000			-35.553			-3.232
200503.000			-35.553			-3.232
200605.000			-35.553			-3.232
200704.000			-35.553			-3.232
200804.000			-35.552			-3.232
200905.000			-35.551			-3.232
201004.000			-35.550			-3.232
201104.000			-35.549			-3.232
201204.000			-35.550			-3.232
201304.000			-35.549			-3.232
201403.000			-35.548			-3.232
201505.000			-35.547			-3.232
201604.000			-35.547			-3.232
201704.000			-35.546			-3.231
201805.000			-35.545			-3.231
201904.000			-35.545			-3.231
202004.000			-35.544			-3.231
202104.000			-35.543			-3.231
202204.000			-35.544			-3.231
202304.000			-35.543			-3.231
202405.000			-35.542			-3.231
202504.000			-35.541			-3.231
202604.000			-35.541			-3.231
202705.000			-35.541			-3.231
202804.000			-35.540			-3.231
202904.000			-35.539			-3.231
203004.000			-35.539			-3.231
203104.000			-35.539			-3.231
203205.000			-35.538			-3.231
203304.000			-35.537			-3.231
203404.000			-35.536			-3.231
203505.000			-35.536			-3.231
203604.000			-35.536			-3.231
203704.000			-35.535			-3.230
203805.000			-35.533			-3.230
203903.000			-35.533			-3.230
204004.000			-35.533			-3.230
204105.000			-35.533			-3.230
204204.000			-35.532			-3.230
204304.000			-35.531			-3.230
204405.000			-35.531			-3.230
204504.000			-35.531			-3.230
204603.000			-35.529			-3.230
204705.000			-35.528			-3.230
204804.000			-35.528			-3.230
204904.000			-35.528			-3.230
205005.000			-35.528			-3.230
205104.000			-35.527			-3.230
205204.000			-35.526			-3.230
205305.000			-35.526			-3.230
205404.000			-35.525			-3.230
205503.000			-35.525			-3.230
205605.000			-35.523			-3.229
205704.000			-35.523			-3.229
205804.000			-35.523			-3.229
205905.000			-35.523			-3.229
206004.000			-35.522			-3.229
206104.000			-35.521			-3.229
206205.000			-35.520			-3.229
206304.000			-35.519			-3.229
206403.000			-35.518			-3.229
206504.000			-35.519			-3.229
206604.000			-35.519			-3.229
206705.000			-35.519			-3.229
206804.000			-35.517			-3.229
206904.000			-35.516			-3.229
207005.000			-35.516			-3.229
207104.000			-35.516			-3.229
207204.000			-35.517			-3.229
207304.000			-35.516			-3.229
207404.000			-35.515			-3.229
207504.000			-35.513			-3.228
207605.000			-35.512			-3.228
207704.000			-35.511			-3.228
207804.000			-35.512			-3.228
207905.000			-35.512			-3.228
208003.000			-35.511			-3.228
208104.000			-35.510			-3.228
208204.000			-35.509			-3.228
208304.000			-35.509			-3.228
208404.000			-35.507			-3.228
208505.000			-35.507			-3.228
208604.000			-35.507			-3.228
208704.000			-35.506			-3.228
208805.000			-35.505			-3.228
208903.000			-35.505			-3.228
209004.000			-35.505			-3.228
209105.000			-35.505			-3.228
209204.000			-35.504			-3.228
209304.000			-35.504			-3.228
209405.000			-35.504			-3.228
209504.000			-35.503			-3.228
209605.000			-35.502			-3.227
209704.000			-35.501			-3.227
209803.000			-35.501			-3.227
209905.000			-35.500			-3.227
210004.000			-35.499			-3.227
210104.000			-35.500			-3.227
210205.000			-35.500			-3.227
210304.000			-35.499			-3.227
210404.000			-35.498			-3.227
210504.000			-35.496			-3.227
210604.000			-35.495			-3.227
210703.000			-35.496			-3.227
210805.000			-35.496			-3.227
210904.000			-35.496			-3.227
211004.000			-35.494			-3.227
211105.000			-35.495			-3.227
211204.000			-35.493			-3.227
211304.000			-35.492			-3.227
211404.000			-35.493			-3.227
211504.000			-35.493			-3.227
211603.000			-35.492			-3.227
211705.000			-35.490			-3.226
211804.000			-35.490			-3.226
211904.000			-35.490			-3.226
212005.000			-35.488			-3.226
212104.000			-35.488			-3.226
212204.000			-35.488			-3.226
212304.000			-35.488			-3.226
212404.000			-35.486			-3.226
212503.000			-35.486			-3.226
212605.000			-35.485			-3.226
212704.000			-35.485			-3.226
212805.000			-35.484			-3.226
212904.000			-35.483			-3.226
213004.000			-35.482			-3.226
213105.000			-35.482			-3.226
213203.000			-35.482			-3.226
213304.000			-35.481			-3.226
213404.000			-35.482			-3.226
213504.000			-35.482			-3.226
213604.000			-35.480			-3.225
213705.000			-35.479			-3.225
213804.000			-35.478			-3.225
213904.000			-35.478			-3.225
214005.000			-35.478			-3.225
214103.000			-35.479			-3.225
214204.000			-35.477			-3.225
214304.000			-35.476			-3.225
214404.000			-35.476			-3.225
214504.000			-35.476			-3.225
214605.000			-35.475			-3.225
214704.000			-35.474			-3.225
214804.000			-35.474			-3.225
214905.000			-35.473			-3.225
215003.000			-35.473			-3.225
215104.000			-35.472			-3.225
215205.000			-35.471			-3.225
215304.000			-35.470			-3.225
215404.000			-35.470			-3.225
215505.000			-35.471			-3.225
215604.000			-35.468			-3.224
215704.000			-35.467			-3.224
215805.000			-35.468			-3.224
215903.000			-35.468			-3.224
216005.000			-35.468			-3.224
216104.000			-35.466			-3.224
216204.000			-35.465			-3.224
216305.000			-35.465			-3.224
216404.000			-35.464			-3.224
216504.000			-35.463			-3.224
216605.000			-35.462			-3.224
216704.000			-35.463			-3.224
216803.000			-35.462			-3.224
216905.000			-35.461			-3.224
217004.000			-35.461			-3.224
217104.000			-35.461			-3.224
217205.000			-35.461			-3.224
217304.000			-35.460			-3.224
217404.000			-35.459			-3.224
217505.000			-35.458			-3.223
217604.000			-35.458			-3.223
217703.000			-35.458			-3.223
217805.000			-35.457			-3.223
217904.000			-35.456			-3.223
218004.000			-35.456			-3.223
218105.000			-35.456			-3.223
218204.000			-35.456			-3.223
218304.000			-35.455			-3.223
218405.000			-35.455			-3.223
218504.000			-35.454			-3.223
218603.000			-35.453			-3.223
218705.000			-35.453			-3.223
218804.000			-35.452			-3.223
218904.000			-35.450			-3.223
219005.000			-35.450			-3.223
219104.000			-35.450			-3.223
219205.000			-35.449			-3.223
219304.000			-35.449			-3.223
219404.000			-35.449			-3.223
219504.000			-35.448			-3.223
219604.000			-35.448			-3.223
219703.000			-35.448			-3.223
219805.000			-35.447			-3.222
219904.000			-35.446			-3.222
220004.000			-35.446			-3.222
220105.000			-35.445			-3.222
220204.000			-35.444			-3.222
220304.000			-35.444			-3.222
220404.000			-35.444			-3.222
220504.000			-35.444			-3.222
220604.000			-35.443			-3.222
220705.000			-35.442			-3.222
220804.000			-35.441			-3.222
220904.000			-35.441			-3.222
221005.000			-35.440			-3.222
221104.000			-35.440			-3.222
221204.000			-35.440			-3.222
221304.000			-35.439			-3.222
221404.000			-35.439			-3.222
221504.000			-35.438			-3.222
221605.000			-35.437			-3.222
221704.000			-35.436			-3.221
221804.000			-35.436			-3.221
221905.000			-35.435			-3.221
222003.000			-35.435			-3.221
222104.000			-35.434			-3.221
222204.000			-35.433			-3.221
222304.000			-35.433			-3.221
222405.000			-35.433			-3.221
222504.000			-35.433			-3.221
222604.000			-35.433			-3.221
222705.000			-35.432			-3.221
222804.000			-35.431			-3.221
222903.000			-35.431			-3.221
223005.000			-35.431			-3.221
223104.000			-35.429			-3.221
223204.000			-35.428			-3.221
223305.000			-35.429			-3.221
223404.000			-35.429			-3.221
223504.000			-35.429			-3.221
223604.000			-35.428			-3.221
223704.000			-35.426			-3.221
223803.000			-35.426			-3.221
223905.000			-35.426			-3.221
224004.000			-35.426			-3.221
224104.000			-35.425			-3.220
224205.000			-35.425			-3.220
224304.000			-35.423			-3.220
224404.000			-35.422			-3.220
224504.000			-35.422			-3.220
224604.000			-35.422			-3.220
224703.000			-35.421			-3.220
224805.000			-35.421			-3.220
224904.000			-35.420			-3.220
225004.000			-35.420			-3.220
225105.000			-35.419			-3.220
225204.000			-35.419			-3.220
225304.000			-35.418			-3.220
225404.000			-35.417			-3.220
225504.000			-35.417			-3.220
225605.000			-35.416			-3.220
225704.000			-35.417			-3.220
225804.000			-35.417			-3.220
225905.000			-35.416			-3.220
226004.000			-35.415			-3.220
226104.000			-35.414			-3.219
226205.000			-35.413			-3.219
226303.000			-35.413			-3.219
226404.000			-35.413			-3.219
226505.000			-35.413			-3.219
226604.000			-35.414			-3.219
226704.000			-35.412			-3.219
226805.000			-35.410			-3.219
226904.000			-35.410			-3.219
227004.000			-35.410			-3.219
227105.000			-35.410			-3.219
227203.000			-35.409			-3.219
227304.000			-35.409			-3.219
227405.000			-35.408			-3.219
227504.000			-35.407			-3.219
227604.000			-35.407			-3.219
227705.000			-35.406			-3.219
227804.000			-35.405			-3.219
227904.000			-35.405			-3.219
228005.000			-35.404			-3.219
228103.000			-35.403			-3.218
228204.000			-35.404			-3.219
228305.000			-35.404			-3.219
228404.000			-35.403			-3.218
228504.000			-35.402			-3.218
228605.000			-35.401			-3.218
228704.000			-35.401			-3.218
228803.000			-35.400			-3.218
228904.000			-35.400			-3.218
229003.000			-35.400			-3.218
229105.000			-35.398			-3.218
229204.000			-35.397			-3.218
229304.000			-35.397			-3.218
229405.000			-35.397			-3.218
229504.000			-35.396			-3.218
229604.000			-35.396			-3.218
229705.000			-35.396			-3.218
229804.000			-35.396			-3.218
229903.000			-35.396			-3.218
230005.000			-35.396			-3.218
230104.000			-35.394			-3.218
230204.000			-35.394			-3.218
230305.000			-35.394			-3.218
230404.000			-35.391			-3.217
230504.000			-35.391			-3.217
230604.000			-35.391			-3.217
230704.000			-35.390			-3.217
230803.000			-35.390			-3.217
230905.000			-35.390			-3.217
231004.000			-35.390			-3.217
231104.000			-35.388			-3.217
231205.000			-35.388			-3.217
231304.000			-35.387			-3.217
231404.000			-35.387			-3.217
231504.000			-35.387			-3.217
231604.000			-35.387			-3.217
231703.000			-35.386			-3.217
231805.000			-35.387			-3.217
231904.000			-35.385			-3.217
232005.000			-35.383			-3.217
232104.000			-35.384			-3.217
232204.000			-35.383			-3.217
232305.000			-35.382			-3.217
232403.000			-35.381			-3.216
232504.000			-35.384			-3.217
232605.000			-35.383			-3.217
232704.000			-35.382			-3.217
232804.000			-35.382			-3.217
232905.000			-35.382			-3.217
233004.000			-35.380			-3.216
233104.000			-35.380			-3.216
233205.000			-35.378			-3.216
233303.000			-35.377			-3.216
233404.000			-35.378			-3.216
233505.000			-35.378			-3.216
233604.000			-35.376			-3.216
233704.000			-35.377			-3.216
233805.000			-35.376			-3.216
233904.000			-35.374			-3.216
234004.000			-35.373			-3.216
234105.000			-35.373			-3.216
234203.000			-35.372			-3.216
234304.000			-35.373			-3.216
234405.000			-35.374			-3.216
234504.000			-35.373			-3.216
234604.000			-35.372			-3.216
234705.000			-35.371			-3.216
234804.000			-35.370			-3.215
234904.000			-35.370			-3.215
235005.000			-35.370			-3.215
235103.000			-35.369			-3.215
235205.000			-35.368			-3.215
235304.000			-35.368			-3.215
235404.000			-35.368			-3.215
235505.000			-35.367			-3.215
235604.000			-35.366			-3.215
235704.000			-35.366			-3.215
235805.000			-35.366			-3.215
235904.000			-35.366			-3.215
236003.000			-35.367			-3.215
236105.000			-35.365			-3.215
236204.000			-35.363			-3.215
236304.000			-35.362			-3.215
236405.000			-35.362			-3.215
236504.000			-35.362			-3.215
236604.000			-35.363			-3.215
236705.000			-35.362			-3.215
236804.000			-35.360			-3.215
236903.000			-35.360			-3.215
237005.000			-35.360			-3.215
237104.000			-35.359			-3.214
237204.000			-35.358			-3.214
237305.000			-35.358			-3.214
237404.000			-35.359			-3.214
237504.000			-35.357			-3.214
237605.000			-35.357			-3.214
237704.000			-35.356			-3.214
237803.000			-35.356			-3.214
237905.000			-35.355			-3.214
238004.000			-35.354			-3.214
238104.000			-35.355			-3.214
238205.000			-35.355			-3.214
238304.000			-35.353			-3.214
238405.000			-35.351			-3.214
238504.000			-35.352			-3.214
238604.000			-35.352			-3.214
238704.000			-35.351			-3.214
238804.000			-35.350			-3.214
238904.000			-35.349			-3.214
239005.000			-35.350			-3.214
239104.000			-35.350			-3.214
239204.000			-35.349			-3.214
239305.000			-35.349			-3.214
239404.000			-35.348			-3.213
239504.000			-35.348			-3.213
239604.000			-35.347			-3.213
239704.000			-35.348			-3.213
239803.000			-35.347			-3.213
239905.000			-35.346			-3.213
240004.000			-35.346			-3.213
240104.000			-35.345			-3.213
240205.000			-35.344			-3.213
240304.000			-35.345			-3.213
240404.000			-35.345			-3.213
240504.000			-35.343			-3.213
240604.000			-35.343			-3.213
240704.000			-35.342			-3.213
240805.000			-35.341			-3.213
240904.000			-35.341			-3.213
241004.000			-35.340			-3.213
241105.000			-35.339			-3.213
241204.000			-35.339			-3.213
241304.000			-35.340			-3.213
241404.000			-35.340			-3.213
241504.000			-35.339			-3.213
241605.000			-35.337			-3.212
241704.000			-35.336			-3.212
241804.000			-35.336			-3.212
241905.000			-35.337			-3.212
242004.000			-35.336			-3.212
242103.000			-35.335			-3.212
242205.000			-35.335			-3.212
242303.000			-35.334			-3.212
242404.000			-35.334			-3.212
242505.000			-35.334			-3.212
242604.000			-35.332			-3.212
242704.000			-35.331			-3.212
242805.000			-35.332			-3.212
242904.000			-35.332			-3.212
243003.000			-35.330			-3.212
243105.000			-35.329			-3.212
243204.000			-35.330			-3.212
243304.000			-35.330			-3.212
243405.000			-35.329			-3.212
243504.000			-35.329			-3.212
243604.000			-35.328			-3.212
243705.000			-35.327			-3.212
243804.000			-35.327			-3.212
243903.000			-35.327			-3.212
244005.000			-35.326			-3.211
244104.000			-35.326			-3.211
244204.000			-35.325			-3.211
244305.000			-35.325			-3.211
244404.000			-35.324			-3.211
244504.000			-35.324			-3.211
244605.000			-35.324			-3.211
244704.000			-35.324			-3.211
244803.000			-35.323			-3.211
244904.000			-35.322			-3.211
245004.000			-35.320			-3.211
245105.000			-35.319			-3.211
245204.000			-35.320			-3.211
245304.000			-35.319			-3.211
245405.000			-35.319			-3.211
245504.000			-35.318			-3.211
245604.000			-35.318			-3.211
245704.000			-35.318			-3.211
245804.000			-35.317			-3.211
245904.000			-35.317			-3.211
246005.000			-35.317			-3.211
246104.000			-35.316			-3.211
246204.000			-35.316			-3.211
246305.000			-35.314			-3.210
246404.000			-35.315			-3.210
246504.000			-35.314			-3.210
246604.000			-35.313			-3.210
246704.000			-35.314			-3.210
246804.000			-35.314			-3.210
246905.000			-35.313			-3.210
247004.000			-35.312			-3.210
247104.000			-35.311			-3.210
247205.000			-35.311			-3.210
247304.000			-35.311			-3.210
247404.000			-35.311			-3.210
247504.000			-35.310			-3.210
247604.000			-35.310			-3.210
247704.000			-35.309			-3.210
247805.000			-35.307			-3.210
247904.000			-35.307			-3.210
248005.000			-35.306			-3.210
248104.000			-35.306			-3.210
248204.000			-35.306			-3.210
248305.000			-35.305			-3.210
248403.000			-35.305			-3.210
248504.000			-35.305			-3.210
248605.000			-35.304			-3.209
248704.000			-35.303			-3.209
248804.000			-35.302			-3.209
248905.000			-35.302			-3.209
249004.000			-35.303			-3.209
249103.000			-35.302			-3.209
249205.000			-35.302			-3.209
249303.000			-35.301			-3.209
249404.000			-35.301			-3.209
249505.000			-35.301			-3.209
249604.000			-35.300			-3.209
249704.000			-35.299			-3.209
249805.000			-35.299			-3.209
249904.000			-35.298			-3.209
250003.000			-35.298			-3.209
250105.000			-35.297			-3.209
250203.000			-35.297			-3.209
250304.000			-35.298			-3.209
250405.000			-35.297			-3.209
250504.000			-35.296			-3.209
250604.000			-35.295			-3.209
250705.000			-35.295			-3.209
250804.000			-35.294			-3.209
250903.000			-35.293			-3.208
251005.000			-35.294			-3.209
251103.000			-35.294			-3.209
251205.000			-35.292			-3.208
251304.000			-35.291			-3.208
251404.000			-35.290			-3.208
251505.000			-35.291			-3.208
251604.000			-35.291			-3.208
251704.000			-35.291			-3.208
251804.000			-35.291			-3.208
251904.000			-35.289			-3.208
252003.000			-35.289			-3.208
252105.000			-35.289			-3.208
252204.000			-35.288			-3.208
252304.000			-35.287			-3.208
252405.000			-35.286			-3.208
252504.000			-35.286			-3.208
252604.000			-35.286			-3.208
252704.000			-35.286			-3.208
252804.000			-35.286			-3.208
252903.000			-35.285			-3.208
253005.000			-35.283			-3.208
253104.000			-35.282			-3.207
253204.000			-35.283			-3.208
253305.000			-35.283			-3.208
253404.000			-35.284			-3.208
253504.000			-35.282			-3.207
253604.000			-35.281			-3.207
253704.000			-35.281			-3.207
253803.000			-35.281			-3.207
253905.000			-35.280			-3.207
254004.000			-35.280			-3.207
254104.000			-35.279			-3.207
254205.000			-35.278			-3.207
254304.000			-35.279			-3.207
254405.000			-35.278			-3.207
254504.000			-35.278			-3.207
254604.000			-35.277			-3.207
254704.000			-35.277			-3.207
254804.000			-35.277			-3.207
254904.000			-35.277			-3.207
255005.000			-35.275			-3.207
255104.000			-35.274			-3.207
255204.000			-35.273			-3.207
255305.000			-35.273			-3.207
255404.000			-35.273			-3.207
255504.000			-35.272			-3.207
255604.000			-35.272			-3.207
255704.000			-35.272			-3.207
255804.000			-35.271			-3.206
255905.000			-35.271			-3.206
256004.000			-35.271			-3.206
256104.000			-35.270			-3.206
256205.000			-35.270			-3.206
256304.000			-35.268			-3.206
256404.000			-35.269			-3.206
256504.000			-35.269			-3.206
256604.000			-35.267			-3.206
256704.000			-35.268			-3.206
256805.000			-35.267			-3.206
256904.000			-35.266			-3.206
257004.000			-35.267			-3.206
257105.000			-35.267			-3.206
257204.000			-35.265			-3.206
257304.000			-35.265			-3.206
257404.000			-35.264			-3.206
257504.000			-35.264			-3.206
257605.000			-35.264			-3.206
257704.000			-35.263			-3.206
257804.000			-35.263			-3.206
257905.000			-35.264			-3.206
258004.000			-35.261			-3.206
258104.000			-35.262			-3.206
258205.000			-35.261			-3.206
258303.000			-35.260			-3.205
258404.000			-35.258			-3.205
258505.000			-35.259			-3.205
258604.000			-35.259			-3.205
258704.000			-35.259			-3.205
258805.000			-35.258			-3.205
258904.000			-35.257			-3.205
259004.000			-35.256			-3.205
259105.000			-35.257			-3.205
259203.000			-35.256			-3.205
259304.000			-35.256			-3.205
259404.000			-35.257			-3.205
259504.000			-35.256			-3.205
259604.000			-35.255			-3.205
259705.000			-35.254			-3.205
259804.000			-35.254			-3.205
259904.000			-35.254			-3.205
260005.000			-35.252			-3.205
260103.000			-35.252			-3.205
260204.000			-35.252			-3.205
260305.000			-35.251			-3.205
260404.000			-35.249			-3.204
260504.000			-35.250			-3.205
260605.000			-35.250			-3.205
260704.000			-35.249			-3.204
260805.000			-35.249			-3.204
260904.000			-35.247			-3.204
261003.000			-35.247			-3.204
261105.000			-35.247			-3.204
261204.000			-35.247			-3.204
261304.000			-35.247			-3.204
261405.000			-35.247			-3.204
261504.000			-35.246			-3.204
261604.000			-35.246			-3.204
261705.000			-35.245			-3.204
261804.000			-35.244			-3.204
261903.000			-35.245			-3.204
262005.000			-35.244			-3.204
262104.000			-35.243			-3.204
262204.000			-35.243			-3.204
262305.000			-35.243			-3.204
262404.000			-35.242			-3.204
262504.000			-35.242			-3.204
262605.000			-35.241			-3.204
262704.000			-35.240			-3.204
262803.000			-35.240			-3.204
262905.000			-35.239			-3.204
263004.000			-35.240			-3.204
263104.000			-35.239			-3.204
263205.000			-35.239			-3.204
263304.000			-35.239			-3.204
263404.000			-35.239			-3.204
263505.000			-35.237			-3.203
263604.000			-35.237			-3.203
263703.000			-35.236			-3.203
263805.000			-35.235			-3.203
263904.000			-35.235			-3.203
264005.000			-35.234			-3.203
264104.000			-35.235			-3.203
264204.000			-35.235			-3.203
264305.000			-35.233			-3.203
264404.000			-35.233			-3.203
264504.000			-35.233			-3.203
264604.000			-35.232			-3.203
264704.000			-35.232			-3.203
264804.000			-35.231			-3.203
264905.000			-35.230			-3.203
265004.000			-35.231			-3.203
265104.000			-35.231			-3.203
265205.000			-35.230			-3.203
265303.000			-35.229			-3.203
265404.000			-35.229			-3.203
265504.000			-35.229			-3.203
265604.000			-35.228			-3.203
265704.000			-35.227			-3.202
265805.000			-35.226			-3.202
265904.000			-35.227			-3.202
266004.000			-35.227			-3.202
266105.000			-35.225			-3.202
266203.000			-35.224			-3.202
266304.000			-35.224			-3.202
266405.000			-35.225			-3.202
266504.000			-35.224			-3.202
266604.000			-35.223			-3.202
266705.000			-35.223			-3.202
266804.000			-35.223			-3.202
266904.000			-35.222			-3.202
267005.000			-35.221			-3.202
267103.000			-35.221			-3.202
267205.000			-35.220			-3.202
267304.000			-35.220			-3.202
267404.000			-35.220			-3.202
267505.000			-35.220			-3.202
267604.000			-35.219			-3.202
267704.000			-35.219			-3.202
267804.000			-35.219			-3.202
267904.000			-35.219			-3.202
268003.000			-35.218			-3.202
268105.000			-35.217			-3.202
268204.000			-35.216			-3.201
268304.000			-35.216			-3.201
268405.000			-35.216			-3.201
268504.000			-35.216			-3.201
268604.000			-35.216			-3.201
268704.000			-35.214			-3.201
268804.000			-35.214			-3.201
268903.000			-35.214			-3.201
269005.000			-35.214			-3.201
269104.000			-35.214			-3.201
269204.000			-35.212			-3.201
269305.000			-35.212			-3.201
269404.000			-35.211			-3.201
269504.000			-35.211			-3.201
269604.000			-35.210			-3.201
269704.000			-35.209			-3.201
269803.000			-35.208			-3.201
269905.000			-35.209			-3.201
270004.000			-35.209			-3.201
270104.000			-35.210			-3.201
270205.000			-35.210			-3.201
270304.000			-35.209			-3.201
270405.000			-35.206			-3.201
270503.000			-35.205			-3.200
270604.000			-35.206			-3.201
270705.000			-35.207			-3.201
270804.000			-35.207			-3.201
270904.000			-35.206			-3.201
271005.000			-35.204			-3.200
271104.000			-35.204			-3.200
271204.000			-35.204			-3.200
271305.000			-35.202			-3.200
271403.000			-35.202			-3.200
271504.000			-35.203			-3.200
271605.000			-35.202			-3.200
271704.000			-35.201			-3.200
271804.000			-35.201			-3.200
271905.000			-35.201			-3.200
272004.000			-35.201			-3.200
272103.000			-35.201			-3.200
272205.000			-35.199			-3.200
272303.000			-35.198			-3.200
272404.000			-35.198			-3.200
272505.000			-35.199			-3.200
272604.000			-35.197			-3.200
272704.000			-35.196			-3.200
272805.000			-35.196			-3.200
272904.000			-35.197			-3.200
273003.000			-35.196			-3.200
273105.000			-35.196			-3.200
273203.000			-35.195			-3.200
273304.000			-35.195			-3.200
273405.000			-35.195			-3.200
273504.000			-35.194			-3.199
273605.000			-35.192			-3.199
273704.000			-35.193			-3.199
273804.000			-35.193			-3.199
273904.000			-35.193			-3.199
274004.000			-35.192			-3.199
274103.000			-35.192			-3.199
274205.000			-35.191			-3.199
274304.000			-35.191			-3.199
274404.000			-35.191			-3.199
274505.000			-35.190			-3.199
274604.000			-35.189			-3.199
274704.000			-35.189			-3.199
274804.000			-35.188			-3.199
274904.000			-35.188			-3.199
275003.000			-35.189			-3.199
275105.000			-35.188			-3.199
275204.000			-35.187			-3.199
275304.000			-35.188			-3.199
275405.000			-35.187			-3.199
275504.000			-35.186			-3.199
275604.000			-35.186			-3.199
275704.000			-35.186			-3.199
275804.000			-35.184			-3.199
275903.000			-35.185			-3.199
276005.000			-35.184			-3.199
276104.000			-35.184			-3.199
276204.000			-35.183			-3.198
276305.000			-35.182			-3.198
276404.000			-35.182			-3.198
276504.000			-35.183			-3.198
276604.000			-35.181			-3.198
276704.000			-35.181			-3.198
276803.000			-35.181			-3.198
276904.000			-35.180			-3.198
277004.000			-35.181			-3.198
277105.000			-35.180			-3.198
277204.000			-35.179			-3.198
277304.000			-35.178			-3.198
277405.000			-35.179			-3.198
277503.000			-35.178			-3.198
277604.000			-35.178			-3.198
277704.000			-35.177			-3.198
277804.000			-35.176			-3.198
277904.000			-35.175			-3.198
278005.000			-35.175			-3.198
278104.000			-35.175			-3.198
278204.000			-35.175			-3.198
278305.000			-35.175			-3.198
278404.000			-35.175			-3.198
278504.000			-35.173			-3.198
278604.000			-35.173			-3.198
278704.000			-35.173			-3.198
278804.000			-35.173			-3.198
278905.000			-35.172			-3.197
279004.000			-35.171			-3.197
279104.000			-35.170			-3.197
279205.000			-35.169			-3.197
279304.000			-35.169			-3.197
279404.000			-35.169			-3.197
279504.000			-35.169			-3.197
279604.000			-35.168			-3.197
279704.000			-35.168			-3.197
279805.000			-35.168			-3.197
279904.000			-35.167			-3.197
280005.000			-35.167			-3.197
280104.000			-35.167			-3.197
280204.000			-35.167			-3.197
280305.000			-35.167			-3.197
280403.000			-35.166			-3.197
280504.000			-35.166			-3.197
280605.000			-35.165			-3.197
280704.000			-35.163			-3.197
280804.000			-35.164			-3.197
280905.000			-35.163			-3.197
281004.000			-35.163			-3.197
281104.000			-35.162			-3.197
281205.000			-35.163			-3.197
281303.000			-35.163			-3.197
281404.000			-35.161			-3.196
281505.000			-35.160			-3.196
281604.000			-35.160			-3.196
281704.000			-35.161			-3.196
281805.000			-35.160			-3.196
281904.000			-35.159			-3.196
282003.000			-35.159			-3.196
282105.000			-35.158			-3.196
282203.000			-35.157			-3.196
282304.000			-35.157			-3.196
282405.000			-35.158			-3.196
282504.000			-35.157			-3.196
282604.000			-35.156			-3.196
282705.000			-35.156			-3.196
282804.000			-35.155			-3.196
282903.000			-35.155			-3.196
283005.000			-35.154			-3.196
283103.000			-35.154			-3.196
283205.000			-35.154			-3.196
283304.000			-35.154			-3.196
283404.000			-35.153			-3.196
283505.000			-35.153			-3.196
283604.000			-35.152			-3.196
283704.000			-35.152			-3.196
283804.000			-35.152			-3.196
283904.000			-35.151			-3.196
284003.000			-35.150			-3.195
284105.000			-35.149			-3.195
284204.000			-35.150			-3.195
284304.000			-35.150			-3.195
284405.000			-35.149			-3.195
284504.000			-35.149			-3.195
284604.000			-35.149			-3.195
284704.000			-35.147			-3.195
284804.000			-35.147			-3.195
284904.000			-35.147			-3.195
285005.000			-35.147			-3.195
285104.000			-35.146			-3.195
285204.000			-35.146			-3.195
285305.000			-35.146			-3.195
285404.000			-35.146			-3.195
285504.000			-35.146			-3.195
285604.000			-35.144			-3.195
285704.000			-35.144			-3.195
285804.000			-35.143			-3.195
285905.000			-35.142			-3.195
286004.000			-35.142			-3.195
286104.000			-35.142			-3.195
286205.000			-35.141			-3.195
286304.000			-35.141			-3.195
286405.000			-35.141			-3.195
286503.000			-35.141			-3.195
286604.000			-35.141			-3.195
286705.000			-35.139			-3.194
286804.000			-35.139			-3.194
286904.000			-35.139			-3.194
287005.000			-35.139			-3.194
287104.000			-35.139			-3.194
287204.000			-35.138			-3.194
287305.000			-35.137			-3.194
287403.000			-35.137			-3.194
287504.000			-35.137			-3.194
287605.000			-35.136			-3.194
287704.000			-35.135			-3.194
287804.000			-35.135			-3.194
287905.000			-35.136			-3.194
288004.000			-35.135			-3.194
288104.000			-35.134			-3.194
288205.000			-35.133			-3.194
288303.000			-35.133			-3.194
288404.000			-35.133			-3.194
288505.000			-35.132			-3.194
288604.000			-35.132			-3.194
288704.000			-35.131			-3.194
288805.000			-35.131			-3.194
288904.000			-35.132			-3.194
289004.000			-35.131			-3.194
289105.000			-35.130			-3.194
289203.000			-35.130			-3.194
289304.000			-35.130			-3.194
289405.000			-35.129			-3.194
289504.000			-35.128			-3.193
289605.000			-35.128			-3.193
289704.000			-35.128			-3.193
289804.000			-35.127			-3.193
289905.000			-35.126			-3.193
290004.000			-35.126			-3.193
290103.000			-35.125			-3.193
290205.000			-35.125			-3.193
290304.000			-35.126			-3.193
290404.000			-35.125			-3.193
290505.000			-35.123			-3.193
290604.000			-35.123			-3.193
290704.000			-35.124			-3.193
290805.000			-35.124			-3.193
290904.000			-35.123			-3.193
291003.000			-35.122			-3.193
291105.000			-35.122			-3.193
291204.000			-35.122			-3.193
291304.000			-35.122			-3.193
291405.000			-35.121			-3.193
291504.000			-35.121			-3.193
291604.000			-35.120			-3.193
291704.000			-35.119			-3.193
291804.000			-35.120			-3.193
291903.000			-35.120			-3.193
292005.000			-35.119			-3.193
292104.000			-35.117			-3.192
292204.000			-35.117			-3.192
292305.000			-35.116			-3.192
292404.000			-35.117			-3.192
292504.000			-35.117			-3.192
292604.000			-35.116			-3.192
292704.000			-35.115			-3.192
292805.000			-35.116			-3.192
292904.000			-35.116			-3.192
293004.000			-35.116			-3.192
293105.000			-35.114			-3.192
293204.000			-35.114			-3.192
293304.000			-35.114			-3.192
293405.000			-35.113			-3.192
293503.000			-35.112			-3.192
293604.000			-35.112			-3.192
293705.000			-35.112			-3.192
293804.000			-35.111			-3.192
293904.000			-35.110			-3.192
294005.000			-35.111			-3.192
294104.000			-35.111			-3.192
294203.000			-35.111			-3.192
294305.000			-35.110			-3.192
294403.000			-35.109			-3.192
294504.000			-35.108			-3.192
294605.000			-35.108			-3.192
294704.000			-35.108			-3.192
294804.000			-35.107			-3.192
294905.000			-35.107			-3.192
295004.000			-35.106			-3.191
295103.000			-35.105			-3.191
295205.000			-35.105			-3.191
295304.000			-35.105			-3.191
295404.000			-35.105			-3.191
295505.000			-35.104			-3.191
295604.000			-35.104			-3.191
295704.000			-35.104			-3.191
295805.000			-35.103			-3.191
295904.000			-35.103			-3.191
296003.000			-35.103			-3.191
296104.000			-35.102			-3.191
296203.000			-35.102			-3.191
296305.000			-35.101			-3.191
296404.000			-35.100			-3.191
296504.000			-35.100			-3.191
296605.000			-35.100			-3.191
296704.000			-35.100			-3.191
296804.000			-35.100			-3.191
296904.000			-35.099			-3.191
297004.000			-35.099			-3.191
297103.000			-35.098			-3.191
297205.000			-35.097			-3.191
297304.000			-35.097			-3.191
297404.000			-35.097			-3.191
297505.000			-35.096			-3.191
297604.000			-35.096			-3.191
297704.000			-35.096			-3.191
297804.000			-35.096			-3.191
297904.000			-35.096			-3.191
298003.000			-35.095			-3.190
298105.000			-35.095			-3.190
298204.000			-35.094			-3.190
298304.000			-35.093			-3.190
298405.000			-35.093			-3.190
298504.000			-35.092			-3.190
298604.000			-35.092			-3.190
298704.000			-35.092			-3.190
298804.000			-35.091			-3.190
298903.000			-35.091			-3.190
299005.000			-35.092			-3.190
299104.000			-35.091			-3.190
299205.000			-35.091			-3.190
299304.000			-35.089			-3.190
299404.000			-35.089			-3.190
299505.000			-35.088			-3.190
299604.000			-35.088			-3.190
299704.000			-35.088			-3.190
299804.000			-35.087			-3.190
299904.000			-35.087			-3.190
