# Acquired on 25/01/2024 16:43:56 
# SPIDER: Creep_7mm_GRPCNT1454A-1
# CREEP MEASUREMENT

# time [ms]		force [N]		stiffness [N/mm]
1.000			-19.827			-2.832
104.000			-20.084			-2.869
203.000			-20.013			-2.859
305.000			-19.853			-2.836
404.000			-19.732			-2.819
504.000			-19.635			-2.805
605.000			-19.553			-2.793
703.000			-19.416			-2.774
804.000			-19.359			-2.766
905.000			-19.308			-2.758
1004.000			-19.260			-2.751
1104.000			-19.216			-2.745
1205.000			-19.176			-2.739
1304.000			-19.138			-2.734
1403.000			-19.103			-2.729
1505.000			-19.038			-2.720
1604.000			-19.009			-2.716
1705.000			-18.981			-2.712
1804.000			-18.954			-2.708
1903.000			-18.928			-2.704
2005.000			-18.903			-2.700
2104.000			-18.881			-2.697
2204.000			-18.837			-2.691
2305.000			-18.817			-2.688
2404.000			-18.798			-2.685
2504.000			-18.779			-2.683
2604.000			-18.759			-2.680
2704.000			-18.742			-2.677
2804.000			-18.725			-2.675
2905.000			-18.694			-2.671
3004.000			-18.679			-2.668
3104.000			-18.663			-2.666
3205.000			-18.647			-2.664
3303.000			-18.633			-2.662
3404.000			-18.619			-2.660
3505.000			-18.606			-2.658
3604.000			-18.580			-2.654
3704.000			-18.567			-2.652
3804.000			-18.555			-2.651
3904.000			-18.544			-2.649
4004.000			-18.533			-2.648
4105.000			-18.521			-2.646
4204.000			-18.509			-2.644
4304.000			-18.498			-2.643
4405.000			-18.477			-2.640
4503.000			-18.467			-2.638
4604.000			-18.457			-2.637
4705.000			-18.448			-2.635
4804.000			-18.438			-2.634
4905.000			-18.429			-2.633
5004.000			-18.419			-2.631
5104.000			-18.400			-2.629
5204.000			-18.391			-2.627
5304.000			-18.384			-2.626
5404.000			-18.376			-2.625
5505.000			-18.366			-2.624
5604.000			-18.358			-2.623
5703.000			-18.350			-2.621
5805.000			-18.334			-2.619
5904.000			-18.326			-2.618
6004.000			-18.319			-2.617
6105.000			-18.312			-2.616
6204.000			-18.305			-2.615
6304.000			-18.299			-2.614
6404.000			-18.291			-2.613
6504.000			-18.277			-2.611
6604.000			-18.269			-2.610
6705.000			-18.262			-2.609
6804.000			-18.255			-2.608
6904.000			-18.249			-2.607
7005.000			-18.242			-2.606
7103.000			-18.236			-2.605
7204.000			-18.230			-2.604
7305.000			-18.218			-2.603
7404.000			-18.212			-2.602
7504.000			-18.206			-2.601
7604.000			-18.199			-2.600
7704.000			-18.194			-2.599
7804.000			-18.189			-2.598
7904.000			-18.183			-2.598
8004.000			-18.171			-2.596
8105.000			-18.166			-2.595
8204.000			-18.160			-2.594
8303.000			-18.155			-2.594
8405.000			-18.150			-2.593
8504.000			-18.144			-2.592
8604.000			-18.139			-2.591
8705.000			-18.129			-2.590
8804.000			-18.124			-2.589
8904.000			-18.118			-2.588
9004.000			-18.113			-2.588
9104.000			-18.109			-2.587
9204.000			-18.104			-2.586
9305.000			-18.099			-2.586
9404.000			-18.091			-2.584
9503.000			-18.085			-2.584
9605.000			-18.080			-2.583
9704.000			-18.076			-2.582
9804.000			-18.072			-2.582
9905.000			-18.067			-2.581
10004.000			-18.063			-2.580
10104.000			-18.058			-2.580
10204.000			-18.050			-2.579
10304.000			-18.045			-2.578
10404.000			-18.042			-2.577
10505.000			-18.038			-2.577
10604.000			-18.033			-2.576
10703.000			-18.028			-2.575
10805.000			-18.023			-2.575
10904.000			-18.016			-2.574
11004.000			-18.011			-2.573
11105.000			-18.006			-2.572
11204.000			-18.002			-2.572
11305.000			-17.997			-2.571
11403.000			-17.993			-2.570
11504.000			-17.990			-2.570
11605.000			-17.981			-2.569
11704.000			-17.977			-2.568
11804.000			-17.974			-2.568
11905.000			-17.971			-2.567
12004.000			-17.966			-2.567
12103.000			-17.963			-2.566
12205.000			-17.960			-2.566
12304.000			-17.952			-2.565
12404.000			-17.949			-2.564
12505.000			-17.946			-2.564
12604.000			-17.942			-2.563
12704.000			-17.938			-2.563
12804.000			-17.934			-2.562
12904.000			-17.931			-2.562
13004.000			-17.924			-2.561
13105.000			-17.921			-2.560
13204.000			-17.918			-2.560
13304.000			-17.915			-2.559
13405.000			-17.913			-2.559
13503.000			-17.909			-2.558
13604.000			-17.905			-2.558
13705.000			-17.903			-2.558
13804.000			-17.897			-2.557
13904.000			-17.894			-2.556
14005.000			-17.891			-2.556
14104.000			-17.886			-2.555
14203.000			-17.883			-2.555
14305.000			-17.881			-2.554
14404.000			-17.879			-2.554
14505.000			-17.872			-2.553
14604.000			-17.868			-2.553
14704.000			-17.865			-2.552
14805.000			-17.863			-2.552
14903.000			-17.860			-2.551
15004.000			-17.857			-2.551
15105.000			-17.855			-2.551
15204.000			-17.850			-2.550
15304.000			-17.847			-2.550
15405.000			-17.844			-2.549
15504.000			-17.841			-2.549
15603.000			-17.839			-2.548
15705.000			-17.836			-2.548
15804.000			-17.833			-2.548
15904.000			-17.828			-2.547
16005.000			-17.825			-2.546
16104.000			-17.822			-2.546
16204.000			-17.820			-2.546
16304.000			-17.817			-2.545
16404.000			-17.815			-2.545
16504.000			-17.812			-2.545
16605.000			-17.809			-2.544
16704.000			-17.804			-2.543
16804.000			-17.802			-2.543
16905.000			-17.799			-2.543
17003.000			-17.796			-2.542
17104.000			-17.794			-2.542
17205.000			-17.792			-2.542
17304.000			-17.790			-2.541
17404.000			-17.784			-2.541
17504.000			-17.781			-2.540
17604.000			-17.779			-2.540
17703.000			-17.777			-2.540
17804.000			-17.774			-2.539
17904.000			-17.772			-2.539
18005.000			-17.769			-2.538
18104.000			-17.764			-2.538
18204.000			-17.762			-2.537
18305.000			-17.760			-2.537
18403.000			-17.757			-2.537
18504.000			-17.754			-2.536
18605.000			-17.751			-2.536
18704.000			-17.750			-2.536
18804.000			-17.746			-2.535
18905.000			-17.742			-2.535
19004.000			-17.741			-2.534
19103.000			-17.739			-2.534
19205.000			-17.736			-2.534
19304.000			-17.733			-2.533
19404.000			-17.731			-2.533
19505.000			-17.729			-2.533
19604.000			-17.725			-2.532
19704.000			-17.723			-2.532
19804.000			-17.720			-2.531
19904.000			-17.717			-2.531
20004.000			-17.715			-2.531
20105.000			-17.713			-2.530
20204.000			-17.710			-2.530
20303.000			-17.706			-2.529
20405.000			-17.705			-2.529
20504.000			-17.702			-2.529
20604.000			-17.700			-2.529
20705.000			-17.697			-2.528
20804.000			-17.695			-2.528
20905.000			-17.693			-2.528
21003.000			-17.689			-2.527
21104.000			-17.687			-2.527
21205.000			-17.685			-2.526
21304.000			-17.682			-2.526
21404.000			-17.681			-2.526
21505.000			-17.680			-2.526
21604.000			-17.677			-2.525
21703.000			-17.674			-2.525
21805.000			-17.671			-2.524
21904.000			-17.670			-2.524
22004.000			-17.667			-2.524
22105.000			-17.665			-2.524
22204.000			-17.664			-2.523
22304.000			-17.662			-2.523
22404.000			-17.660			-2.523
22504.000			-17.657			-2.522
22604.000			-17.655			-2.522
22705.000			-17.653			-2.522
22804.000			-17.652			-2.522
22904.000			-17.650			-2.521
23005.000			-17.649			-2.521
23103.000			-17.646			-2.521
23204.000			-17.642			-2.520
23305.000			-17.641			-2.520
23404.000			-17.639			-2.520
23504.000			-17.637			-2.520
23605.000			-17.634			-2.519
23704.000			-17.634			-2.519
23803.000			-17.633			-2.519
23905.000			-17.629			-2.518
24004.000			-17.627			-2.518
24105.000			-17.626			-2.518
24204.000			-17.623			-2.518
24304.000			-17.621			-2.517
24405.000			-17.621			-2.517
24503.000			-17.618			-2.517
24604.000			-17.615			-2.516
24705.000			-17.612			-2.516
24804.000			-17.610			-2.516
24904.000			-17.609			-2.516
25004.000			-17.607			-2.515
25104.000			-17.605			-2.515
25203.000			-17.604			-2.515
25305.000			-17.602			-2.515
25404.000			-17.600			-2.514
25504.000			-17.598			-2.514
25605.000			-17.596			-2.514
25703.000			-17.594			-2.513
25804.000			-17.593			-2.513
25904.000			-17.592			-2.513
26004.000			-17.589			-2.513
26104.000			-17.586			-2.512
26205.000			-17.584			-2.512
26304.000			-17.583			-2.512
26404.000			-17.581			-2.512
26505.000			-17.578			-2.511
26603.000			-17.578			-2.511
26704.000			-17.576			-2.511
26805.000			-17.571			-2.510
26904.000			-17.570			-2.510
27004.000			-17.568			-2.510
27104.000			-17.567			-2.510
27204.000			-17.565			-2.509
27303.000			-17.562			-2.509
27404.000			-17.560			-2.509
27504.000			-17.557			-2.508
27605.000			-17.556			-2.508
27704.000			-17.554			-2.508
27804.000			-17.553			-2.508
27905.000			-17.551			-2.507
28003.000			-17.549			-2.507
28104.000			-17.548			-2.507
28205.000			-17.547			-2.507
28304.000			-17.543			-2.506
28404.000			-17.541			-2.506
28505.000			-17.540			-2.506
28604.000			-17.539			-2.506
28703.000			-17.538			-2.505
28805.000			-17.536			-2.505
28904.000			-17.535			-2.505
29004.000			-17.532			-2.505
29105.000			-17.531			-2.504
29204.000			-17.530			-2.504
29304.000			-17.529			-2.504
29404.000			-17.528			-2.504
29504.000			-17.527			-2.504
29604.000			-17.525			-2.504
29705.000			-17.522			-2.503
29804.000			-17.521			-2.503
29904.000			-17.519			-2.503
30005.000			-17.518			-2.503
30103.000			-17.517			-2.502
30204.000			-17.516			-2.502
30305.000			-17.514			-2.502
30404.000			-17.513			-2.502
30505.000			-17.511			-2.502
30603.000			-17.510			-2.501
30704.000			-17.509			-2.501
30805.000			-17.508			-2.501
30904.000			-17.506			-2.501
31004.000			-17.505			-2.501
31105.000			-17.504			-2.501
31204.000			-17.500			-2.500
31303.000			-17.499			-2.500
31405.000			-17.499			-2.500
31504.000			-17.497			-2.500
31604.000			-17.494			-2.499
31705.000			-17.493			-2.499
31804.000			-17.493			-2.499
31904.000			-17.491			-2.499
32004.000			-17.489			-2.498
32104.000			-17.488			-2.498
32204.000			-17.487			-2.498
32305.000			-17.485			-2.498
32404.000			-17.484			-2.498
32504.000			-17.484			-2.498
32605.000			-17.481			-2.497
32703.000			-17.479			-2.497
32804.000			-17.478			-2.497
32905.000			-17.476			-2.497
33004.000			-17.474			-2.496
33104.000			-17.473			-2.496
33205.000			-17.473			-2.496
33304.000			-17.471			-2.496
33403.000			-17.470			-2.496
33505.000			-17.468			-2.495
33604.000			-17.467			-2.495
33705.000			-17.466			-2.495
33804.000			-17.465			-2.495
33904.000			-17.464			-2.495
34005.000			-17.461			-2.494
34103.000			-17.460			-2.494
34204.000			-17.459			-2.494
34305.000			-17.459			-2.494
34404.000			-17.457			-2.494
34504.000			-17.456			-2.494
34605.000			-17.453			-2.493
34704.000			-17.452			-2.493
34803.000			-17.450			-2.493
34905.000			-17.448			-2.493
35004.000			-17.447			-2.492
35104.000			-17.446			-2.492
35205.000			-17.445			-2.492
35304.000			-17.443			-2.492
35404.000			-17.443			-2.492
35504.000			-17.441			-2.492
35604.000			-17.440			-2.491
35704.000			-17.438			-2.491
35805.000			-17.437			-2.491
35904.000			-17.436			-2.491
36004.000			-17.434			-2.491
36105.000			-17.432			-2.490
36203.000			-17.431			-2.490
36304.000			-17.429			-2.490
36405.000			-17.428			-2.490
36504.000			-17.427			-2.490
36604.000			-17.426			-2.489
36703.000			-17.425			-2.489
36804.000			-17.424			-2.489
36905.000			-17.421			-2.489
37004.000			-17.420			-2.489
37104.000			-17.418			-2.488
37205.000			-17.417			-2.488
37304.000			-17.416			-2.488
37403.000			-17.417			-2.488
37505.000			-17.415			-2.488
37604.000			-17.413			-2.488
37704.000			-17.410			-2.487
37805.000			-17.409			-2.487
37904.000			-17.409			-2.487
38004.000			-17.408			-2.487
38104.000			-17.407			-2.487
38204.000			-17.406			-2.487
38304.000			-17.404			-2.486
38405.000			-17.403			-2.486
38504.000			-17.401			-2.486
38604.000			-17.400			-2.486
38705.000			-17.400			-2.486
38803.000			-17.399			-2.486
38904.000			-17.398			-2.485
39005.000			-17.396			-2.485
39104.000			-17.394			-2.485
39204.000			-17.393			-2.485
39305.000			-17.393			-2.485
39404.000			-17.392			-2.485
39503.000			-17.390			-2.484
39605.000			-17.389			-2.484
39704.000			-17.388			-2.484
39804.000			-17.386			-2.484
39905.000			-17.385			-2.484
40004.000			-17.385			-2.484
40105.000			-17.383			-2.483
40203.000			-17.381			-2.483
40304.000			-17.381			-2.483
40405.000			-17.380			-2.483
40504.000			-17.379			-2.483
40604.000			-17.375			-2.482
40705.000			-17.375			-2.482
40804.000			-17.375			-2.482
40903.000			-17.373			-2.482
41005.000			-17.373			-2.482
41104.000			-17.373			-2.482
41204.000			-17.371			-2.482
41305.000			-17.369			-2.481
41404.000			-17.367			-2.481
41504.000			-17.366			-2.481
41604.000			-17.366			-2.481
41704.000			-17.365			-2.481
41804.000			-17.363			-2.480
41905.000			-17.362			-2.480
42004.000			-17.359			-2.480
42103.000			-17.359			-2.480
42205.000			-17.358			-2.480
42304.000			-17.357			-2.480
42404.000			-17.355			-2.479
42505.000			-17.355			-2.479
42604.000			-17.354			-2.479
42704.000			-17.352			-2.479
42804.000			-17.352			-2.479
42904.000			-17.351			-2.479
43004.000			-17.349			-2.478
43104.000			-17.347			-2.478
43204.000			-17.346			-2.478
43305.000			-17.346			-2.478
43404.000			-17.345			-2.478
43503.000			-17.344			-2.478
43605.000			-17.343			-2.478
43704.000			-17.342			-2.477
43804.000			-17.342			-2.477
43905.000			-17.341			-2.477
44004.000			-17.340			-2.477
44104.000			-17.338			-2.477
44204.000			-17.336			-2.477
44304.000			-17.335			-2.476
44404.000			-17.335			-2.476
44505.000			-17.334			-2.476
44604.000			-17.333			-2.476
44704.000			-17.332			-2.476
44805.000			-17.331			-2.476
44903.000			-17.329			-2.476
45004.000			-17.328			-2.475
45105.000			-17.327			-2.475
45204.000			-17.327			-2.475
45304.000			-17.325			-2.475
45404.000			-17.324			-2.475
45504.000			-17.323			-2.475
45603.000			-17.321			-2.474
45705.000			-17.322			-2.475
45804.000			-17.321			-2.474
45904.000			-17.319			-2.474
46005.000			-17.318			-2.474
46103.000			-17.317			-2.474
46204.000			-17.317			-2.474
46305.000			-17.316			-2.474
46404.000			-17.315			-2.474
46505.000			-17.313			-2.473
46604.000			-17.312			-2.473
46704.000			-17.311			-2.473
46804.000			-17.310			-2.473
46904.000			-17.309			-2.473
47004.000			-17.308			-2.473
47105.000			-17.307			-2.472
47204.000			-17.306			-2.472
47304.000			-17.305			-2.472
47405.000			-17.304			-2.472
47503.000			-17.303			-2.472
47604.000			-17.301			-2.472
47705.000			-17.301			-2.472
47804.000			-17.300			-2.471
47904.000			-17.298			-2.471
48005.000			-17.296			-2.471
48104.000			-17.296			-2.471
48203.000			-17.295			-2.471
48305.000			-17.295			-2.471
48404.000			-17.295			-2.471
48504.000			-17.293			-2.470
48605.000			-17.291			-2.470
48704.000			-17.291			-2.470
48804.000			-17.290			-2.470
48904.000			-17.289			-2.470
49004.000			-17.289			-2.470
49104.000			-17.287			-2.470
49205.000			-17.287			-2.470
49304.000			-17.285			-2.469
49404.000			-17.285			-2.469
49505.000			-17.285			-2.469
49603.000			-17.283			-2.469
49705.000			-17.282			-2.469
49804.000			-17.281			-2.469
49904.000			-17.280			-2.469
50005.000			-17.279			-2.468
50104.000			-17.278			-2.468
50204.000			-17.276			-2.468
50304.000			-17.275			-2.468
50404.000			-17.276			-2.468
50504.000			-17.276			-2.468
50605.000			-17.275			-2.468
50704.000			-17.273			-2.468
50804.000			-17.271			-2.467
50905.000			-17.270			-2.467
51003.000			-17.270			-2.467
51104.000			-17.269			-2.467
51205.000			-17.268			-2.467
51304.000			-17.267			-2.467
51404.000			-17.265			-2.466
51504.000			-17.265			-2.466
51604.000			-17.263			-2.466
51704.000			-17.263			-2.466
51805.000			-17.263			-2.466
51904.000			-17.262			-2.466
52004.000			-17.261			-2.466
52105.000			-17.259			-2.466
52203.000			-17.257			-2.465
52304.000			-17.257			-2.465
52405.000			-17.257			-2.465
52504.000			-17.256			-2.465
52604.000			-17.255			-2.465
52704.000			-17.255			-2.465
52804.000			-17.254			-2.465
52903.000			-17.252			-2.465
53004.000			-17.252			-2.465
53104.000			-17.252			-2.465
53205.000			-17.250			-2.464
53304.000			-17.249			-2.464
53404.000			-17.248			-2.464
53505.000			-17.247			-2.464
53603.000			-17.245			-2.464
53704.000			-17.244			-2.463
53805.000			-17.244			-2.463
53904.000			-17.243			-2.463
54004.000			-17.242			-2.463
54104.000			-17.242			-2.463
54204.000			-17.241			-2.463
54303.000			-17.239			-2.463
54405.000			-17.238			-2.463
54504.000			-17.237			-2.462
54604.000			-17.237			-2.462
54705.000			-17.236			-2.462
54803.000			-17.235			-2.462
54904.000			-17.234			-2.462
55005.000			-17.233			-2.462
55104.000			-17.232			-2.462
55204.000			-17.231			-2.462
55305.000			-17.230			-2.461
55404.000			-17.230			-2.461
55503.000			-17.229			-2.461
55605.000			-17.228			-2.461
55704.000			-17.227			-2.461
55804.000			-17.226			-2.461
55905.000			-17.225			-2.461
56004.000			-17.225			-2.461
56105.000			-17.224			-2.461
56203.000			-17.222			-2.460
56304.000			-17.221			-2.460
56405.000			-17.220			-2.460
56504.000			-17.220			-2.460
56604.000			-17.220			-2.460
56705.000			-17.218			-2.460
56804.000			-17.218			-2.460
56903.000			-17.218			-2.460
57005.000			-17.217			-2.460
57104.000			-17.216			-2.459
57204.000			-17.215			-2.459
57305.000			-17.215			-2.459
57404.000			-17.213			-2.459
57504.000			-17.211			-2.459
57604.000			-17.210			-2.459
57704.000			-17.210			-2.459
57804.000			-17.209			-2.458
57905.000			-17.209			-2.458
58004.000			-17.206			-2.458
58103.000			-17.205			-2.458
58205.000			-17.203			-2.458
58304.000			-17.203			-2.458
58404.000			-17.202			-2.457
58505.000			-17.202			-2.457
58604.000			-17.200			-2.457
58704.000			-17.198			-2.457
58804.000			-17.198			-2.457
58904.000			-17.197			-2.457
59004.000			-17.196			-2.457
59104.000			-17.194			-2.456
59204.000			-17.194			-2.456
59305.000			-17.194			-2.456
59404.000			-17.192			-2.456
59503.000			-17.191			-2.456
59605.000			-17.190			-2.456
59704.000			-17.190			-2.456
59804.000			-17.189			-2.456
59905.000			-17.189			-2.456
60004.000			-17.189			-2.456
60104.000			-17.187			-2.455
60204.000			-17.186			-2.455
60304.000			-17.185			-2.455
60403.000			-17.184			-2.455
60505.000			-17.183			-2.455
60604.000			-17.183			-2.455
60704.000			-17.183			-2.455
60805.000			-17.182			-2.455
60903.000			-17.181			-2.454
61004.000			-17.180			-2.454
61105.000			-17.179			-2.454
61204.000			-17.178			-2.454
61304.000			-17.178			-2.454
61405.000			-17.178			-2.454
61504.000			-17.178			-2.454
61603.000			-17.175			-2.454
61705.000			-17.175			-2.454
61804.000			-17.174			-2.453
61904.000			-17.174			-2.453
62005.000			-17.175			-2.454
62104.000			-17.175			-2.454
62204.000			-17.173			-2.453
62303.000			-17.172			-2.453
62404.000			-17.171			-2.453
62505.000			-17.171			-2.453
62604.000			-17.170			-2.453
62704.000			-17.169			-2.453
62805.000			-17.169			-2.453
62904.000			-17.169			-2.453
63003.000			-17.168			-2.453
63105.000			-17.165			-2.452
63204.000			-17.166			-2.452
63304.000			-17.165			-2.452
63405.000			-17.165			-2.452
63504.000			-17.163			-2.452
63604.000			-17.162			-2.452
63704.000			-17.161			-2.452
63804.000			-17.159			-2.451
63904.000			-17.158			-2.451
64005.000			-17.157			-2.451
64104.000			-17.156			-2.451
64203.000			-17.156			-2.451
64305.000			-17.156			-2.451
64404.000			-17.155			-2.451
64504.000			-17.153			-2.450
64605.000			-17.153			-2.450
64704.000			-17.152			-2.450
64804.000			-17.150			-2.450
64904.000			-17.150			-2.450
65004.000			-17.149			-2.450
65104.000			-17.149			-2.450
65205.000			-17.148			-2.450
65304.000			-17.147			-2.450
65404.000			-17.146			-2.449
65505.000			-17.147			-2.450
65603.000			-17.146			-2.449
65705.000			-17.144			-2.449
65804.000			-17.144			-2.449
65904.000			-17.143			-2.449
66005.000			-17.141			-2.449
66104.000			-17.141			-2.449
66204.000			-17.141			-2.449
66304.000			-17.140			-2.449
66404.000			-17.139			-2.448
66504.000			-17.138			-2.448
66605.000			-17.137			-2.448
66704.000			-17.136			-2.448
66804.000			-17.135			-2.448
66905.000			-17.135			-2.448
67003.000			-17.134			-2.448
67104.000			-17.135			-2.448
67205.000			-17.134			-2.448
67304.000			-17.133			-2.448
67404.000			-17.132			-2.447
67505.000			-17.131			-2.447
67604.000			-17.131			-2.447
67703.000			-17.131			-2.447
67805.000			-17.130			-2.447
67904.000			-17.130			-2.447
68004.000			-17.130			-2.447
68105.000			-17.129			-2.447
68204.000			-17.129			-2.447
68304.000			-17.128			-2.447
68404.000			-17.126			-2.447
68504.000			-17.126			-2.447
68604.000			-17.127			-2.447
68704.000			-17.125			-2.446
68804.000			-17.125			-2.446
68905.000			-17.125			-2.446
69004.000			-17.124			-2.446
69103.000			-17.124			-2.446
69205.000			-17.124			-2.446
69304.000			-17.122			-2.446
69404.000			-17.121			-2.446
69505.000			-17.120			-2.446
69604.000			-17.119			-2.446
69704.000			-17.119			-2.446
69804.000			-17.119			-2.446
69904.000			-17.118			-2.445
70004.000			-17.117			-2.445
70105.000			-17.117			-2.445
70204.000			-17.116			-2.445
70304.000			-17.114			-2.445
70405.000			-17.114			-2.445
70503.000			-17.113			-2.445
70604.000			-17.113			-2.445
70705.000			-17.112			-2.445
70804.000			-17.113			-2.445
70904.000			-17.113			-2.445
71004.000			-17.111			-2.444
71104.000			-17.110			-2.444
71204.000			-17.109			-2.444
71305.000			-17.109			-2.444
71404.000			-17.109			-2.444
71504.000			-17.109			-2.444
71605.000			-17.107			-2.444
71703.000			-17.106			-2.444
71804.000			-17.105			-2.444
71905.000			-17.105			-2.444
72004.000			-17.104			-2.443
72105.000			-17.103			-2.443
72204.000			-17.102			-2.443
72304.000			-17.102			-2.443
72404.000			-17.101			-2.443
72504.000			-17.101			-2.443
72604.000			-17.100			-2.443
72705.000			-17.098			-2.443
72804.000			-17.097			-2.442
72904.000			-17.096			-2.442
73005.000			-17.096			-2.442
73103.000			-17.095			-2.442
73204.000			-17.095			-2.442
73305.000			-17.094			-2.442
73404.000			-17.093			-2.442
73504.000			-17.093			-2.442
73605.000			-17.092			-2.442
73704.000			-17.093			-2.442
73803.000			-17.091			-2.442
73905.000			-17.090			-2.441
74004.000			-17.090			-2.441
74104.000			-17.089			-2.441
74205.000			-17.088			-2.441
74304.000			-17.087			-2.441
74404.000			-17.086			-2.441
74504.000			-17.086			-2.441
74604.000			-17.086			-2.441
74704.000			-17.084			-2.441
74805.000			-17.084			-2.441
74904.000			-17.083			-2.440
75004.000			-17.083			-2.440
75105.000			-17.082			-2.440
75203.000			-17.082			-2.440
75305.000			-17.082			-2.440
75404.000			-17.081			-2.440
75504.000			-17.080			-2.440
75605.000			-17.079			-2.440
75704.000			-17.078			-2.440
75804.000			-17.078			-2.440
75904.000			-17.078			-2.440
76004.000			-17.077			-2.440
76104.000			-17.076			-2.439
76205.000			-17.076			-2.439
76304.000			-17.076			-2.439
76404.000			-17.075			-2.439
76505.000			-17.074			-2.439
76603.000			-17.073			-2.439
76704.000			-17.073			-2.439
76805.000			-17.073			-2.439
76904.000			-17.072			-2.439
77004.000			-17.071			-2.439
77105.000			-17.071			-2.439
77204.000			-17.071			-2.439
77303.000			-17.070			-2.439
77405.000			-17.069			-2.438
77504.000			-17.069			-2.438
77604.000			-17.067			-2.438
77705.000			-17.067			-2.438
77804.000			-17.067			-2.438
77904.000			-17.067			-2.438
78005.000			-17.066			-2.438
78104.000			-17.065			-2.438
78203.000			-17.064			-2.438
78305.000			-17.064			-2.438
78404.000			-17.066			-2.438
78505.000			-17.065			-2.438
78604.000			-17.064			-2.438
78704.000			-17.063			-2.438
78805.000			-17.063			-2.438
78903.000			-17.063			-2.438
79004.000			-17.062			-2.437
79105.000			-17.061			-2.437
79204.000			-17.061			-2.437
79304.000			-17.060			-2.437
79405.000			-17.059			-2.437
79504.000			-17.059			-2.437
79603.000			-17.058			-2.437
79705.000			-17.057			-2.437
79804.000			-17.056			-2.437
79904.000			-17.057			-2.437
80005.000			-17.056			-2.437
80104.000			-17.056			-2.437
80204.000			-17.055			-2.436
80304.000			-17.055			-2.436
80404.000			-17.055			-2.436
80504.000			-17.054			-2.436
80605.000			-17.053			-2.436
80704.000			-17.054			-2.436
80804.000			-17.052			-2.436
80905.000			-17.051			-2.436
81003.000			-17.050			-2.436
81104.000			-17.050			-2.436
81205.000			-17.049			-2.436
81304.000			-17.049			-2.436
81404.000			-17.049			-2.436
81504.000			-17.048			-2.435
81604.000			-17.048			-2.435
81703.000			-17.047			-2.435
81804.000			-17.047			-2.435
81904.000			-17.045			-2.435
82005.000			-17.045			-2.435
82104.000			-17.045			-2.435
82203.000			-17.045			-2.435
82305.000			-17.044			-2.435
82404.000			-17.043			-2.435
82504.000			-17.043			-2.435
82605.000			-17.041			-2.434
82704.000			-17.041			-2.434
82804.000			-17.041			-2.434
82904.000			-17.040			-2.434
83004.000			-17.040			-2.434
83104.000			-17.039			-2.434
83205.000			-17.037			-2.434
83304.000			-17.037			-2.434
83404.000			-17.036			-2.434
83505.000			-17.035			-2.434
83603.000			-17.035			-2.434
83704.000			-17.035			-2.434
83805.000			-17.034			-2.433
83904.000			-17.033			-2.433
84004.000			-17.032			-2.433
84105.000			-17.032			-2.433
84204.000			-17.031			-2.433
84303.000			-17.031			-2.433
84405.000			-17.031			-2.433
84504.000			-17.030			-2.433
84604.000			-17.029			-2.433
84705.000			-17.028			-2.433
84804.000			-17.026			-2.432
84905.000			-17.026			-2.432
85003.000			-17.026			-2.432
85104.000			-17.026			-2.432
85205.000			-17.026			-2.432
85304.000			-17.024			-2.432
85404.000			-17.024			-2.432
85505.000			-17.024			-2.432
85604.000			-17.021			-2.432
85703.000			-17.021			-2.432
85805.000			-17.021			-2.432
85904.000			-17.021			-2.432
86004.000			-17.021			-2.432
86105.000			-17.020			-2.431
86204.000			-17.019			-2.431
86304.000			-17.018			-2.431
86404.000			-17.017			-2.431
86504.000			-17.016			-2.431
86604.000			-17.016			-2.431
86705.000			-17.016			-2.431
86804.000			-17.015			-2.431
86904.000			-17.014			-2.431
87005.000			-17.013			-2.430
87103.000			-17.013			-2.430
87204.000			-17.011			-2.430
87305.000			-17.010			-2.430
87404.000			-17.011			-2.430
87504.000			-17.010			-2.430
87605.000			-17.009			-2.430
87704.000			-17.009			-2.430
87803.000			-17.009			-2.430
87905.000			-17.007			-2.430
88004.000			-17.007			-2.430
88105.000			-17.007			-2.430
88204.000			-17.006			-2.429
88304.000			-17.006			-2.429
88405.000			-17.005			-2.429
88503.000			-17.004			-2.429
88604.000			-17.004			-2.429
88705.000			-17.004			-2.429
88804.000			-17.003			-2.429
88904.000			-17.003			-2.429
89004.000			-17.003			-2.429
89104.000			-17.003			-2.429
89203.000			-17.001			-2.429
89305.000			-17.001			-2.429
89404.000			-17.000			-2.429
89504.000			-17.000			-2.429
89605.000			-17.000			-2.429
89703.000			-17.000			-2.429
89804.000			-16.999			-2.428
89905.000			-16.997			-2.428
90004.000			-16.997			-2.428
90104.000			-16.997			-2.428
90205.000			-16.997			-2.428
90304.000			-16.996			-2.428
90403.000			-16.996			-2.428
90505.000			-16.995			-2.428
90603.000			-16.995			-2.428
90704.000			-16.993			-2.428
90805.000			-16.992			-2.427
90904.000			-16.992			-2.427
91004.000			-16.992			-2.427
91104.000			-16.993			-2.428
91204.000			-16.992			-2.427
91303.000			-16.991			-2.427
91404.000			-16.990			-2.427
91504.000			-16.989			-2.427
91605.000			-16.988			-2.427
91704.000			-16.987			-2.427
91804.000			-16.987			-2.427
91905.000			-16.987			-2.427
92003.000			-16.987			-2.427
92104.000			-16.987			-2.427
92205.000			-16.987			-2.427
92304.000			-16.987			-2.427
92404.000			-16.987			-2.427
92505.000			-16.985			-2.426
92604.000			-16.985			-2.426
92703.000			-16.985			-2.426
92805.000			-16.984			-2.426
92904.000			-16.983			-2.426
93004.000			-16.983			-2.426
93105.000			-16.983			-2.426
93204.000			-16.982			-2.426
93304.000			-16.982			-2.426
93404.000			-16.982			-2.426
93504.000			-16.981			-2.426
93603.000			-16.981			-2.426
93705.000			-16.981			-2.426
93804.000			-16.980			-2.426
93904.000			-16.981			-2.426
94005.000			-16.981			-2.426
94104.000			-16.981			-2.426
94204.000			-16.979			-2.426
94303.000			-16.978			-2.425
94404.000			-16.978			-2.425
94505.000			-16.977			-2.425
94604.000			-16.977			-2.425
94704.000			-16.977			-2.425
94805.000			-16.976			-2.425
94904.000			-16.975			-2.425
95003.000			-16.971			-2.424
95105.000			-16.972			-2.425
95204.000			-16.972			-2.425
95304.000			-16.971			-2.424
95405.000			-16.970			-2.424
95504.000			-16.969			-2.424
95604.000			-16.969			-2.424
95704.000			-16.968			-2.424
95804.000			-16.968			-2.424
95903.000			-16.968			-2.424
96005.000			-16.967			-2.424
96104.000			-16.966			-2.424
96204.000			-16.966			-2.424
96305.000			-16.965			-2.424
96404.000			-16.963			-2.423
96504.000			-16.962			-2.423
96604.000			-16.962			-2.423
96704.000			-16.962			-2.423
96804.000			-16.963			-2.423
96905.000			-16.962			-2.423
97004.000			-16.960			-2.423
97104.000			-16.960			-2.423
97205.000			-16.959			-2.423
97303.000			-16.959			-2.423
97404.000			-16.959			-2.423
97505.000			-16.958			-2.423
97604.000			-16.957			-2.422
97705.000			-16.956			-2.422
97804.000			-16.957			-2.422
97904.000			-16.956			-2.422
98004.000			-16.956			-2.422
98104.000			-16.955			-2.422
98203.000			-16.954			-2.422
98305.000			-16.954			-2.422
98404.000			-16.955			-2.422
98504.000			-16.954			-2.422
98605.000			-16.953			-2.422
98704.000			-16.953			-2.422
98804.000			-16.952			-2.422
98904.000			-16.951			-2.422
99004.000			-16.952			-2.422
99104.000			-16.952			-2.422
99205.000			-16.952			-2.422
99304.000			-16.950			-2.421
99404.000			-16.950			-2.421
99505.000			-16.950			-2.421
99603.000			-16.949			-2.421
99704.000			-16.949			-2.421
99805.000			-16.949			-2.421
99904.000			-16.949			-2.421
100004.000			-16.948			-2.421
100105.000			-16.949			-2.421
100204.000			-16.949			-2.421
100303.000			-16.948			-2.421
100405.000			-16.947			-2.421
100504.000			-16.947			-2.421
100604.000			-16.946			-2.421
100705.000			-16.946			-2.421
100804.000			-16.946			-2.421
100905.000			-16.945			-2.421
101004.000			-16.945			-2.421
101104.000			-16.945			-2.421
101204.000			-16.946			-2.421
101304.000			-16.945			-2.421
101404.000			-16.943			-2.420
101505.000			-16.943			-2.420
101604.000			-16.943			-2.420
101704.000			-16.942			-2.420
101805.000			-16.942			-2.420
101903.000			-16.942			-2.420
102004.000			-16.941			-2.420
102105.000			-16.940			-2.420
102204.000			-16.940			-2.420
102304.000			-16.940			-2.420
102405.000			-16.941			-2.420
102504.000			-16.941			-2.420
102603.000			-16.940			-2.420
102705.000			-16.939			-2.420
102804.000			-16.938			-2.420
102904.000			-16.938			-2.420
103005.000			-16.938			-2.420
103104.000			-16.938			-2.420
103204.000			-16.937			-2.420
103304.000			-16.936			-2.419
103404.000			-16.937			-2.420
103504.000			-16.936			-2.419
103605.000			-16.936			-2.419
103704.000			-16.935			-2.419
103804.000			-16.934			-2.419
103905.000			-16.933			-2.419
104004.000			-16.933			-2.419
104105.000			-16.933			-2.419
104203.000			-16.931			-2.419
104304.000			-16.930			-2.419
104405.000			-16.931			-2.419
104504.000			-16.930			-2.419
104604.000			-16.929			-2.418
104705.000			-16.929			-2.418
104804.000			-16.929			-2.418
104903.000			-16.929			-2.418
105005.000			-16.929			-2.418
105104.000			-16.927			-2.418
105204.000			-16.927			-2.418
105305.000			-16.926			-2.418
105404.000			-16.926			-2.418
105504.000			-16.926			-2.418
105604.000			-16.926			-2.418
105704.000			-16.925			-2.418
105804.000			-16.924			-2.418
105905.000			-16.923			-2.418
106004.000			-16.923			-2.418
106104.000			-16.923			-2.418
106205.000			-16.923			-2.418
106303.000			-16.922			-2.417
106404.000			-16.922			-2.417
106505.000			-16.922			-2.417
106604.000			-16.921			-2.417
106704.000			-16.921			-2.417
106805.000			-16.921			-2.417
106904.000			-16.921			-2.417
107003.000			-16.920			-2.417
107105.000			-16.920			-2.417
107204.000			-16.921			-2.417
107305.000			-16.920			-2.417
107404.000			-16.919			-2.417
107504.000			-16.918			-2.417
107605.000			-16.919			-2.417
107704.000			-16.918			-2.417
107804.000			-16.916			-2.417
107904.000			-16.915			-2.416
108004.000			-16.917			-2.417
108104.000			-16.916			-2.417
108205.000			-16.915			-2.416
108304.000			-16.914			-2.416
108404.000			-16.915			-2.416
108505.000			-16.914			-2.416
108603.000			-16.913			-2.416
108704.000			-16.913			-2.416
108805.000			-16.911			-2.416
108904.000			-16.911			-2.416
109004.000			-16.910			-2.416
109105.000			-16.910			-2.416
109204.000			-16.910			-2.416
109303.000			-16.910			-2.416
109405.000			-16.908			-2.415
109504.000			-16.907			-2.415
109604.000			-16.907			-2.415
109705.000			-16.907			-2.415
109804.000			-16.907			-2.415
109904.000			-16.906			-2.415
110005.000			-16.906			-2.415
110104.000			-16.906			-2.415
110203.000			-16.904			-2.415
110305.000			-16.903			-2.415
110404.000			-16.903			-2.415
110505.000			-16.903			-2.415
110604.000			-16.903			-2.415
110704.000			-16.903			-2.415
110805.000			-16.903			-2.415
110903.000			-16.903			-2.415
111004.000			-16.902			-2.415
111105.000			-16.901			-2.414
111204.000			-16.900			-2.414
111304.000			-16.900			-2.414
111404.000			-16.899			-2.414
111504.000			-16.899			-2.414
111603.000			-16.900			-2.414
111705.000			-16.900			-2.414
111804.000			-16.899			-2.414
111904.000			-16.899			-2.414
112005.000			-16.899			-2.414
112104.000			-16.898			-2.414
112204.000			-16.899			-2.414
112304.000			-16.897			-2.414
112404.000			-16.898			-2.414
112504.000			-16.898			-2.414
112605.000			-16.897			-2.414
112704.000			-16.896			-2.414
112804.000			-16.896			-2.414
112905.000			-16.896			-2.414
113003.000			-16.896			-2.414
113104.000			-16.894			-2.413
113205.000			-16.895			-2.414
113304.000			-16.894			-2.413
113404.000			-16.894			-2.413
113504.000			-16.894			-2.413
113604.000			-16.894			-2.413
113705.000			-16.893			-2.413
113804.000			-16.892			-2.413
113903.000			-16.892			-2.413
114005.000			-16.892			-2.413
114104.000			-16.891			-2.413
114204.000			-16.890			-2.413
114305.000			-16.891			-2.413
114404.000			-16.892			-2.413
114504.000			-16.891			-2.413
114604.000			-16.890			-2.413
114704.000			-16.889			-2.413
114804.000			-16.889			-2.413
114905.000			-16.889			-2.413
115004.000			-16.888			-2.413
115104.000			-16.887			-2.412
115205.000			-16.887			-2.412
115304.000			-16.885			-2.412
115404.000			-16.885			-2.412
115504.000			-16.884			-2.412
115604.000			-16.884			-2.412
115704.000			-16.883			-2.412
115805.000			-16.884			-2.412
115904.000			-16.884			-2.412
116004.000			-16.883			-2.412
116105.000			-16.882			-2.412
116203.000			-16.882			-2.412
116304.000			-16.882			-2.412
116405.000			-16.882			-2.412
116504.000			-16.881			-2.412
116604.000			-16.881			-2.412
116704.000			-16.881			-2.412
116804.000			-16.880			-2.411
116903.000			-16.879			-2.411
117004.000			-16.878			-2.411
117103.000			-16.878			-2.411
117205.000			-16.879			-2.411
117304.000			-16.878			-2.411
117404.000			-16.879			-2.411
117505.000			-16.878			-2.411
117604.000			-16.878			-2.411
117704.000			-16.877			-2.411
117804.000			-16.876			-2.411
117904.000			-16.876			-2.411
118004.000			-16.875			-2.411
118105.000			-16.877			-2.411
118204.000			-16.875			-2.411
118304.000			-16.874			-2.411
118405.000			-16.874			-2.411
118504.000			-16.874			-2.411
118604.000			-16.874			-2.411
118704.000			-16.873			-2.410
118804.000			-16.872			-2.410
118904.000			-16.874			-2.411
119005.000			-16.873			-2.410
119104.000			-16.872			-2.410
119204.000			-16.872			-2.410
119305.000			-16.872			-2.410
119403.000			-16.871			-2.410
119504.000			-16.871			-2.410
119605.000			-16.870			-2.410
119704.000			-16.869			-2.410
119804.000			-16.869			-2.410
119904.000			-16.869			-2.410
120004.000			-16.869			-2.410
120103.000			-16.868			-2.410
120204.000			-16.867			-2.410
120303.000			-16.868			-2.410
120405.000			-16.866			-2.409
120504.000			-16.865			-2.409
120604.000			-16.865			-2.409
120705.000			-16.864			-2.409
120804.000			-16.865			-2.409
120904.000			-16.866			-2.409
121004.000			-16.865			-2.409
121104.000			-16.864			-2.409
121204.000			-16.863			-2.409
121305.000			-16.863			-2.409
121404.000			-16.862			-2.409
121504.000			-16.863			-2.409
121605.000			-16.863			-2.409
121703.000			-16.862			-2.409
121804.000			-16.862			-2.409
121905.000			-16.861			-2.409
122004.000			-16.860			-2.409
122104.000			-16.860			-2.409
122205.000			-16.860			-2.409
122304.000			-16.860			-2.409
122403.000			-16.859			-2.408
122505.000			-16.859			-2.408
122603.000			-16.857			-2.408
122704.000			-16.858			-2.408
122805.000			-16.858			-2.408
122904.000			-16.858			-2.408
123004.000			-16.857			-2.408
123104.000			-16.857			-2.408
123204.000			-16.856			-2.408
123303.000			-16.856			-2.408
123404.000			-16.856			-2.408
123504.000			-16.856			-2.408
123605.000			-16.856			-2.408
123704.000			-16.855			-2.408
123804.000			-16.854			-2.408
123905.000			-16.853			-2.408
124003.000			-16.854			-2.408
124104.000			-16.853			-2.408
124205.000			-16.852			-2.407
124304.000			-16.852			-2.407
124404.000			-16.852			-2.407
124505.000			-16.852			-2.407
124604.000			-16.851			-2.407
124703.000			-16.850			-2.407
124805.000			-16.849			-2.407
124903.000			-16.850			-2.407
125004.000			-16.849			-2.407
125105.000			-16.849			-2.407
125204.000			-16.849			-2.407
125304.000			-16.849			-2.407
125405.000			-16.850			-2.407
125504.000			-16.849			-2.407
125603.000			-16.847			-2.407
125705.000			-16.845			-2.406
125804.000			-16.846			-2.407
125904.000			-16.846			-2.407
126005.000			-16.845			-2.406
126104.000			-16.845			-2.406
126204.000			-16.846			-2.407
126303.000			-16.845			-2.406
126404.000			-16.845			-2.406
126505.000			-16.844			-2.406
126604.000			-16.845			-2.406
126704.000			-16.845			-2.406
126805.000			-16.844			-2.406
126904.000			-16.842			-2.406
127004.000			-16.842			-2.406
127105.000			-16.842			-2.406
127203.000			-16.842			-2.406
127304.000			-16.842			-2.406
127405.000			-16.842			-2.406
127504.000			-16.840			-2.406
127604.000			-16.841			-2.406
127705.000			-16.840			-2.406
127804.000			-16.840			-2.406
127903.000			-16.839			-2.406
128005.000			-16.839			-2.406
128104.000			-16.840			-2.406
128204.000			-16.839			-2.406
128305.000			-16.837			-2.405
128404.000			-16.838			-2.405
128504.000			-16.838			-2.405
128604.000			-16.837			-2.405
128704.000			-16.836			-2.405
128803.000			-16.836			-2.405
128905.000			-16.836			-2.405
129004.000			-16.836			-2.405
129104.000			-16.835			-2.405
129205.000			-16.835			-2.405
129304.000			-16.835			-2.405
129404.000			-16.834			-2.405
129503.000			-16.833			-2.405
129604.000			-16.834			-2.405
129705.000			-16.834			-2.405
129804.000			-16.832			-2.405
129904.000			-16.831			-2.404
130005.000			-16.831			-2.404
130104.000			-16.831			-2.404
130203.000			-16.831			-2.404
130305.000			-16.831			-2.404
130404.000			-16.830			-2.404
130504.000			-16.830			-2.404
130605.000			-16.829			-2.404
130704.000			-16.828			-2.404
130804.000			-16.828			-2.404
130904.000			-16.828			-2.404
131004.000			-16.828			-2.404
131103.000			-16.828			-2.404
131205.000			-16.827			-2.404
131304.000			-16.827			-2.404
131404.000			-16.825			-2.404
131505.000			-16.825			-2.404
131604.000			-16.825			-2.404
131704.000			-16.826			-2.404
131804.000			-16.827			-2.404
131904.000			-16.825			-2.404
132003.000			-16.824			-2.403
132105.000			-16.825			-2.404
132204.000			-16.824			-2.403
132304.000			-16.824			-2.403
132405.000			-16.825			-2.404
132504.000			-16.823			-2.403
132604.000			-16.822			-2.403
132703.000			-16.822			-2.403
132804.000			-16.822			-2.403
132905.000			-16.822			-2.403
133004.000			-16.822			-2.403
133104.000			-16.821			-2.403
133205.000			-16.821			-2.403
133304.000			-16.821			-2.403
133404.000			-16.819			-2.403
133505.000			-16.819			-2.403
133603.000			-16.819			-2.403
133704.000			-16.819			-2.403
133805.000			-16.819			-2.403
133904.000			-16.818			-2.403
134004.000			-16.818			-2.403
134105.000			-16.818			-2.403
134204.000			-16.817			-2.402
134303.000			-16.816			-2.402
134405.000			-16.815			-2.402
134503.000			-16.815			-2.402
134604.000			-16.816			-2.402
134705.000			-16.815			-2.402
134804.000			-16.815			-2.402
134904.000			-16.815			-2.402
135005.000			-16.815			-2.402
135104.000			-16.815			-2.402
135203.000			-16.815			-2.402
135305.000			-16.813			-2.402
135404.000			-16.813			-2.402
135504.000			-16.813			-2.402
135605.000			-16.813			-2.402
135704.000			-16.811			-2.402
135804.000			-16.812			-2.402
135904.000			-16.811			-2.402
136004.000			-16.811			-2.402
136103.000			-16.811			-2.402
136204.000			-16.810			-2.401
136304.000			-16.810			-2.401
136405.000			-16.809			-2.401
136504.000			-16.810			-2.401
136604.000			-16.810			-2.401
136705.000			-16.809			-2.401
136804.000			-16.808			-2.401
136904.000			-16.808			-2.401
137004.000			-16.807			-2.401
137104.000			-16.807			-2.401
137204.000			-16.806			-2.401
137305.000			-16.807			-2.401
137404.000			-16.806			-2.401
137504.000			-16.805			-2.401
137605.000			-16.806			-2.401
137704.000			-16.805			-2.401
137804.000			-16.804			-2.401
137904.000			-16.804			-2.401
138004.000			-16.805			-2.401
138104.000			-16.805			-2.401
138205.000			-16.804			-2.401
138304.000			-16.803			-2.400
138404.000			-16.803			-2.400
138505.000			-16.803			-2.400
138604.000			-16.803			-2.400
138704.000			-16.802			-2.400
138804.000			-16.803			-2.400
138904.000			-16.802			-2.400
139004.000			-16.800			-2.400
139104.000			-16.800			-2.400
139204.000			-16.800			-2.400
139305.000			-16.800			-2.400
139404.000			-16.800			-2.400
139504.000			-16.799			-2.400
139605.000			-16.799			-2.400
139703.000			-16.799			-2.400
139804.000			-16.797			-2.400
139904.000			-16.798			-2.400
140004.000			-16.798			-2.400
140104.000			-16.798			-2.400
140205.000			-16.797			-2.400
140304.000			-16.796			-2.399
140404.000			-16.797			-2.400
140505.000			-16.796			-2.399
140603.000			-16.796			-2.399
140704.000			-16.796			-2.399
140804.000			-16.795			-2.399
140904.000			-16.795			-2.399
141004.000			-16.794			-2.399
141105.000			-16.793			-2.399
141204.000			-16.794			-2.399
141304.000			-16.794			-2.399
141405.000			-16.793			-2.399
141503.000			-16.793			-2.399
141604.000			-16.792			-2.399
141704.000			-16.792			-2.399
141804.000			-16.793			-2.399
141904.000			-16.792			-2.399
142005.000			-16.791			-2.399
142104.000			-16.792			-2.399
142204.000			-16.791			-2.399
142305.000			-16.790			-2.399
142403.000			-16.790			-2.399
142505.000			-16.789			-2.398
142603.000			-16.788			-2.398
142704.000			-16.789			-2.398
142805.000			-16.788			-2.398
142904.000			-16.788			-2.398
143004.000			-16.789			-2.398
143105.000			-16.788			-2.398
143204.000			-16.786			-2.398
143304.000			-16.786			-2.398
143405.000			-16.787			-2.398
143503.000			-16.786			-2.398
143604.000			-16.785			-2.398
143705.000			-16.786			-2.398
143804.000			-16.786			-2.398
143904.000			-16.786			-2.398
144005.000			-16.785			-2.398
144104.000			-16.785			-2.398
144204.000			-16.784			-2.398
144305.000			-16.783			-2.398
144403.000			-16.783			-2.398
144504.000			-16.783			-2.398
144605.000			-16.783			-2.398
144704.000			-16.782			-2.397
144804.000			-16.782			-2.397
144905.000			-16.782			-2.397
145004.000			-16.782			-2.397
145104.000			-16.781			-2.397
145205.000			-16.781			-2.397
145303.000			-16.780			-2.397
145404.000			-16.780			-2.397
145503.000			-16.779			-2.397
145604.000			-16.779			-2.397
145705.000			-16.779			-2.397
145804.000			-16.778			-2.397
145904.000			-16.778			-2.397
146005.000			-16.778			-2.397
146104.000			-16.777			-2.397
146204.000			-16.777			-2.397
146305.000			-16.777			-2.397
146403.000			-16.776			-2.397
146504.000			-16.776			-2.397
146605.000			-16.775			-2.396
146704.000			-16.776			-2.397
146804.000			-16.775			-2.396
146905.000			-16.775			-2.396
147004.000			-16.776			-2.397
147104.000			-16.776			-2.397
147205.000			-16.774			-2.396
147303.000			-16.774			-2.396
147404.000			-16.774			-2.396
147504.000			-16.774			-2.396
147604.000			-16.774			-2.396
147704.000			-16.774			-2.396
147805.000			-16.772			-2.396
147904.000			-16.772			-2.396
148004.000			-16.772			-2.396
148105.000			-16.771			-2.396
148203.000			-16.772			-2.396
148304.000			-16.772			-2.396
148404.000			-16.770			-2.396
148504.000			-16.770			-2.396
148604.000			-16.770			-2.396
148704.000			-16.770			-2.396
148804.000			-16.769			-2.396
148905.000			-16.769			-2.396
149004.000			-16.769			-2.396
149104.000			-16.769			-2.396
149205.000			-16.768			-2.395
149303.000			-16.768			-2.395
149404.000			-16.767			-2.395
149505.000			-16.767			-2.395
149604.000			-16.767			-2.395
149704.000			-16.767			-2.395
149805.000			-16.768			-2.395
149904.000			-16.767			-2.395
150004.000			-16.766			-2.395
150105.000			-16.766			-2.395
150203.000			-16.766			-2.395
150304.000			-16.765			-2.395
150404.000			-16.765			-2.395
150504.000			-16.765			-2.395
150604.000			-16.765			-2.395
150705.000			-16.764			-2.395
150804.000			-16.763			-2.395
150904.000			-16.764			-2.395
151005.000			-16.764			-2.395
151103.000			-16.763			-2.395
151204.000			-16.761			-2.394
151305.000			-16.762			-2.395
151404.000			-16.763			-2.395
151504.000			-16.760			-2.394
151605.000			-16.760			-2.394
151704.000			-16.760			-2.394
151804.000			-16.760			-2.394
151905.000			-16.760			-2.394
152003.000			-16.760			-2.394
152105.000			-16.761			-2.394
152203.000			-16.761			-2.394
152304.000			-16.759			-2.394
152405.000			-16.759			-2.394
152504.000			-16.759			-2.394
152604.000			-16.759			-2.394
152705.000			-16.759			-2.394
152804.000			-16.758			-2.394
152903.000			-16.757			-2.394
153005.000			-16.756			-2.394
153103.000			-16.756			-2.394
153204.000			-16.755			-2.394
153305.000			-16.756			-2.394
153404.000			-16.756			-2.394
153504.000			-16.756			-2.394
153605.000			-16.755			-2.394
153704.000			-16.755			-2.394
153804.000			-16.755			-2.394
153905.000			-16.755			-2.394
154003.000			-16.753			-2.393
154104.000			-16.754			-2.393
154205.000			-16.754			-2.393
154304.000			-16.753			-2.393
154404.000			-16.753			-2.393
154505.000			-16.752			-2.393
154604.000			-16.751			-2.393
154704.000			-16.752			-2.393
154805.000			-16.752			-2.393
154903.000			-16.751			-2.393
155004.000			-16.750			-2.393
155105.000			-16.750			-2.393
155204.000			-16.751			-2.393
155305.000			-16.751			-2.393
155404.000			-16.750			-2.393
155504.000			-16.750			-2.393
155605.000			-16.750			-2.393
155704.000			-16.750			-2.393
155803.000			-16.749			-2.393
155905.000			-16.748			-2.393
156004.000			-16.748			-2.393
156104.000			-16.748			-2.393
156205.000			-16.747			-2.392
156304.000			-16.747			-2.392
156404.000			-16.747			-2.392
156505.000			-16.747			-2.392
156604.000			-16.746			-2.392
156703.000			-16.747			-2.392
156805.000			-16.746			-2.392
156904.000			-16.745			-2.392
157004.000			-16.745			-2.392
157105.000			-16.745			-2.392
157204.000			-16.745			-2.392
157304.000			-16.744			-2.392
157405.000			-16.744			-2.392
157504.000			-16.744			-2.392
157603.000			-16.743			-2.392
157705.000			-16.743			-2.392
157804.000			-16.743			-2.392
157904.000			-16.742			-2.392
158005.000			-16.742			-2.392
158104.000			-16.741			-2.392
158204.000			-16.741			-2.392
158304.000			-16.741			-2.392
158404.000			-16.742			-2.392
158503.000			-16.741			-2.392
158604.000			-16.741			-2.392
158703.000			-16.739			-2.391
158805.000			-16.739			-2.391
158904.000			-16.738			-2.391
159004.000			-16.739			-2.391
159105.000			-16.739			-2.391
159204.000			-16.738			-2.391
159304.000			-16.738			-2.391
159404.000			-16.739			-2.391
159504.000			-16.738			-2.391
159603.000			-16.738			-2.391
159705.000			-16.738			-2.391
159804.000			-16.737			-2.391
159904.000			-16.736			-2.391
160005.000			-16.736			-2.391
160104.000			-16.736			-2.391
160204.000			-16.736			-2.391
160304.000			-16.735			-2.391
160404.000			-16.735			-2.391
160503.000			-16.735			-2.391
160605.000			-16.735			-2.391
160704.000			-16.735			-2.391
160804.000			-16.735			-2.391
160905.000			-16.734			-2.391
161004.000			-16.734			-2.391
161104.000			-16.733			-2.390
161204.000			-16.732			-2.390
161304.000			-16.733			-2.390
161403.000			-16.732			-2.390
161505.000			-16.733			-2.390
161604.000			-16.733			-2.390
161705.000			-16.732			-2.390
161804.000			-16.731			-2.390
161904.000			-16.731			-2.390
162005.000			-16.731			-2.390
162103.000			-16.731			-2.390
162204.000			-16.732			-2.390
162304.000			-16.731			-2.390
162404.000			-16.731			-2.390
162504.000			-16.729			-2.390
162605.000			-16.729			-2.390
162704.000			-16.729			-2.390
162804.000			-16.728			-2.390
162905.000			-16.728			-2.390
163003.000			-16.728			-2.390
163104.000			-16.727			-2.390
163204.000			-16.728			-2.390
163304.000			-16.727			-2.390
163404.000			-16.727			-2.390
163505.000			-16.726			-2.389
163604.000			-16.727			-2.390
163704.000			-16.727			-2.390
163805.000			-16.726			-2.389
163903.000			-16.725			-2.389
164004.000			-16.726			-2.389
164104.000			-16.725			-2.389
164204.000			-16.725			-2.389
164304.000			-16.724			-2.389
164405.000			-16.724			-2.389
164504.000			-16.723			-2.389
164604.000			-16.723			-2.389
164705.000			-16.723			-2.389
164804.000			-16.723			-2.389
164905.000			-16.723			-2.389
165003.000			-16.723			-2.389
165104.000			-16.722			-2.389
165205.000			-16.722			-2.389
165304.000			-16.722			-2.389
165404.000			-16.721			-2.389
165505.000			-16.721			-2.389
165604.000			-16.721			-2.389
165703.000			-16.721			-2.389
165805.000			-16.720			-2.389
165903.000			-16.720			-2.389
166004.000			-16.721			-2.389
166105.000			-16.719			-2.388
166204.000			-16.719			-2.388
166304.000			-16.719			-2.388
166405.000			-16.718			-2.388
166504.000			-16.719			-2.388
166604.000			-16.718			-2.388
166705.000			-16.718			-2.388
166803.000			-16.717			-2.388
166904.000			-16.718			-2.388
167005.000			-16.717			-2.388
167104.000			-16.716			-2.388
167204.000			-16.715			-2.388
167305.000			-16.715			-2.388
167404.000			-16.716			-2.388
167504.000			-16.716			-2.388
167605.000			-16.714			-2.388
167703.000			-16.714			-2.388
167804.000			-16.713			-2.388
167905.000			-16.713			-2.388
168004.000			-16.712			-2.387
168105.000			-16.712			-2.387
168204.000			-16.713			-2.388
168304.000			-16.710			-2.387
168405.000			-16.710			-2.387
168504.000			-16.710			-2.387
168603.000			-16.710			-2.387
168705.000			-16.710			-2.387
168804.000			-16.709			-2.387
168904.000			-16.709			-2.387
169005.000			-16.709			-2.387
169104.000			-16.709			-2.387
169204.000			-16.709			-2.387
169305.000			-16.708			-2.387
169404.000			-16.708			-2.387
169503.000			-16.708			-2.387
169605.000			-16.707			-2.387
169704.000			-16.706			-2.387
169804.000			-16.707			-2.387
169905.000			-16.707			-2.387
170004.000			-16.706			-2.387
170104.000			-16.706			-2.387
170205.000			-16.705			-2.386
170304.000			-16.706			-2.387
170403.000			-16.707			-2.387
170505.000			-16.706			-2.387
170604.000			-16.704			-2.386
170704.000			-16.704			-2.386
170805.000			-16.705			-2.386
170904.000			-16.705			-2.386
171004.000			-16.704			-2.386
171104.000			-16.705			-2.386
171204.000			-16.704			-2.386
171303.000			-16.703			-2.386
171404.000			-16.702			-2.386
171504.000			-16.702			-2.386
171605.000			-16.703			-2.386
171704.000			-16.702			-2.386
171804.000			-16.701			-2.386
171905.000			-16.702			-2.386
172004.000			-16.701			-2.386
172104.000			-16.700			-2.386
172204.000			-16.699			-2.386
172304.000			-16.699			-2.386
172404.000			-16.699			-2.386
172505.000			-16.698			-2.385
172604.000			-16.698			-2.385
172704.000			-16.697			-2.385
172805.000			-16.696			-2.385
172904.000			-16.695			-2.385
173004.000			-16.694			-2.385
173104.000			-16.695			-2.385
173204.000			-16.694			-2.385
173304.000			-16.695			-2.385
173405.000			-16.694			-2.385
173504.000			-16.693			-2.385
173604.000			-16.693			-2.385
173705.000			-16.693			-2.385
173804.000			-16.693			-2.385
173904.000			-16.692			-2.385
174004.000			-16.692			-2.385
174104.000			-16.690			-2.384
174203.000			-16.691			-2.384
174305.000			-16.691			-2.384
174404.000			-16.691			-2.384
174505.000			-16.691			-2.384
174604.000			-16.690			-2.384
174704.000			-16.690			-2.384
174805.000			-16.690			-2.384
174904.000			-16.689			-2.384
175004.000			-16.688			-2.384
175104.000			-16.688			-2.384
175204.000			-16.688			-2.384
175304.000			-16.688			-2.384
175405.000			-16.689			-2.384
175504.000			-16.688			-2.384
175604.000			-16.688			-2.384
175705.000			-16.687			-2.384
175804.000			-16.688			-2.384
175904.000			-16.688			-2.384
176004.000			-16.687			-2.384
176104.000			-16.687			-2.384
176203.000			-16.686			-2.384
176305.000			-16.687			-2.384
176404.000			-16.687			-2.384
176504.000			-16.687			-2.384
176605.000			-16.686			-2.384
176704.000			-16.686			-2.384
176804.000			-16.686			-2.384
176904.000			-16.685			-2.384
177004.000			-16.686			-2.384
177103.000			-16.686			-2.384
177205.000			-16.686			-2.384
177304.000			-16.685			-2.384
177404.000			-16.685			-2.384
177505.000			-16.684			-2.383
177604.000			-16.684			-2.383
177705.000			-16.686			-2.384
177804.000			-16.684			-2.383
177904.000			-16.684			-2.383
178004.000			-16.684			-2.383
178104.000			-16.683			-2.383
178204.000			-16.682			-2.383
178305.000			-16.682			-2.383
178404.000			-16.682			-2.383
178504.000			-16.681			-2.383
178605.000			-16.680			-2.383
178704.000			-16.680			-2.383
178804.000			-16.680			-2.383
178904.000			-16.679			-2.383
179004.000			-16.679			-2.383
179103.000			-16.679			-2.383
179205.000			-16.678			-2.383
179304.000			-16.678			-2.383
179404.000			-16.677			-2.382
179505.000			-16.676			-2.382
179604.000			-16.676			-2.382
179704.000			-16.677			-2.382
179805.000			-16.676			-2.382
179904.000			-16.675			-2.382
180003.000			-16.676			-2.382
180105.000			-16.677			-2.382
180204.000			-16.676			-2.382
180304.000			-16.674			-2.382
180405.000			-16.673			-2.382
180504.000			-16.673			-2.382
180604.000			-16.673			-2.382
180704.000			-16.672			-2.382
180804.000			-16.672			-2.382
180903.000			-16.673			-2.382
181004.000			-16.671			-2.382
181103.000			-16.671			-2.382
181205.000			-16.672			-2.382
181304.000			-16.671			-2.382
181404.000			-16.671			-2.382
181505.000			-16.671			-2.382
181604.000			-16.671			-2.382
181704.000			-16.670			-2.381
181804.000			-16.670			-2.381
181904.000			-16.670			-2.381
182003.000			-16.670			-2.381
182105.000			-16.669			-2.381
182204.000			-16.668			-2.381
182304.000			-16.668			-2.381
182405.000			-16.668			-2.381
182504.000			-16.667			-2.381
182604.000			-16.667			-2.381
182704.000			-16.667			-2.381
182804.000			-16.668			-2.381
182903.000			-16.667			-2.381
183005.000			-16.666			-2.381
183104.000			-16.666			-2.381
183204.000			-16.666			-2.381
183305.000			-16.665			-2.381
183404.000			-16.665			-2.381
183504.000			-16.665			-2.381
183604.000			-16.666			-2.381
183704.000			-16.664			-2.381
183803.000			-16.664			-2.381
183905.000			-16.664			-2.381
184004.000			-16.664			-2.381
184105.000			-16.664			-2.381
184204.000			-16.664			-2.381
184304.000			-16.663			-2.380
184405.000			-16.663			-2.380
184503.000			-16.664			-2.381
184604.000			-16.664			-2.381
184704.000			-16.663			-2.380
184804.000			-16.663			-2.380
184904.000			-16.663			-2.380
185005.000			-16.662			-2.380
185104.000			-16.663			-2.380
185204.000			-16.664			-2.381
185305.000			-16.663			-2.380
185404.000			-16.663			-2.380
185504.000			-16.663			-2.380
185604.000			-16.663			-2.380
185704.000			17.016			2.431
185804.000			-74.568			-10.653
185905.000			-16.663			-2.380
186004.000			-16.662			-2.380
186104.000			-16.662			-2.380
186205.000			-16.662			-2.380
186304.000			-16.663			-2.380
186404.000			-16.662			-2.380
186504.000			-16.662			-2.380
186604.000			-16.662			-2.380
186704.000			-16.661			-2.380
186805.000			-16.660			-2.380
186904.000			-16.660			-2.380
187004.000			-16.659			-2.380
187105.000			-16.660			-2.380
187204.000			-16.659			-2.380
187305.000			-16.659			-2.380
187404.000			-16.659			-2.380
187504.000			-16.659			-2.380
187604.000			-16.658			-2.380
187704.000			-16.657			-2.380
187804.000			-16.657			-2.380
187905.000			-16.658			-2.380
188004.000			-16.657			-2.380
188104.000			-16.657			-2.380
188205.000			-16.657			-2.380
188304.000			-16.659			-2.380
188404.000			-16.659			-2.380
188504.000			-16.658			-2.380
188604.000			-16.657			-2.380
188704.000			-16.658			-2.380
188805.000			-16.658			-2.380
188904.000			-16.658			-2.380
189004.000			-16.657			-2.380
189105.000			-16.657			-2.380
189204.000			-16.658			-2.380
189304.000			-16.656			-2.379
189404.000			-16.656			-2.379
189504.000			-16.657			-2.380
189603.000			-16.656			-2.379
189705.000			-16.655			-2.379
189804.000			-16.655			-2.379
189904.000			-16.654			-2.379
190005.000			-16.654			-2.379
190104.000			-16.656			-2.379
190204.000			-16.655			-2.379
190304.000			-16.655			-2.379
190404.000			-16.655			-2.379
190503.000			-16.655			-2.379
190604.000			-16.656			-2.379
190704.000			-16.656			-2.379
190805.000			-16.653			-2.379
190904.000			-16.653			-2.379
191004.000			-16.654			-2.379
191105.000			-16.653			-2.379
191204.000			-16.653			-2.379
191304.000			-16.653			-2.379
191404.000			-16.653			-2.379
191504.000			-16.653			-2.379
191604.000			-16.652			-2.379
191705.000			-16.652			-2.379
191804.000			-16.654			-2.379
191904.000			-16.653			-2.379
192005.000			-16.652			-2.379
192104.000			-16.653			-2.379
192204.000			-16.653			-2.379
192304.000			-16.651			-2.379
192404.000			-16.651			-2.379
192504.000			-16.651			-2.379
192605.000			-16.651			-2.379
192704.000			-16.651			-2.379
192804.000			-16.650			-2.379
192905.000			-16.649			-2.378
193004.000			-16.649			-2.378
193104.000			-16.650			-2.379
193204.000			-16.650			-2.379
193304.000			-16.650			-2.379
193404.000			-16.650			-2.379
193504.000			-16.650			-2.379
193604.000			-16.648			-2.378
193705.000			-16.648			-2.378
193804.000			-16.647			-2.378
193904.000			-16.648			-2.378
194005.000			-16.648			-2.378
194103.000			-16.647			-2.378
194204.000			-16.648			-2.378
194304.000			-16.648			-2.378
194404.000			-16.647			-2.378
194504.000			-16.645			-2.378
194605.000			-16.645			-2.378
194704.000			-16.646			-2.378
194804.000			-16.646			-2.378
194905.000			-16.645			-2.378
195004.000			-16.644			-2.378
195104.000			-16.644			-2.378
195204.000			-16.643			-2.378
195304.000			-16.643			-2.378
195404.000			-16.642			-2.377
195505.000			-16.642			-2.377
195604.000			-16.641			-2.377
195704.000			-16.641			-2.377
195805.000			-16.641			-2.377
195904.000			-16.640			-2.377
196004.000			-16.640			-2.377
196104.000			-16.640			-2.377
196204.000			-16.640			-2.377
196304.000			-16.640			-2.377
196405.000			-16.640			-2.377
196504.000			-16.639			-2.377
196604.000			-16.638			-2.377
196705.000			-16.638			-2.377
196804.000			-16.638			-2.377
196905.000			-16.638			-2.377
197003.000			-16.638			-2.377
197104.000			-16.639			-2.377
197204.000			-16.638			-2.377
197304.000			-16.638			-2.377
197404.000			-16.638			-2.377
197505.000			-16.638			-2.377
197604.000			-16.637			-2.377
197704.000			-16.637			-2.377
197805.000			-16.637			-2.377
197904.000			-16.637			-2.377
198004.000			-16.636			-2.377
198104.000			-16.636			-2.377
198204.000			-16.636			-2.377
198304.000			-16.637			-2.377
198405.000			-16.637			-2.377
198504.000			-16.637			-2.377
198604.000			-16.636			-2.377
198705.000			-16.636			-2.377
198804.000			-16.636			-2.377
198904.000			-16.635			-2.376
199004.000			-16.634			-2.376
199104.000			-16.634			-2.376
199203.000			-16.634			-2.376
199305.000			-16.634			-2.376
199404.000			-16.635			-2.376
199504.000			-16.635			-2.376
199605.000			-16.633			-2.376
199704.000			-16.634			-2.376
199804.000			-16.634			-2.376
199904.000			-16.633			-2.376
200004.000			-16.634			-2.376
200103.000			-16.633			-2.376
200204.000			-16.633			-2.376
200304.000			-16.632			-2.376
200405.000			-16.631			-2.376
200504.000			-16.632			-2.376
200604.000			-16.632			-2.376
200705.000			-16.631			-2.376
200803.000			-16.631			-2.376
200904.000			-16.631			-2.376
201005.000			-16.631			-2.376
201104.000			-16.631			-2.376
201204.000			-16.631			-2.376
201305.000			-16.631			-2.376
201404.000			-16.631			-2.376
201504.000			-16.629			-2.376
201605.000			-16.629			-2.376
201703.000			-16.629			-2.376
201804.000			-16.627			-2.375
201905.000			-16.627			-2.375
202004.000			-16.627			-2.375
202104.000			-16.625			-2.375
202205.000			-16.624			-2.375
202304.000			-16.625			-2.375
202404.000			-16.624			-2.375
202505.000			-16.623			-2.375
202603.000			-16.623			-2.375
202704.000			-16.623			-2.375
202805.000			-16.623			-2.375
202904.000			-16.622			-2.375
203004.000			-16.622			-2.375
203104.000			-16.623			-2.375
203204.000			-16.620			-2.374
203303.000			-16.620			-2.374
203404.000			-16.621			-2.374
203503.000			-16.621			-2.374
203605.000			-16.620			-2.374
203704.000			-16.620			-2.374
203804.000			-16.620			-2.374
203905.000			-16.619			-2.374
204004.000			-16.619			-2.374
204104.000			-16.619			-2.374
204204.000			-16.619			-2.374
204304.000			-16.619			-2.374
204404.000			-16.619			-2.374
204505.000			-16.619			-2.374
204604.000			-16.619			-2.374
204704.000			-16.618			-2.374
204805.000			-16.618			-2.374
204904.000			-16.618			-2.374
205004.000			-16.619			-2.374
205104.000			-16.617			-2.374
205204.000			-16.618			-2.374
205304.000			-16.619			-2.374
205405.000			-16.618			-2.374
205504.000			-16.618			-2.374
205604.000			-16.618			-2.374
205705.000			-16.617			-2.374
205804.000			-16.616			-2.374
205904.000			-16.617			-2.374
206004.000			-16.617			-2.374
206104.000			-16.617			-2.374
206204.000			-16.616			-2.374
206304.000			-16.616			-2.374
206404.000			-16.616			-2.374
206505.000			-16.616			-2.374
206604.000			-16.617			-2.374
206703.000			-16.616			-2.374
206805.000			-16.616			-2.374
206903.000			-16.616			-2.374
207004.000			-16.615			-2.374
207105.000			-16.615			-2.374
207204.000			-16.616			-2.374
207304.000			-16.616			-2.374
207405.000			-16.615			-2.374
207504.000			-16.615			-2.374
207603.000			-16.615			-2.374
207705.000			-16.615			-2.374
207803.000			-16.614			-2.373
207904.000			-16.615			-2.374
208005.000			-16.615			-2.374
208104.000			-16.614			-2.373
208204.000			-16.614			-2.373
208305.000			-16.614			-2.373
208404.000			-16.613			-2.373
208503.000			-16.614			-2.373
208605.000			-16.614			-2.373
208704.000			-16.614			-2.373
208804.000			-16.614			-2.373
208905.000			-16.614			-2.373
209004.000			-16.613			-2.373
209104.000			-16.614			-2.373
209205.000			-16.614			-2.373
209304.000			-16.614			-2.373
209403.000			-16.613			-2.373
209505.000			-16.612			-2.373
209604.000			-16.612			-2.373
209705.000			-16.612			-2.373
209804.000			-16.612			-2.373
209904.000			-16.612			-2.373
210005.000			-16.611			-2.373
210104.000			-16.611			-2.373
210204.000			-16.611			-2.373
210304.000			-16.611			-2.373
210404.000			-16.611			-2.373
210504.000			-16.610			-2.373
210605.000			-16.610			-2.373
210704.000			-16.610			-2.373
210804.000			-16.610			-2.373
210905.000			-16.610			-2.373
211003.000			-16.609			-2.373
211104.000			-16.608			-2.373
211204.000			-16.609			-2.373
211304.000			-16.608			-2.373
211404.000			-16.609			-2.373
211505.000			-16.609			-2.373
211604.000			-16.608			-2.373
211704.000			-16.608			-2.373
211805.000			-16.609			-2.373
211903.000			-16.607			-2.372
212004.000			-16.607			-2.372
212105.000			-16.607			-2.372
212204.000			-16.607			-2.372
212304.000			-16.606			-2.372
212405.000			-16.606			-2.372
212504.000			-16.606			-2.372
212604.000			-16.606			-2.372
212705.000			-16.606			-2.372
212803.000			-16.605			-2.372
212905.000			-16.605			-2.372
213004.000			-16.605			-2.372
213104.000			-16.605			-2.372
213205.000			-16.605			-2.372
213304.000			-16.604			-2.372
213404.000			-16.603			-2.372
213504.000			-16.604			-2.372
213604.000			-16.603			-2.372
213703.000			-16.603			-2.372
213805.000			-16.602			-2.372
213904.000			-16.602			-2.372
214004.000			-16.602			-2.372
214105.000			-16.602			-2.372
214204.000			-16.602			-2.372
214304.000			-16.603			-2.372
214404.000			-16.602			-2.372
214504.000			-16.602			-2.372
214604.000			-16.601			-2.372
214705.000			-16.601			-2.372
214804.000			-16.601			-2.372
214904.000			-16.601			-2.372
215005.000			-16.602			-2.372
215103.000			-16.601			-2.372
215204.000			-16.601			-2.372
215305.000			-16.601			-2.372
215404.000			-16.601			-2.372
215504.000			-16.601			-2.372
215605.000			-16.600			-2.371
215704.000			-16.600			-2.371
215804.000			-16.600			-2.371
215905.000			-16.599			-2.371
216003.000			-16.599			-2.371
216105.000			-16.599			-2.371
216203.000			-16.598			-2.371
216304.000			-16.598			-2.371
216405.000			-16.599			-2.371
216504.000			-16.598			-2.371
216604.000			-16.596			-2.371
216705.000			-16.596			-2.371
216804.000			-16.597			-2.371
216904.000			-16.596			-2.371
217005.000			-16.597			-2.371
217103.000			-16.597			-2.371
217204.000			-16.596			-2.371
217305.000			-16.595			-2.371
217404.000			-16.595			-2.371
217504.000			-16.593			-2.370
217605.000			-16.592			-2.370
217704.000			-16.593			-2.370
217804.000			-16.593			-2.370
217905.000			-16.594			-2.371
218003.000			-16.594			-2.371
218104.000			-16.594			-2.371
218205.000			-16.593			-2.370
218304.000			-16.593			-2.370
218404.000			-16.593			-2.370
218505.000			-16.592			-2.370
218604.000			-16.592			-2.370
218704.000			-16.592			-2.370
218805.000			-16.592			-2.370
218903.000			-16.592			-2.370
219004.000			-16.592			-2.370
219105.000			-16.591			-2.370
219204.000			-16.592			-2.370
219305.000			-16.592			-2.370
219404.000			-16.591			-2.370
219504.000			-16.592			-2.370
219605.000			-16.590			-2.370
219704.000			-16.589			-2.370
219803.000			-16.590			-2.370
219905.000			-16.591			-2.370
220003.000			-16.591			-2.370
220104.000			-16.589			-2.370
220205.000			-16.588			-2.370
220304.000			-16.590			-2.370
220404.000			-16.590			-2.370
220505.000			-16.589			-2.370
220604.000			-16.588			-2.370
220703.000			-16.588			-2.370
220805.000			-16.587			-2.370
220904.000			-16.588			-2.370
221004.000			-16.588			-2.370
221105.000			-16.588			-2.370
221204.000			-16.588			-2.370
221304.000			-16.588			-2.370
221405.000			-16.587			-2.370
221504.000			-16.587			-2.370
221603.000			-16.586			-2.369
221705.000			-16.585			-2.369
221804.000			-16.586			-2.369
221904.000			-16.585			-2.369
222005.000			-16.586			-2.369
222104.000			-16.586			-2.369
222204.000			-16.587			-2.370
222304.000			-16.586			-2.369
222404.000			-16.584			-2.369
222503.000			-16.584			-2.369
222604.000			-16.585			-2.369
222703.000			-16.586			-2.369
222805.000			-16.585			-2.369
222904.000			-16.585			-2.369
223004.000			-16.584			-2.369
223105.000			-16.584			-2.369
223204.000			-16.583			-2.369
223304.000			-16.583			-2.369
223404.000			-16.583			-2.369
223504.000			-16.583			-2.369
223603.000			-16.583			-2.369
223705.000			-16.582			-2.369
223804.000			-16.581			-2.369
223904.000			-16.582			-2.369
224005.000			-16.582			-2.369
224104.000			-16.582			-2.369
224204.000			-16.581			-2.369
224304.000			-16.582			-2.369
224404.000			-16.581			-2.369
224504.000			-16.580			-2.369
224605.000			-16.581			-2.369
224704.000			-16.581			-2.369
224804.000			-16.581			-2.369
224905.000			-16.580			-2.369
225004.000			-16.580			-2.369
225104.000			-16.580			-2.369
225204.000			-16.580			-2.369
225304.000			-16.579			-2.368
225404.000			-16.579			-2.368
225504.000			-16.579			-2.368
225604.000			-16.579			-2.368
225705.000			-16.578			-2.368
225804.000			-16.579			-2.368
225904.000			-16.579			-2.368
226005.000			-16.578			-2.368
226103.000			-16.578			-2.368
226204.000			-16.577			-2.368
226304.000			-16.577			-2.368
226404.000			-16.578			-2.368
226504.000			-16.577			-2.368
226605.000			-16.578			-2.368
226704.000			-16.577			-2.368
226804.000			-16.576			-2.368
226905.000			-16.576			-2.368
227004.000			-16.577			-2.368
227104.000			-16.576			-2.368
227204.000			-16.577			-2.368
227304.000			-16.576			-2.368
227404.000			-16.575			-2.368
227505.000			-16.574			-2.368
227604.000			-16.573			-2.368
227704.000			-16.573			-2.368
227805.000			-16.574			-2.368
227904.000			-16.573			-2.368
228004.000			-16.573			-2.368
228104.000			-16.572			-2.367
228204.000			-16.571			-2.367
228304.000			-16.571			-2.367
228405.000			-16.571			-2.367
228504.000			-16.571			-2.367
228604.000			-16.571			-2.367
228705.000			-16.570			-2.367
228804.000			-16.571			-2.367
228905.000			-16.571			-2.367
229003.000			-16.570			-2.367
229104.000			-16.570			-2.367
229205.000			-16.569			-2.367
229304.000			-16.570			-2.367
229404.000			-16.569			-2.367
229505.000			-16.569			-2.367
229604.000			-16.569			-2.367
229704.000			-16.568			-2.367
229805.000			-16.568			-2.367
229903.000			-16.567			-2.367
230004.000			-16.567			-2.367
230105.000			-16.567			-2.367
230204.000			-16.567			-2.367
230304.000			-16.568			-2.367
230405.000			-16.568			-2.367
230504.000			-16.566			-2.367
230604.000			-16.566			-2.367
230705.000			-16.566			-2.367
230803.000			-16.567			-2.367
230904.000			-16.567			-2.367
231005.000			-16.566			-2.367
231104.000			-16.566			-2.367
231204.000			-16.567			-2.367
231305.000			-16.566			-2.367
231404.000			-16.565			-2.366
231503.000			-16.566			-2.367
231605.000			-16.566			-2.367
231703.000			-16.565			-2.366
231804.000			-16.565			-2.366
231905.000			-16.564			-2.366
232004.000			-16.564			-2.366
232105.000			-16.565			-2.366
232204.000			-16.565			-2.366
232304.000			-16.564			-2.366
232404.000			-16.563			-2.366
232504.000			-16.563			-2.366
232603.000			-16.564			-2.366
232705.000			-16.564			-2.366
232804.000			-16.564			-2.366
232904.000			-16.564			-2.366
233005.000			-16.563			-2.366
233104.000			-16.563			-2.366
233204.000			-16.563			-2.366
233304.000			-16.562			-2.366
233404.000			-16.562			-2.366
233503.000			-16.561			-2.366
233605.000			-16.562			-2.366
233704.000			-16.562			-2.366
233804.000			-16.562			-2.366
233905.000			-16.561			-2.366
234004.000			-16.561			-2.366
234104.000			-16.561			-2.366
234204.000			-16.561			-2.366
234304.000			-16.560			-2.366
234404.000			-16.560			-2.366
234505.000			-16.560			-2.366
234604.000			-16.559			-2.366
234704.000			-16.559			-2.366
234805.000			-16.559			-2.366
234904.000			-16.559			-2.366
235004.000			-16.559			-2.366
235103.000			-16.558			-2.365
235204.000			-16.558			-2.365
235305.000			-16.557			-2.365
235404.000			-16.558			-2.365
235504.000			-16.557			-2.365
235605.000			-16.557			-2.365
235704.000			-16.556			-2.365
235804.000			-16.556			-2.365
235905.000			-16.557			-2.365
236003.000			-16.556			-2.365
236104.000			-16.556			-2.365
236204.000			-16.556			-2.365
236304.000			-16.556			-2.365
236404.000			-16.555			-2.365
236505.000			-16.555			-2.365
236604.000			-16.555			-2.365
236704.000			-16.555			-2.365
236805.000			-16.554			-2.365
236903.000			-16.554			-2.365
237004.000			-16.555			-2.365
237104.000			-16.555			-2.365
237204.000			-16.555			-2.365
237304.000			-16.555			-2.365
237405.000			-16.554			-2.365
237504.000			-16.555			-2.365
237604.000			-16.554			-2.365
237705.000			-16.554			-2.365
237804.000			-16.553			-2.365
237904.000			-16.553			-2.365
238004.000			-16.553			-2.365
238104.000			-16.552			-2.365
238204.000			-16.552			-2.365
238304.000			-16.551			-2.364
238404.000			-16.551			-2.364
238505.000			-16.550			-2.364
238604.000			-16.550			-2.364
238704.000			-16.549			-2.364
238805.000			-16.549			-2.364
238903.000			-16.549			-2.364
239004.000			-16.549			-2.364
239105.000			-16.549			-2.364
239204.000			-16.548			-2.364
239304.000			-16.548			-2.364
239405.000			-16.548			-2.364
239504.000			-16.548			-2.364
239604.000			-16.547			-2.364
239705.000			-16.547			-2.364
239803.000			-16.547			-2.364
239904.000			-16.547			-2.364
240004.000			-16.547			-2.364
240104.000			-16.547			-2.364
240204.000			-16.546			-2.364
240305.000			-16.546			-2.364
240404.000			-16.546			-2.364
240504.000			-16.546			-2.364
240605.000			-16.546			-2.364
240703.000			-16.545			-2.364
240804.000			-16.546			-2.364
240905.000			-16.546			-2.364
241004.000			-16.547			-2.364
241104.000			-16.547			-2.364
241205.000			-16.546			-2.364
241304.000			-16.546			-2.364
241404.000			-16.546			-2.364
241505.000			-16.546			-2.364
241603.000			-16.545			-2.364
241705.000			-16.545			-2.364
241804.000			-16.545			-2.364
241904.000			-16.546			-2.364
242005.000			-16.545			-2.364
242104.000			-16.545			-2.364
242204.000			-16.545			-2.364
242305.000			-16.546			-2.364
242404.000			-16.546			-2.364
242503.000			-16.544			-2.363
242605.000			-16.544			-2.363
242704.000			-16.546			-2.364
242804.000			-16.546			-2.364
242905.000			-16.544			-2.363
243004.000			-16.544			-2.363
243104.000			-16.543			-2.363
243204.000			-16.543			-2.363
243304.000			-16.543			-2.363
243403.000			-16.544			-2.363
243505.000			-16.543			-2.363
243604.000			-16.544			-2.363
243704.000			-16.545			-2.364
243805.000			-16.544			-2.363
243904.000			-16.543			-2.363
244004.000			-16.543			-2.363
244104.000			-16.542			-2.363
244204.000			-16.543			-2.363
244303.000			-16.542			-2.363
244405.000			-16.542			-2.363
244504.000			-16.542			-2.363
244604.000			-16.542			-2.363
244705.000			-16.541			-2.363
244804.000			-16.541			-2.363
244905.000			-16.543			-2.363
245003.000			-16.542			-2.363
245104.000			-16.541			-2.363
245204.000			-16.540			-2.363
245304.000			-16.541			-2.363
245404.000			-16.540			-2.363
245505.000			-16.539			-2.363
245604.000			-16.539			-2.363
245704.000			-16.541			-2.363
245805.000			-16.541			-2.363
245903.000			-16.540			-2.363
246004.000			-16.539			-2.363
246105.000			-16.539			-2.363
246204.000			-16.539			-2.363
246304.000			-16.539			-2.363
246405.000			-16.539			-2.363
246504.000			-16.540			-2.363
246604.000			-16.539			-2.363
246705.000			-16.538			-2.363
246803.000			-16.538			-2.363
246904.000			-16.538			-2.363
247005.000			-16.538			-2.363
247104.000			-16.537			-2.362
247204.000			-16.538			-2.363
247305.000			-16.537			-2.362
247404.000			-16.537			-2.362
247504.000			-16.537			-2.362
247605.000			-16.538			-2.363
247703.000			-16.537			-2.362
247804.000			-16.537			-2.362
247903.000			-16.536			-2.362
248004.000			-16.537			-2.362
248105.000			-16.537			-2.362
248204.000			-16.536			-2.362
248304.000			-16.536			-2.362
248405.000			-16.536			-2.362
248504.000			-16.536			-2.362
248603.000			-16.535			-2.362
248705.000			-16.535			-2.362
248803.000			-16.535			-2.362
248904.000			-16.536			-2.362
249005.000			-16.534			-2.362
249104.000			-16.534			-2.362
249204.000			-16.534			-2.362
249305.000			-16.533			-2.362
249404.000			-16.533			-2.362
249504.000			-16.534			-2.362
249605.000			-16.535			-2.362
249703.000			-16.534			-2.362
249804.000			-16.534			-2.362
249905.000			-16.533			-2.362
250004.000			-16.532			-2.362
250104.000			-16.533			-2.362
250205.000			-16.533			-2.362
250304.000			-16.533			-2.362
250403.000			-16.532			-2.362
250505.000			-16.532			-2.362
250603.000			-16.531			-2.362
250704.000			-16.531			-2.362
250805.000			-16.531			-2.362
250904.000			-16.531			-2.362
251004.000			-16.531			-2.362
251104.000			-16.530			-2.361
251204.000			-16.530			-2.361
251303.000			-16.529			-2.361
251404.000			-16.528			-2.361
251504.000			-16.528			-2.361
251605.000			-16.528			-2.361
251704.000			-16.527			-2.361
251804.000			-16.526			-2.361
251905.000			-16.526			-2.361
252004.000			-16.526			-2.361
252104.000			-16.526			-2.361
252204.000			-16.526			-2.361
252304.000			-16.525			-2.361
252404.000			-16.525			-2.361
252505.000			-16.526			-2.361
252604.000			-16.524			-2.361
252704.000			-16.523			-2.360
252805.000			-16.524			-2.361
252904.000			-16.524			-2.361
253004.000			-16.524			-2.361
253104.000			-16.523			-2.360
253204.000			-16.522			-2.360
253304.000			-16.523			-2.360
253405.000			-16.522			-2.360
253504.000			-16.523			-2.360
253604.000			-16.523			-2.360
253705.000			-16.523			-2.360
253804.000			-16.523			-2.360
253904.000			-16.522			-2.360
254004.000			-16.521			-2.360
254104.000			-16.522			-2.360
254204.000			-16.523			-2.360
254304.000			-16.522			-2.360
254404.000			-16.523			-2.360
254505.000			-16.523			-2.360
254604.000			-16.522			-2.360
254703.000			-16.522			-2.360
254805.000			-16.521			-2.360
254903.000			-16.520			-2.360
255004.000			-16.521			-2.360
255105.000			-16.521			-2.360
255204.000			-16.520			-2.360
255304.000			-16.521			-2.360
255405.000			-16.521			-2.360
255504.000			-16.521			-2.360
255603.000			-16.519			-2.360
255705.000			-16.519			-2.360
255803.000			-16.518			-2.360
255904.000			-16.518			-2.360
256005.000			-16.518			-2.360
256104.000			-16.517			-2.360
256204.000			-16.518			-2.360
256305.000			-16.516			-2.359
256404.000			-16.516			-2.359
256503.000			-16.517			-2.360
256605.000			-16.517			-2.360
256703.000			-16.517			-2.360
256804.000			-16.516			-2.359
256905.000			-16.516			-2.359
257004.000			-16.516			-2.359
257104.000			-16.516			-2.359
257205.000			-16.516			-2.359
257304.000			-16.515			-2.359
257403.000			-16.515			-2.359
257505.000			-16.516			-2.359
257604.000			-16.516			-2.359
257705.000			-16.515			-2.359
257804.000			-16.514			-2.359
257904.000			-16.515			-2.359
258005.000			-16.516			-2.359
258104.000			-16.515			-2.359
258204.000			-16.514			-2.359
258304.000			-16.515			-2.359
258404.000			-16.515			-2.359
258503.000			-16.514			-2.359
258605.000			-16.514			-2.359
258704.000			-16.515			-2.359
258804.000			-16.514			-2.359
258905.000			-16.514			-2.359
259004.000			-16.514			-2.359
259104.000			-16.515			-2.359
259204.000			-16.515			-2.359
259304.000			-16.515			-2.359
259403.000			-16.514			-2.359
259505.000			-16.513			-2.359
259604.000			-16.513			-2.359
259704.000			-16.513			-2.359
259805.000			-16.513			-2.359
259904.000			-16.513			-2.359
260004.000			-16.513			-2.359
260104.000			-16.514			-2.359
260204.000			-16.512			-2.359
260303.000			-16.511			-2.359
260405.000			-16.513			-2.359
260504.000			-16.514			-2.359
260604.000			-16.513			-2.359
260705.000			-16.513			-2.359
260804.000			-16.512			-2.359
260905.000			-16.512			-2.359
261003.000			-16.513			-2.359
261104.000			-16.513			-2.359
261205.000			-16.513			-2.359
261304.000			-16.513			-2.359
261404.000			-16.512			-2.359
261505.000			-16.511			-2.359
261604.000			-16.511			-2.359
261704.000			-16.513			-2.359
261805.000			-16.512			-2.359
261903.000			-16.512			-2.359
262004.000			-16.513			-2.359
262105.000			-16.511			-2.359
262204.000			-16.511			-2.359
262304.000			-16.511			-2.359
262405.000			-16.510			-2.359
262504.000			-16.510			-2.359
262603.000			-16.510			-2.359
262705.000			-16.511			-2.359
262804.000			-16.509			-2.358
262904.000			-16.510			-2.359
263005.000			-16.509			-2.358
263104.000			-16.509			-2.358
263204.000			-16.510			-2.359
263305.000			-16.509			-2.358
263404.000			-16.509			-2.358
263503.000			-16.509			-2.358
263605.000			-16.509			-2.358
263704.000			-16.509			-2.358
263804.000			-16.508			-2.358
263905.000			-16.508			-2.358
264004.000			-16.508			-2.358
264105.000			-16.508			-2.358
264204.000			-16.507			-2.358
264304.000			-16.507			-2.358
264404.000			-16.507			-2.358
264504.000			-16.506			-2.358
264604.000			-16.506			-2.358
264705.000			-16.506			-2.358
264804.000			-16.506			-2.358
264904.000			-16.506			-2.358
265005.000			-16.506			-2.358
265104.000			-16.504			-2.358
265204.000			-16.503			-2.358
265304.000			-16.504			-2.358
265404.000			-16.505			-2.358
265504.000			-16.504			-2.358
265605.000			-16.503			-2.358
265704.000			-16.503			-2.358
265804.000			-16.502			-2.357
265905.000			-16.503			-2.358
266004.000			-16.502			-2.357
266104.000			-16.501			-2.357
266204.000			-16.500			-2.357
266304.000			-16.501			-2.357
266404.000			-16.501			-2.357
266505.000			-16.501			-2.357
266604.000			-16.501			-2.357
266704.000			-16.501			-2.357
266805.000			-16.501			-2.357
266903.000			-16.501			-2.357
267004.000			-16.500			-2.357
267103.000			-16.500			-2.357
267204.000			-16.501			-2.357
267305.000			-16.501			-2.357
267404.000			-16.501			-2.357
267504.000			-16.500			-2.357
267605.000			-16.499			-2.357
267704.000			-16.500			-2.357
267804.000			-16.499			-2.357
267905.000			-16.499			-2.357
268003.000			-16.498			-2.357
268104.000			-16.496			-2.357
268205.000			-16.497			-2.357
268304.000			-16.498			-2.357
268404.000			-16.497			-2.357
268505.000			-16.497			-2.357
268604.000			-16.496			-2.357
268704.000			-16.495			-2.356
268805.000			-16.494			-2.356
268903.000			-16.494			-2.356
269004.000			-16.494			-2.356
269104.000			-16.495			-2.356
269204.000			-16.495			-2.356
269304.000			-16.494			-2.356
269405.000			-16.494			-2.356
269504.000			-16.493			-2.356
269604.000			-16.493			-2.356
269705.000			-16.493			-2.356
269804.000			-16.494			-2.356
269904.000			-16.493			-2.356
270004.000			-16.492			-2.356
270104.000			-16.491			-2.356
270204.000			-16.491			-2.356
270304.000			-16.492			-2.356
270404.000			-16.492			-2.356
270505.000			-16.492			-2.356
270604.000			-16.491			-2.356
270704.000			-16.490			-2.356
270805.000			-16.491			-2.356
270903.000			-16.490			-2.356
271004.000			-16.490			-2.356
271105.000			-16.490			-2.356
271204.000			-16.490			-2.356
271304.000			-16.490			-2.356
271405.000			-16.489			-2.356
271504.000			-16.490			-2.356
271604.000			-16.490			-2.356
271705.000			-16.490			-2.356
271803.000			-16.490			-2.356
271904.000			-16.489			-2.356
272005.000			-16.489			-2.356
272104.000			-16.489			-2.356
272204.000			-16.489			-2.356
272305.000			-16.490			-2.356
272404.000			-16.489			-2.356
272504.000			-16.489			-2.356
272605.000			-16.489			-2.356
272703.000			-16.490			-2.356
272804.000			-16.490			-2.356
272905.000			-16.489			-2.356
273004.000			-16.490			-2.356
273104.000			-16.489			-2.356
273205.000			-16.490			-2.356
273304.000			-16.489			-2.356
273404.000			-16.489			-2.356
273505.000			-16.490			-2.356
273603.000			-16.489			-2.356
273705.000			-16.489			-2.356
273803.000			-16.489			-2.356
273904.000			-16.489			-2.356
274005.000			-16.489			-2.356
274104.000			-16.489			-2.356
274204.000			-16.488			-2.355
274305.000			-16.489			-2.356
274404.000			-16.489			-2.356
274503.000			-16.490			-2.356
274605.000			-16.489			-2.356
274703.000			-16.488			-2.355
274804.000			-16.487			-2.355
274905.000			-16.487			-2.355
275004.000			-16.487			-2.355
275104.000			-16.487			-2.355
275205.000			-16.487			-2.355
275304.000			-16.487			-2.355
275404.000			-16.486			-2.355
275505.000			-16.485			-2.355
275603.000			-16.485			-2.355
275704.000			-16.485			-2.355
275804.000			-16.485			-2.355
275904.000			-16.485			-2.355
276004.000			-16.485			-2.355
276105.000			-16.484			-2.355
276204.000			-16.484			-2.355
276304.000			-16.485			-2.355
276405.000			-16.485			-2.355
276503.000			-16.483			-2.355
276604.000			-16.485			-2.355
276703.000			-16.484			-2.355
276804.000			-16.485			-2.355
276905.000			-16.484			-2.355
277004.000			-16.484			-2.355
277104.000			-16.483			-2.355
277205.000			-16.483			-2.355
277304.000			-16.483			-2.355
277404.000			-16.483			-2.355
277505.000			-16.484			-2.355
277603.000			-16.484			-2.355
277704.000			-16.484			-2.355
277805.000			-16.483			-2.355
277904.000			-16.483			-2.355
278004.000			-16.484			-2.355
278105.000			-16.482			-2.355
278204.000			-16.482			-2.355
278304.000			-16.483			-2.355
278405.000			-16.483			-2.355
278503.000			-16.483			-2.355
278604.000			-16.483			-2.355
278705.000			-16.482			-2.355
278804.000			-16.483			-2.355
278904.000			-16.482			-2.355
279005.000			-16.481			-2.354
279104.000			-16.480			-2.354
279204.000			-16.480			-2.354
279305.000			-16.480			-2.354
279403.000			-16.480			-2.354
279504.000			-16.480			-2.354
279604.000			-16.480			-2.354
279704.000			-16.481			-2.354
279804.000			-16.480			-2.354
279904.000			-16.480			-2.354
280004.000			-16.480			-2.354
280105.000			-16.479			-2.354
280204.000			-16.479			-2.354
280304.000			-16.478			-2.354
280405.000			-16.478			-2.354
280503.000			-16.478			-2.354
280604.000			-16.478			-2.354
280705.000			-16.478			-2.354
280804.000			-16.477			-2.354
280904.000			-16.477			-2.354
281005.000			-16.477			-2.354
281104.000			-16.476			-2.354
281204.000			-16.477			-2.354
281305.000			-16.475			-2.354
281403.000			-16.475			-2.354
281504.000			-16.477			-2.354
281605.000			-16.477			-2.354
281704.000			-16.475			-2.354
281804.000			-16.475			-2.354
281905.000			-16.474			-2.353
282004.000			-16.474			-2.353
282104.000			-16.475			-2.354
282205.000			-16.475			-2.354
282303.000			-16.474			-2.353
282404.000			-16.473			-2.353
282505.000			-16.473			-2.353
282604.000			-16.473			-2.353
282704.000			-16.472			-2.353
282805.000			-16.472			-2.353
282904.000			-16.473			-2.353
283004.000			-16.473			-2.353
283105.000			-16.472			-2.353
283203.000			-16.472			-2.353
283305.000			-16.473			-2.353
283404.000			-16.472			-2.353
283504.000			-16.471			-2.353
283605.000			-16.472			-2.353
283704.000			-16.472			-2.353
283804.000			-16.472			-2.353
283905.000			-16.472			-2.353
284004.000			-16.472			-2.353
284103.000			-16.471			-2.353
284205.000			-16.472			-2.353
284304.000			-16.472			-2.353
284404.000			-16.472			-2.353
284505.000			-16.472			-2.353
284604.000			-16.471			-2.353
284704.000			-16.471			-2.353
284805.000			-16.472			-2.353
284904.000			-16.472			-2.353
285003.000			-16.471			-2.353
285105.000			-16.471			-2.353
285204.000			-16.472			-2.353
285304.000			-16.471			-2.353
285405.000			-16.471			-2.353
285504.000			-16.471			-2.353
285604.000			-16.471			-2.353
285705.000			-16.470			-2.353
285804.000			-16.471			-2.353
285903.000			-16.471			-2.353
286005.000			-16.471			-2.353
286104.000			-16.470			-2.353
286204.000			-16.470			-2.353
286305.000			-16.470			-2.353
286404.000			-16.470			-2.353
286505.000			-16.470			-2.353
286604.000			-16.470			-2.353
286704.000			-16.470			-2.353
286804.000			-16.470			-2.353
286904.000			-16.470			-2.353
287003.000			-16.470			-2.353
287105.000			-16.469			-2.353
287204.000			-16.468			-2.353
287304.000			-16.468			-2.353
287405.000			-16.469			-2.353
287504.000			-16.469			-2.353
287604.000			-16.470			-2.353
287704.000			-16.469			-2.353
287804.000			-16.468			-2.353
287903.000			-16.468			-2.353
288005.000			-16.468			-2.353
288104.000			-16.468			-2.353
288204.000			-16.468			-2.353
288305.000			-16.468			-2.353
288404.000			-16.467			-2.352
288504.000			-16.467			-2.352
288605.000			-16.467			-2.352
288704.000			-16.467			-2.352
288803.000			-16.467			-2.352
288905.000			-16.467			-2.352
289004.000			-16.467			-2.352
289104.000			-16.467			-2.352
289205.000			-16.467			-2.352
289304.000			-16.467			-2.352
289404.000			-16.467			-2.352
289504.000			-16.466			-2.352
289604.000			-16.466			-2.352
289703.000			-16.465			-2.352
289804.000			-16.464			-2.352
289903.000			-16.464			-2.352
290005.000			-16.464			-2.352
290104.000			-16.465			-2.352
290204.000			-16.465			-2.352
290305.000			-16.464			-2.352
290404.000			-16.464			-2.352
290504.000			-16.464			-2.352
290604.000			-16.464			-2.352
290704.000			-16.465			-2.352
290803.000			-16.465			-2.352
290905.000			-16.464			-2.352
291004.000			-16.462			-2.352
291104.000			-16.462			-2.352
291205.000			-16.461			-2.352
291304.000			-16.461			-2.352
291404.000			-16.461			-2.352
291504.000			-16.461			-2.352
291604.000			-16.462			-2.352
291703.000			-16.461			-2.352
291805.000			-16.461			-2.352
291904.000			-16.461			-2.352
292004.000			-16.461			-2.352
292105.000			-16.462			-2.352
292204.000			-16.461			-2.352
292304.000			-16.460			-2.351
292404.000			-16.461			-2.352
292504.000			-16.461			-2.352
292603.000			-16.460			-2.351
292705.000			-16.459			-2.351
292804.000			-16.461			-2.352
292905.000			-16.459			-2.351
293004.000			-16.459			-2.351
293104.000			-16.459			-2.351
293205.000			-16.457			-2.351
293303.000			-16.458			-2.351
293404.000			-16.457			-2.351
293504.000			-16.457			-2.351
293604.000			-16.457			-2.351
293704.000			-16.456			-2.351
293805.000			-16.456			-2.351
293904.000			-16.457			-2.351
294004.000			-16.456			-2.351
294105.000			-16.456			-2.351
294204.000			-16.456			-2.351
294304.000			-16.455			-2.351
294404.000			-16.454			-2.351
294504.000			-16.454			-2.351
294604.000			-16.454			-2.351
294705.000			-16.454			-2.351
294804.000			-16.455			-2.351
294904.000			-16.454			-2.351
295005.000			-16.454			-2.351
295104.000			-16.454			-2.351
295204.000			-16.454			-2.351
295304.000			-16.454			-2.351
295404.000			-16.454			-2.351
295504.000			-16.453			-2.350
295605.000			-16.453			-2.350
295704.000			-16.454			-2.351
295804.000			-16.454			-2.351
295905.000			-16.453			-2.350
296004.000			-16.453			-2.350
296105.000			-16.452			-2.350
296203.000			-16.452			-2.350
296304.000			-16.453			-2.350
296405.000			-16.452			-2.350
296504.000			-16.451			-2.350
296604.000			-16.451			-2.350
296705.000			-16.451			-2.350
296804.000			-16.452			-2.350
296904.000			-16.450			-2.350
297005.000			-16.450			-2.350
297103.000			-16.449			-2.350
297204.000			-16.449			-2.350
297304.000			-16.449			-2.350
297404.000			-16.448			-2.350
297504.000			-16.448			-2.350
297605.000			-16.448			-2.350
297704.000			-16.447			-2.350
297804.000			-16.448			-2.350
297905.000			-16.448			-2.350
298004.000			-16.448			-2.350
298104.000			-16.448			-2.350
298204.000			-16.447			-2.350
298304.000			-16.448			-2.350
298404.000			-16.447			-2.350
298505.000			-16.447			-2.350
298604.000			-16.448			-2.350
298704.000			-16.448			-2.350
298805.000			-16.447			-2.350
298904.000			-16.448			-2.350
299004.000			-16.448			-2.350
299103.000			-16.447			-2.350
299204.000			-16.447			-2.350
299305.000			-16.447			-2.350
299404.000			-16.446			-2.349
299504.000			-16.446			-2.349
299605.000			-16.447			-2.350
299704.000			-16.446			-2.349
299804.000			-16.445			-2.349
299905.000			-16.445			-2.349
