# Acquired on 08/01/2024 16:03:23 
# SPIDER: Creep_-4mm_07714532C-2
# CREEP MEASUREMENT

# time [ms]		force [N]		stiffness [N/mm]
1.000			5.556			-1.389
101.000			6.189			-1.547
200.000			6.505			-1.626
300.000			6.559			-1.640
401.000			6.539			-1.635
500.000			6.523			-1.631
601.000			6.509			-1.627
702.000			6.497			-1.624
800.000			6.487			-1.622
900.000			6.476			-1.619
1001.000			6.461			-1.615
1100.000			6.452			-1.613
1200.000			6.445			-1.611
1301.000			6.439			-1.610
1401.000			6.433			-1.608
1501.000			6.428			-1.607
1601.000			6.422			-1.606
1700.000			6.411			-1.603
1800.000			6.407			-1.602
1900.000			6.402			-1.601
2000.000			6.399			-1.600
2102.000			6.396			-1.599
2201.000			6.393			-1.598
2300.000			6.389			-1.597
2401.000			6.385			-1.596
2500.000			6.378			-1.595
2600.000			6.375			-1.594
2701.000			6.372			-1.593
2800.000			6.369			-1.592
2901.000			6.366			-1.591
3002.000			6.363			-1.591
3100.000			6.360			-1.590
3200.000			6.355			-1.589
3301.000			6.352			-1.588
3400.000			6.349			-1.587
3500.000			6.346			-1.587
3601.000			6.344			-1.586
3701.000			6.343			-1.586
3801.000			6.340			-1.585
3901.000			6.335			-1.584
4000.000			6.333			-1.583
4100.000			6.332			-1.583
4201.000			6.330			-1.583
4300.000			6.329			-1.582
4401.000			6.326			-1.581
4502.000			6.323			-1.581
4600.000			6.319			-1.580
4700.000			6.317			-1.579
4801.000			6.316			-1.579
4900.000			6.314			-1.579
5000.000			6.312			-1.578
5100.000			6.311			-1.578
5201.000			6.309			-1.577
5302.000			6.308			-1.577
5400.000			6.305			-1.576
5500.000			6.304			-1.576
5601.000			6.302			-1.576
5700.000			6.300			-1.575
5800.000			6.299			-1.575
5902.000			6.298			-1.575
6001.000			6.296			-1.574
6100.000			6.292			-1.573
6201.000			6.291			-1.573
6300.000			6.290			-1.572
6400.000			6.288			-1.572
6501.000			6.286			-1.572
6600.000			6.286			-1.571
6701.000			6.284			-1.571
6802.000			6.282			-1.571
6900.000			6.281			-1.570
7000.000			6.279			-1.570
7101.000			6.278			-1.569
7200.000			6.276			-1.569
7300.000			6.276			-1.569
7401.000			6.275			-1.569
7501.000			6.273			-1.568
7601.000			6.271			-1.568
7701.000			6.270			-1.568
7800.000			6.269			-1.567
7900.000			6.268			-1.567
8001.000			6.267			-1.567
8100.000			6.265			-1.566
8200.000			6.264			-1.566
8302.000			6.262			-1.566
8401.000			6.261			-1.565
8501.000			6.260			-1.565
8600.000			6.259			-1.565
8700.000			6.259			-1.565
8801.000			6.257			-1.564
8900.000			6.255			-1.564
9000.000			6.254			-1.563
9102.000			6.253			-1.563
9201.000			6.253			-1.563
9300.000			6.251			-1.563
9401.000			6.250			-1.562
9500.000			6.248			-1.562
9600.000			6.249			-1.562
9701.000			6.247			-1.562
9801.000			6.246			-1.561
9901.000			6.244			-1.561
10002.000			6.243			-1.561
10100.000			6.243			-1.561
10200.000			6.243			-1.561
10301.000			6.242			-1.560
10400.000			6.240			-1.560
10500.000			6.240			-1.560
10602.000			6.239			-1.560
10701.000			6.238			-1.559
10800.000			6.237			-1.559
10901.000			6.236			-1.559
11000.000			6.235			-1.559
11100.000			6.234			-1.558
11201.000			6.233			-1.558
11300.000			6.232			-1.558
11402.000			6.231			-1.558
11501.000			6.230			-1.558
11600.000			6.231			-1.558
11701.000			6.229			-1.557
11800.000			6.228			-1.557
11900.000			6.226			-1.557
12001.000			6.226			-1.556
12100.000			6.226			-1.557
12201.000			6.225			-1.556
12302.000			6.224			-1.556
12400.000			6.224			-1.556
12500.000			6.223			-1.556
12601.000			6.221			-1.555
12700.000			6.221			-1.555
12800.000			6.221			-1.555
12901.000			6.219			-1.555
13001.000			6.218			-1.554
13101.000			6.217			-1.554
13201.000			6.218			-1.554
13300.000			6.215			-1.554
13400.000			6.215			-1.554
13501.000			6.215			-1.554
13600.000			6.214			-1.554
13700.000			6.213			-1.553
13802.000			6.212			-1.553
13901.000			6.212			-1.553
14000.000			6.212			-1.553
14101.000			6.210			-1.552
14200.000			6.208			-1.552
14300.000			6.208			-1.552
14401.000			6.207			-1.552
14501.000			6.207			-1.552
14602.000			6.207			-1.552
14701.000			6.207			-1.552
14800.000			6.205			-1.551
14901.000			6.205			-1.551
15000.000			6.204			-1.551
15100.000			6.203			-1.551
15201.000			6.203			-1.551
15301.000			6.202			-1.550
15401.000			6.202			-1.550
15501.000			6.201			-1.550
15600.000			6.200			-1.550
15700.000			6.200			-1.550
15801.000			6.199			-1.550
15900.000			6.197			-1.549
16000.000			6.197			-1.549
16101.000			6.197			-1.549
16201.000			6.196			-1.549
16301.000			6.197			-1.549
16401.000			6.195			-1.549
16500.000			6.194			-1.549
16600.000			6.194			-1.548
16701.000			6.192			-1.548
16800.000			6.192			-1.548
16900.000			6.192			-1.548
17002.000			6.191			-1.548
17101.000			6.191			-1.548
17200.000			6.190			-1.548
17301.000			6.190			-1.547
17400.000			6.190			-1.547
17500.000			6.189			-1.547
17601.000			6.188			-1.547
17700.000			6.188			-1.547
17802.000			6.186			-1.547
17901.000			6.186			-1.546
18001.000			6.185			-1.546
18101.000			6.185			-1.546
18200.000			6.185			-1.546
18300.000			6.184			-1.546
18401.000			6.181			-1.545
18500.000			6.181			-1.545
18601.000			6.182			-1.545
18702.000			6.182			-1.545
18800.000			6.181			-1.545
18900.000			6.181			-1.545
19001.000			6.182			-1.545
19100.000			6.180			-1.545
19200.000			6.179			-1.545
19301.000			6.177			-1.544
19401.000			6.176			-1.544
19501.000			6.176			-1.544
19601.000			6.177			-1.544
19700.000			6.177			-1.544
19800.000			6.176			-1.544
19901.000			6.175			-1.544
20000.000			6.175			-1.544
20100.000			6.175			-1.544
20201.000			6.174			-1.544
20301.000			6.173			-1.543
20401.000			6.172			-1.543
20501.000			6.172			-1.543
20600.000			6.172			-1.543
20700.000			6.172			-1.543
20801.000			6.172			-1.543
20900.000			6.170			-1.543
21002.000			6.170			-1.542
21101.000			6.170			-1.542
21201.000			6.170			-1.542
21301.000			6.169			-1.542
21400.000			6.169			-1.542
21500.000			6.168			-1.542
21601.000			6.167			-1.542
21700.000			6.167			-1.542
21801.000			6.165			-1.541
21902.000			6.166			-1.541
22001.000			6.166			-1.541
22100.000			6.164			-1.541
22201.000			6.164			-1.541
22300.000			6.164			-1.541
22400.000			6.163			-1.541
22501.000			6.163			-1.541
22601.000			6.162			-1.541
22701.000			6.161			-1.540
22801.000			6.162			-1.541
22900.000			6.161			-1.540
23000.000			6.160			-1.540
23101.000			6.160			-1.540
23200.000			6.159			-1.540
23300.000			6.159			-1.540
23402.000			6.159			-1.540
23501.000			6.158			-1.540
23600.000			6.158			-1.539
23701.000			6.158			-1.539
23800.000			6.157			-1.539
23900.000			6.156			-1.539
24001.000			6.156			-1.539
24100.000			6.155			-1.539
24202.000			6.154			-1.539
24301.000			6.155			-1.539
24401.000			6.155			-1.539
24501.000			6.154			-1.539
24600.000			6.155			-1.539
24700.000			6.155			-1.539
24801.000			6.152			-1.538
24900.000			6.152			-1.538
25001.000			6.152			-1.538
25102.000			6.151			-1.538
25200.000			6.151			-1.538
25300.000			6.151			-1.538
25401.000			6.151			-1.538
25500.000			6.151			-1.538
25600.000			6.150			-1.538
25701.000			6.149			-1.537
25801.000			6.149			-1.537
25901.000			6.148			-1.537
26001.000			6.148			-1.537
26100.000			6.147			-1.537
26200.000			6.147			-1.537
26301.000			6.147			-1.537
26400.000			6.147			-1.537
26500.000			6.147			-1.537
26602.000			6.146			-1.536
26701.000			6.145			-1.536
26800.000			6.145			-1.536
26901.000			6.145			-1.536
27000.000			6.144			-1.536
27100.000			6.145			-1.536
27201.000			6.145			-1.536
27300.000			6.143			-1.536
27402.000			6.142			-1.536
27501.000			6.142			-1.536
27600.000			6.142			-1.535
27701.000			6.141			-1.535
27800.000			6.142			-1.535
27900.000			6.141			-1.535
28001.000			6.140			-1.535
28100.000			6.140			-1.535
28201.000			6.140			-1.535
28302.000			6.140			-1.535
28400.000			6.139			-1.535
28500.000			6.139			-1.535
28601.000			6.138			-1.535
28700.000			6.140			-1.535
28800.000			6.140			-1.535
28901.000			6.138			-1.534
29001.000			6.136			-1.534
29101.000			6.137			-1.534
29201.000			6.137			-1.534
29300.000			6.135			-1.534
29400.000			6.135			-1.534
29501.000			6.136			-1.534
29600.000			6.137			-1.534
29700.000			6.136			-1.534
29802.000			6.134			-1.534
29901.000			6.135			-1.534
30000.000			6.135			-1.534
30101.000			6.134			-1.534
30200.000			6.133			-1.533
30300.000			6.132			-1.533
30401.000			6.131			-1.533
30500.000			6.132			-1.533
30602.000			6.132			-1.533
30701.000			6.132			-1.533
30800.000			6.131			-1.533
30901.000			6.131			-1.533
31000.000			6.131			-1.533
31100.000			6.131			-1.533
31201.000			6.131			-1.533
31301.000			6.129			-1.532
31401.000			6.129			-1.532
31501.000			6.129			-1.532
31600.000			6.129			-1.532
31700.000			6.129			-1.532
31801.000			6.129			-1.532
31900.000			6.128			-1.532
32000.000			6.127			-1.532
32102.000			6.127			-1.532
32201.000			6.127			-1.532
32300.000			6.125			-1.531
32401.000			6.126			-1.531
32500.000			6.126			-1.531
32600.000			6.126			-1.531
32701.000			6.126			-1.531
32800.000			6.124			-1.531
32901.000			6.125			-1.531
33002.000			6.125			-1.531
33100.000			6.124			-1.531
33200.000			6.123			-1.531
33301.000			6.123			-1.531
33400.000			6.123			-1.531
33500.000			6.123			-1.531
33601.000			6.123			-1.531
33701.000			6.124			-1.531
33802.000			6.123			-1.531
33900.000			6.121			-1.530
34000.000			6.121			-1.530
34101.000			6.121			-1.530
34200.000			6.122			-1.530
34300.000			6.121			-1.530
34401.000			6.119			-1.530
34501.000			6.119			-1.530
34601.000			6.120			-1.530
34701.000			6.120			-1.530
34800.000			6.119			-1.530
34900.000			6.120			-1.530
35001.000			6.119			-1.530
35100.000			6.119			-1.530
35200.000			6.118			-1.530
35302.000			6.118			-1.530
35401.000			6.117			-1.529
35500.000			6.117			-1.529
35601.000			6.117			-1.529
35700.000			6.117			-1.529
35800.000			6.116			-1.529
35901.000			6.115			-1.529
36000.000			6.115			-1.529
36101.000			6.115			-1.529
36202.000			6.115			-1.529
36300.000			6.115			-1.529
36400.000			6.115			-1.529
36501.000			6.115			-1.529
36600.000			6.114			-1.528
36700.000			6.114			-1.528
36802.000			6.113			-1.528
36901.000			6.112			-1.528
37000.000			6.112			-1.528
37100.000			6.112			-1.528
37200.000			6.112			-1.528
37301.000			6.112			-1.528
37400.000			6.112			-1.528
37500.000			6.111			-1.528
37602.000			6.112			-1.528
37701.000			6.111			-1.528
37800.000			6.110			-1.527
37901.000			6.110			-1.528
38000.000			6.110			-1.528
38100.000			6.110			-1.527
38201.000			6.109			-1.527
38300.000			6.110			-1.527
38401.000			6.109			-1.527
38502.000			6.108			-1.527
38600.000			6.108			-1.527
38700.000			6.109			-1.527
38801.000			6.108			-1.527
38900.000			6.108			-1.527
39000.000			6.108			-1.527
39101.000			6.108			-1.527
39201.000			6.107			-1.527
39301.000			6.106			-1.526
39401.000			6.107			-1.527
39500.000			6.106			-1.527
39600.000			6.106			-1.526
39701.000			6.106			-1.527
39800.000			6.107			-1.527
39901.000			6.105			-1.526
40002.000			6.105			-1.526
40100.000			6.106			-1.526
40200.000			6.104			-1.526
40300.000			6.105			-1.526
40400.000			6.105			-1.526
40501.000			6.104			-1.526
40600.000			6.104			-1.526
40701.000			6.104			-1.526
40802.000			6.103			-1.526
40900.000			6.103			-1.526
41000.000			6.102			-1.525
41101.000			6.102			-1.525
41200.000			6.101			-1.525
41300.000			6.102			-1.525
41402.000			6.102			-1.526
41501.000			6.102			-1.525
41600.000			6.101			-1.525
41701.000			6.101			-1.525
41800.000			6.100			-1.525
41900.000			6.101			-1.525
42001.000			6.101			-1.525
42100.000			6.100			-1.525
42201.000			6.100			-1.525
42302.000			6.101			-1.525
42400.000			6.100			-1.525
42500.000			6.099			-1.525
42601.000			6.098			-1.525
42700.000			6.099			-1.525
42800.000			6.098			-1.524
42901.000			6.098			-1.524
43001.000			6.098			-1.524
43101.000			6.098			-1.525
43201.000			6.098			-1.524
43300.000			6.097			-1.524
43400.000			6.096			-1.524
43500.000			6.097			-1.524
43600.000			6.096			-1.524
43701.000			6.096			-1.524
43801.000			6.096			-1.524
43901.000			6.095			-1.524
44001.000			6.096			-1.524
44100.000			6.095			-1.524
44200.000			6.093			-1.523
44301.000			6.094			-1.523
44400.000			6.094			-1.524
44500.000			6.094			-1.524
44602.000			6.093			-1.523
44701.000			6.094			-1.523
44800.000			6.094			-1.523
44901.000			6.094			-1.523
45000.000			6.094			-1.523
45100.000			6.094			-1.523
45201.000			6.092			-1.523
45301.000			6.093			-1.523
45401.000			6.091			-1.523
45501.000			6.091			-1.523
45600.000			6.091			-1.523
45700.000			6.092			-1.523
45801.000			6.092			-1.523
45900.000			6.091			-1.523
46000.000			6.090			-1.523
46102.000			6.091			-1.523
46201.000			6.091			-1.523
46300.000			6.090			-1.523
46401.000			6.091			-1.523
46500.000			6.091			-1.523
46600.000			6.090			-1.523
46700.000			6.090			-1.522
46800.000			6.089			-1.522
46902.000			6.088			-1.522
47001.000			6.088			-1.522
47100.000			6.088			-1.522
47201.000			6.088			-1.522
47300.000			6.088			-1.522
47400.000			6.089			-1.522
47501.000			6.087			-1.522
47600.000			6.087			-1.522
47701.000			6.087			-1.522
47802.000			6.087			-1.522
47900.000			6.087			-1.522
48000.000			6.086			-1.522
48101.000			6.086			-1.522
48200.000			6.086			-1.522
48300.000			6.086			-1.522
48401.000			6.086			-1.522
48501.000			6.086			-1.522
48601.000			6.086			-1.522
48701.000			6.086			-1.521
48800.000			6.085			-1.521
48900.000			6.085			-1.521
49001.000			6.085			-1.521
49100.000			6.084			-1.521
49200.000			6.084			-1.521
49302.000			6.084			-1.521
49401.000			6.084			-1.521
49500.000			6.083			-1.521
49601.000			6.083			-1.521
49700.000			6.084			-1.521
49800.000			6.084			-1.521
49900.000			6.083			-1.521
50000.000			6.083			-1.521
50102.000			6.083			-1.521
50201.000			6.083			-1.521
50300.000			6.083			-1.521
50401.000			6.081			-1.520
50500.000			6.082			-1.521
50600.000			6.082			-1.521
50701.000			6.081			-1.520
50801.000			6.081			-1.520
50901.000			6.081			-1.520
51001.000			6.080			-1.520
51100.000			6.079			-1.520
51200.000			6.080			-1.520
51301.000			6.079			-1.520
51400.000			6.079			-1.520
51500.000			6.079			-1.520
51602.000			6.079			-1.520
51701.000			6.079			-1.520
51800.000			6.079			-1.520
51901.000			6.079			-1.520
52000.000			6.079			-1.520
52100.000			6.078			-1.520
52201.000			6.078			-1.520
52300.000			6.078			-1.520
52401.000			6.078			-1.520
52502.000			6.078			-1.520
52600.000			6.078			-1.519
52700.000			6.077			-1.519
52801.000			6.077			-1.519
52900.000			6.076			-1.519
53000.000			6.076			-1.519
53100.000			6.076			-1.519
53201.000			6.076			-1.519
53302.000			6.076			-1.519
53400.000			6.075			-1.519
53500.000			6.076			-1.519
53601.000			6.077			-1.519
53700.000			6.077			-1.519
53800.000			6.076			-1.519
53901.000			6.076			-1.519
54001.000			6.076			-1.519
54101.000			6.074			-1.519
54201.000			6.074			-1.519
54300.000			6.074			-1.518
54400.000			6.074			-1.518
54501.000			6.074			-1.519
54600.000			6.074			-1.519
54700.000			6.074			-1.519
54802.000			6.074			-1.519
54901.000			6.073			-1.518
55000.000			6.073			-1.518
55101.000			6.073			-1.518
55200.000			6.073			-1.518
55300.000			6.072			-1.518
55401.000			6.072			-1.518
55501.000			6.072			-1.518
55601.000			6.072			-1.518
55701.000			6.072			-1.518
55800.000			6.072			-1.518
55900.000			6.072			-1.518
56001.000			6.071			-1.518
56100.000			6.070			-1.518
56200.000			6.070			-1.518
56302.000			6.070			-1.517
56401.000			6.070			-1.518
56501.000			6.069			-1.517
56600.000			6.070			-1.517
56700.000			6.070			-1.518
56801.000			6.071			-1.518
56900.000			6.070			-1.518
57000.000			6.069			-1.517
57102.000			6.069			-1.517
57201.000			6.069			-1.517
57300.000			6.069			-1.517
57401.000			6.069			-1.517
57500.000			6.069			-1.517
57600.000			6.069			-1.517
57701.000			6.069			-1.517
57800.000			6.068			-1.517
57900.000			6.067			-1.517
58002.000			6.069			-1.517
58101.000			6.068			-1.517
58200.000			6.068			-1.517
58301.000			6.068			-1.517
58400.000			6.068			-1.517
58500.000			6.067			-1.517
58601.000			6.067			-1.517
58700.000			6.067			-1.517
58801.000			6.067			-1.517
58902.000			6.066			-1.517
59000.000			6.066			-1.517
59100.000			6.066			-1.517
59201.000			6.066			-1.517
59300.000			6.066			-1.516
59400.000			6.066			-1.516
59500.000			6.065			-1.516
59601.000			6.066			-1.516
59702.000			6.065			-1.516
59800.000			6.065			-1.516
59900.000			6.064			-1.516
60001.000			6.064			-1.516
60100.000			6.064			-1.516
60200.000			6.064			-1.516
60301.000			6.063			-1.516
60401.000			6.063			-1.516
60501.000			6.063			-1.516
60601.000			6.064			-1.516
60700.000			6.063			-1.516
60800.000			6.062			-1.516
60901.000			6.063			-1.516
61000.000			6.063			-1.516
61101.000			6.063			-1.516
61202.000			6.063			-1.516
61300.000			6.062			-1.516
61400.000			6.061			-1.515
61501.000			6.061			-1.515
61600.000			6.061			-1.515
61700.000			6.061			-1.515
61801.000			6.062			-1.516
61901.000			6.062			-1.515
62001.000			6.060			-1.515
62101.000			6.061			-1.515
62200.000			6.061			-1.515
62300.000			6.060			-1.515
62401.000			6.060			-1.515
62500.000			6.060			-1.515
62600.000			6.061			-1.515
62702.000			6.060			-1.515
62801.000			6.060			-1.515
62901.000			6.059			-1.515
63000.000			6.059			-1.515
63100.000			6.058			-1.515
63201.000			6.059			-1.515
63300.000			6.059			-1.515
63401.000			6.059			-1.515
63502.000			6.058			-1.514
63601.000			6.057			-1.514
63700.000			6.058			-1.515
63801.000			6.059			-1.515
63900.000			6.058			-1.514
64000.000			6.058			-1.514
64101.000			6.058			-1.514
64201.000			6.057			-1.514
64301.000			6.057			-1.514
64401.000			6.057			-1.514
64500.000			6.057			-1.514
64600.000			6.057			-1.514
64701.000			6.058			-1.514
64800.000			6.056			-1.514
64900.000			6.056			-1.514
65002.000			6.056			-1.514
65101.000			6.056			-1.514
65200.000			6.056			-1.514
65301.000			6.057			-1.514
65400.000			6.057			-1.514
65500.000			6.057			-1.514
65601.000			6.056			-1.514
65700.000			6.056			-1.514
65802.000			6.055			-1.514
65901.000			6.055			-1.514
66000.000			6.054			-1.514
66101.000			6.055			-1.514
66200.000			6.055			-1.514
66300.000			6.054			-1.514
66401.000			6.054			-1.513
66500.000			6.054			-1.513
66601.000			6.053			-1.513
66702.000			6.053			-1.513
66800.000			6.053			-1.513
66900.000			6.054			-1.513
67001.000			6.054			-1.513
67100.000			6.052			-1.513
67200.000			6.052			-1.513
67301.000			6.052			-1.513
67401.000			6.053			-1.513
67501.000			6.053			-1.513
67601.000			6.053			-1.513
67700.000			6.052			-1.513
67800.000			6.052			-1.513
67901.000			6.053			-1.513
68000.000			6.052			-1.513
68100.000			6.052			-1.513
68202.000			6.052			-1.513
68301.000			6.052			-1.513
68400.000			6.052			-1.513
68501.000			6.052			-1.513
68600.000			6.052			-1.513
68700.000			6.051			-1.513
68801.000			6.050			-1.513
68900.000			6.051			-1.513
69002.000			6.051			-1.513
69101.000			6.051			-1.513
69200.000			6.050			-1.513
69301.000			6.050			-1.512
69400.000			6.050			-1.513
69500.000			6.051			-1.513
69601.000			6.049			-1.512
69700.000			6.049			-1.512
69801.000			6.050			-1.512
69902.000			6.049			-1.512
70000.000			6.048			-1.512
70100.000			6.048			-1.512
70201.000			6.049			-1.512
70300.000			6.048			-1.512
70400.000			6.047			-1.512
70501.000			6.047			-1.512
70601.000			6.047			-1.512
70701.000			6.048			-1.512
70801.000			6.048			-1.512
70900.000			6.048			-1.512
71000.000			6.047			-1.512
71101.000			6.047			-1.512
71200.000			6.047			-1.512
71300.000			6.047			-1.512
71402.000			6.047			-1.512
71501.000			6.046			-1.512
71600.000			6.045			-1.511
71701.000			6.045			-1.511
71800.000			6.046			-1.511
71900.000			6.045			-1.511
72001.000			6.045			-1.511
72101.000			6.045			-1.511
72202.000			6.046			-1.512
72301.000			6.046			-1.511
72400.000			6.046			-1.511
72501.000			6.046			-1.512
72600.000			6.045			-1.511
72700.000			6.045			-1.511
72801.000			6.045			-1.511
72901.000			6.044			-1.511
73001.000			6.044			-1.511
73102.000			6.044			-1.511
73200.000			6.044			-1.511
73300.000			6.044			-1.511
73401.000			6.044			-1.511
73500.000			6.044			-1.511
73600.000			6.043			-1.511
73702.000			6.044			-1.511
73801.000			6.044			-1.511
73901.000			6.044			-1.511
74001.000			6.044			-1.511
74100.000			6.044			-1.511
74200.000			6.042			-1.511
74301.000			6.042			-1.510
74400.000			6.043			-1.511
74501.000			6.043			-1.511
74602.000			6.042			-1.511
74700.000			6.041			-1.510
74800.000			6.042			-1.510
74901.000			6.042			-1.511
75000.000			6.042			-1.510
75100.000			6.042			-1.511
75201.000			6.042			-1.510
75301.000			6.041			-1.510
75402.000			6.042			-1.511
75500.000			6.042			-1.510
75600.000			6.041			-1.510
75701.000			6.041			-1.510
75800.000			6.041			-1.510
75900.000			6.041			-1.510
76001.000			6.041			-1.510
76101.000			6.040			-1.510
76201.000			6.040			-1.510
76301.000			6.040			-1.510
76400.000			6.040			-1.510
76500.000			6.040			-1.510
76601.000			6.040			-1.510
76700.000			6.039			-1.510
76800.000			6.039			-1.510
76902.000			6.038			-1.510
77001.000			6.038			-1.510
77100.000			6.039			-1.510
77201.000			6.039			-1.510
77300.000			6.038			-1.510
77400.000			6.038			-1.509
77501.000			6.037			-1.509
77600.000			6.038			-1.509
77701.000			6.038			-1.510
77802.000			6.038			-1.509
77900.000			6.037			-1.509
78000.000			6.038			-1.510
78101.000			6.038			-1.509
78200.000			6.037			-1.509
78300.000			6.037			-1.509
78401.000			6.037			-1.509
78501.000			6.037			-1.509
78602.000			6.037			-1.509
78701.000			6.038			-1.509
78800.000			6.037			-1.509
78901.000			6.037			-1.509
79000.000			6.036			-1.509
79100.000			6.037			-1.509
79201.000			6.036			-1.509
79301.000			6.037			-1.509
79401.000			6.036			-1.509
79501.000			6.037			-1.509
79600.000			6.036			-1.509
79700.000			6.035			-1.509
79801.000			6.035			-1.509
79900.000			6.035			-1.509
80000.000			6.035			-1.509
80101.000			6.035			-1.509
80201.000			6.036			-1.509
80301.000			6.035			-1.509
80401.000			6.034			-1.509
80500.000			6.035			-1.509
80600.000			6.035			-1.509
80701.000			6.036			-1.509
80800.000			6.035			-1.509
80901.000			6.035			-1.509
81002.000			6.035			-1.509
81100.000			6.035			-1.509
81200.000			6.035			-1.509
81301.000			6.034			-1.509
81400.000			6.035			-1.509
81500.000			6.034			-1.508
81601.000			6.034			-1.509
81701.000			6.033			-1.508
81802.000			6.032			-1.508
81900.000			6.034			-1.509
82000.000			6.034			-1.508
82101.000			6.033			-1.508
82200.000			6.033			-1.508
82300.000			6.033			-1.508
82401.000			6.033			-1.508
82501.000			6.033			-1.508
82601.000			6.032			-1.508
82701.000			6.032			-1.508
82800.000			6.032			-1.508
82900.000			6.033			-1.508
83001.000			6.032			-1.508
83100.000			6.032			-1.508
83200.000			6.032			-1.508
83302.000			6.031			-1.508
83401.000			6.031			-1.508
83500.000			6.031			-1.508
83601.000			6.031			-1.508
83700.000			6.031			-1.508
83800.000			6.032			-1.508
83901.000			6.031			-1.508
84001.000			6.031			-1.508
84101.000			6.031			-1.508
84201.000			6.031			-1.508
84300.000			6.031			-1.508
84400.000			6.030			-1.508
84501.000			6.029			-1.507
84600.000			6.030			-1.508
84700.000			6.030			-1.507
84802.000			6.028			-1.507
84901.000			6.028			-1.507
85000.000			6.028			-1.507
85100.000			6.028			-1.507
85200.000			6.027			-1.507
85301.000			6.028			-1.507
85400.000			6.028			-1.507
85500.000			6.028			-1.507
85602.000			6.027			-1.507
85701.000			6.026			-1.507
85800.000			6.026			-1.506
85901.000			6.026			-1.507
86000.000			6.027			-1.507
86100.000			6.028			-1.507
86201.000			6.028			-1.507
86300.000			6.027			-1.507
86401.000			6.026			-1.507
86502.000			6.027			-1.507
86600.000			6.028			-1.507
86700.000			6.027			-1.507
86801.000			6.027			-1.507
86900.000			6.027			-1.507
87000.000			6.027			-1.507
87101.000			6.026			-1.507
87201.000			6.027			-1.507
87301.000			6.028			-1.507
87401.000			6.027			-1.507
87500.000			6.026			-1.506
87600.000			6.026			-1.506
87701.000			6.026			-1.506
87800.000			6.026			-1.506
87900.000			6.026			-1.507
88002.000			6.026			-1.506
88101.000			6.026			-1.506
88200.000			6.024			-1.506
88300.000			6.024			-1.506
88400.000			6.023			-1.506
88501.000			6.024			-1.506
88600.000			6.024			-1.506
88700.000			6.024			-1.506
88802.000			6.023			-1.506
88901.000			6.024			-1.506
89000.000			6.024			-1.506
89101.000			6.024			-1.506
89200.000			6.023			-1.506
89300.000			6.023			-1.506
89401.000			6.024			-1.506
89500.000			6.024			-1.506
89601.000			6.023			-1.506
89702.000			6.023			-1.506
89800.000			6.023			-1.506
89900.000			6.023			-1.506
90001.000			6.023			-1.506
90100.000			6.022			-1.506
90200.000			6.021			-1.505
90301.000			6.021			-1.505
90401.000			6.021			-1.505
90501.000			6.021			-1.505
90601.000			6.021			-1.505
90700.000			6.021			-1.505
90800.000			6.021			-1.505
90901.000			6.022			-1.506
91000.000			6.023			-1.506
91101.000			6.022			-1.505
91202.000			6.022			-1.506
91300.000			6.021			-1.505
91400.000			6.021			-1.505
91500.000			6.022			-1.506
91600.000			6.021			-1.505
91701.000			6.021			-1.505
91800.000			6.021			-1.505
91901.000			6.021			-1.505
92002.000			6.021			-1.505
92100.000			6.021			-1.505
92200.000			6.020			-1.505
92301.000			6.020			-1.505
92400.000			6.019			-1.505
92500.000			6.020			-1.505
92601.000			6.020			-1.505
92701.000			6.021			-1.505
92801.000			6.021			-1.505
92901.000			6.021			-1.505
93000.000			6.020			-1.505
93100.000			6.020			-1.505
93201.000			6.020			-1.505
93300.000			6.020			-1.505
93400.000			6.018			-1.505
93502.000			6.018			-1.504
93601.000			6.018			-1.505
93700.000			6.019			-1.505
93801.000			6.019			-1.505
93900.000			6.019			-1.505
94000.000			6.019			-1.505
94101.000			6.019			-1.505
94200.000			6.019			-1.505
94301.000			6.018			-1.504
94402.000			6.018			-1.504
94500.000			6.018			-1.505
94600.000			6.018			-1.505
94700.000			6.017			-1.504
94800.000			6.017			-1.504
94901.000			6.017			-1.504
95000.000			6.017			-1.504
95101.000			6.017			-1.504
95202.000			6.017			-1.504
95300.000			6.017			-1.504
95400.000			6.018			-1.504
95501.000			6.018			-1.505
95600.000			6.018			-1.505
95700.000			6.018			-1.504
95801.000			6.017			-1.504
95901.000			6.016			-1.504
96001.000			6.017			-1.504
96101.000			6.017			-1.504
96200.000			6.017			-1.504
96300.000			6.017			-1.504
96401.000			6.017			-1.504
96500.000			6.017			-1.504
96600.000			6.017			-1.504
96702.000			6.016			-1.504
96801.000			6.016			-1.504
96900.000			6.015			-1.504
97001.000			6.014			-1.504
97100.000			6.015			-1.504
97200.000			6.016			-1.504
97301.000			6.015			-1.504
97400.000			6.015			-1.504
97501.000			6.015			-1.504
97602.000			6.015			-1.504
97700.000			6.015			-1.504
97800.000			6.015			-1.504
97900.000			6.014			-1.504
98000.000			6.014			-1.503
98101.000			6.013			-1.503
98200.000			6.013			-1.503
98301.000			6.014			-1.504
98402.000			6.014			-1.504
98500.000			6.013			-1.503
98600.000			6.013			-1.503
98701.000			6.013			-1.503
98800.000			6.013			-1.503
98900.000			6.014			-1.504
99001.000			6.013			-1.503
99101.000			6.013			-1.503
99201.000			6.013			-1.503
99301.000			6.013			-1.503
99400.000			6.012			-1.503
99500.000			6.013			-1.503
99601.000			6.012			-1.503
99700.000			6.012			-1.503
99800.000			6.011			-1.503
99902.000			6.011			-1.503
100001.000			6.012			-1.503
100100.000			6.012			-1.503
100201.000			6.012			-1.503
100300.000			6.011			-1.503
100400.000			6.011			-1.503
100501.000			6.012			-1.503
100600.000			6.010			-1.503
100701.000			6.011			-1.503
100802.000			6.011			-1.503
100900.000			6.010			-1.503
101000.000			6.011			-1.503
101100.000			6.011			-1.503
101200.000			6.011			-1.503
101301.000			6.011			-1.503
101401.000			6.011			-1.503
101501.000			6.011			-1.503
101601.000			6.010			-1.502
101700.000			6.011			-1.503
101800.000			6.011			-1.503
101901.000			6.011			-1.503
102000.000			6.011			-1.503
102100.000			6.011			-1.503
102202.000			6.010			-1.503
102301.000			6.009			-1.502
102400.000			6.010			-1.502
102501.000			6.011			-1.503
102600.000			6.010			-1.503
102700.000			6.010			-1.502
102801.000			6.009			-1.502
102900.000			6.009			-1.502
103001.000			6.009			-1.502
103102.000			6.008			-1.502
103200.000			6.009			-1.502
103300.000			6.009			-1.502
103401.000			6.007			-1.502
103500.000			6.007			-1.502
103600.000			6.007			-1.502
103701.000			6.008			-1.502
103801.000			6.008			-1.502
103901.000			6.008			-1.502
104001.000			6.008			-1.502
104100.000			6.008			-1.502
104200.000			6.007			-1.502
104300.000			6.008			-1.502
104400.000			6.008			-1.502
104501.000			6.008			-1.502
104601.000			6.007			-1.502
104701.000			6.007			-1.502
104801.000			6.007			-1.502
104900.000			6.007			-1.502
105000.000			6.007			-1.502
105101.000			6.006			-1.502
105200.000			6.006			-1.502
105300.000			6.006			-1.502
105402.000			6.006			-1.502
105501.000			6.005			-1.501
105600.000			6.006			-1.502
105701.000			6.007			-1.502
105800.000			6.006			-1.501
105900.000			6.004			-1.501
106001.000			6.004			-1.501
106100.000			6.005			-1.501
106201.000			6.005			-1.501
106302.000			6.006			-1.501
106400.000			6.006			-1.501
106500.000			6.005			-1.501
106601.000			6.005			-1.501
106700.000			6.005			-1.501
106800.000			6.006			-1.501
106901.000			6.006			-1.501
107001.000			6.004			-1.501
107101.000			6.005			-1.501
107201.000			6.005			-1.501
107300.000			6.004			-1.501
107400.000			6.005			-1.501
107500.000			6.005			-1.501
107600.000			6.005			-1.501
107701.000			6.003			-1.501
107801.000			6.004			-1.501
107901.000			6.004			-1.501
108001.000			6.004			-1.501
108100.000			6.004			-1.501
108200.000			6.004			-1.501
108301.000			6.004			-1.501
108400.000			6.004			-1.501
108500.000			6.004			-1.501
108602.000			6.004			-1.501
108701.000			6.004			-1.501
108800.000			6.004			-1.501
108901.000			6.003			-1.501
109000.000			6.002			-1.501
109100.000			6.002			-1.501
109201.000			6.003			-1.501
109300.000			6.002			-1.501
109401.000			6.003			-1.501
109502.000			6.002			-1.501
109600.000			6.003			-1.501
109700.000			6.003			-1.501
109801.000			6.003			-1.501
109900.000			6.002			-1.501
110000.000			6.001			-1.500
110101.000			6.001			-1.500
110201.000			6.002			-1.500
110301.000			6.001			-1.500
110401.000			6.001			-1.500
110500.000			6.002			-1.500
110600.000			6.002			-1.501
110700.000			6.001			-1.500
110800.000			6.001			-1.500
110901.000			6.001			-1.500
111001.000			6.000			-1.500
111101.000			6.000			-1.500
111201.000			6.000			-1.500
111300.000			5.999			-1.500
111400.000			6.000			-1.500
111501.000			6.000			-1.500
111600.000			6.000			-1.500
111700.000			6.001			-1.500
111802.000			6.001			-1.500
111901.000			6.000			-1.500
112000.000			6.000			-1.500
112101.000			6.001			-1.500
112200.000			6.000			-1.500
112300.000			6.000			-1.500
112401.000			6.000			-1.500
112501.000			6.000			-1.500
112601.000			5.999			-1.500
112702.000			5.999			-1.500
112800.000			5.999			-1.500
112900.000			5.999			-1.500
113001.000			5.999			-1.500
113100.000			5.999			-1.500
113200.000			5.998			-1.499
113301.000			5.999			-1.500
113401.000			5.999			-1.500
113501.000			5.999			-1.500
113602.000			5.998			-1.500
113700.000			5.997			-1.499
113800.000			5.998			-1.499
113900.000			5.998			-1.499
114000.000			5.998			-1.500
114101.000			5.999			-1.500
114200.000			5.998			-1.500
114301.000			5.998			-1.500
114402.000			5.999			-1.500
114501.000			5.999			-1.500
114600.000			5.998			-1.499
114701.000			5.996			-1.499
114800.000			5.997			-1.499
114900.000			5.997			-1.499
115001.000			5.997			-1.499
115100.000			5.997			-1.499
115201.000			5.997			-1.499
115302.000			5.998			-1.499
115401.000			5.997			-1.499
115500.000			5.998			-1.499
115601.000			5.997			-1.499
115700.000			5.997			-1.499
115800.000			5.997			-1.499
115901.000			5.997			-1.499
116000.000			5.996			-1.499
116101.000			5.996			-1.499
116202.000			5.996			-1.499
116300.000			5.996			-1.499
116400.000			5.997			-1.499
116501.000			5.996			-1.499
116600.000			5.996			-1.499
116700.000			5.997			-1.499
116801.000			5.997			-1.499
116900.000			5.996			-1.499
117002.000			5.995			-1.499
117101.000			5.996			-1.499
117200.000			5.995			-1.499
117301.000			5.994			-1.498
117400.000			5.995			-1.499
117500.000			5.995			-1.499
117601.000			5.996			-1.499
117700.000			5.996			-1.499
117800.000			5.995			-1.499
117902.000			5.995			-1.499
118001.000			5.995			-1.499
118100.000			5.994			-1.498
118201.000			5.995			-1.499
118300.000			5.995			-1.499
118400.000			5.995			-1.499
118501.000			5.994			-1.499
118600.000			5.995			-1.499
118700.000			5.995			-1.499
118802.000			5.995			-1.499
118901.000			5.995			-1.499
119000.000			5.995			-1.499
119101.000			5.994			-1.499
119200.000			5.994			-1.499
119300.000			5.995			-1.499
119401.000			5.994			-1.499
119500.000			5.993			-1.498
119601.000			5.993			-1.498
119702.000			5.993			-1.498
119801.000			5.994			-1.498
119900.000			5.993			-1.498
120001.000			5.994			-1.498
120100.000			5.993			-1.498
120200.000			5.993			-1.498
120300.000			5.993			-1.498
120400.000			5.994			-1.498
120502.000			5.993			-1.498
120601.000			5.993			-1.498
120700.000			5.992			-1.498
120801.000			5.993			-1.498
120900.000			5.993			-1.498
121000.000			5.992			-1.498
121101.000			5.993			-1.498
121200.000			5.992			-1.498
121301.000			5.991			-1.498
121402.000			5.992			-1.498
121501.000			5.993			-1.498
121600.000			5.992			-1.498
121701.000			5.993			-1.498
121800.000			5.992			-1.498
121900.000			5.992			-1.498
122001.000			5.991			-1.498
122100.000			5.991			-1.498
122201.000			5.992			-1.498
122302.000			5.991			-1.498
122400.000			5.991			-1.498
122500.000			5.991			-1.498
122601.000			5.990			-1.497
122700.000			5.990			-1.498
122800.000			5.991			-1.498
122901.000			5.991			-1.498
123001.000			5.990			-1.498
123101.000			5.989			-1.497
123202.000			5.990			-1.498
123300.000			5.990			-1.498
123400.000			5.990			-1.498
123500.000			5.990			-1.497
123600.000			5.990			-1.497
123701.000			5.990			-1.498
123800.000			5.991			-1.498
123901.000			5.991			-1.498
124002.000			5.991			-1.498
124100.000			5.990			-1.497
124200.000			5.989			-1.497
124301.000			5.990			-1.497
124400.000			5.990			-1.498
124500.000			5.990			-1.497
124601.000			5.990			-1.497
124701.000			5.990			-1.497
124801.000			5.990			-1.497
124902.000			5.990			-1.497
125000.000			5.989			-1.497
125100.000			5.989			-1.497
125201.000			5.988			-1.497
125300.000			5.989			-1.497
125400.000			5.989			-1.497
125501.000			5.989			-1.497
125601.000			5.988			-1.497
125701.000			5.987			-1.497
125802.000			5.989			-1.497
125900.000			5.989			-1.497
126000.000			5.988			-1.497
126101.000			5.988			-1.497
126200.000			5.988			-1.497
126300.000			5.989			-1.497
126401.000			5.988			-1.497
126501.000			5.989			-1.497
126602.000			5.988			-1.497
126701.000			5.988			-1.497
126800.000			5.988			-1.497
126901.000			5.988			-1.497
127000.000			5.988			-1.497
127100.000			5.988			-1.497
127201.000			5.987			-1.497
127300.000			5.988			-1.497
127401.000			5.987			-1.497
127502.000			5.987			-1.497
127601.000			5.987			-1.497
127700.000			5.988			-1.497
127801.000			5.987			-1.497
127900.000			5.986			-1.497
128000.000			5.987			-1.497
128101.000			5.986			-1.497
128200.000			5.986			-1.497
128301.000			5.986			-1.497
128402.000			5.986			-1.497
128500.000			5.986			-1.497
128600.000			5.986			-1.497
128701.000			5.986			-1.497
128800.000			5.987			-1.497
128900.000			5.986			-1.497
129001.000			5.985			-1.496
129100.000			5.986			-1.496
129201.000			5.986			-1.496
129302.000			5.984			-1.496
129400.000			5.985			-1.496
129500.000			5.985			-1.496
129601.000			5.984			-1.496
129700.000			5.984			-1.496
129800.000			5.986			-1.496
129900.000			5.986			-1.497
130000.000			5.986			-1.496
130102.000			5.985			-1.496
130201.000			5.984			-1.496
130300.000			5.984			-1.496
130401.000			5.984			-1.496
130500.000			5.984			-1.496
130600.000			5.984			-1.496
130701.000			5.984			-1.496
130800.000			5.984			-1.496
130901.000			5.984			-1.496
131002.000			5.984			-1.496
131101.000			5.983			-1.496
131200.000			5.983			-1.496
131301.000			5.984			-1.496
131400.000			5.984			-1.496
131500.000			5.984			-1.496
131601.000			5.984			-1.496
131700.000			5.983			-1.496
131801.000			5.982			-1.496
131902.000			5.983			-1.496
132001.000			5.983			-1.496
132100.000			5.982			-1.496
132201.000			5.983			-1.496
132300.000			5.983			-1.496
132400.000			5.984			-1.496
132501.000			5.983			-1.496
132600.000			5.983			-1.496
132700.000			5.983			-1.496
132802.000			5.983			-1.496
132901.000			5.983			-1.496
133000.000			5.982			-1.496
133100.000			5.983			-1.496
133200.000			5.982			-1.496
133301.000			5.982			-1.495
133400.000			5.982			-1.495
133500.000			5.982			-1.496
133601.000			5.982			-1.495
133701.000			5.982			-1.495
133801.000			5.982			-1.495
133901.000			5.982			-1.495
134000.000			5.982			-1.496
134100.000			5.981			-1.495
134201.000			5.981			-1.495
134300.000			5.981			-1.495
134400.000			5.982			-1.495
134501.000			5.982			-1.495
134601.000			5.981			-1.495
134701.000			5.981			-1.495
134802.000			5.981			-1.495
134900.000			5.980			-1.495
135000.000			5.981			-1.495
135101.000			5.980			-1.495
135200.000			5.980			-1.495
135300.000			5.981			-1.495
135401.000			5.980			-1.495
135501.000			5.981			-1.495
135601.000			5.981			-1.495
135702.000			5.981			-1.495
135800.000			5.981			-1.495
135900.000			5.979			-1.495
136001.000			5.982			-1.495
136100.000			5.981			-1.495
136200.000			5.980			-1.495
136300.000			5.979			-1.495
136400.000			5.980			-1.495
136502.000			5.979			-1.495
136601.000			5.979			-1.495
136701.000			5.978			-1.495
136801.000			5.979			-1.495
136900.000			5.981			-1.495
137000.000			5.980			-1.495
137101.000			5.979			-1.495
137200.000			5.979			-1.495
137300.000			5.981			-1.495
137401.000			5.982			-1.495
137501.000			5.980			-1.495
137601.000			5.979			-1.495
137701.000			5.979			-1.495
137800.000			5.979			-1.495
137900.000			5.978			-1.495
138001.000			5.979			-1.495
138100.000			5.978			-1.495
138200.000			5.979			-1.495
138301.000			5.979			-1.495
138400.000			5.979			-1.495
138501.000			5.978			-1.495
138602.000			5.979			-1.495
138700.000			5.979			-1.495
138800.000			5.978			-1.495
138901.000			5.977			-1.494
139000.000			5.977			-1.494
139100.000			5.978			-1.495
139201.000			5.977			-1.494
139300.000			5.978			-1.495
139402.000			5.978			-1.495
139501.000			5.978			-1.495
139601.000			5.978			-1.494
139702.000			5.978			-1.495
139800.000			5.978			-1.494
139900.000			5.977			-1.494
140001.000			5.976			-1.494
140100.000			5.976			-1.494
140200.000			5.977			-1.494
140301.000			5.977			-1.494
140400.000			5.977			-1.494
140501.000			5.976			-1.494
140602.000			5.976			-1.494
140700.000			5.976			-1.494
140800.000			5.976			-1.494
140901.000			5.976			-1.494
141000.000			5.976			-1.494
141100.000			5.976			-1.494
141201.000			5.975			-1.494
141300.000			5.975			-1.494
141401.000			5.975			-1.494
141502.000			5.975			-1.494
141600.000			5.976			-1.494
141700.000			5.976			-1.494
141801.000			5.976			-1.494
141900.000			5.976			-1.494
142000.000			5.976			-1.494
142101.000			5.976			-1.494
142200.000			5.977			-1.494
142301.000			5.976			-1.494
142402.000			5.975			-1.494
142501.000			5.975			-1.494
142600.000			5.974			-1.494
142700.000			5.974			-1.494
142800.000			5.974			-1.494
142901.000			5.975			-1.494
143000.000			5.976			-1.494
143100.000			5.976			-1.494
143201.000			5.976			-1.494
143301.000			5.974			-1.494
143401.000			5.975			-1.494
143501.000			5.975			-1.494
143600.000			5.974			-1.494
143700.000			5.974			-1.494
143801.000			5.975			-1.494
143900.000			5.974			-1.493
144000.000			5.974			-1.494
144101.000			5.974			-1.493
144201.000			5.974			-1.494
144301.000			5.974			-1.493
144402.000			5.974			-1.493
144500.000			5.974			-1.494
144600.000			5.974			-1.493
144701.000			5.973			-1.493
144800.000			5.974			-1.494
144900.000			5.974			-1.493
145001.000			5.973			-1.493
145100.000			5.973			-1.493
145201.000			5.974			-1.493
145302.000			5.973			-1.493
145400.000			5.973			-1.493
145500.000			5.974			-1.494
145601.000			5.973			-1.493
145700.000			5.973			-1.493
145800.000			5.973			-1.493
145900.000			5.974			-1.493
146000.000			5.973			-1.493
146102.000			5.972			-1.493
146201.000			5.972			-1.493
146301.000			5.972			-1.493
146401.000			5.972			-1.493
146500.000			5.972			-1.493
146600.000			5.972			-1.493
146701.000			5.972			-1.493
146800.000			5.972			-1.493
146900.000			5.972			-1.493
147001.000			5.972			-1.493
147101.000			5.972			-1.493
147201.000			5.972			-1.493
147301.000			5.972			-1.493
147400.000			5.971			-1.493
147500.000			5.971			-1.493
147601.000			5.971			-1.493
147700.000			5.971			-1.493
147800.000			5.970			-1.493
147901.000			5.971			-1.493
148001.000			5.971			-1.493
148101.000			5.971			-1.493
148202.000			5.972			-1.493
148300.000			5.972			-1.493
148400.000			5.970			-1.493
148501.000			5.970			-1.493
148600.000			5.970			-1.493
148700.000			5.970			-1.493
148801.000			5.971			-1.493
148900.000			5.971			-1.493
149002.000			5.970			-1.493
149101.000			5.970			-1.493
149200.000			5.971			-1.493
149301.000			5.971			-1.493
149400.000			5.970			-1.492
149500.000			5.970			-1.492
149601.000			5.970			-1.493
149700.000			5.970			-1.493
149800.000			5.969			-1.492
149902.000			5.970			-1.492
150001.000			5.970			-1.493
150101.000			5.970			-1.493
150201.000			5.970			-1.492
150300.000			5.969			-1.492
150400.000			5.969			-1.492
150501.000			5.969			-1.492
150600.000			5.969			-1.492
150700.000			5.969			-1.492
150801.000			5.969			-1.492
150901.000			5.969			-1.492
151001.000			5.969			-1.492
151101.000			5.969			-1.492
151200.000			5.968			-1.492
151300.000			5.970			-1.493
151401.000			5.970			-1.492
151500.000			5.969			-1.492
151600.000			5.969			-1.492
151701.000			5.968			-1.492
151801.000			5.968			-1.492
151901.000			5.969			-1.492
152002.000			5.968			-1.492
152100.000			5.968			-1.492
152200.000			5.968			-1.492
152300.000			5.969			-1.492
152400.000			5.968			-1.492
152501.000			5.967			-1.492
152600.000			5.967			-1.492
152700.000			5.969			-1.492
152802.000			5.967			-1.492
152901.000			5.967			-1.492
153001.000			5.967			-1.492
153101.000			5.968			-1.492
153200.000			5.968			-1.492
153300.000			5.967			-1.492
153401.000			5.968			-1.492
153500.000			5.968			-1.492
153600.000			5.967			-1.492
153701.000			5.967			-1.492
153801.000			5.967			-1.492
153901.000			5.968			-1.492
154001.000			5.967			-1.492
154100.000			5.967			-1.492
154200.000			5.967			-1.492
154301.000			5.967			-1.492
154400.000			5.967			-1.492
154500.000			5.966			-1.492
154601.000			5.966			-1.492
154701.000			5.967			-1.492
154801.000			5.967			-1.492
154901.000			5.967			-1.492
155000.000			5.966			-1.492
155100.000			5.966			-1.491
155201.000			5.966			-1.491
155300.000			5.966			-1.492
155400.000			5.966			-1.491
155500.000			5.965			-1.491
155601.000			5.966			-1.492
155702.000			5.966			-1.491
155801.000			5.965			-1.491
155900.000			5.965			-1.491
156001.000			5.965			-1.491
156100.000			5.965			-1.491
156200.000			5.966			-1.491
156301.000			5.965			-1.491
156400.000			5.965			-1.491
156500.000			5.965			-1.491
156602.000			5.965			-1.491
156701.000			5.965			-1.491
156800.000			5.966			-1.491
156901.000			5.965			-1.491
157000.000			5.965			-1.491
157100.000			5.966			-1.491
157201.000			5.965			-1.491
157300.000			5.965			-1.491
157400.000			5.965			-1.491
157502.000			5.965			-1.491
157601.000			5.964			-1.491
157701.000			5.963			-1.491
157801.000			5.964			-1.491
157900.000			5.964			-1.491
158000.000			5.964			-1.491
158101.000			5.965			-1.491
158200.000			5.964			-1.491
158300.000			5.963			-1.491
158401.000			5.964			-1.491
158501.000			5.964			-1.491
158602.000			5.965			-1.491
158700.000			5.965			-1.491
158800.000			5.965			-1.491
158901.000			5.964			-1.491
159000.000			5.964			-1.491
159100.000			5.965			-1.491
159201.000			5.963			-1.491
159300.000			5.964			-1.491
159400.000			5.963			-1.491
159502.000			5.963			-1.491
159601.000			5.963			-1.491
159700.000			5.964			-1.491
159801.000			5.964			-1.491
159900.000			5.964			-1.491
160000.000			5.962			-1.491
160101.000			5.962			-1.491
160200.000			5.963			-1.491
160300.000			5.962			-1.491
160402.000			5.963			-1.491
160501.000			5.963			-1.491
160600.000			5.963			-1.491
160701.000			5.963			-1.491
160800.000			5.963			-1.491
160900.000			5.963			-1.491
161001.000			5.963			-1.491
161100.000			5.964			-1.491
161200.000			5.962			-1.491
161302.000			5.961			-1.490
161401.000			5.963			-1.491
161501.000			5.962			-1.490
161601.000			5.962			-1.490
161700.000			5.962			-1.491
161800.000			5.962			-1.490
161900.000			5.962			-1.490
162000.000			5.962			-1.491
162101.000			5.962			-1.490
162201.000			5.963			-1.491
162301.000			5.963			-1.491
162402.000			5.962			-1.490
162500.000			5.961			-1.490
162600.000			5.962			-1.490
162701.000			5.962			-1.491
162800.000			5.962			-1.491
162900.000			5.960			-1.490
163001.000			5.961			-1.490
163100.000			5.962			-1.490
163201.000			5.962			-1.490
163302.000			5.961			-1.490
163400.000			5.960			-1.490
163500.000			5.961			-1.490
163601.000			5.960			-1.490
163700.000			5.960			-1.490
163800.000			5.959			-1.490
163901.000			5.959			-1.490
164000.000			5.960			-1.490
164101.000			5.960			-1.490
164202.000			5.961			-1.490
164301.000			5.960			-1.490
164400.000			5.959			-1.490
164501.000			5.960			-1.490
164600.000			5.959			-1.490
164700.000			5.960			-1.490
164801.000			5.960			-1.490
164900.000			5.959			-1.490
165000.000			5.960			-1.490
165102.000			5.959			-1.490
165201.000			5.960			-1.490
165301.000			5.960			-1.490
165400.000			5.961			-1.490
165500.000			5.960			-1.490
165601.000			5.959			-1.490
165700.000			5.959			-1.490
165800.000			5.960			-1.490
165901.000			5.960			-1.490
166001.000			5.959			-1.490
166101.000			5.959			-1.490
166202.000			5.960			-1.490
166300.000			5.959			-1.490
166400.000			5.958			-1.490
166501.000			5.958			-1.490
166600.000			5.959			-1.490
166700.000			5.959			-1.490
166801.000			5.959			-1.490
166900.000			5.958			-1.490
167001.000			5.959			-1.490
167102.000			5.959			-1.490
167201.000			5.959			-1.490
167300.000			5.959			-1.490
167401.000			5.958			-1.490
167500.000			5.958			-1.490
167600.000			5.959			-1.490
167701.000			5.958			-1.490
167800.000			5.958			-1.489
167900.000			5.960			-1.490
168002.000			5.958			-1.490
168101.000			5.958			-1.490
168200.000			5.958			-1.490
168300.000			5.958			-1.489
168400.000			5.957			-1.489
168501.000			5.958			-1.489
168600.000			5.957			-1.489
168700.000			5.958			-1.489
168801.000			5.957			-1.489
168901.000			5.958			-1.489
169001.000			5.958			-1.489
169102.000			5.958			-1.490
169200.000			5.958			-1.489
169300.000			5.957			-1.489
169401.000			5.956			-1.489
169500.000			5.956			-1.489
169600.000			5.957			-1.489
169701.000			5.956			-1.489
169800.000			5.956			-1.489
169901.000			5.956			-1.489
170002.000			5.957			-1.489
170101.000			5.956			-1.489
170200.000			5.957			-1.489
170301.000			5.957			-1.489
170400.000			5.957			-1.489
170500.000			5.956			-1.489
170601.000			5.956			-1.489
170700.000			5.955			-1.489
170800.000			5.955			-1.489
170902.000			5.955			-1.489
171001.000			5.955			-1.489
171101.000			5.956			-1.489
171201.000			5.956			-1.489
171300.000			5.955			-1.489
171400.000			5.956			-1.489
171500.000			5.957			-1.489
171600.000			5.956			-1.489
171701.000			5.956			-1.489
171800.000			5.956			-1.489
171901.000			5.956			-1.489
172002.000			5.956			-1.489
172101.000			5.956			-1.489
172200.000			5.956			-1.489
172301.000			5.956			-1.489
172400.000			5.956			-1.489
172500.000			5.955			-1.489
172601.000			5.955			-1.489
172700.000			5.955			-1.489
172801.000			5.955			-1.489
172902.000			5.955			-1.489
173001.000			5.954			-1.489
173100.000			5.955			-1.489
173201.000			5.954			-1.489
173300.000			5.954			-1.489
173400.000			5.956			-1.489
173501.000			5.955			-1.489
173600.000			5.955			-1.489
173700.000			5.956			-1.489
173802.000			5.955			-1.489
173901.000			5.954			-1.489
174000.000			5.955			-1.489
174101.000			5.954			-1.488
174200.000			5.954			-1.488
174300.000			5.954			-1.489
174401.000			5.954			-1.489
174500.000			5.955			-1.489
174600.000			5.955			-1.489
174702.000			5.954			-1.489
174801.000			5.954			-1.488
174902.000			5.954			-1.488
175000.000			5.954			-1.488
175100.000			5.953			-1.488
175201.000			5.954			-1.488
175300.000			5.954			-1.488
175400.000			5.954			-1.489
175501.000			5.954			-1.488
175600.000			5.955			-1.489
175701.000			5.954			-1.489
175802.000			5.953			-1.488
175901.000			5.953			-1.488
176000.000			5.953			-1.488
176101.000			5.952			-1.488
176200.000			5.952			-1.488
176300.000			5.953			-1.488
176401.000			5.953			-1.488
176500.000			5.952			-1.488
176600.000			5.952			-1.488
176702.000			5.952			-1.488
176801.000			5.952			-1.488
176900.000			5.952			-1.488
177001.000			5.953			-1.488
177100.000			5.953			-1.488
177200.000			5.953			-1.488
177301.000			5.953			-1.488
177400.000			5.952			-1.488
177500.000			5.952			-1.488
177602.000			5.952			-1.488
177701.000			5.953			-1.488
177802.000			5.953			-1.488
177900.000			5.953			-1.488
178000.000			5.953			-1.488
178101.000			5.952			-1.488
178200.000			5.952			-1.488
178300.000			5.952			-1.488
178401.000			5.953			-1.488
178500.000			5.952			-1.488
178601.000			5.952			-1.488
178702.000			5.952			-1.488
178800.000			5.952			-1.488
178900.000			5.951			-1.488
179001.000			5.951			-1.488
179100.000			5.952			-1.488
179200.000			5.951			-1.488
179301.000			5.952			-1.488
179400.000			5.952			-1.488
179501.000			5.951			-1.488
179602.000			5.952			-1.488
179701.000			5.952			-1.488
179800.000			5.951			-1.488
179901.000			5.951			-1.488
180000.000			5.951			-1.488
180100.000			5.951			-1.488
180201.000			5.951			-1.488
180300.000			5.950			-1.488
180400.000			5.951			-1.488
180502.000			5.951			-1.488
180601.000			5.951			-1.488
180700.000			5.950			-1.488
180801.000			5.950			-1.488
180900.000			5.951			-1.488
181000.000			5.950			-1.488
181100.000			5.950			-1.487
181200.000			5.950			-1.488
181301.000			5.950			-1.487
181401.000			5.950			-1.487
181501.000			5.950			-1.487
181601.000			5.949			-1.487
181700.000			5.951			-1.488
181800.000			5.950			-1.488
181901.000			5.951			-1.488
182000.000			5.950			-1.487
182100.000			5.949			-1.487
182201.000			5.949			-1.487
182301.000			5.949			-1.487
182401.000			5.950			-1.487
182502.000			5.949			-1.487
182600.000			5.949			-1.487
182700.000			5.948			-1.487
182801.000			5.949			-1.487
182900.000			5.950			-1.487
183000.000			5.950			-1.487
183101.000			5.949			-1.487
183200.000			5.950			-1.488
183301.000			5.950			-1.487
183402.000			5.950			-1.487
183501.000			5.950			-1.488
183600.000			5.949			-1.487
183701.000			5.949			-1.487
183800.000			5.949			-1.487
183900.000			5.949			-1.487
184001.000			5.949			-1.487
184100.000			5.949			-1.487
184200.000			5.948			-1.487
184302.000			5.949			-1.487
184401.000			5.949			-1.487
184501.000			5.948			-1.487
184600.000			5.948			-1.487
184700.000			5.948			-1.487
184801.000			5.948			-1.487
184900.000			5.948			-1.487
185000.000			5.947			-1.487
185101.000			5.947			-1.487
185201.000			5.948			-1.487
185301.000			5.948			-1.487
185402.000			5.948			-1.487
185500.000			5.949			-1.487
185600.000			5.948			-1.487
185701.000			5.948			-1.487
185800.000			5.947			-1.487
185900.000			5.948			-1.487
186001.000			5.947			-1.487
186100.000			5.947			-1.487
186201.000			5.948			-1.487
186302.000			5.948			-1.487
186401.000			5.947			-1.487
186500.000			5.948			-1.487
186601.000			5.947			-1.487
186700.000			5.947			-1.487
186800.000			5.946			-1.487
186901.000			5.946			-1.487
187000.000			5.947			-1.487
187100.000			5.947			-1.487
187202.000			5.947			-1.487
187301.000			5.947			-1.487
187402.000			5.947			-1.487
187500.000			5.947			-1.487
187600.000			5.946			-1.487
187701.000			5.947			-1.487
187800.000			5.947			-1.487
187900.000			5.946			-1.487
188001.000			5.947			-1.487
188100.000			5.946			-1.487
188201.000			5.946			-1.487
188302.000			5.947			-1.487
188401.000			5.947			-1.487
188500.000			5.946			-1.487
188601.000			5.945			-1.486
188700.000			5.946			-1.486
188800.000			5.947			-1.487
188901.000			5.947			-1.487
189000.000			5.946			-1.486
189100.000			5.946			-1.486
189202.000			5.946			-1.487
189301.000			5.947			-1.487
189401.000			5.947			-1.487
189501.000			5.947			-1.487
189600.000			5.946			-1.487
189700.000			5.945			-1.486
189801.000			5.945			-1.486
189900.000			5.946			-1.486
190000.000			5.945			-1.486
190101.000			5.945			-1.486
190201.000			5.945			-1.486
190301.000			5.945			-1.486
190402.000			5.945			-1.486
190500.000			5.944			-1.486
190600.000			5.944			-1.486
190700.000			5.945			-1.486
190800.000			5.945			-1.486
190901.000			5.945			-1.486
191000.000			5.945			-1.486
191100.000			5.946			-1.486
191202.000			5.946			-1.486
191301.000			5.946			-1.487
191400.000			5.946			-1.486
191501.000			5.945			-1.486
191600.000			5.944			-1.486
191700.000			5.944			-1.486
191801.000			5.945			-1.486
191900.000			5.944			-1.486
192000.000			5.945			-1.486
192102.000			5.944			-1.486
192201.000			5.944			-1.486
192301.000			5.944			-1.486
192401.000			5.944			-1.486
192500.000			5.944			-1.486
192600.000			5.945			-1.486
192701.000			5.943			-1.486
192800.000			5.943			-1.486
192900.000			5.944			-1.486
193001.000			5.945			-1.486
193101.000			5.943			-1.486
193201.000			5.943			-1.486
193301.000			5.943			-1.486
193400.000			5.944			-1.486
193500.000			5.944			-1.486
193601.000			5.944			-1.486
193700.000			5.943			-1.486
193800.000			5.944			-1.486
193900.000			5.944			-1.486
194001.000			5.944			-1.486
194102.000			5.943			-1.486
194201.000			5.943			-1.486
194300.000			5.943			-1.486
194401.000			5.943			-1.486
194500.000			5.944			-1.486
194600.000			5.943			-1.486
194701.000			5.942			-1.486
194800.000			5.943			-1.486
194900.000			5.944			-1.486
195002.000			5.943			-1.486
195101.000			5.944			-1.486
195200.000			5.944			-1.486
195301.000			5.943			-1.486
195400.000			5.942			-1.486
195500.000			5.942			-1.485
195601.000			5.942			-1.485
195700.000			5.941			-1.485
195800.000			5.941			-1.485
195902.000			5.941			-1.485
196001.000			5.942			-1.486
196101.000			5.943			-1.486
196201.000			5.942			-1.485
196300.000			5.942			-1.486
196400.000			5.942			-1.486
196501.000			5.942			-1.486
196600.000			5.942			-1.485
196700.000			5.942			-1.485
196801.000			5.943			-1.486
196901.000			5.943			-1.486
197002.000			5.942			-1.486
197100.000			5.942			-1.485
197200.000			5.942			-1.485
197301.000			5.941			-1.485
197400.000			5.940			-1.485
197500.000			5.940			-1.485
197601.000			5.942			-1.486
197700.000			5.941			-1.485
197800.000			5.942			-1.485
197902.000			5.942			-1.485
198001.000			5.941			-1.485
198100.000			5.941			-1.485
198201.000			5.942			-1.485
198300.000			5.942			-1.485
198400.000			5.941			-1.485
198501.000			5.941			-1.485
198600.000			5.941			-1.485
198700.000			5.941			-1.485
198802.000			5.941			-1.485
198901.000			5.940			-1.485
199001.000			5.940			-1.485
199101.000			5.941			-1.485
199200.000			5.940			-1.485
199300.000			5.941			-1.485
199401.000			5.941			-1.485
199500.000			5.941			-1.485
199600.000			5.940			-1.485
199701.000			5.939			-1.485
199801.000			5.940			-1.485
199901.000			5.940			-1.485
200002.000			5.940			-1.485
200100.000			5.940			-1.485
200200.000			5.940			-1.485
200300.000			5.940			-1.485
200400.000			5.940			-1.485
200501.000			5.939			-1.485
200600.000			5.940			-1.485
200700.000			5.940			-1.485
200802.000			5.940			-1.485
200901.000			5.940			-1.485
201000.000			5.939			-1.485
201101.000			5.939			-1.485
201200.000			5.939			-1.485
201300.000			5.940			-1.485
201401.000			5.940			-1.485
201500.000			5.939			-1.485
201600.000			5.939			-1.485
201702.000			5.939			-1.485
201801.000			5.940			-1.485
201900.000			5.939			-1.485
202001.000			5.939			-1.485
202100.000			5.938			-1.485
202200.000			5.938			-1.485
202301.000			5.938			-1.485
202400.000			5.939			-1.485
202500.000			5.938			-1.484
202602.000			5.938			-1.484
202701.000			5.938			-1.485
202800.000			5.939			-1.485
202901.000			5.938			-1.485
203000.000			5.938			-1.485
203100.000			5.939			-1.485
203201.000			5.939			-1.485
203300.000			5.938			-1.485
203400.000			5.938			-1.484
203502.000			5.938			-1.485
203601.000			5.938			-1.485
203702.000			5.938			-1.485
203800.000			5.938			-1.485
203900.000			5.938			-1.485
204001.000			5.939			-1.485
204100.000			5.938			-1.485
204200.000			5.937			-1.484
204301.000			5.938			-1.485
204401.000			5.938			-1.485
204501.000			5.938			-1.484
204602.000			5.938			-1.485
204700.000			5.939			-1.485
204800.000			5.938			-1.484
204901.000			5.937			-1.484
205000.000			5.938			-1.485
205100.000			5.939			-1.485
205201.000			5.937			-1.484
205300.000			5.936			-1.484
205401.000			5.937			-1.484
205502.000			5.938			-1.484
205600.000			5.937			-1.484
205700.000			5.936			-1.484
205801.000			5.937			-1.484
205900.000			5.936			-1.484
206000.000			5.936			-1.484
206101.000			5.936			-1.484
206200.000			5.937			-1.484
206301.000			5.937			-1.484
206402.000			5.936			-1.484
206500.000			5.937			-1.484
206600.000			5.937			-1.484
206700.000			5.936			-1.484
206800.000			5.936			-1.484
206901.000			5.936			-1.484
207000.000			5.937			-1.484
207100.000			5.936			-1.484
207202.000			5.936			-1.484
207301.000			5.936			-1.484
207401.000			5.936			-1.484
207501.000			5.936			-1.484
207600.000			5.936			-1.484
207700.000			5.935			-1.484
207801.000			5.935			-1.484
207900.000			5.935			-1.484
208000.000			5.936			-1.484
208102.000			5.936			-1.484
208201.000			5.935			-1.484
208301.000			5.936			-1.484
208401.000			5.935			-1.484
208500.000			5.936			-1.484
208600.000			5.936			-1.484
208701.000			5.936			-1.484
208800.000			5.935			-1.484
208900.000			5.935			-1.484
209001.000			5.935			-1.484
209101.000			5.935			-1.484
209201.000			5.935			-1.484
209301.000			5.935			-1.484
209400.000			5.934			-1.483
209500.000			5.934			-1.484
209601.000			5.934			-1.484
209700.000			5.934			-1.484
209800.000			5.935			-1.484
209900.000			5.934			-1.483
210001.000			5.934			-1.483
210102.000			5.934			-1.483
210201.000			5.934			-1.483
210300.000			5.933			-1.483
210401.000			5.933			-1.483
210500.000			5.933			-1.483
210600.000			5.934			-1.483
210701.000			5.934			-1.484
210800.000			5.933			-1.483
210901.000			5.934			-1.483
211002.000			5.935			-1.484
211101.000			5.934			-1.484
211200.000			5.934			-1.483
211301.000			5.935			-1.484
211400.000			5.934			-1.484
211500.000			5.932			-1.483
211601.000			5.933			-1.483
211700.000			5.933			-1.483
211801.000			5.933			-1.483
211902.000			5.934			-1.484
212001.000			5.935			-1.484
212100.000			5.934			-1.484
212201.000			5.933			-1.483
212300.000			5.932			-1.483
212400.000			5.933			-1.483
212501.000			5.932			-1.483
212600.000			5.931			-1.483
212701.000			5.932			-1.483
212802.000			5.934			-1.483
212901.000			5.933			-1.483
213000.000			5.933			-1.483
213100.000			5.934			-1.484
213200.000			5.934			-1.483
213301.000			5.933			-1.483
213400.000			5.933			-1.483
213500.000			5.933			-1.483
213602.000			5.932			-1.483
213701.000			5.933			-1.483
213801.000			5.933			-1.483
213901.000			5.933			-1.483
214000.000			5.933			-1.483
214100.000			5.933			-1.483
214201.000			5.932			-1.483
214300.000			5.931			-1.483
214400.000			5.933			-1.483
214502.000			5.932			-1.483
214601.000			5.932			-1.483
214701.000			5.932			-1.483
214801.000			5.932			-1.483
214900.000			5.932			-1.483
215000.000			5.932			-1.483
215101.000			5.933			-1.483
215200.000			5.931			-1.483
215300.000			5.931			-1.483
215401.000			5.931			-1.483
215501.000			5.932			-1.483
215601.000			5.931			-1.483
215701.000			5.932			-1.483
215800.000			5.932			-1.483
215900.000			5.933			-1.483
216001.000			5.932			-1.483
216100.000			5.931			-1.483
216200.000			5.931			-1.483
216300.000			5.931			-1.483
216401.000			5.931			-1.483
216502.000			5.932			-1.483
216600.000			5.932			-1.483
216700.000			5.931			-1.483
216801.000			5.931			-1.483
216900.000			5.931			-1.483
217000.000			5.931			-1.483
217101.000			5.932			-1.483
217200.000			5.932			-1.483
217301.000			5.931			-1.483
217402.000			5.931			-1.483
217500.000			5.930			-1.483
217600.000			5.930			-1.483
217701.000			5.931			-1.483
217800.000			5.931			-1.483
217900.000			5.932			-1.483
218001.000			5.930			-1.482
218100.000			5.930			-1.483
218201.000			5.931			-1.483
218302.000			5.931			-1.483
218400.000			5.930			-1.482
218500.000			5.930			-1.482
218601.000			5.930			-1.483
218700.000			5.931			-1.483
218800.000			5.930			-1.483
218901.000			5.930			-1.483
219000.000			5.930			-1.482
219101.000			5.930			-1.482
219202.000			5.930			-1.483
219301.000			5.930			-1.482
219400.000			5.931			-1.483
219500.000			5.930			-1.482
219600.000			5.930			-1.483
219701.000			5.929			-1.482
219800.000			5.928			-1.482
219900.000			5.929			-1.482
220001.000			5.930			-1.482
220101.000			5.929			-1.482
220201.000			5.930			-1.482
220301.000			5.929			-1.482
220400.000			5.930			-1.482
220500.000			5.930			-1.482
220601.000			5.929			-1.482
220700.000			5.929			-1.482
220800.000			5.930			-1.483
220901.000			5.929			-1.482
221001.000			5.929			-1.482
221101.000			5.928			-1.482
221201.000			5.929			-1.482
221300.000			5.929			-1.482
221400.000			5.930			-1.482
221501.000			5.929			-1.482
221600.000			5.929			-1.482
221700.000			5.929			-1.482
221801.000			5.929			-1.482
221901.000			5.928			-1.482
222001.000			5.928			-1.482
222101.000			5.929			-1.482
222200.000			5.929			-1.482
222300.000			5.928			-1.482
222401.000			5.929			-1.482
222500.000			5.929			-1.482
222600.000			5.929			-1.482
222700.000			5.929			-1.482
222801.000			5.929			-1.482
222902.000			5.928			-1.482
223001.000			5.928			-1.482
223100.000			5.929			-1.482
223201.000			5.928			-1.482
223300.000			5.928			-1.482
223400.000			5.928			-1.482
223501.000			5.928			-1.482
223600.000			5.929			-1.482
223701.000			5.929			-1.482
223802.000			5.927			-1.482
223901.000			5.928			-1.482
224000.000			5.928			-1.482
224101.000			5.928			-1.482
224200.000			5.929			-1.482
224300.000			5.928			-1.482
224401.000			5.927			-1.482
224500.000			5.927			-1.482
224600.000			5.928			-1.482
224702.000			5.928			-1.482
224801.000			5.927			-1.482
224900.000			5.926			-1.482
225001.000			5.927			-1.482
225100.000			5.928			-1.482
225200.000			5.928			-1.482
225301.000			5.926			-1.482
225400.000			5.927			-1.482
225500.000			5.927			-1.482
225602.000			5.927			-1.482
225701.000			5.928			-1.482
225802.000			5.927			-1.482
225900.000			5.927			-1.482
226000.000			5.926			-1.481
226101.000			5.925			-1.481
226200.000			5.927			-1.482
226300.000			5.927			-1.482
226401.000			5.926			-1.482
226501.000			5.926			-1.482
226601.000			5.925			-1.481
226702.000			5.926			-1.481
226800.000			5.926			-1.481
226900.000			5.926			-1.481
227001.000			5.926			-1.481
227100.000			5.926			-1.482
227200.000			5.926			-1.482
227301.000			5.926			-1.482
227400.000			5.927			-1.482
227501.000			5.926			-1.481
227602.000			5.927			-1.482
227700.000			5.926			-1.481
227800.000			5.925			-1.481
227901.000			5.926			-1.481
228000.000			5.926			-1.481
228100.000			5.926			-1.482
228201.000			5.925			-1.481
228300.000			5.926			-1.481
228401.000			5.926			-1.481
228502.000			5.925			-1.481
228601.000			5.925			-1.481
228700.000			5.925			-1.481
228801.000			5.925			-1.481
228900.000			5.923			-1.481
229000.000			5.925			-1.481
229100.000			5.926			-1.481
229200.000			5.925			-1.481
229301.000			5.925			-1.481
229401.000			5.926			-1.482
229501.000			5.926			-1.481
229601.000			5.925			-1.481
229700.000			5.925			-1.481
229800.000			5.925			-1.481
229901.000			5.925			-1.481
230000.000			5.926			-1.481
230100.000			5.925			-1.481
230201.000			5.925			-1.481
230301.000			5.925			-1.481
230401.000			5.925			-1.481
230501.000			5.925			-1.481
230600.000			5.925			-1.481
230700.000			5.924			-1.481
230801.000			5.925			-1.481
230900.000			5.926			-1.481
231000.000			5.925			-1.481
231101.000			5.924			-1.481
231201.000			5.925			-1.481
231301.000			5.925			-1.481
231401.000			5.924			-1.481
231500.000			5.924			-1.481
231600.000			5.924			-1.481
231701.000			5.923			-1.481
231800.000			5.923			-1.481
231900.000			5.923			-1.481
232001.000			5.923			-1.481
232101.000			5.922			-1.481
232202.000			5.923			-1.481
232300.000			5.924			-1.481
232400.000			5.925			-1.481
232501.000			5.923			-1.481
232600.000			5.924			-1.481
232700.000			5.924			-1.481
232801.000			5.924			-1.481
232900.000			5.924			-1.481
233001.000			5.924			-1.481
233102.000			5.924			-1.481
233200.000			5.923			-1.481
233300.000			5.923			-1.481
233401.000			5.924			-1.481
233500.000			5.923			-1.481
233600.000			5.923			-1.481
233701.000			5.924			-1.481
233800.000			5.923			-1.481
233901.000			5.922			-1.481
234002.000			5.923			-1.481
234101.000			5.923			-1.481
234200.000			5.923			-1.481
234301.000			5.922			-1.480
234400.000			5.922			-1.481
234500.000			5.922			-1.481
234601.000			5.922			-1.481
234700.000			5.923			-1.481
234800.000			5.923			-1.481
234902.000			5.923			-1.481
235001.000			5.923			-1.481
235100.000			5.923			-1.481
235201.000			5.922			-1.480
235300.000			5.922			-1.481
235400.000			5.921			-1.480
235500.000			5.921			-1.480
235600.000			5.921			-1.480
235701.000			5.921			-1.480
235801.000			5.922			-1.480
235901.000			5.922			-1.480
236001.000			5.921			-1.480
236100.000			5.921			-1.480
236200.000			5.922			-1.480
236301.000			5.921			-1.480
236400.000			5.921			-1.480
236500.000			5.921			-1.480
236601.000			5.922			-1.480
236701.000			5.922			-1.481
236801.000			5.921			-1.480
236901.000			5.921			-1.480
237000.000			5.921			-1.480
237100.000			5.921			-1.480
237201.000			5.921			-1.480
237300.000			5.920			-1.480
237400.000			5.920			-1.480
237501.000			5.920			-1.480
237601.000			5.922			-1.480
237701.000			5.921			-1.480
237801.000			5.922			-1.480
237900.000			5.921			-1.480
238000.000			5.922			-1.480
238101.000			5.921			-1.480
238200.000			5.920			-1.480
238300.000			5.921			-1.480
238401.000			5.920			-1.480
238501.000			5.920			-1.480
238602.000			5.921			-1.480
238701.000			5.922			-1.480
238800.000			5.921			-1.480
238901.000			5.921			-1.480
239000.000			5.921			-1.480
239100.000			5.921			-1.480
239201.000			5.921			-1.480
239300.000			5.921			-1.480
239401.000			5.921			-1.480
239502.000			5.921			-1.480
239601.000			5.921			-1.480
239700.000			5.920			-1.480
239801.000			5.921			-1.480
239900.000			5.920			-1.480
240000.000			5.920			-1.480
240101.000			5.919			-1.480
240200.000			5.919			-1.480
240300.000			5.919			-1.480
240402.000			5.920			-1.480
240501.000			5.921			-1.480
240600.000			5.920			-1.480
240701.000			5.921			-1.480
240800.000			5.920			-1.480
240900.000			5.919			-1.480
241001.000			5.920			-1.480
241100.000			5.920			-1.480
241200.000			5.919			-1.480
241302.000			5.919			-1.480
241401.000			5.919			-1.480
241500.000			5.918			-1.480
241601.000			5.919			-1.480
241700.000			5.919			-1.480
241800.000			5.920			-1.480
241900.000			5.920			-1.480
242000.000			5.919			-1.480
242101.000			5.920			-1.480
242201.000			5.920			-1.480
242301.000			5.919			-1.480
242402.000			5.919			-1.480
242500.000			5.919			-1.480
242600.000			5.919			-1.480
242701.000			5.918			-1.480
242800.000			5.918			-1.480
242900.000			5.919			-1.480
243001.000			5.918			-1.480
243100.000			5.919			-1.480
243201.000			5.919			-1.480
243302.000			5.918			-1.480
243400.000			5.919			-1.480
243500.000			5.918			-1.480
243601.000			5.918			-1.480
243700.000			5.918			-1.480
243800.000			5.917			-1.479
243901.000			5.918			-1.480
244000.000			5.919			-1.480
244101.000			5.919			-1.480
244202.000			5.919			-1.480
244301.000			5.918			-1.479
244400.000			5.918			-1.480
244501.000			5.918			-1.480
244600.000			5.918			-1.480
244700.000			5.919			-1.480
244801.000			5.918			-1.479
244900.000			5.918			-1.480
245000.000			5.918			-1.479
245102.000			5.917			-1.479
245201.000			5.917			-1.479
245301.000			5.918			-1.479
245400.000			5.918			-1.480
245500.000			5.917			-1.479
245601.000			5.917			-1.479
245700.000			5.917			-1.479
245800.000			5.917			-1.479
245901.000			5.917			-1.479
246001.000			5.917			-1.479
246101.000			5.918			-1.479
246201.000			5.917			-1.479
246300.000			5.918			-1.479
246400.000			5.918			-1.479
246501.000			5.918			-1.479
246600.000			5.916			-1.479
246700.000			5.916			-1.479
246801.000			5.918			-1.479
246901.000			5.917			-1.479
247001.000			5.916			-1.479
247102.000			5.918			-1.480
247200.000			5.917			-1.479
247300.000			5.917			-1.479
247401.000			5.917			-1.479
247500.000			5.917			-1.479
247600.000			5.916			-1.479
247701.000			5.915			-1.479
247800.000			5.917			-1.479
247901.000			5.917			-1.479
248002.000			5.916			-1.479
248101.000			5.916			-1.479
248200.000			5.916			-1.479
248300.000			5.916			-1.479
248400.000			5.916			-1.479
248501.000			5.917			-1.479
248600.000			5.916			-1.479
248700.000			5.915			-1.479
248802.000			5.917			-1.479
248901.000			5.917			-1.479
249001.000			5.916			-1.479
249101.000			5.916			-1.479
249200.000			5.916			-1.479
249300.000			5.916			-1.479
249401.000			5.916			-1.479
249500.000			5.916			-1.479
249600.000			5.915			-1.479
249701.000			5.915			-1.479
249801.000			5.916			-1.479
249901.000			5.916			-1.479
250001.000			5.915			-1.479
250100.000			5.915			-1.479
250200.000			5.915			-1.479
250301.000			5.916			-1.479
250400.000			5.917			-1.479
250500.000			5.916			-1.479
250601.000			5.915			-1.479
250701.000			5.916			-1.479
250801.000			5.916			-1.479
250901.000			5.915			-1.479
251000.000			5.915			-1.479
251100.000			5.915			-1.479
251201.000			5.915			-1.479
251300.000			5.915			-1.479
251400.000			5.915			-1.479
251500.000			5.914			-1.479
251601.000			5.915			-1.479
251702.000			5.915			-1.479
251801.000			5.915			-1.479
251900.000			5.915			-1.479
252001.000			5.914			-1.479
252100.000			5.915			-1.479
252200.000			5.915			-1.479
252301.000			5.915			-1.479
252400.000			5.914			-1.479
252500.000			5.914			-1.478
252602.000			5.915			-1.479
252701.000			5.915			-1.479
252800.000			5.914			-1.478
252901.000			5.915			-1.479
253000.000			5.915			-1.479
253100.000			5.914			-1.479
253201.000			5.914			-1.479
253300.000			5.915			-1.479
253400.000			5.915			-1.479
253502.000			5.914			-1.479
253601.000			5.915			-1.479
253700.000			5.914			-1.479
253801.000			5.914			-1.479
253900.000			5.914			-1.478
254000.000			5.914			-1.479
254101.000			5.914			-1.478
254200.000			5.913			-1.478
254300.000			5.914			-1.478
254402.000			5.913			-1.478
254501.000			5.914			-1.479
254600.000			5.914			-1.478
254700.000			5.913			-1.478
254800.000			5.913			-1.478
254901.000			5.913			-1.478
255000.000			5.914			-1.478
255100.000			5.913			-1.478
255201.000			5.914			-1.478
255301.000			5.914			-1.478
255401.000			5.914			-1.478
255502.000			5.913			-1.478
255600.000			5.913			-1.478
255700.000			5.913			-1.478
255801.000			5.914			-1.479
255900.000			5.913			-1.478
256000.000			5.913			-1.478
256101.000			5.913			-1.478
256201.000			5.913			-1.478
256301.000			5.913			-1.478
256402.000			5.913			-1.478
256500.000			5.912			-1.478
256600.000			5.912			-1.478
256701.000			5.913			-1.478
256800.000			5.913			-1.478
256900.000			5.912			-1.478
257001.000			5.913			-1.478
257100.000			5.913			-1.478
257201.000			5.912			-1.478
257302.000			5.911			-1.478
257400.000			5.912			-1.478
257500.000			5.913			-1.478
257601.000			5.913			-1.478
257700.000			5.912			-1.478
257800.000			5.913			-1.478
257900.000			5.912			-1.478
258000.000			5.911			-1.478
258102.000			5.911			-1.478
258201.000			5.912			-1.478
258300.000			5.912			-1.478
258401.000			5.912			-1.478
258500.000			5.912			-1.478
258600.000			5.912			-1.478
258701.000			5.913			-1.478
258800.000			5.913			-1.478
258900.000			5.913			-1.478
259002.000			5.912			-1.478
259101.000			5.911			-1.478
259201.000			5.911			-1.478
259301.000			5.911			-1.478
259400.000			5.912			-1.478
259500.000			5.913			-1.478
259601.000			5.913			-1.478
259700.000			5.913			-1.478
259800.000			5.912			-1.478
259902.000			5.911			-1.478
260001.000			5.911			-1.478
260101.000			5.912			-1.478
260201.000			5.913			-1.478
260300.000			5.912			-1.478
260400.000			5.911			-1.478
260501.000			5.912			-1.478
260600.000			5.912			-1.478
260700.000			5.911			-1.478
260802.000			5.911			-1.478
260901.000			5.912			-1.478
261002.000			5.911			-1.478
261100.000			5.910			-1.478
261200.000			5.910			-1.478
261301.000			5.910			-1.478
261400.000			5.911			-1.478
261500.000			5.911			-1.478
261601.000			5.911			-1.478
261701.000			5.911			-1.478
261801.000			5.911			-1.478
261902.000			5.911			-1.478
262000.000			5.911			-1.478
262100.000			5.910			-1.478
262201.000			5.910			-1.478
262300.000			5.911			-1.478
262400.000			5.911			-1.478
262501.000			5.911			-1.478
262601.000			5.911			-1.478
262701.000			5.911			-1.478
262801.000			5.910			-1.478
262900.000			5.910			-1.478
263000.000			5.911			-1.478
263101.000			5.910			-1.478
263200.000			5.911			-1.478
263300.000			5.911			-1.478
263401.000			5.910			-1.478
263501.000			5.910			-1.478
263601.000			5.911			-1.478
263701.000			5.909			-1.477
263800.000			5.909			-1.477
263900.000			5.910			-1.478
264001.000			5.911			-1.478
264100.000			5.910			-1.477
264200.000			5.909			-1.477
264300.000			5.909			-1.477
264401.000			5.910			-1.478
264502.000			5.911			-1.478
264601.000			5.910			-1.478
264700.000			5.909			-1.477
264801.000			5.909			-1.477
264900.000			5.909			-1.477
265000.000			5.910			-1.477
265101.000			5.910			-1.477
265200.000			5.909			-1.477
265300.000			5.909			-1.477
265402.000			5.910			-1.477
265501.000			5.909			-1.477
265600.000			5.909			-1.477
265701.000			5.910			-1.477
265800.000			5.909			-1.477
265900.000			5.909			-1.477
266001.000			5.909			-1.477
266100.000			5.909			-1.477
266200.000			5.909			-1.477
266302.000			5.909			-1.477
266401.000			5.908			-1.477
266500.000			5.908			-1.477
266601.000			5.908			-1.477
266700.000			5.908			-1.477
266800.000			5.908			-1.477
266901.000			5.909			-1.477
267000.000			5.909			-1.477
267100.000			5.909			-1.477
267202.000			5.910			-1.477
267301.000			5.910			-1.477
267402.000			5.910			-1.477
267500.000			5.909			-1.477
267600.000			5.909			-1.477
267701.000			5.909			-1.477
267800.000			5.908			-1.477
267900.000			5.908			-1.477
268001.000			5.908			-1.477
268100.000			5.908			-1.477
268201.000			5.908			-1.477
268302.000			5.908			-1.477
268401.000			5.908			-1.477
268500.000			5.908			-1.477
268601.000			5.907			-1.477
268700.000			5.908			-1.477
268800.000			5.908			-1.477
268901.000			5.909			-1.477
269000.000			5.909			-1.477
269100.000			5.908			-1.477
269202.000			5.907			-1.477
269301.000			5.907			-1.477
269400.000			5.907			-1.477
269501.000			5.907			-1.477
269600.000			5.907			-1.477
269700.000			5.907			-1.477
269801.000			5.908			-1.477
269900.000			5.907			-1.477
270000.000			5.907			-1.477
270102.000			5.907			-1.477
270201.000			5.907			-1.477
270301.000			5.907			-1.477
270401.000			5.907			-1.477
270500.000			5.908			-1.477
270600.000			5.908			-1.477
270700.000			5.908			-1.477
270800.000			5.908			-1.477
270901.000			5.908			-1.477
271001.000			5.907			-1.477
271101.000			5.907			-1.477
271202.000			5.906			-1.477
271300.000			5.907			-1.477
271400.000			5.908			-1.477
271501.000			5.907			-1.477
271600.000			5.907			-1.477
271700.000			5.907			-1.477
271801.000			5.907			-1.477
271900.000			5.907			-1.477
272001.000			5.907			-1.477
272102.000			5.907			-1.477
272200.000			5.906			-1.477
272300.000			5.905			-1.476
272401.000			5.906			-1.476
272500.000			5.906			-1.477
272600.000			5.907			-1.477
272701.000			5.906			-1.477
272800.000			5.906			-1.477
272901.000			5.907			-1.477
273002.000			5.906			-1.477
273101.000			5.906			-1.477
273200.000			5.906			-1.477
273301.000			5.907			-1.477
273400.000			5.906			-1.477
273500.000			5.906			-1.477
273601.000			5.906			-1.476
273700.000			5.905			-1.476
273802.000			5.906			-1.476
273901.000			5.907			-1.477
274001.000			5.906			-1.477
274101.000			5.905			-1.476
274200.000			5.906			-1.476
274300.000			5.906			-1.477
274401.000			5.906			-1.476
274500.000			5.905			-1.476
274600.000			5.906			-1.477
274702.000			5.906			-1.476
274801.000			5.905			-1.476
274901.000			5.906			-1.476
275001.000			5.905			-1.476
275100.000			5.905			-1.476
275200.000			5.906			-1.476
275301.000			5.905			-1.476
275400.000			5.905			-1.476
275500.000			5.905			-1.476
275601.000			5.905			-1.476
275701.000			5.906			-1.477
275801.000			5.906			-1.476
275901.000			5.905			-1.476
276000.000			5.906			-1.476
276100.000			5.905			-1.476
276201.000			5.906			-1.476
276300.000			5.906			-1.476
276400.000			5.906			-1.476
276501.000			5.905			-1.476
276601.000			5.904			-1.476
276701.000			5.904			-1.476
276802.000			5.906			-1.477
276900.000			5.905			-1.476
277000.000			5.905			-1.476
277100.000			5.905			-1.476
277200.000			5.904			-1.476
277301.000			5.904			-1.476
277400.000			5.904			-1.476
277500.000			5.904			-1.476
277602.000			5.905			-1.476
277701.000			5.905			-1.476
277800.000			5.905			-1.476
277901.000			5.904			-1.476
278000.000			5.904			-1.476
278100.000			5.904			-1.476
278201.000			5.905			-1.476
278300.000			5.904			-1.476
278400.000			5.904			-1.476
278502.000			5.904			-1.476
278601.000			5.905			-1.476
278701.000			5.905			-1.476
278801.000			5.903			-1.476
278900.000			5.903			-1.476
279000.000			5.905			-1.476
279101.000			5.904			-1.476
279200.000			5.903			-1.476
279300.000			5.904			-1.476
279401.000			5.903			-1.476
279501.000			5.903			-1.476
279601.000			5.904			-1.476
279701.000			5.904			-1.476
279800.000			5.903			-1.476
279900.000			5.903			-1.476
280001.000			5.904			-1.476
280100.000			5.904			-1.476
280200.000			5.903			-1.476
280300.000			5.903			-1.476
280401.000			5.903			-1.476
280502.000			5.904			-1.476
280601.000			5.903			-1.476
280700.000			5.903			-1.476
280801.000			5.902			-1.476
280900.000			5.903			-1.476
281000.000			5.903			-1.476
281101.000			5.903			-1.476
281200.000			5.904			-1.476
281301.000			5.903			-1.476
281402.000			5.902			-1.476
281501.000			5.902			-1.476
281600.000			5.902			-1.476
281701.000			5.903			-1.476
281800.000			5.903			-1.476
281900.000			5.903			-1.476
282001.000			5.902			-1.476
282100.000			5.902			-1.476
282201.000			5.902			-1.475
282302.000			5.902			-1.475
282401.000			5.901			-1.475
282500.000			5.902			-1.475
282601.000			5.902			-1.476
282700.000			5.902			-1.476
282800.000			5.903			-1.476
282901.000			5.902			-1.476
283000.000			5.902			-1.476
283101.000			5.903			-1.476
283202.000			5.903			-1.476
283301.000			5.902			-1.476
283400.000			5.902			-1.476
283500.000			5.902			-1.476
283600.000			5.903			-1.476
283701.000			5.903			-1.476
283800.000			5.902			-1.475
283900.000			5.902			-1.475
284002.000			5.902			-1.476
284101.000			5.902			-1.476
284201.000			5.902			-1.476
284301.000			5.902			-1.475
284400.000			5.901			-1.475
284500.000			5.902			-1.475
284601.000			5.902			-1.476
284700.000			5.902			-1.476
284800.000			5.902			-1.475
284902.000			5.902			-1.475
285001.000			5.901			-1.475
285101.000			5.901			-1.475
285201.000			5.902			-1.475
285300.000			5.902			-1.475
285400.000			5.901			-1.475
285501.000			5.901			-1.475
285600.000			5.901			-1.475
285700.000			5.902			-1.475
285801.000			5.903			-1.476
285901.000			5.903			-1.476
286001.000			5.902			-1.475
286101.000			5.901			-1.475
286200.000			5.902			-1.476
286300.000			5.902			-1.475
286401.000			5.901			-1.475
286500.000			5.900			-1.475
286600.000			5.900			-1.475
286700.000			5.901			-1.475
286801.000			5.902			-1.475
286902.000			5.900			-1.475
287001.000			5.900			-1.475
287100.000			5.901			-1.475
287201.000			5.901			-1.475
287300.000			5.901			-1.475
287400.000			5.901			-1.475
287501.000			5.902			-1.475
287600.000			5.901			-1.475
287701.000			5.901			-1.475
287802.000			5.901			-1.475
287901.000			5.901			-1.475
288000.000			5.901			-1.475
288101.000			5.899			-1.475
288200.000			5.899			-1.475
288300.000			5.900			-1.475
288401.000			5.901			-1.475
288500.000			5.900			-1.475
288600.000			5.901			-1.475
288702.000			5.902			-1.475
288801.000			5.900			-1.475
288900.000			5.900			-1.475
289001.000			5.900			-1.475
289100.000			5.899			-1.475
289200.000			5.900			-1.475
289301.000			5.900			-1.475
289400.000			5.900			-1.475
289500.000			5.901			-1.475
289602.000			5.901			-1.475
289701.000			5.900			-1.475
289802.000			5.899			-1.475
289900.000			5.898			-1.475
290000.000			5.898			-1.475
290101.000			5.898			-1.475
290200.000			5.900			-1.475
290300.000			5.900			-1.475
290401.000			5.900			-1.475
290500.000			5.899			-1.475
290601.000			5.899			-1.475
290702.000			5.899			-1.475
290801.000			5.900			-1.475
290900.000			5.900			-1.475
291001.000			5.899			-1.475
291100.000			5.899			-1.475
291200.000			5.900			-1.475
291301.000			5.899			-1.475
291400.000			5.898			-1.475
291500.000			5.897			-1.474
291602.000			5.898			-1.475
291701.000			5.899			-1.475
291801.000			5.899			-1.475
291901.000			5.899			-1.475
292000.000			5.899			-1.475
292100.000			5.899			-1.475
292201.000			5.899			-1.475
292300.000			5.899			-1.475
292400.000			5.899			-1.475
292501.000			5.899			-1.475
292601.000			5.899			-1.475
292701.000			5.898			-1.475
292801.000			5.898			-1.475
292900.000			5.898			-1.475
293000.000			5.898			-1.474
293100.000			5.898			-1.474
293200.000			5.898			-1.474
293301.000			5.898			-1.475
293400.000			5.898			-1.475
293500.000			5.898			-1.475
293602.000			5.898			-1.475
293701.000			5.899			-1.475
293800.000			5.898			-1.475
293901.000			5.898			-1.474
294000.000			5.898			-1.475
294100.000			5.899			-1.475
294201.000			5.897			-1.474
294300.000			5.897			-1.474
294400.000			5.898			-1.474
294502.000			5.897			-1.474
294601.000			5.897			-1.474
294701.000			5.898			-1.474
294801.000			5.898			-1.474
294900.000			5.898			-1.475
295000.000			5.897			-1.474
295101.000			5.897			-1.474
295200.000			5.897			-1.474
295300.000			5.898			-1.475
295401.000			5.898			-1.475
295501.000			5.897			-1.474
295601.000			5.897			-1.474
295702.000			5.898			-1.474
295800.000			5.898			-1.475
295900.000			5.898			-1.474
296001.000			5.898			-1.475
296100.000			5.899			-1.475
296200.000			5.898			-1.474
296300.000			5.898			-1.474
296400.000			5.897			-1.474
296502.000			5.897			-1.474
296601.000			5.897			-1.474
296701.000			5.896			-1.474
296801.000			5.897			-1.474
296900.000			5.898			-1.474
297000.000			5.897			-1.474
297101.000			5.896			-1.474
297200.000			5.896			-1.474
297300.000			5.897			-1.474
297401.000			5.898			-1.474
297501.000			5.897			-1.474
297601.000			5.898			-1.474
297702.000			5.898			-1.474
297800.000			5.897			-1.474
297900.000			5.898			-1.474
298001.000			5.897			-1.474
298100.000			5.895			-1.474
298200.000			5.896			-1.474
298301.000			5.897			-1.474
298400.000			5.896			-1.474
298501.000			5.897			-1.474
298602.000			5.896			-1.474
298701.000			5.897			-1.474
298800.000			5.898			-1.474
298901.000			5.897			-1.474
299000.000			5.896			-1.474
299100.000			5.896			-1.474
299201.000			5.896			-1.474
299300.000			5.896			-1.474
299400.000			5.896			-1.474
299500.000			5.896			-1.474
299601.000			5.896			-1.474
299702.000			5.896			-1.474
299801.000			5.896			-1.474
299900.000			5.896			-1.474
