# Acquired on 10/01/2024 12:07:23 
# SPIDER: Creep_-3mm_07714532B-2
# CREEP MEASUREMENT

# time [ms]		force [N]		stiffness [N/mm]
1.000			6.607			-2.202
101.000			8.309			-2.770
200.000			8.486			-2.829
300.000			8.467			-2.822
401.000			8.427			-2.809
500.000			8.397			-2.799
601.000			8.373			-2.791
702.000			8.353			-2.784
800.000			8.319			-2.773
900.000			8.304			-2.768
1001.000			8.291			-2.764
1100.000			8.280			-2.760
1200.000			8.270			-2.757
1302.000			8.260			-2.753
1401.000			8.250			-2.750
1500.000			8.242			-2.747
1601.000			8.226			-2.742
1700.000			8.219			-2.740
1800.000			8.211			-2.737
1901.000			8.204			-2.735
2000.000			8.199			-2.733
2101.000			8.194			-2.731
2202.000			8.188			-2.729
2300.000			8.175			-2.725
2401.000			8.171			-2.724
2500.000			8.166			-2.722
2600.000			8.161			-2.720
2701.000			8.157			-2.719
2800.000			8.153			-2.718
2901.000			8.148			-2.716
3002.000			8.141			-2.714
3100.000			8.137			-2.712
3200.000			8.132			-2.711
3301.000			8.128			-2.709
3400.000			8.126			-2.709
3500.000			8.122			-2.707
3602.000			8.118			-2.706
3701.000			8.112			-2.704
3800.000			8.109			-2.703
3901.000			8.105			-2.702
4000.000			8.104			-2.701
4100.000			8.101			-2.700
4201.000			8.096			-2.699
4301.000			8.094			-2.698
4401.000			8.092			-2.697
4502.000			8.087			-2.696
4600.000			8.085			-2.695
4700.000			8.083			-2.694
4801.000			8.080			-2.693
4900.000			8.078			-2.693
5000.000			8.076			-2.692
5102.000			8.074			-2.691
5201.000			8.068			-2.689
5300.000			8.066			-2.689
5401.000			8.064			-2.688
5500.000			8.061			-2.687
5601.000			8.059			-2.686
5700.000			8.057			-2.686
5800.000			8.055			-2.685
5902.000			8.051			-2.684
6001.000			8.049			-2.683
6100.000			8.047			-2.682
6201.000			8.046			-2.682
6300.000			8.044			-2.681
6400.000			8.042			-2.681
6501.000			8.040			-2.680
6600.000			8.038			-2.679
6701.000			8.034			-2.678
6802.000			8.033			-2.678
6900.000			8.032			-2.677
7000.000			8.031			-2.677
7101.000			8.029			-2.676
7200.000			8.028			-2.676
7300.000			8.025			-2.675
7402.000			8.024			-2.675
7501.000			8.021			-2.674
7600.000			8.020			-2.673
7701.000			8.018			-2.673
7800.000			8.017			-2.672
7900.000			8.016			-2.672
8001.000			8.015			-2.672
8100.000			8.010			-2.670
8201.000			8.009			-2.670
8302.000			8.008			-2.669
8400.000			8.007			-2.669
8500.000			8.006			-2.669
8601.000			8.004			-2.668
8700.000			8.003			-2.668
8801.000			8.001			-2.667
8901.000			8.000			-2.667
9001.000			7.998			-2.666
9101.000			7.996			-2.665
9200.000			7.995			-2.665
9300.000			7.994			-2.665
9401.000			7.993			-2.664
9500.000			7.992			-2.664
9600.000			7.989			-2.663
9702.000			7.988			-2.663
9801.000			7.987			-2.662
9901.000			7.986			-2.662
10001.000			7.985			-2.662
10100.000			7.984			-2.661
10200.000			7.982			-2.661
10301.000			7.981			-2.660
10400.000			7.980			-2.660
10500.000			7.979			-2.660
10602.000			7.978			-2.659
10701.000			7.977			-2.659
10800.000			7.975			-2.658
10901.000			7.974			-2.658
11000.000			7.971			-2.657
11100.000			7.970			-2.657
11201.000			7.970			-2.657
11300.000			7.968			-2.656
11401.000			7.968			-2.656
11502.000			7.967			-2.656
11600.000			7.966			-2.655
11700.000			7.964			-2.655
11801.000			7.964			-2.655
11900.000			7.963			-2.654
12001.000			7.962			-2.654
12100.000			7.961			-2.654
12201.000			7.960			-2.653
12302.000			7.958			-2.653
12400.000			7.957			-2.652
12500.000			7.956			-2.652
12601.000			7.955			-2.652
12700.000			7.954			-2.651
12800.000			7.954			-2.651
12901.000			7.953			-2.651
13001.000			7.952			-2.651
13101.000			7.951			-2.650
13201.000			7.948			-2.649
13300.000			7.948			-2.649
13400.000			7.947			-2.649
13501.000			7.946			-2.649
13600.000			7.945			-2.648
13700.000			7.945			-2.648
13802.000			7.943			-2.648
13901.000			7.943			-2.648
14001.000			7.942			-2.647
14101.000			7.941			-2.647
14200.000			7.940			-2.647
14300.000			7.939			-2.646
14401.000			7.938			-2.646
14500.000			7.937			-2.646
14600.000			7.937			-2.646
14702.000			7.936			-2.645
14801.000			7.935			-2.645
14900.000			7.934			-2.645
15001.000			7.934			-2.645
15100.000			7.933			-2.644
15201.000			7.932			-2.644
15300.000			7.931			-2.644
15400.000			7.929			-2.643
15502.000			7.929			-2.643
15601.000			7.928			-2.643
15700.000			7.928			-2.643
15801.000			7.926			-2.642
15900.000			7.925			-2.642
16000.000			7.925			-2.642
16101.000			7.924			-2.641
16200.000			7.924			-2.641
16301.000			7.923			-2.641
16402.000			7.922			-2.641
16500.000			7.921			-2.640
16600.000			7.920			-2.640
16701.000			7.920			-2.640
16800.000			7.920			-2.640
16900.000			7.918			-2.639
17001.000			7.917			-2.639
17101.000			7.917			-2.639
17201.000			7.916			-2.639
17301.000			7.916			-2.639
17400.000			7.915			-2.638
17500.000			7.913			-2.638
17601.000			7.912			-2.637
17700.000			7.912			-2.637
17800.000			7.911			-2.637
17901.000			7.912			-2.637
18001.000			7.911			-2.637
18101.000			7.910			-2.637
18201.000			7.909			-2.636
18300.000			7.908			-2.636
18401.000			7.908			-2.636
18500.000			7.907			-2.636
18600.000			7.905			-2.635
18701.000			7.905			-2.635
18801.000			7.905			-2.635
18901.000			7.905			-2.635
19001.000			7.904			-2.635
19100.000			7.904			-2.635
19200.000			7.903			-2.634
19301.000			7.902			-2.634
19400.000			7.901			-2.634
19500.000			7.900			-2.633
19602.000			7.900			-2.633
19701.000			7.898			-2.633
19800.000			7.898			-2.633
19901.000			7.898			-2.633
20000.000			7.898			-2.633
20100.000			7.897			-2.632
20201.000			7.896			-2.632
20300.000			7.897			-2.632
20401.000			7.896			-2.632
20502.000			7.895			-2.632
20600.000			7.894			-2.631
20700.000			7.893			-2.631
20801.000			7.892			-2.631
20900.000			7.892			-2.631
21000.000			7.892			-2.631
21101.000			7.891			-2.630
21201.000			7.890			-2.630
21301.000			7.890			-2.630
21402.000			7.890			-2.630
21500.000			7.889			-2.630
21601.000			7.888			-2.629
21700.000			7.887			-2.629
21800.000			7.887			-2.629
21901.000			7.886			-2.629
22000.000			7.887			-2.629
22101.000			7.886			-2.629
22202.000			7.885			-2.628
22300.000			7.885			-2.628
22400.000			7.883			-2.628
22501.000			7.882			-2.627
22600.000			7.883			-2.628
22700.000			7.882			-2.627
22801.000			7.882			-2.627
22901.000			7.881			-2.627
23001.000			7.881			-2.627
23101.000			7.881			-2.627
23200.000			7.880			-2.627
23300.000			7.879			-2.626
23401.000			7.878			-2.626
23500.000			7.878			-2.626
23600.000			7.878			-2.626
23702.000			7.878			-2.626
23801.000			7.876			-2.625
23900.000			7.875			-2.625
24001.000			7.875			-2.625
24100.000			7.873			-2.624
24200.000			7.873			-2.624
24301.000			7.875			-2.625
24400.000			7.874			-2.625
24501.000			7.872			-2.624
24602.000			7.872			-2.624
24701.000			7.872			-2.624
24801.000			7.871			-2.624
24900.000			7.869			-2.623
25000.000			7.868			-2.623
25101.000			7.869			-2.623
25200.000			7.869			-2.623
25300.000			7.869			-2.623
25402.000			7.867			-2.622
25501.000			7.868			-2.623
25600.000			7.868			-2.623
25701.000			7.867			-2.622
25800.000			7.866			-2.622
25900.000			7.866			-2.622
26001.000			7.866			-2.622
26100.000			7.866			-2.622
26201.000			7.865			-2.622
26302.000			7.864			-2.621
26400.000			7.863			-2.621
26500.000			7.863			-2.621
26601.000			7.863			-2.621
26700.000			7.862			-2.621
26800.000			7.861			-2.620
26901.000			7.862			-2.621
27001.000			7.860			-2.620
27101.000			7.860			-2.620
27201.000			7.859			-2.620
27300.000			7.860			-2.620
27400.000			7.859			-2.620
27501.000			7.859			-2.620
27600.000			7.859			-2.620
27700.000			7.858			-2.619
27801.000			7.857			-2.619
27901.000			7.856			-2.619
28002.000			7.856			-2.619
28100.000			7.855			-2.618
28200.000			7.855			-2.618
28301.000			7.855			-2.618
28400.000			7.855			-2.618
28500.000			7.854			-2.618
28601.000			7.853			-2.618
28701.000			7.854			-2.618
28801.000			7.854			-2.618
28901.000			7.853			-2.618
29000.000			7.853			-2.618
29100.000			7.852			-2.617
29201.000			7.852			-2.617
29300.000			7.851			-2.617
29400.000			7.851			-2.617
29502.000			7.850			-2.617
29601.000			7.850			-2.617
29700.000			7.849			-2.616
29801.000			7.848			-2.616
29900.000			7.847			-2.616
30000.000			7.847			-2.616
30101.000			7.847			-2.616
30200.000			7.847			-2.616
30300.000			7.847			-2.616
30402.000			7.847			-2.616
30501.000			7.845			-2.615
30600.000			7.845			-2.615
30701.000			7.844			-2.615
30800.000			7.843			-2.614
30900.000			7.844			-2.615
31001.000			7.844			-2.615
31101.000			7.844			-2.615
31202.000			7.844			-2.615
31301.000			7.843			-2.614
31400.000			7.842			-2.614
31501.000			7.841			-2.614
31600.000			7.841			-2.614
31700.000			7.841			-2.614
31801.000			7.841			-2.614
31900.000			7.841			-2.614
32001.000			7.841			-2.614
32102.000			7.839			-2.613
32200.000			7.840			-2.613
32300.000			7.840			-2.613
32401.000			7.840			-2.613
32500.000			7.838			-2.613
32600.000			7.837			-2.612
32701.000			7.837			-2.612
32801.000			7.837			-2.612
32901.000			7.838			-2.613
33001.000			7.838			-2.613
33100.000			7.837			-2.612
33200.000			7.837			-2.612
33301.000			7.837			-2.612
33400.000			7.836			-2.612
33500.000			7.835			-2.612
33602.000			7.835			-2.612
33701.000			7.834			-2.611
33800.000			7.834			-2.611
33901.000			7.833			-2.611
34000.000			7.833			-2.611
34100.000			7.833			-2.611
34201.000			7.833			-2.611
34300.000			7.833			-2.611
34402.000			7.833			-2.611
34501.000			7.832			-2.611
34600.000			7.831			-2.610
34701.000			7.830			-2.610
34800.000			7.830			-2.610
34900.000			7.830			-2.610
35001.000			7.829			-2.610
35100.000			7.830			-2.610
35201.000			7.829			-2.610
35302.000			7.829			-2.610
35400.000			7.828			-2.609
35500.000			7.828			-2.609
35601.000			7.828			-2.609
35700.000			7.827			-2.609
35800.000			7.827			-2.609
35901.000			7.827			-2.609
36001.000			7.825			-2.608
36101.000			7.826			-2.609
36201.000			7.827			-2.609
36300.000			7.826			-2.609
36400.000			7.824			-2.608
36501.000			7.824			-2.608
36600.000			7.824			-2.608
36700.000			7.824			-2.608
36802.000			7.824			-2.608
36901.000			7.824			-2.608
37000.000			7.824			-2.608
37101.000			7.822			-2.607
37200.000			7.822			-2.607
37300.000			7.822			-2.607
37401.000			7.822			-2.607
37500.000			7.821			-2.607
37602.000			7.821			-2.607
37701.000			7.821			-2.607
37800.000			7.821			-2.607
37901.000			7.821			-2.607
38000.000			7.820			-2.607
38100.000			7.819			-2.606
38201.000			7.819			-2.606
38300.000			7.819			-2.606
38401.000			7.819			-2.606
38502.000			7.819			-2.606
38601.000			7.820			-2.607
38700.000			7.819			-2.606
38801.000			7.818			-2.606
38900.000			7.816			-2.605
39000.000			7.816			-2.605
39101.000			7.816			-2.605
39201.000			7.817			-2.606
39301.000			7.816			-2.605
39402.000			7.816			-2.605
39500.000			7.816			-2.605
39600.000			7.816			-2.605
39701.000			7.816			-2.605
39800.000			7.815			-2.605
39900.000			7.814			-2.605
40001.000			7.814			-2.605
40101.000			7.815			-2.605
40201.000			7.814			-2.605
40301.000			7.813			-2.604
40400.000			7.813			-2.604
40500.000			7.812			-2.604
40601.000			7.812			-2.604
40700.000			7.813			-2.604
40801.000			7.812			-2.604
40901.000			7.811			-2.604
41001.000			7.812			-2.604
41101.000			7.812			-2.604
41200.000			7.811			-2.604
41300.000			7.811			-2.604
41401.000			7.810			-2.603
41500.000			7.810			-2.603
41601.000			7.810			-2.603
41702.000			7.809			-2.603
41801.000			7.809			-2.603
41900.000			7.807			-2.602
42001.000			7.808			-2.603
42100.000			7.808			-2.603
42200.000			7.809			-2.603
42301.000			7.807			-2.602
42401.000			7.806			-2.602
42501.000			7.807			-2.602
42602.000			7.807			-2.602
42700.000			7.806			-2.602
42800.000			7.806			-2.602
42901.000			7.807			-2.602
43000.000			7.805			-2.602
43100.000			7.805			-2.602
43201.000			7.805			-2.602
43301.000			7.805			-2.602
43401.000			7.804			-2.601
43501.000			7.804			-2.601
43600.000			7.804			-2.601
43700.000			7.803			-2.601
43801.000			7.802			-2.601
43900.000			7.803			-2.601
44001.000			7.802			-2.601
44101.000			7.802			-2.601
44201.000			7.802			-2.601
44301.000			7.802			-2.601
44400.000			7.801			-2.600
44500.000			7.801			-2.600
44601.000			7.801			-2.600
44700.000			7.801			-2.600
44800.000			7.800			-2.600
44902.000			7.800			-2.600
45001.000			7.801			-2.600
45100.000			7.799			-2.600
45201.000			7.800			-2.600
45300.000			7.799			-2.600
45400.000			7.799			-2.600
45501.000			7.797			-2.599
45600.000			7.797			-2.599
45701.000			7.797			-2.599
45802.000			7.797			-2.599
45901.000			7.797			-2.599
46000.000			7.797			-2.599
46101.000			7.796			-2.599
46200.000			7.796			-2.599
46300.000			7.796			-2.599
46401.000			7.796			-2.599
46500.000			7.796			-2.599
46601.000			7.796			-2.599
46702.000			7.795			-2.598
46800.000			7.794			-2.598
46900.000			7.794			-2.598
47001.000			7.794			-2.598
47100.000			7.794			-2.598
47201.000			7.794			-2.598
47300.000			7.794			-2.598
47401.000			7.793			-2.598
47502.000			7.792			-2.597
47600.000			7.792			-2.597
47700.000			7.792			-2.597
47801.000			7.792			-2.597
47900.000			7.792			-2.597
48000.000			7.793			-2.598
48101.000			7.792			-2.597
48201.000			7.791			-2.597
48301.000			7.791			-2.597
48402.000			7.790			-2.597
48500.000			7.790			-2.597
48600.000			7.790			-2.597
48701.000			7.790			-2.597
48800.000			7.790			-2.597
48900.000			7.790			-2.597
49001.000			7.789			-2.596
49101.000			7.788			-2.596
49201.000			7.789			-2.596
49301.000			7.789			-2.596
49400.000			7.787			-2.596
49500.000			7.788			-2.596
49601.000			7.788			-2.596
49700.000			7.786			-2.595
49800.000			7.786			-2.595
49901.000			7.787			-2.596
50001.000			7.788			-2.596
50101.000			7.788			-2.596
50201.000			7.787			-2.596
50300.000			7.785			-2.595
50401.000			7.786			-2.595
50500.000			7.785			-2.595
50600.000			7.784			-2.595
50701.000			7.785			-2.595
50801.000			7.785			-2.595
50901.000			7.785			-2.595
51001.000			7.784			-2.595
51100.000			7.784			-2.595
51200.000			7.783			-2.594
51301.000			7.782			-2.594
51400.000			7.783			-2.594
51500.000			7.784			-2.595
51602.000			7.783			-2.594
51701.000			7.782			-2.594
51800.000			7.783			-2.594
51901.000			7.783			-2.594
52000.000			7.783			-2.594
52100.000			7.782			-2.594
52201.000			7.781			-2.594
52300.000			7.782			-2.594
52401.000			7.782			-2.594
52502.000			7.782			-2.594
52600.000			7.781			-2.594
52700.000			7.781			-2.594
52801.000			7.780			-2.593
52900.000			7.780			-2.593
53000.000			7.779			-2.593
53101.000			7.780			-2.593
53201.000			7.779			-2.593
53301.000			7.778			-2.593
53401.000			7.778			-2.593
53500.000			7.778			-2.593
53601.000			7.779			-2.593
53700.000			7.778			-2.593
53800.000			7.778			-2.593
53901.000			7.777			-2.592
54000.000			7.778			-2.593
54101.000			7.777			-2.592
54202.000			7.775			-2.592
54300.000			7.776			-2.592
54400.000			7.777			-2.592
54501.000			7.777			-2.592
54600.000			7.776			-2.592
54700.000			7.776			-2.592
54801.000			7.776			-2.592
54901.000			7.776			-2.592
55001.000			7.775			-2.592
55101.000			7.775			-2.592
55200.000			7.775			-2.592
55300.000			7.775			-2.592
55401.000			7.774			-2.591
55500.000			7.773			-2.591
55600.000			7.774			-2.591
55702.000			7.773			-2.591
55801.000			7.773			-2.591
55900.000			7.774			-2.591
56001.000			7.773			-2.591
56100.000			7.773			-2.591
56200.000			7.773			-2.591
56301.000			7.772			-2.591
56400.000			7.772			-2.591
56500.000			7.772			-2.591
56602.000			7.772			-2.591
56701.000			7.772			-2.591
56801.000			7.772			-2.591
56900.000			7.771			-2.590
57000.000			7.772			-2.591
57101.000			7.772			-2.591
57200.000			7.772			-2.591
57300.000			7.770			-2.590
57402.000			7.770			-2.590
57501.000			7.770			-2.590
57600.000			7.771			-2.590
57701.000			7.769			-2.590
57800.000			7.769			-2.590
57900.000			7.770			-2.590
58001.000			7.769			-2.590
58100.000			7.769			-2.590
58200.000			7.768			-2.589
58302.000			7.769			-2.590
58401.000			7.768			-2.589
58500.000			7.769			-2.590
58601.000			7.767			-2.589
58700.000			7.767			-2.589
58800.000			7.768			-2.589
58901.000			7.768			-2.589
59000.000			7.767			-2.589
59101.000			7.766			-2.589
59202.000			7.767			-2.589
59300.000			7.766			-2.589
59400.000			7.766			-2.589
59501.000			7.766			-2.589
59600.000			7.766			-2.589
59700.000			7.766			-2.589
59801.000			7.766			-2.589
59900.000			7.766			-2.589
60002.000			7.765			-2.588
60101.000			7.766			-2.589
60200.000			7.766			-2.589
60301.000			7.765			-2.588
60400.000			7.764			-2.588
60500.000			7.764			-2.588
60601.000			7.764			-2.588
60700.000			7.763			-2.588
60801.000			7.764			-2.588
60902.000			7.764			-2.588
61000.000			7.764			-2.588
61100.000			7.764			-2.588
61201.000			7.764			-2.588
61300.000			7.763			-2.588
61400.000			7.763			-2.588
61501.000			7.763			-2.588
61601.000			7.762			-2.587
61701.000			7.762			-2.587
61801.000			7.762			-2.587
61900.000			7.762			-2.587
62000.000			7.762			-2.587
62101.000			7.761			-2.587
62200.000			7.761			-2.587
62300.000			7.761			-2.587
62402.000			7.761			-2.587
62501.000			7.761			-2.587
62600.000			7.761			-2.587
62701.000			7.761			-2.587
62800.000			7.760			-2.587
62900.000			7.760			-2.587
63001.000			7.759			-2.586
63100.000			7.759			-2.586
63202.000			7.758			-2.586
63301.000			7.759			-2.586
63400.000			7.758			-2.586
63501.000			7.758			-2.586
63600.000			7.759			-2.586
63700.000			7.759			-2.586
63801.000			7.758			-2.586
63900.000			7.757			-2.586
64000.000			7.758			-2.586
64102.000			7.757			-2.586
64201.000			7.757			-2.586
64300.000			7.757			-2.586
64401.000			7.756			-2.585
64500.000			7.757			-2.586
64600.000			7.756			-2.585
64701.000			7.756			-2.585
64800.000			7.755			-2.585
64901.000			7.756			-2.585
65002.000			7.756			-2.585
65100.000			7.756			-2.585
65200.000			7.755			-2.585
65301.000			7.755			-2.585
65400.000			7.754			-2.585
65500.000			7.755			-2.585
65601.000			7.754			-2.585
65701.000			7.753			-2.584
65801.000			7.755			-2.585
65901.000			7.755			-2.585
66000.000			7.755			-2.585
66100.000			7.753			-2.584
66201.000			7.754			-2.585
66300.000			7.753			-2.584
66401.000			7.752			-2.584
66501.000			7.752			-2.584
66601.000			7.753			-2.584
66702.000			7.752			-2.584
66800.000			7.751			-2.584
66900.000			7.752			-2.584
67001.000			7.752			-2.584
67100.000			7.751			-2.584
67200.000			7.752			-2.584
67301.000			7.751			-2.584
67401.000			7.751			-2.584
67501.000			7.752			-2.584
67601.000			7.750			-2.583
67700.000			7.750			-2.583
67800.000			7.750			-2.583
67901.000			7.749			-2.583
68000.000			7.749			-2.583
68100.000			7.748			-2.583
68202.000			7.750			-2.583
68301.000			7.749			-2.583
68400.000			7.750			-2.583
68501.000			7.749			-2.583
68600.000			7.749			-2.583
68700.000			7.747			-2.582
68801.000			7.747			-2.582
68900.000			7.748			-2.583
69000.000			7.748			-2.583
69102.000			7.748			-2.583
69201.000			7.748			-2.583
69300.000			7.748			-2.583
69401.000			7.748			-2.583
69500.000			7.747			-2.582
69601.000			7.746			-2.582
69700.000			7.746			-2.582
69800.000			7.747			-2.582
69902.000			7.747			-2.582
70001.000			7.746			-2.582
70101.000			7.746			-2.582
70201.000			7.746			-2.582
70300.000			7.745			-2.582
70400.000			7.746			-2.582
70501.000			7.745			-2.582
70600.000			7.745			-2.582
70700.000			7.746			-2.582
70802.000			7.746			-2.582
70901.000			7.745			-2.582
71000.000			7.744			-2.581
71101.000			7.744			-2.581
71200.000			7.744			-2.581
71300.000			7.743			-2.581
71401.000			7.744			-2.581
71500.000			7.744			-2.581
71601.000			7.745			-2.582
71702.000			7.744			-2.581
71800.000			7.743			-2.581
71900.000			7.743			-2.581
72001.000			7.743			-2.581
72100.000			7.743			-2.581
72200.000			7.743			-2.581
72301.000			7.743			-2.581
72401.000			7.742			-2.581
72501.000			7.743			-2.581
72601.000			7.743			-2.581
72700.000			7.741			-2.580
72801.000			7.741			-2.580
72900.000			7.742			-2.581
73000.000			7.740			-2.580
73101.000			7.741			-2.580
73201.000			7.742			-2.581
73301.000			7.741			-2.580
73401.000			7.741			-2.580
73500.000			7.740			-2.580
73600.000			7.740			-2.580
73701.000			7.740			-2.580
73800.000			7.740			-2.580
73900.000			7.740			-2.580
74002.000			7.739			-2.580
74101.000			7.739			-2.580
74201.000			7.740			-2.580
74301.000			7.740			-2.580
74400.000			7.739			-2.580
74500.000			7.739			-2.580
74601.000			7.740			-2.580
74700.000			7.741			-2.580
74800.000			7.740			-2.580
74902.000			7.739			-2.580
75001.000			7.739			-2.580
75100.000			7.738			-2.579
75201.000			7.739			-2.580
75300.000			7.739			-2.580
75400.000			7.738			-2.579
75501.000			7.738			-2.579
75600.000			7.738			-2.579
75701.000			7.737			-2.579
75802.000			7.737			-2.579
75901.000			7.738			-2.579
76001.000			7.738			-2.579
76100.000			7.737			-2.579
76200.000			7.738			-2.579
76301.000			7.738			-2.579
76400.000			7.737			-2.579
76500.000			7.737			-2.579
76602.000			7.738			-2.579
76701.000			7.737			-2.579
76800.000			7.736			-2.579
76901.000			7.736			-2.579
77000.000			7.735			-2.578
77100.000			7.737			-2.579
77201.000			7.736			-2.579
77300.000			7.736			-2.579
77401.000			7.736			-2.579
77502.000			7.735			-2.578
77600.000			7.736			-2.579
77700.000			7.735			-2.578
77801.000			7.735			-2.578
77900.000			7.734			-2.578
78000.000			7.735			-2.578
78101.000			7.736			-2.579
78200.000			7.735			-2.578
78301.000			7.734			-2.578
78402.000			7.734			-2.578
78500.000			7.734			-2.578
78600.000			7.733			-2.578
78701.000			7.734			-2.578
78800.000			7.734			-2.578
78900.000			7.734			-2.578
79001.000			7.733			-2.578
79101.000			7.732			-2.577
79202.000			7.733			-2.578
79300.000			7.733			-2.578
79400.000			7.733			-2.578
79501.000			7.733			-2.578
79600.000			7.733			-2.578
79700.000			7.732			-2.577
79801.000			7.733			-2.578
79901.000			7.733			-2.578
80001.000			7.732			-2.577
80101.000			7.731			-2.577
80200.000			7.730			-2.577
80300.000			7.732			-2.577
80401.000			7.732			-2.577
80500.000			7.731			-2.577
80600.000			7.732			-2.577
80702.000			7.731			-2.577
80801.000			7.731			-2.577
80901.000			7.731			-2.577
81001.000			7.729			-2.576
81100.000			7.730			-2.577
81200.000			7.731			-2.577
81301.000			7.730			-2.577
81400.000			7.730			-2.577
81500.000			7.729			-2.576
81602.000			7.730			-2.577
81701.000			7.728			-2.576
81800.000			7.728			-2.576
81901.000			7.729			-2.576
82000.000			7.729			-2.576
82100.000			7.728			-2.576
82201.000			7.728			-2.576
82300.000			7.728			-2.576
82402.000			7.728			-2.576
82501.000			7.728			-2.576
82600.000			7.728			-2.576
82701.000			7.728			-2.576
82800.000			7.727			-2.576
82900.000			7.727			-2.576
83001.000			7.726			-2.575
83100.000			7.726			-2.575
83201.000			7.726			-2.575
83302.000			7.725			-2.575
83400.000			7.725			-2.575
83500.000			7.725			-2.575
83601.000			7.725			-2.575
83700.000			7.725			-2.575
83800.000			7.726			-2.575
83901.000			7.725			-2.575
84000.000			7.725			-2.575
84101.000			7.725			-2.575
84202.000			7.724			-2.575
84300.000			7.724			-2.575
84400.000			7.725			-2.575
84501.000			7.724			-2.575
84600.000			7.723			-2.574
84700.000			7.723			-2.574
84801.000			7.724			-2.575
84901.000			7.723			-2.574
85001.000			7.723			-2.574
85101.000			7.723			-2.574
85200.000			7.723			-2.574
85300.000			7.723			-2.574
85401.000			7.722			-2.574
85500.000			7.722			-2.574
85601.000			7.721			-2.574
85701.000			7.721			-2.574
85801.000			7.722			-2.574
85901.000			7.721			-2.574
86000.000			7.721			-2.574
86100.000			7.721			-2.574
86201.000			7.720			-2.573
86300.000			7.721			-2.574
86400.000			7.721			-2.574
86502.000			7.721			-2.574
86601.000			7.720			-2.573
86700.000			7.720			-2.573
86801.000			7.720			-2.573
86900.000			7.720			-2.573
87000.000			7.719			-2.573
87101.000			7.719			-2.573
87200.000			7.720			-2.573
87300.000			7.718			-2.573
87402.000			7.719			-2.573
87501.000			7.718			-2.573
87600.000			7.718			-2.573
87701.000			7.718			-2.573
87800.000			7.717			-2.572
87900.000			7.717			-2.572
88001.000			7.717			-2.572
88100.000			7.717			-2.572
88201.000			7.717			-2.572
88302.000			7.717			-2.572
88401.000			7.717			-2.572
88500.000			7.717			-2.572
88601.000			7.717			-2.572
88700.000			7.716			-2.572
88801.000			7.716			-2.572
88900.000			7.715			-2.572
89000.000			7.716			-2.572
89102.000			7.716			-2.572
89201.000			7.715			-2.572
89300.000			7.714			-2.571
89401.000			7.716			-2.572
89500.000			7.716			-2.572
89600.000			7.715			-2.572
89701.000			7.715			-2.572
89800.000			7.715			-2.572
89901.000			7.715			-2.572
90002.000			7.714			-2.571
90101.000			7.715			-2.572
90200.000			7.715			-2.572
90301.000			7.715			-2.572
90400.000			7.715			-2.572
90500.000			7.715			-2.572
90601.000			7.714			-2.571
90701.000			7.713			-2.571
90801.000			7.713			-2.571
90901.000			7.713			-2.571
91000.000			7.713			-2.571
91100.000			7.713			-2.571
91201.000			7.713			-2.571
91300.000			7.713			-2.571
91400.000			7.713			-2.571
91502.000			7.713			-2.571
91601.000			7.713			-2.571
91700.000			7.712			-2.571
91801.000			7.712			-2.571
91900.000			7.713			-2.571
92001.000			7.713			-2.571
92100.000			7.712			-2.571
92200.000			7.712			-2.571
92302.000			7.711			-2.570
92401.000			7.712			-2.571
92501.000			7.712			-2.571
92601.000			7.712			-2.571
92700.000			7.712			-2.571
92800.000			7.711			-2.570
92901.000			7.712			-2.571
93000.000			7.711			-2.570
93100.000			7.710			-2.570
93202.000			7.711			-2.570
93301.000			7.711			-2.570
93400.000			7.711			-2.570
93501.000			7.711			-2.570
93600.000			7.711			-2.570
93700.000			7.710			-2.570
93801.000			7.710			-2.570
93900.000			7.711			-2.570
94001.000			7.711			-2.570
94102.000			7.711			-2.570
94200.000			7.710			-2.570
94300.000			7.710			-2.570
94401.000			7.710			-2.570
94500.000			7.709			-2.570
94600.000			7.710			-2.570
94701.000			7.709			-2.570
94801.000			7.708			-2.569
94901.000			7.708			-2.569
95001.000			7.708			-2.569
95100.000			7.710			-2.570
95201.000			7.710			-2.570
95300.000			7.709			-2.570
95400.000			7.709			-2.570
95501.000			7.709			-2.570
95601.000			7.708			-2.569
95701.000			7.708			-2.569
95801.000			7.708			-2.569
95900.000			7.708			-2.569
96000.000			7.707			-2.569
96101.000			7.708			-2.569
96200.000			7.708			-2.569
96300.000			7.707			-2.569
96401.000			7.707			-2.569
96501.000			7.707			-2.569
96601.000			7.707			-2.569
96701.000			7.708			-2.569
96800.000			7.707			-2.569
96900.000			7.706			-2.569
97001.000			7.707			-2.569
97100.000			7.706			-2.569
97200.000			7.706			-2.569
97302.000			7.706			-2.569
97401.000			7.706			-2.569
97500.000			7.705			-2.568
97601.000			7.706			-2.569
97700.000			7.705			-2.568
97800.000			7.705			-2.568
97901.000			7.706			-2.569
98000.000			7.706			-2.569
98100.000			7.706			-2.569
98202.000			7.705			-2.568
98301.000			7.705			-2.568
98401.000			7.706			-2.569
98500.000			7.705			-2.568
98600.000			7.704			-2.568
98701.000			7.704			-2.568
98800.000			7.705			-2.568
98900.000			7.704			-2.568
99002.000			7.705			-2.568
99101.000			7.705			-2.568
99200.000			7.704			-2.568
99301.000			7.703			-2.568
99400.000			7.703			-2.568
99500.000			7.704			-2.568
99601.000			7.703			-2.568
99700.000			7.704			-2.568
99800.000			7.704			-2.568
99902.000			7.704			-2.568
100001.000			7.703			-2.568
100100.000			7.702			-2.567
100201.000			7.702			-2.567
100300.000			7.701			-2.567
100400.000			7.702			-2.567
100501.000			7.702			-2.567
100600.000			7.702			-2.567
100701.000			7.702			-2.567
100802.000			7.704			-2.568
100900.000			7.703			-2.568
101000.000			7.702			-2.567
101101.000			7.701			-2.567
101200.000			7.702			-2.567
101300.000			7.702			-2.567
101401.000			7.701			-2.567
101501.000			7.700			-2.567
101602.000			7.700			-2.567
101700.000			7.700			-2.567
101800.000			7.700			-2.567
101901.000			7.701			-2.567
102000.000			7.700			-2.567
102100.000			7.700			-2.567
102201.000			7.700			-2.567
102301.000			7.701			-2.567
102401.000			7.700			-2.567
102501.000			7.699			-2.566
102600.000			7.699			-2.566
102700.000			7.700			-2.567
102801.000			7.700			-2.567
102900.000			7.698			-2.566
103000.000			7.698			-2.566
103102.000			7.698			-2.566
103201.000			7.699			-2.566
103301.000			7.698			-2.566
103401.000			7.697			-2.566
103500.000			7.699			-2.566
103600.000			7.700			-2.567
103701.000			7.699			-2.566
103800.000			7.698			-2.566
103900.000			7.698			-2.566
104002.000			7.699			-2.566
104101.000			7.698			-2.566
104200.000			7.697			-2.566
104301.000			7.697			-2.566
104400.000			7.696			-2.565
104500.000			7.697			-2.566
104601.000			7.697			-2.566
104700.000			7.697			-2.566
104801.000			7.697			-2.566
104901.000			7.696			-2.565
105001.000			7.697			-2.566
105101.000			7.697			-2.566
105200.000			7.697			-2.566
105300.000			7.698			-2.566
105401.000			7.697			-2.566
105500.000			7.696			-2.565
105600.000			7.696			-2.565
105701.000			7.696			-2.565
105801.000			7.696			-2.565
105901.000			7.696			-2.565
106001.000			7.696			-2.565
106100.000			7.697			-2.566
106200.000			7.696			-2.565
106301.000			7.696			-2.565
106400.000			7.695			-2.565
106500.000			7.697			-2.566
106602.000			7.696			-2.565
106701.000			7.695			-2.565
106801.000			7.695			-2.565
106901.000			7.695			-2.565
107000.000			7.695			-2.565
107100.000			7.695			-2.565
107201.000			7.694			-2.565
107300.000			7.693			-2.564
107400.000			7.694			-2.565
107502.000			7.694			-2.565
107601.000			7.694			-2.565
107701.000			7.695			-2.565
107801.000			7.694			-2.565
107900.000			7.694			-2.565
108001.000			7.694			-2.565
108100.000			7.694			-2.565
108200.000			7.694			-2.565
108301.000			7.693			-2.564
108401.000			7.693			-2.564
108501.000			7.693			-2.564
108602.000			7.693			-2.564
108700.000			7.692			-2.564
108800.000			7.693			-2.564
108901.000			7.693			-2.564
109000.000			7.692			-2.564
109100.000			7.693			-2.564
109201.000			7.692			-2.564
109301.000			7.693			-2.564
109401.000			7.692			-2.564
109501.000			7.691			-2.564
109600.000			7.691			-2.564
109700.000			7.691			-2.564
109801.000			7.692			-2.564
109900.000			7.692			-2.564
110000.000			7.691			-2.564
110101.000			7.691			-2.564
110201.000			7.691			-2.564
110301.000			7.691			-2.564
110401.000			7.692			-2.564
110500.000			7.691			-2.564
110600.000			7.690			-2.563
110701.000			7.689			-2.563
110800.000			7.690			-2.563
110900.000			7.691			-2.564
111002.000			7.690			-2.563
111101.000			7.689			-2.563
111202.000			7.689			-2.563
111300.000			7.691			-2.564
111400.000			7.690			-2.563
111501.000			7.689			-2.563
111600.000			7.689			-2.563
111700.000			7.689			-2.563
111801.000			7.689			-2.563
111901.000			7.689			-2.563
112001.000			7.689			-2.563
112101.000			7.689			-2.563
112200.000			7.689			-2.563
112300.000			7.689			-2.563
112401.000			7.688			-2.563
112500.000			7.687			-2.562
112600.000			7.689			-2.563
112701.000			7.688			-2.563
112801.000			7.688			-2.563
112901.000			7.688			-2.563
113001.000			7.687			-2.562
113100.000			7.687			-2.562
113200.000			7.687			-2.562
113301.000			7.687			-2.562
113400.000			7.687			-2.562
113500.000			7.688			-2.563
113602.000			7.687			-2.562
113701.000			7.687			-2.562
113801.000			7.687			-2.562
113901.000			7.687			-2.562
114000.000			7.686			-2.562
114100.000			7.687			-2.562
114201.000			7.687			-2.562
114300.000			7.687			-2.562
114401.000			7.686			-2.562
114501.000			7.686			-2.562
114601.000			7.685			-2.562
114702.000			7.686			-2.562
114800.000			7.687			-2.562
114900.000			7.686			-2.562
115001.000			7.685			-2.562
115100.000			7.685			-2.562
115200.000			7.686			-2.562
115301.000			7.686			-2.562
115401.000			7.686			-2.562
115501.000			7.685			-2.562
115601.000			7.685			-2.562
115700.000			7.685			-2.562
115800.000			7.685			-2.562
115901.000			7.684			-2.561
116000.000			7.684			-2.561
116100.000			7.684			-2.561
116201.000			7.684			-2.561
116301.000			7.683			-2.561
116401.000			7.684			-2.561
116501.000			7.685			-2.562
116600.000			7.683			-2.561
116700.000			7.683			-2.561
116801.000			7.683			-2.561
116900.000			7.683			-2.561
117000.000			7.683			-2.561
117102.000			7.684			-2.561
117201.000			7.684			-2.561
117301.000			7.683			-2.561
117401.000			7.683			-2.561
117500.000			7.683			-2.561
117601.000			7.683			-2.561
117700.000			7.683			-2.561
117800.000			7.683			-2.561
117901.000			7.684			-2.561
118001.000			7.684			-2.561
118101.000			7.684			-2.561
118201.000			7.683			-2.561
118300.000			7.683			-2.561
118400.000			7.683			-2.561
118501.000			7.683			-2.561
118600.000			7.683			-2.561
118700.000			7.683			-2.561
118801.000			7.683			-2.561
118901.000			7.683			-2.561
119001.000			7.683			-2.561
119101.000			7.682			-2.561
119200.000			7.682			-2.561
119300.000			7.682			-2.561
119401.000			7.682			-2.561
119500.000			7.682			-2.561
119600.000			7.681			-2.560
119702.000			7.682			-2.561
119801.000			7.682			-2.561
119901.000			7.681			-2.560
120001.000			7.681			-2.560
120100.000			7.680			-2.560
120200.000			7.680			-2.560
120301.000			7.681			-2.560
120400.000			7.680			-2.560
120500.000			7.680			-2.560
120602.000			7.680			-2.560
120701.000			7.681			-2.560
120801.000			7.681			-2.560
120900.000			7.681			-2.560
121000.000			7.680			-2.560
121101.000			7.680			-2.560
121200.000			7.680			-2.560
121300.000			7.680			-2.560
121402.000			7.680			-2.560
121501.000			7.680			-2.560
121601.000			7.680			-2.560
121701.000			7.680			-2.560
121800.000			7.679			-2.560
121900.000			7.679			-2.560
122001.000			7.680			-2.560
122100.000			7.679			-2.560
122200.000			7.678			-2.559
122302.000			7.679			-2.560
122401.000			7.678			-2.559
122500.000			7.678			-2.559
122601.000			7.678			-2.559
122700.000			7.679			-2.560
122800.000			7.678			-2.559
122901.000			7.677			-2.559
123000.000			7.678			-2.559
123100.000			7.678			-2.559
123202.000			7.678			-2.559
123301.000			7.678			-2.559
123400.000			7.678			-2.559
123501.000			7.677			-2.559
123600.000			7.678			-2.559
123700.000			7.678			-2.559
123801.000			7.679			-2.560
123900.000			7.678			-2.559
124001.000			7.677			-2.559
124101.000			7.678			-2.559
124201.000			7.677			-2.559
124301.000			7.677			-2.559
124400.000			7.676			-2.559
124500.000			7.676			-2.559
124601.000			7.677			-2.559
124700.000			7.677			-2.559
124800.000			7.677			-2.559
124902.000			7.676			-2.559
125001.000			7.677			-2.559
125101.000			7.676			-2.559
125201.000			7.676			-2.559
125300.000			7.677			-2.559
125400.000			7.676			-2.559
125501.000			7.675			-2.558
125600.000			7.676			-2.559
125700.000			7.676			-2.559
125802.000			7.676			-2.559
125901.000			7.674			-2.558
126000.000			7.676			-2.559
126101.000			7.676			-2.559
126200.000			7.674			-2.558
126300.000			7.675			-2.558
126401.000			7.675			-2.558
126500.000			7.674			-2.558
126600.000			7.675			-2.558
126702.000			7.675			-2.558
126801.000			7.674			-2.558
126900.000			7.674			-2.558
127001.000			7.674			-2.558
127100.000			7.674			-2.558
127201.000			7.673			-2.558
127300.000			7.673			-2.558
127400.000			7.673			-2.558
127501.000			7.673			-2.558
127601.000			7.673			-2.558
127701.000			7.674			-2.558
127801.000			7.673			-2.558
127900.000			7.672			-2.557
128000.000			7.672			-2.557
128101.000			7.671			-2.557
128200.000			7.672			-2.557
128300.000			7.673			-2.558
128402.000			7.672			-2.557
128501.000			7.672			-2.557
128601.000			7.673			-2.558
128701.000			7.672			-2.557
128800.000			7.671			-2.557
128900.000			7.671			-2.557
129001.000			7.671			-2.557
129100.000			7.671			-2.557
129200.000			7.672			-2.557
129302.000			7.671			-2.557
129401.000			7.672			-2.557
129501.000			7.671			-2.557
129601.000			7.670			-2.557
129700.000			7.670			-2.557
129800.000			7.671			-2.557
129901.000			7.671			-2.557
130000.000			7.672			-2.557
130100.000			7.671			-2.557
130202.000			7.670			-2.557
130301.000			7.670			-2.557
130401.000			7.671			-2.557
130500.000			7.671			-2.557
130600.000			7.670			-2.557
130701.000			7.670			-2.557
130800.000			7.671			-2.557
130900.000			7.670			-2.557
131002.000			7.669			-2.556
131101.000			7.669			-2.556
131201.000			7.669			-2.556
131301.000			7.669			-2.556
131400.000			7.670			-2.557
131500.000			7.669			-2.556
131601.000			7.669			-2.556
131700.000			7.669			-2.556
131800.000			7.669			-2.556
131901.000			7.669			-2.556
132001.000			7.669			-2.556
132101.000			7.670			-2.557
132201.000			7.670			-2.557
132300.000			7.669			-2.556
132400.000			7.669			-2.556
132501.000			7.669			-2.556
132600.000			7.669			-2.556
132700.000			7.669			-2.556
132801.000			7.669			-2.556
132901.000			7.670			-2.557
133001.000			7.669			-2.556
133102.000			7.669			-2.556
133200.000			7.668			-2.556
133300.000			7.668			-2.556
133401.000			7.669			-2.556
133500.000			7.669			-2.556
133601.000			7.669			-2.556
133700.000			7.669			-2.556
133800.000			7.668			-2.556
133902.000			7.668			-2.556
134001.000			7.669			-2.556
134100.000			7.668			-2.556
134201.000			7.669			-2.556
134300.000			7.668			-2.556
134400.000			7.668			-2.556
134501.000			7.667			-2.556
134600.000			7.667			-2.556
134700.000			7.667			-2.556
134801.000			7.666			-2.555
134901.000			7.668			-2.556
135001.000			7.667			-2.556
135101.000			7.667			-2.556
135200.000			7.667			-2.556
135300.000			7.667			-2.556
135401.000			7.666			-2.555
135500.000			7.666			-2.555
135600.000			7.666			-2.555
135701.000			7.666			-2.555
135801.000			7.666			-2.555
135901.000			7.665			-2.555
136002.000			7.666			-2.555
136100.000			7.666			-2.555
136200.000			7.667			-2.556
136301.000			7.666			-2.555
136400.000			7.666			-2.555
136500.000			7.665			-2.555
136601.000			7.665			-2.555
136701.000			7.665			-2.555
136802.000			7.665			-2.555
136901.000			7.665			-2.555
137000.000			7.666			-2.555
137101.000			7.666			-2.555
137200.000			7.665			-2.555
137300.000			7.666			-2.555
137401.000			7.665			-2.555
137500.000			7.664			-2.555
137600.000			7.665			-2.555
137702.000			7.665			-2.555
137801.000			7.665			-2.555
137901.000			7.665			-2.555
138001.000			7.664			-2.555
138100.000			7.665			-2.555
138200.000			7.665			-2.555
138301.000			7.665			-2.555
138400.000			7.664			-2.555
138500.000			7.664			-2.555
138601.000			7.664			-2.555
138701.000			7.665			-2.555
138801.000			7.664			-2.555
138901.000			7.665			-2.555
139000.000			7.663			-2.554
139100.000			7.663			-2.554
139201.000			7.664			-2.555
139300.000			7.664			-2.555
139400.000			7.663			-2.554
139501.000			7.663			-2.554
139601.000			7.664			-2.555
139701.000			7.664			-2.555
139802.000			7.664			-2.555
139900.000			7.663			-2.554
140001.000			7.663			-2.554
140100.000			7.663			-2.554
140200.000			7.662			-2.554
140301.000			7.663			-2.554
140400.000			7.663			-2.554
140500.000			7.662			-2.554
140602.000			7.663			-2.554
140701.000			7.663			-2.554
140801.000			7.663			-2.554
140901.000			7.663			-2.554
141000.000			7.662			-2.554
141100.000			7.662			-2.554
141201.000			7.662			-2.554
141300.000			7.661			-2.554
141400.000			7.663			-2.554
141502.000			7.662			-2.554
141601.000			7.661			-2.554
141701.000			7.661			-2.554
141801.000			7.660			-2.553
141900.000			7.660			-2.553
142000.000			7.661			-2.554
142101.000			7.661			-2.554
142200.000			7.661			-2.554
142300.000			7.659			-2.553
142401.000			7.660			-2.553
142501.000			7.660			-2.553
142601.000			7.659			-2.553
142701.000			7.659			-2.553
142800.000			7.659			-2.553
142900.000			7.659			-2.553
143001.000			7.658			-2.553
143100.000			7.658			-2.553
143201.000			7.659			-2.553
143300.000			7.659			-2.553
143400.000			7.658			-2.553
143502.000			7.658			-2.553
143601.000			7.658			-2.553
143700.000			7.658			-2.553
143801.000			7.659			-2.553
143900.000			7.659			-2.553
144000.000			7.657			-2.552
144101.000			7.657			-2.552
144200.000			7.658			-2.553
144300.000			7.658			-2.553
144402.000			7.657			-2.552
144501.000			7.657			-2.552
144601.000			7.657			-2.552
144701.000			7.657			-2.552
144800.000			7.657			-2.552
144900.000			7.657			-2.552
145001.000			7.657			-2.552
145100.000			7.657			-2.552
145200.000			7.656			-2.552
145301.000			7.655			-2.552
145401.000			7.657			-2.552
145501.000			7.656			-2.552
145601.000			7.656			-2.552
145700.000			7.656			-2.552
145800.000			7.656			-2.552
145901.000			7.656			-2.552
146000.000			7.656			-2.552
146100.000			7.655			-2.552
146201.000			7.654			-2.551
146301.000			7.656			-2.552
146402.000			7.656			-2.552
146501.000			7.655			-2.552
146600.000			7.655			-2.552
146701.000			7.655			-2.552
146800.000			7.655			-2.552
146900.000			7.655			-2.552
147001.000			7.656			-2.552
147100.000			7.655			-2.552
147200.000			7.655			-2.552
147302.000			7.655			-2.552
147401.000			7.654			-2.551
147501.000			7.654			-2.551
147601.000			7.655			-2.552
147700.000			7.655			-2.552
147800.000			7.655			-2.552
147901.000			7.655			-2.552
148000.000			7.654			-2.551
148100.000			7.654			-2.551
148201.000			7.654			-2.551
148301.000			7.654			-2.551
148401.000			7.653			-2.551
148501.000			7.654			-2.551
148600.000			7.654			-2.551
148700.000			7.653			-2.551
148801.000			7.654			-2.551
148900.000			7.653			-2.551
149000.000			7.653			-2.551
149101.000			7.652			-2.551
149201.000			7.652			-2.551
149301.000			7.652			-2.551
149402.000			7.652			-2.551
149500.000			7.651			-2.550
149601.000			7.652			-2.551
149700.000			7.652			-2.551
149800.000			7.651			-2.550
149901.000			7.651			-2.550
150000.000			7.651			-2.550
150100.000			7.651			-2.550
150202.000			7.652			-2.551
150301.000			7.652			-2.551
150400.000			7.652			-2.551
150501.000			7.653			-2.551
150600.000			7.652			-2.551
150700.000			7.651			-2.550
150801.000			7.652			-2.551
150900.000			7.650			-2.550
151000.000			7.650			-2.550
151102.000			7.651			-2.550
151201.000			7.651			-2.550
151300.000			7.650			-2.550
151401.000			7.650			-2.550
151500.000			7.649			-2.550
151600.000			7.649			-2.550
151701.000			7.650			-2.550
151800.000			7.650			-2.550
151900.000			7.650			-2.550
152002.000			7.650			-2.550
152101.000			7.650			-2.550
152200.000			7.649			-2.550
152301.000			7.649			-2.550
152400.000			7.650			-2.550
152500.000			7.649			-2.550
152601.000			7.649			-2.550
152700.000			7.649			-2.550
152801.000			7.648			-2.549
152901.000			7.649			-2.550
153001.000			7.649			-2.550
153102.000			7.649			-2.550
153200.000			7.648			-2.549
153300.000			7.649			-2.550
153401.000			7.648			-2.549
153500.000			7.648			-2.549
153600.000			7.648			-2.549
153701.000			7.648			-2.549
153800.000			7.648			-2.549
153901.000			7.647			-2.549
154002.000			7.646			-2.549
154101.000			7.648			-2.549
154200.000			7.648			-2.549
154301.000			7.648			-2.549
154400.000			7.648			-2.549
154500.000			7.649			-2.550
154601.000			7.647			-2.549
154700.000			7.647			-2.549
154800.000			7.647			-2.549
154902.000			7.647			-2.549
155001.000			7.647			-2.549
155100.000			7.647			-2.549
155201.000			7.647			-2.549
155300.000			7.648			-2.549
155400.000			7.646			-2.549
155501.000			7.647			-2.549
155600.000			7.647			-2.549
155700.000			7.647			-2.549
155802.000			7.646			-2.549
155901.000			7.646			-2.549
156002.000			7.646			-2.549
156100.000			7.647			-2.549
156200.000			7.646			-2.549
156301.000			7.648			-2.549
156400.000			7.647			-2.549
156500.000			7.646			-2.549
156601.000			7.645			-2.548
156700.000			7.646			-2.549
156801.000			7.647			-2.549
156902.000			7.646			-2.549
157001.000			7.646			-2.549
157100.000			7.645			-2.548
157201.000			7.645			-2.548
157300.000			7.645			-2.548
157400.000			7.645			-2.548
157501.000			7.645			-2.548
157600.000			7.644			-2.548
157700.000			7.645			-2.548
157802.000			7.646			-2.549
157901.000			7.646			-2.549
158001.000			7.645			-2.548
158101.000			7.645			-2.548
158200.000			7.643			-2.548
158300.000			7.642			-2.547
158401.000			7.644			-2.548
158500.000			7.645			-2.548
158600.000			7.644			-2.548
158702.000			7.644			-2.548
158801.000			7.644			-2.548
158901.000			7.644			-2.548
159001.000			7.644			-2.548
159100.000			7.643			-2.548
159201.000			7.643			-2.548
159300.000			7.643			-2.548
159400.000			7.644			-2.548
159501.000			7.644			-2.548
159600.000			7.644			-2.548
159701.000			7.642			-2.547
159802.000			7.644			-2.548
159901.000			7.644			-2.548
160000.000			7.643			-2.548
160101.000			7.643			-2.548
160200.000			7.643			-2.548
160300.000			7.643			-2.548
160401.000			7.642			-2.547
160500.000			7.642			-2.547
160601.000			7.643			-2.548
160702.000			7.644			-2.548
160801.000			7.644			-2.548
160900.000			7.643			-2.548
161001.000			7.643			-2.548
161100.000			7.643			-2.548
161200.000			7.642			-2.547
161301.000			7.641			-2.547
161400.000			7.642			-2.547
161500.000			7.643			-2.548
161602.000			7.642			-2.547
161701.000			7.643			-2.548
161800.000			7.642			-2.547
161901.000			7.641			-2.547
162000.000			7.641			-2.547
162100.000			7.642			-2.547
162201.000			7.640			-2.547
162300.000			7.641			-2.547
162401.000			7.641			-2.547
162501.000			7.640			-2.547
162601.000			7.640			-2.547
162701.000			7.641			-2.547
162800.000			7.641			-2.547
162900.000			7.641			-2.547
163001.000			7.641			-2.547
163100.000			7.642			-2.547
163200.000			7.642			-2.547
163301.000			7.641			-2.547
163401.000			7.642			-2.547
163501.000			7.640			-2.547
163602.000			7.641			-2.547
163700.000			7.641			-2.547
163800.000			7.639			-2.546
163901.000			7.639			-2.546
164000.000			7.639			-2.546
164100.000			7.640			-2.547
164201.000			7.639			-2.546
164300.000			7.639			-2.546
164401.000			7.640			-2.547
164502.000			7.640			-2.547
164601.000			7.640			-2.547
164700.000			7.640			-2.547
164801.000			7.639			-2.546
164900.000			7.639			-2.546
165000.000			7.640			-2.547
165101.000			7.640			-2.547
165200.000			7.638			-2.546
165301.000			7.637			-2.546
165402.000			7.639			-2.546
165501.000			7.639			-2.546
165601.000			7.639			-2.546
165700.000			7.640			-2.547
165800.000			7.639			-2.546
165901.000			7.639			-2.546
166000.000			7.638			-2.546
166100.000			7.639			-2.546
166201.000			7.638			-2.546
166301.000			7.637			-2.546
166401.000			7.638			-2.546
166502.000			7.638			-2.546
166600.000			7.638			-2.546
166700.000			7.637			-2.546
166801.000			7.637			-2.546
166900.000			7.638			-2.546
167000.000			7.638			-2.546
167101.000			7.638			-2.546
167200.000			7.639			-2.546
167301.000			7.638			-2.546
167402.000			7.638			-2.546
167501.000			7.638			-2.546
167600.000			7.637			-2.546
167701.000			7.637			-2.546
167800.000			7.638			-2.546
167900.000			7.636			-2.545
168001.000			7.637			-2.546
168100.000			7.637			-2.546
168200.000			7.637			-2.546
168302.000			7.636			-2.545
168401.000			7.637			-2.546
168501.000			7.637			-2.546
168601.000			7.636			-2.545
168700.000			7.636			-2.545
168801.000			7.636			-2.545
168900.000			7.636			-2.545
169000.000			7.636			-2.545
169101.000			7.636			-2.545
169200.000			7.636			-2.545
169301.000			7.636			-2.545
169402.000			7.636			-2.545
169501.000			7.637			-2.546
169600.000			7.637			-2.546
169701.000			7.637			-2.546
169800.000			7.636			-2.545
169900.000			7.635			-2.545
170001.000			7.636			-2.545
170100.000			7.636			-2.545
170200.000			7.635			-2.545
170302.000			7.636			-2.545
170401.000			7.636			-2.545
170500.000			7.635			-2.545
170601.000			7.635			-2.545
170700.000			7.634			-2.545
170800.000			7.634			-2.545
170901.000			7.635			-2.545
171000.000			7.635			-2.545
171100.000			7.635			-2.545
171202.000			7.635			-2.545
171301.000			7.635			-2.545
171400.000			7.634			-2.545
171501.000			7.634			-2.545
171600.000			7.635			-2.545
171700.000			7.635			-2.545
171801.000			7.634			-2.545
171900.000			7.633			-2.544
172001.000			7.634			-2.545
172101.000			7.634			-2.545
172201.000			7.633			-2.544
172302.000			7.633			-2.544
172400.000			7.634			-2.545
172500.000			7.634			-2.545
172601.000			7.633			-2.544
172700.000			7.633			-2.544
172800.000			7.633			-2.544
172901.000			7.633			-2.544
173000.000			7.633			-2.544
173101.000			7.633			-2.544
173202.000			7.633			-2.544
173300.000			7.634			-2.545
173400.000			7.634			-2.545
173501.000			7.633			-2.544
173600.000			7.633			-2.544
173700.000			7.632			-2.544
173801.000			7.633			-2.544
173900.000			7.632			-2.544
174001.000			7.632			-2.544
174102.000			7.632			-2.544
174201.000			7.632			-2.544
174300.000			7.633			-2.544
174401.000			7.633			-2.544
174500.000			7.633			-2.544
174600.000			7.633			-2.544
174701.000			7.633			-2.544
174800.000			7.632			-2.544
174900.000			7.631			-2.544
175002.000			7.632			-2.544
175101.000			7.632			-2.544
175201.000			7.632			-2.544
175300.000			7.632			-2.544
175400.000			7.632			-2.544
175501.000			7.633			-2.544
175600.000			7.633			-2.544
175700.000			7.632			-2.544
175801.000			7.632			-2.544
175901.000			7.632			-2.544
176001.000			7.633			-2.544
176102.000			7.632			-2.544
176200.000			7.632			-2.544
176300.000			7.631			-2.544
176401.000			7.631			-2.544
176500.000			7.631			-2.544
176600.000			7.631			-2.544
176701.000			7.630			-2.543
176800.000			7.630			-2.543
176901.000			7.631			-2.544
177002.000			7.631			-2.544
177100.000			7.630			-2.543
177200.000			7.630			-2.543
177301.000			7.631			-2.544
177400.000			7.631			-2.544
177500.000			7.630			-2.543
177601.000			7.631			-2.544
177700.000			7.631			-2.544
177801.000			7.631			-2.544
177902.000			7.631			-2.544
178001.000			7.630			-2.543
178100.000			7.630			-2.543
178201.000			7.631			-2.544
178300.000			7.630			-2.543
178401.000			7.629			-2.543
178500.000			7.629			-2.543
178600.000			7.631			-2.544
178701.000			7.631			-2.544
178801.000			7.630			-2.543
178901.000			7.630			-2.543
179002.000			7.630			-2.543
179100.000			7.630			-2.543
179200.000			7.629			-2.543
179301.000			7.629			-2.543
179400.000			7.630			-2.543
179500.000			7.628			-2.543
179601.000			7.629			-2.543
179700.000			7.629			-2.543
179801.000			7.630			-2.543
179902.000			7.630			-2.543
180001.000			7.630			-2.543
180100.000			7.630			-2.543
180201.000			7.630			-2.543
180300.000			7.630			-2.543
180400.000			7.629			-2.543
180501.000			7.629			-2.543
180600.000			7.630			-2.543
180700.000			7.630			-2.543
180802.000			7.630			-2.543
180901.000			7.630			-2.543
181000.000			7.629			-2.543
181101.000			7.628			-2.543
181200.000			7.629			-2.543
181300.000			7.628			-2.543
181401.000			7.628			-2.543
181500.000			7.629			-2.543
181601.000			7.628			-2.543
181700.000			7.629			-2.543
181801.000			7.630			-2.543
181902.000			7.629			-2.543
182000.000			7.628			-2.543
182100.000			7.629			-2.543
182201.000			7.628			-2.543
182300.000			7.628			-2.543
182400.000			7.627			-2.542
182501.000			7.628			-2.543
182600.000			7.628			-2.543
182701.000			7.629			-2.543
182802.000			7.628			-2.543
182901.000			7.627			-2.542
183000.000			7.628			-2.543
183101.000			7.629			-2.543
183200.000			7.629			-2.543
183300.000			7.628			-2.543
183401.000			7.628			-2.543
183500.000			7.629			-2.543
183600.000			7.628			-2.543
183702.000			7.627			-2.542
183801.000			7.628			-2.543
183900.000			7.627			-2.542
184001.000			7.627			-2.542
184100.000			7.627			-2.542
184200.000			7.628			-2.543
184301.000			7.628			-2.543
184400.000			7.628			-2.543
184500.000			7.629			-2.543
184602.000			7.629			-2.543
184701.000			7.628			-2.543
184802.000			7.629			-2.543
184900.000			7.629			-2.543
185000.000			7.629			-2.543
185101.000			7.629			-2.543
185200.000			7.629			-2.543
185300.000			7.629			-2.543
185401.000			7.630			-2.543
185500.000			7.630			-2.543
185601.000			7.628			-2.543
185702.000			7.627			-2.542
185801.000			7.628			-2.543
185900.000			7.626			-2.542
186001.000			7.627			-2.542
186100.000			7.626			-2.542
186200.000			7.626			-2.542
186301.000			7.624			-2.541
186400.000			7.625			-2.542
186500.000			7.625			-2.542
186602.000			7.626			-2.542
186701.000			7.626			-2.542
186800.000			7.625			-2.542
186901.000			7.625			-2.542
187000.000			7.625			-2.542
187100.000			7.624			-2.541
187201.000			7.625			-2.542
187300.000			7.625			-2.542
187400.000			7.626			-2.542
187501.000			7.624			-2.541
187601.000			7.624			-2.541
187701.000			7.624			-2.541
187801.000			7.624			-2.541
187900.000			7.624			-2.541
188001.000			7.625			-2.542
188100.000			7.624			-2.541
188200.000			7.624			-2.541
188301.000			7.624			-2.541
188400.000			7.624			-2.541
188501.000			7.623			-2.541
188602.000			7.623			-2.541
188701.000			7.623			-2.541
188800.000			7.623			-2.541
188901.000			7.624			-2.541
189000.000			7.624			-2.541
189100.000			7.624			-2.541
189201.000			7.624			-2.541
189300.000			7.624			-2.541
189400.000			7.624			-2.541
189502.000			7.623			-2.541
189601.000			7.623			-2.541
189701.000			7.623			-2.541
189801.000			7.623			-2.541
189900.000			7.624			-2.541
190000.000			7.623			-2.541
190101.000			7.623			-2.541
190200.000			7.622			-2.541
190300.000			7.622			-2.541
190401.000			7.622			-2.541
190501.000			7.622			-2.541
190601.000			7.623			-2.541
190701.000			7.623			-2.541
190800.000			7.623			-2.541
190900.000			7.622			-2.541
191001.000			7.623			-2.541
191100.000			7.620			-2.540
191201.000			7.621			-2.540
191300.000			7.621			-2.540
191401.000			7.622			-2.541
191502.000			7.622			-2.541
191601.000			7.622			-2.541
191700.000			7.622			-2.541
191801.000			7.620			-2.540
191900.000			7.621			-2.540
192000.000			7.622			-2.541
192101.000			7.621			-2.540
192200.000			7.620			-2.540
192300.000			7.620			-2.540
192402.000			7.620			-2.540
192501.000			7.621			-2.540
192600.000			7.621			-2.540
192701.000			7.621			-2.540
192800.000			7.621			-2.540
192900.000			7.621			-2.540
193001.000			7.621			-2.540
193100.000			7.620			-2.540
193200.000			7.620			-2.540
193302.000			7.620			-2.540
193401.000			7.621			-2.540
193500.000			7.621			-2.540
193601.000			7.621			-2.540
193700.000			7.621			-2.540
193800.000			7.620			-2.540
193901.000			7.620			-2.540
194000.000			7.620			-2.540
194100.000			7.621			-2.540
194202.000			7.621			-2.540
194301.000			7.621			-2.540
194402.000			7.621			-2.540
194500.000			7.621			-2.540
194600.000			7.621			-2.540
194701.000			7.620			-2.540
194800.000			7.620			-2.540
194900.000			7.621			-2.540
195001.000			7.620			-2.540
195100.000			7.620			-2.540
195201.000			7.620			-2.540
195302.000			7.619			-2.540
195400.000			7.619			-2.540
195500.000			7.619			-2.540
195601.000			7.619			-2.540
195700.000			7.619			-2.540
195800.000			7.619			-2.540
195901.000			7.618			-2.539
196000.000			7.619			-2.540
196100.000			7.620			-2.540
196202.000			7.619			-2.540
196301.000			7.618			-2.539
196400.000			7.619			-2.540
196501.000			7.618			-2.539
196600.000			7.618			-2.539
196700.000			7.618			-2.539
196801.000			7.618			-2.539
196900.000			7.618			-2.539
197000.000			7.618			-2.539
197101.000			7.618			-2.539
197201.000			7.617			-2.539
197301.000			7.618			-2.539
197401.000			7.617			-2.539
197500.000			7.616			-2.539
197601.000			7.619			-2.540
197700.000			7.618			-2.539
197800.000			7.617			-2.539
197901.000			7.618			-2.539
198000.000			7.618			-2.539
198100.000			7.618			-2.539
198202.000			7.617			-2.539
198301.000			7.617			-2.539
198400.000			7.617			-2.539
198501.000			7.617			-2.539
198600.000			7.616			-2.539
198700.000			7.616			-2.539
198801.000			7.617			-2.539
198900.000			7.617			-2.539
199000.000			7.616			-2.539
199101.000			7.616			-2.539
199201.000			7.616			-2.539
199301.000			7.617			-2.539
199401.000			7.616			-2.539
199500.000			7.616			-2.539
199600.000			7.616			-2.539
199701.000			7.616			-2.539
199800.000			7.616			-2.539
199900.000			7.616			-2.539
200001.000			7.616			-2.539
200101.000			7.615			-2.538
200201.000			7.615			-2.538
200301.000			7.615			-2.538
200400.000			7.615			-2.538
200500.000			7.614			-2.538
200601.000			7.615			-2.538
200700.000			7.615			-2.538
200801.000			7.615			-2.538
200900.000			7.616			-2.539
201001.000			7.615			-2.538
201102.000			7.614			-2.538
201200.000			7.614			-2.538
201300.000			7.616			-2.539
201401.000			7.616			-2.539
201500.000			7.615			-2.538
201600.000			7.615			-2.538
201701.000			7.614			-2.538
201800.000			7.614			-2.538
201901.000			7.614			-2.538
202002.000			7.615			-2.538
202101.000			7.614			-2.538
202200.000			7.613			-2.538
202301.000			7.613			-2.538
202400.000			7.614			-2.538
202500.000			7.613			-2.538
202601.000			7.613			-2.538
202700.000			7.615			-2.538
202801.000			7.614			-2.538
202902.000			7.613			-2.538
203001.000			7.613			-2.538
203100.000			7.614			-2.538
203201.000			7.613			-2.538
203300.000			7.613			-2.538
203400.000			7.613			-2.538
203501.000			7.613			-2.538
203600.000			7.612			-2.537
203701.000			7.613			-2.538
203802.000			7.614			-2.538
203901.000			7.613			-2.538
204001.000			7.613			-2.538
204100.000			7.613			-2.538
204200.000			7.613			-2.538
204301.000			7.612			-2.537
204400.000			7.612			-2.537
204500.000			7.612			-2.537
204602.000			7.612			-2.537
204701.000			7.611			-2.537
204801.000			7.612			-2.537
204901.000			7.613			-2.538
205000.000			7.612			-2.537
205100.000			7.613			-2.538
205201.000			7.612			-2.537
205300.000			7.612			-2.537
205400.000			7.612			-2.537
205502.000			7.612			-2.537
205601.000			7.612			-2.537
205701.000			7.612			-2.537
205801.000			7.613			-2.538
205900.000			7.613			-2.538
206000.000			7.612			-2.537
206101.000			7.612			-2.537
206200.000			7.612			-2.537
206300.000			7.611			-2.537
206401.000			7.611			-2.537
206501.000			7.611			-2.537
206601.000			7.611			-2.537
206701.000			7.611			-2.537
206800.000			7.611			-2.537
206900.000			7.612			-2.537
207001.000			7.611			-2.537
207100.000			7.611			-2.537
207201.000			7.611			-2.537
207300.000			7.610			-2.537
207401.000			7.611			-2.537
207502.000			7.611			-2.537
207600.000			7.612			-2.537
207700.000			7.611			-2.537
207801.000			7.611			-2.537
207900.000			7.611			-2.537
208000.000			7.612			-2.537
208101.000			7.612			-2.537
208200.000			7.612			-2.537
208301.000			7.611			-2.537
208402.000			7.610			-2.537
208500.000			7.611			-2.537
208600.000			7.611			-2.537
208701.000			7.611			-2.537
208800.000			7.611			-2.537
208900.000			7.610			-2.537
209001.000			7.610			-2.537
209100.000			7.610			-2.537
209201.000			7.611			-2.537
209302.000			7.611			-2.537
209401.000			7.611			-2.537
209500.000			7.611			-2.537
209601.000			7.610			-2.537
209700.000			7.611			-2.537
209800.000			7.611			-2.537
209901.000			7.610			-2.537
210000.000			7.610			-2.537
210101.000			7.610			-2.537
210202.000			7.609			-2.536
210301.000			7.609			-2.536
210401.000			7.610			-2.537
210500.000			7.610			-2.537
210600.000			7.609			-2.536
210701.000			7.610			-2.537
210800.000			7.610			-2.537
210900.000			7.610			-2.537
211002.000			7.609			-2.536
211101.000			7.609			-2.536
211201.000			7.609			-2.536
211301.000			7.609			-2.536
211400.000			7.610			-2.537
211500.000			7.610			-2.537
211601.000			7.609			-2.536
211700.000			7.609			-2.536
211800.000			7.609			-2.536
211902.000			7.608			-2.536
212001.000			7.608			-2.536
212101.000			7.610			-2.537
212201.000			7.609			-2.536
212300.000			7.609			-2.536
212400.000			7.609			-2.536
212501.000			7.610			-2.537
212600.000			7.609			-2.536
212700.000			7.608			-2.536
212802.000			7.608			-2.536
212901.000			7.610			-2.537
213001.000			7.610			-2.537
213101.000			7.609			-2.536
213200.000			7.610			-2.537
213300.000			7.609			-2.536
213401.000			7.609			-2.536
213500.000			7.609			-2.536
213601.000			7.608			-2.536
213700.000			7.608			-2.536
213801.000			7.609			-2.536
213902.000			7.609			-2.536
214000.000			7.609			-2.536
214100.000			7.609			-2.536
214201.000			7.608			-2.536
214300.000			7.607			-2.536
214400.000			7.608			-2.536
214501.000			7.608			-2.536
214600.000			7.609			-2.536
214701.000			7.608			-2.536
214802.000			7.609			-2.536
214901.000			7.608			-2.536
215000.000			7.607			-2.536
215101.000			7.608			-2.536
215200.000			7.607			-2.536
215300.000			7.606			-2.535
215401.000			7.607			-2.536
215500.000			7.607			-2.536
215601.000			7.607			-2.536
215702.000			7.607			-2.536
215801.000			7.607			-2.536
215900.000			7.607			-2.536
216001.000			7.607			-2.536
216100.000			7.607			-2.536
216200.000			7.606			-2.535
216301.000			7.607			-2.536
216400.000			7.607			-2.536
216500.000			7.607			-2.536
216602.000			7.607			-2.536
216701.000			7.606			-2.535
216801.000			7.606			-2.535
216900.000			7.607			-2.536
217000.000			7.606			-2.535
217101.000			7.606			-2.535
217200.000			7.607			-2.536
217300.000			7.607			-2.536
217401.000			7.606			-2.535
217501.000			7.606			-2.535
217601.000			7.607			-2.536
217701.000			7.607			-2.536
217800.000			7.607			-2.536
217900.000			7.607			-2.536
218001.000			7.606			-2.535
218100.000			7.607			-2.536
218200.000			7.607			-2.536
218301.000			7.607			-2.536
218401.000			7.605			-2.535
218501.000			7.606			-2.535
218602.000			7.608			-2.536
218700.000			7.606			-2.535
218800.000			7.606			-2.535
218901.000			7.606			-2.535
219000.000			7.606			-2.535
219100.000			7.606			-2.535
219201.000			7.606			-2.535
219301.000			7.606			-2.535
219401.000			7.606			-2.535
219502.000			7.606			-2.535
219600.000			7.606			-2.535
219700.000			7.606			-2.535
219801.000			7.606			-2.535
219900.000			7.606			-2.535
220001.000			7.606			-2.535
220100.000			7.606			-2.535
220200.000			7.606			-2.535
220302.000			7.606			-2.535
220401.000			7.606			-2.535
220500.000			7.606			-2.535
220601.000			7.606			-2.535
220700.000			7.605			-2.535
220800.000			7.604			-2.535
220901.000			7.606			-2.535
221000.000			7.606			-2.535
221100.000			7.605			-2.535
221202.000			7.605			-2.535
221301.000			7.605			-2.535
221400.000			7.604			-2.535
221501.000			7.605			-2.535
221600.000			7.605			-2.535
221700.000			7.606			-2.535
221801.000			7.606			-2.535
221900.000			7.604			-2.535
222000.000			7.604			-2.535
222102.000			7.604			-2.535
222201.000			7.604			-2.535
222300.000			7.603			-2.534
222401.000			7.604			-2.535
222500.000			7.605			-2.535
222600.000			7.604			-2.535
222701.000			7.604			-2.535
222800.000			7.604			-2.535
222900.000			7.604			-2.535
223002.000			7.604			-2.535
223101.000			7.605			-2.535
223201.000			7.604			-2.535
223300.000			7.604			-2.535
223400.000			7.603			-2.534
223501.000			7.603			-2.534
223600.000			7.604			-2.535
223700.000			7.605			-2.535
223801.000			7.603			-2.534
223901.000			7.603			-2.534
224001.000			7.604			-2.535
224101.000			7.603			-2.534
224200.000			7.603			-2.534
224300.000			7.603			-2.534
224401.000			7.602			-2.534
224500.000			7.602			-2.534
224600.000			7.602			-2.534
224701.000			7.603			-2.534
224801.000			7.603			-2.534
224901.000			7.602			-2.534
225001.000			7.603			-2.534
225100.000			7.603			-2.534
225200.000			7.602			-2.534
225301.000			7.602			-2.534
225400.000			7.601			-2.534
225500.000			7.602			-2.534
225601.000			7.602			-2.534
225701.000			7.602			-2.534
225801.000			7.601			-2.534
225901.000			7.603			-2.534
226000.000			7.603			-2.534
226100.000			7.603			-2.534
226201.000			7.602			-2.534
226300.000			7.602			-2.534
226401.000			7.601			-2.534
226500.000			7.601			-2.534
226601.000			7.602			-2.534
226702.000			7.601			-2.534
226801.000			7.601			-2.534
226900.000			7.601			-2.534
227001.000			7.601			-2.534
227100.000			7.601			-2.534
227200.000			7.602			-2.534
227301.000			7.601			-2.534
227400.000			7.602			-2.534
227501.000			7.602			-2.534
227602.000			7.602			-2.534
227701.000			7.602			-2.534
227800.000			7.602			-2.534
227901.000			7.603			-2.534
228000.000			7.602			-2.534
228100.000			7.602			-2.534
228201.000			7.602			-2.534
228300.000			7.601			-2.534
228400.000			7.601			-2.534
228502.000			7.601			-2.534
228601.000			7.600			-2.533
228700.000			7.601			-2.534
228801.000			7.601			-2.534
228900.000			7.602			-2.534
229000.000			7.601			-2.534
229101.000			7.600			-2.533
229200.000			7.601			-2.534
229300.000			7.601			-2.534
229402.000			7.601			-2.534
229501.000			7.601			-2.534
229601.000			7.601			-2.534
229700.000			7.601			-2.534
229800.000			7.603			-2.534
229901.000			7.603			-2.534
230000.000			7.601			-2.534
230100.000			7.600			-2.533
230201.000			7.600			-2.533
230301.000			7.601			-2.534
230401.000			7.601			-2.534
230501.000			7.600			-2.533
230600.000			7.600			-2.533
230700.000			7.601			-2.534
230801.000			7.601			-2.534
230900.000			7.601			-2.534
231000.000			7.602			-2.534
231101.000			7.602			-2.534
231201.000			7.601			-2.534
231301.000			7.600			-2.533
231402.000			7.601			-2.534
231500.000			7.602			-2.534
231600.000			7.601			-2.534
231701.000			7.600			-2.533
231800.000			7.601			-2.534
231900.000			7.601			-2.534
232001.000			7.601			-2.534
232101.000			7.601			-2.534
232201.000			7.601			-2.534
232301.000			7.600			-2.533
232400.000			7.599			-2.533
232500.000			7.600			-2.533
232601.000			7.599			-2.533
232700.000			7.599			-2.533
232801.000			7.598			-2.533
232900.000			7.599			-2.533
233000.000			7.599			-2.533
233102.000			7.599			-2.533
233201.000			7.599			-2.533
233300.000			7.599			-2.533
233401.000			7.599			-2.533
233500.000			7.599			-2.533
233600.000			7.599			-2.533
233701.000			7.599			-2.533
233800.000			7.598			-2.533
233900.000			7.598			-2.533
234002.000			7.599			-2.533
234101.000			7.599			-2.533
234201.000			7.598			-2.533
234301.000			7.597			-2.532
234400.000			7.597			-2.532
234500.000			7.597			-2.532
234601.000			7.597			-2.532
234700.000			7.597			-2.532
234800.000			7.596			-2.532
234901.000			7.596			-2.532
235001.000			7.597			-2.532
235101.000			7.598			-2.533
235202.000			7.597			-2.532
235300.000			7.598			-2.533
235400.000			7.597			-2.532
235501.000			7.597			-2.532
235600.000			7.596			-2.532
235700.000			7.596			-2.532
235801.000			7.597			-2.532
235900.000			7.596			-2.532
236002.000			7.596			-2.532
236101.000			7.596			-2.532
236201.000			7.596			-2.532
236301.000			7.596			-2.532
236400.000			7.595			-2.532
236500.000			7.596			-2.532
236601.000			7.596			-2.532
236700.000			7.596			-2.532
236800.000			7.596			-2.532
236901.000			7.596			-2.532
237001.000			7.596			-2.532
237101.000			7.596			-2.532
237201.000			7.597			-2.532
237300.000			7.596			-2.532
237400.000			7.596			-2.532
237501.000			7.596			-2.532
237600.000			7.595			-2.532
237700.000			7.597			-2.532
237801.000			7.596			-2.532
237901.000			7.596			-2.532
238001.000			7.596			-2.532
238102.000			7.596			-2.532
238200.000			7.596			-2.532
238300.000			7.596			-2.532
238401.000			7.596			-2.532
238500.000			7.596			-2.532
238600.000			7.595			-2.532
238701.000			7.595			-2.532
238800.000			7.597			-2.532
238900.000			7.597			-2.532
239002.000			7.596			-2.532
239101.000			7.596			-2.532
239201.000			7.596			-2.532
239300.000			7.596			-2.532
239400.000			7.596			-2.532
239501.000			7.596			-2.532
239600.000			7.596			-2.532
239700.000			7.596			-2.532
239801.000			7.596			-2.532
239900.000			7.596			-2.532
240001.000			7.595			-2.532
240102.000			7.596			-2.532
240200.000			7.596			-2.532
240300.000			7.596			-2.532
240401.000			7.596			-2.532
240500.000			7.595			-2.532
240600.000			7.594			-2.531
240701.000			7.595			-2.532
240800.000			7.595			-2.532
240901.000			7.597			-2.532
241002.000			7.596			-2.532
241101.000			7.595			-2.532
241200.000			7.595			-2.532
241301.000			7.595			-2.532
241400.000			7.595			-2.532
241500.000			7.594			-2.531
241601.000			7.594			-2.531
241700.000			7.594			-2.531
241800.000			7.595			-2.532
241902.000			7.596			-2.532
242001.000			7.595			-2.532
242100.000			7.594			-2.531
242201.000			7.594			-2.531
242300.000			7.594			-2.531
242401.000			7.593			-2.531
242500.000			7.594			-2.531
242600.000			7.594			-2.531
242701.000			7.594			-2.531
242801.000			7.593			-2.531
242901.000			7.595			-2.532
243002.000			7.595			-2.532
243100.000			7.594			-2.531
243200.000			7.594			-2.531
243301.000			7.593			-2.531
243400.000			7.593			-2.531
243500.000			7.592			-2.531
243601.000			7.593			-2.531
243700.000			7.593			-2.531
243801.000			7.593			-2.531
243902.000			7.594			-2.531
244001.000			7.593			-2.531
244100.000			7.593			-2.531
244201.000			7.593			-2.531
244300.000			7.593			-2.531
244400.000			7.593			-2.531
244501.000			7.593			-2.531
244600.000			7.592			-2.531
244700.000			7.593			-2.531
244802.000			7.592			-2.531
244901.000			7.592			-2.531
245000.000			7.592			-2.531
245101.000			7.592			-2.531
245200.000			7.591			-2.530
245300.000			7.591			-2.530
245401.000			7.591			-2.530
245500.000			7.592			-2.531
245601.000			7.592			-2.531
245701.000			7.591			-2.530
245801.000			7.591			-2.530
245902.000			7.591			-2.530
246000.000			7.593			-2.531
246100.000			7.593			-2.531
246201.000			7.591			-2.530
246300.000			7.592			-2.531
246400.000			7.592			-2.531
246501.000			7.592			-2.531
246600.000			7.592			-2.531
246701.000			7.591			-2.530
246802.000			7.592			-2.531
246901.000			7.592			-2.531
247000.000			7.590			-2.530
247101.000			7.591			-2.530
247200.000			7.592			-2.531
247300.000			7.592			-2.531
247401.000			7.592			-2.531
247500.000			7.592			-2.531
247600.000			7.592			-2.531
247702.000			7.591			-2.530
247801.000			7.591			-2.530
247900.000			7.591			-2.530
248001.000			7.592			-2.531
248100.000			7.590			-2.530
248200.000			7.590			-2.530
248301.000			7.591			-2.530
248400.000			7.590			-2.530
248500.000			7.590			-2.530
248602.000			7.591			-2.530
248701.000			7.590			-2.530
248802.000			7.590			-2.530
248900.000			7.591			-2.530
249000.000			7.590			-2.530
249101.000			7.591			-2.530
249200.000			7.591			-2.530
249300.000			7.591			-2.530
249401.000			7.590			-2.530
249500.000			7.591			-2.530
249600.000			7.590			-2.530
249702.000			7.590			-2.530
249801.000			7.589			-2.530
249900.000			7.590			-2.530
250001.000			7.591			-2.530
250100.000			7.589			-2.530
250200.000			7.588			-2.529
250301.000			7.589			-2.530
250400.000			7.589			-2.530
250500.000			7.588			-2.529
250602.000			7.589			-2.530
250701.000			7.589			-2.530
250801.000			7.589			-2.530
250901.000			7.589			-2.530
251000.000			7.589			-2.530
251100.000			7.588			-2.529
251201.000			7.588			-2.529
251300.000			7.588			-2.529
251400.000			7.589			-2.530
251501.000			7.589			-2.530
251601.000			7.588			-2.529
251701.000			7.588			-2.529
251801.000			7.588			-2.529
251900.000			7.588			-2.529
252001.000			7.588			-2.529
252100.000			7.588			-2.529
252200.000			7.588			-2.529
252301.000			7.589			-2.530
252400.000			7.588			-2.529
252500.000			7.587			-2.529
252602.000			7.587			-2.529
252701.000			7.587			-2.529
252800.000			7.587			-2.529
252901.000			7.587			-2.529
253000.000			7.587			-2.529
253100.000			7.587			-2.529
253201.000			7.587			-2.529
253300.000			7.586			-2.529
253400.000			7.587			-2.529
253501.000			7.587			-2.529
253601.000			7.587			-2.529
253701.000			7.586			-2.529
253801.000			7.587			-2.529
253900.000			7.588			-2.529
254000.000			7.588			-2.529
254101.000			7.587			-2.529
254200.000			7.587			-2.529
254300.000			7.586			-2.529
254401.000			7.586			-2.529
254501.000			7.586			-2.529
254601.000			7.586			-2.529
254702.000			7.586			-2.529
254800.000			7.586			-2.529
254900.000			7.586			-2.529
255001.000			7.587			-2.529
255100.000			7.586			-2.529
255201.000			7.587			-2.529
255300.000			7.586			-2.529
255400.000			7.585			-2.528
255501.000			7.585			-2.528
255601.000			7.586			-2.529
255701.000			7.585			-2.528
255801.000			7.585			-2.528
255900.000			7.585			-2.528
256000.000			7.585			-2.528
256101.000			7.586			-2.529
256200.000			7.585			-2.528
256300.000			7.584			-2.528
256401.000			7.585			-2.528
256501.000			7.585			-2.528
256601.000			7.585			-2.528
256702.000			7.585			-2.528
256800.000			7.584			-2.528
256900.000			7.585			-2.528
257001.000			7.585			-2.528
257100.000			7.585			-2.528
257200.000			7.585			-2.528
257301.000			7.584			-2.528
257400.000			7.584			-2.528
257501.000			7.583			-2.528
257602.000			7.583			-2.528
257701.000			7.584			-2.528
257800.000			7.585			-2.528
257901.000			7.583			-2.528
258000.000			7.585			-2.528
258100.000			7.585			-2.528
258201.000			7.585			-2.528
258300.000			7.585			-2.528
258401.000			7.585			-2.528
258501.000			7.584			-2.528
258601.000			7.583			-2.528
258702.000			7.584			-2.528
258800.000			7.584			-2.528
258900.000			7.584			-2.528
259001.000			7.585			-2.528
259100.000			7.584			-2.528
259200.000			7.583			-2.528
259301.000			7.582			-2.527
259400.000			7.583			-2.528
259501.000			7.583			-2.528
259602.000			7.583			-2.528
259701.000			7.583			-2.528
259800.000			7.584			-2.528
259901.000			7.584			-2.528
260000.000			7.583			-2.528
260100.000			7.583			-2.528
260201.000			7.584			-2.528
260300.000			7.584			-2.528
260400.000			7.584			-2.528
260502.000			7.584			-2.528
260601.000			7.584			-2.528
260700.000			7.583			-2.528
260801.000			7.583			-2.528
260900.000			7.583			-2.528
261000.000			7.583			-2.528
261101.000			7.584			-2.528
261200.000			7.584			-2.528
261300.000			7.583			-2.528
261402.000			7.582			-2.527
261501.000			7.583			-2.528
261602.000			7.582			-2.527
261700.000			7.583			-2.528
261800.000			7.582			-2.527
261901.000			7.582			-2.527
262000.000			7.583			-2.528
262100.000			7.583			-2.528
262201.000			7.583			-2.528
262300.000			7.583			-2.528
262401.000			7.582			-2.527
262502.000			7.583			-2.528
262600.000			7.582			-2.527
262700.000			7.582			-2.527
262801.000			7.583			-2.528
262900.000			7.584			-2.528
263000.000			7.583			-2.528
263101.000			7.582			-2.527
263200.000			7.582			-2.527
263301.000			7.582			-2.527
263402.000			7.583			-2.528
263501.000			7.584			-2.528
263600.000			7.582			-2.527
263701.000			7.583			-2.528
263800.000			7.582			-2.527
263900.000			7.582			-2.527
264001.000			7.581			-2.527
264100.000			7.582			-2.527
264200.000			7.582			-2.527
264302.000			7.581			-2.527
264401.000			7.582			-2.527
264500.000			7.581			-2.527
264601.000			7.582			-2.527
264700.000			7.583			-2.528
264801.000			7.582			-2.527
264900.000			7.581			-2.527
265000.000			7.582			-2.527
265101.000			7.582			-2.527
265201.000			7.582			-2.527
265301.000			7.582			-2.527
265402.000			7.582			-2.527
265500.000			7.582			-2.527
265600.000			7.582			-2.527
265701.000			7.581			-2.527
265800.000			7.580			-2.527
265900.000			7.580			-2.527
266001.000			7.581			-2.527
266100.000			7.580			-2.527
266201.000			7.580			-2.527
266302.000			7.580			-2.527
266401.000			7.580			-2.527
266500.000			7.581			-2.527
266601.000			7.581			-2.527
266700.000			7.581			-2.527
266800.000			7.580			-2.527
266901.000			7.580			-2.527
267000.000			7.580			-2.527
267100.000			7.580			-2.527
267202.000			7.581			-2.527
267301.000			7.580			-2.527
267400.000			7.579			-2.526
267501.000			7.579			-2.526
267600.000			7.580			-2.527
267700.000			7.580			-2.527
267801.000			7.578			-2.526
267900.000			7.580			-2.527
268001.000			7.580			-2.527
268100.000			7.580			-2.527
268201.000			7.581			-2.527
268302.000			7.580			-2.527
268400.000			7.580			-2.527
268500.000			7.580			-2.527
268601.000			7.580			-2.527
268700.000			7.580			-2.527
268800.000			7.580			-2.527
268901.000			7.580			-2.527
269000.000			7.581			-2.527
269101.000			7.581			-2.527
269202.000			7.580			-2.527
269301.000			7.579			-2.526
269400.000			7.579			-2.526
269501.000			7.579			-2.526
269600.000			7.580			-2.527
269700.000			7.579			-2.526
269801.000			7.579			-2.526
269900.000			7.579			-2.526
270000.000			7.579			-2.526
270102.000			7.579			-2.526
270201.000			7.579			-2.526
270301.000			7.579			-2.526
270401.000			7.580			-2.527
270500.000			7.579			-2.526
270600.000			7.580			-2.527
270701.000			7.580			-2.527
270800.000			7.579			-2.526
270900.000			7.579			-2.526
271001.000			7.579			-2.526
271101.000			7.579			-2.526
271202.000			7.578			-2.526
271301.000			7.578			-2.526
271400.000			7.579			-2.526
271501.000			7.580			-2.527
271600.000			7.578			-2.526
271700.000			7.578			-2.526
271801.000			7.578			-2.526
271900.000			7.578			-2.526
272000.000			7.578			-2.526
272102.000			7.579			-2.526
272201.000			7.579			-2.526
272301.000			7.579			-2.526
272401.000			7.579			-2.526
272500.000			7.579			-2.526
272600.000			7.579			-2.526
272701.000			7.579			-2.526
272800.000			7.580			-2.527
272900.000			7.579			-2.526
273001.000			7.578			-2.526
273101.000			7.579			-2.526
273201.000			7.579			-2.526
273301.000			7.578			-2.526
273400.000			7.578			-2.526
273500.000			7.579			-2.526
273601.000			7.578			-2.526
273700.000			7.578			-2.526
273800.000			7.579			-2.526
273901.000			7.578			-2.526
274001.000			7.578			-2.526
274101.000			7.578			-2.526
274202.000			7.577			-2.526
274300.000			7.578			-2.526
274401.000			7.578			-2.526
274500.000			7.578			-2.526
274600.000			7.577			-2.526
274701.000			7.577			-2.526
274800.000			7.577			-2.526
274900.000			7.577			-2.526
275002.000			7.577			-2.526
275101.000			7.577			-2.526
275201.000			7.578			-2.526
275301.000			7.576			-2.525
275400.000			7.577			-2.526
275500.000			7.576			-2.525
275601.000			7.575			-2.525
275700.000			7.577			-2.526
275800.000			7.577			-2.526
275901.000			7.576			-2.525
276001.000			7.576			-2.525
276101.000			7.576			-2.525
276202.000			7.576			-2.525
276300.000			7.576			-2.525
276400.000			7.576			-2.525
276501.000			7.576			-2.525
276600.000			7.576			-2.525
276700.000			7.576			-2.525
276801.000			7.575			-2.525
276900.000			7.575			-2.525
277001.000			7.575			-2.525
277102.000			7.575			-2.525
277201.000			7.574			-2.525
277300.000			7.575			-2.525
277401.000			7.576			-2.525
277500.000			7.575			-2.525
277601.000			7.574			-2.525
277700.000			7.575			-2.525
277800.000			7.574			-2.525
277901.000			7.573			-2.524
278001.000			7.574			-2.525
278101.000			7.575			-2.525
278202.000			7.574			-2.525
278300.000			7.575			-2.525
278400.000			7.575			-2.525
278501.000			7.574			-2.525
278600.000			7.574			-2.525
278700.000			7.574			-2.525
278801.000			7.574			-2.525
278900.000			7.574			-2.525
279001.000			7.573			-2.524
279102.000			7.573			-2.524
279201.000			7.573			-2.524
279300.000			7.573			-2.524
279401.000			7.574			-2.525
279500.000			7.573			-2.524
279600.000			7.572			-2.524
279701.000			7.574			-2.525
279800.000			7.574			-2.525
279900.000			7.574			-2.525
280002.000			7.574			-2.525
280101.000			7.574			-2.525
280200.000			7.573			-2.524
280301.000			7.572			-2.524
280400.000			7.573			-2.524
280500.000			7.573			-2.524
280601.000			7.573			-2.524
280700.000			7.573			-2.524
280801.000			7.573			-2.524
280901.000			7.573			-2.524
281001.000			7.573			-2.524
281102.000			7.572			-2.524
281200.000			7.572			-2.524
281300.000			7.572			-2.524
281401.000			7.572			-2.524
281500.000			7.572			-2.524
281600.000			7.573			-2.524
281701.000			7.573			-2.524
281800.000			7.573			-2.524
281901.000			7.573			-2.524
282002.000			7.572			-2.524
282100.000			7.571			-2.524
282200.000			7.572			-2.524
282301.000			7.572			-2.524
282400.000			7.571			-2.524
282500.000			7.572			-2.524
282601.000			7.573			-2.524
282700.000			7.572			-2.524
282801.000			7.573			-2.524
282902.000			7.573			-2.524
283001.000			7.572			-2.524
283100.000			7.573			-2.524
283201.000			7.572			-2.524
283300.000			7.571			-2.524
283400.000			7.571			-2.524
283501.000			7.571			-2.524
283600.000			7.571			-2.524
283700.000			7.571			-2.524
283802.000			7.572			-2.524
283901.000			7.572			-2.524
284001.000			7.571			-2.524
284100.000			7.571			-2.524
284200.000			7.572			-2.524
284301.000			7.572			-2.524
284400.000			7.571			-2.524
284500.000			7.571			-2.524
284601.000			7.571			-2.524
284701.000			7.572			-2.524
284801.000			7.572			-2.524
284902.000			7.572			-2.524
285000.000			7.571			-2.524
285100.000			7.571			-2.524
285201.000			7.572			-2.524
285300.000			7.572			-2.524
285400.000			7.572			-2.524
285501.000			7.571			-2.524
285600.000			7.571			-2.524
285701.000			7.571			-2.524
285802.000			7.571			-2.524
285901.000			7.570			-2.523
286000.000			7.570			-2.523
286101.000			7.570			-2.523
286200.000			7.570			-2.523
286300.000			7.571			-2.524
286401.000			7.571			-2.524
286500.000			7.571			-2.524
286600.000			7.571			-2.524
286702.000			7.571			-2.524
286801.000			7.571			-2.524
286900.000			7.571			-2.524
287001.000			7.570			-2.523
287100.000			7.571			-2.524
287201.000			7.571			-2.524
287300.000			7.570			-2.523
287400.000			7.570			-2.523
287501.000			7.571			-2.524
287600.000			7.570			-2.523
287701.000			7.570			-2.523
287802.000			7.570			-2.523
287900.000			7.570			-2.523
288000.000			7.570			-2.523
288101.000			7.570			-2.523
288200.000			7.570			-2.523
288300.000			7.570			-2.523
288401.000			7.571			-2.524
288500.000			7.569			-2.523
288601.000			7.568			-2.523
288702.000			7.569			-2.523
288801.000			7.570			-2.523
288900.000			7.570			-2.523
289001.000			7.569			-2.523
289100.000			7.570			-2.523
289200.000			7.569			-2.523
289301.000			7.569			-2.523
289400.000			7.569			-2.523
289500.000			7.569			-2.523
289602.000			7.568			-2.523
289701.000			7.568			-2.523
289801.000			7.570			-2.523
289901.000			7.568			-2.523
290000.000			7.568			-2.523
290100.000			7.569			-2.523
290201.000			7.569			-2.523
290300.000			7.569			-2.523
290401.000			7.569			-2.523
290500.000			7.569			-2.523
290600.000			7.570			-2.523
290702.000			7.570			-2.523
290801.000			7.569			-2.523
290900.000			7.569			-2.523
291001.000			7.569			-2.523
291100.000			7.569			-2.523
291200.000			7.569			-2.523
291301.000			7.569			-2.523
291400.000			7.569			-2.523
291500.000			7.570			-2.523
291602.000			7.570			-2.523
291701.000			7.569			-2.523
291801.000			7.569			-2.523
291901.000			7.568			-2.523
292000.000			7.570			-2.523
292100.000			7.569			-2.523
292201.000			7.568			-2.523
292300.000			7.568			-2.523
292400.000			7.568			-2.523
292501.000			7.569			-2.523
292601.000			7.569			-2.523
292701.000			7.569			-2.523
292802.000			7.568			-2.523
292900.000			7.568			-2.523
293000.000			7.569			-2.523
293101.000			7.569			-2.523
293200.000			7.569			-2.523
293300.000			7.569			-2.523
293401.000			7.568			-2.523
293500.000			7.568			-2.523
293602.000			7.569			-2.523
293701.000			7.569			-2.523
293801.000			7.569			-2.523
293901.000			7.568			-2.523
294000.000			7.568			-2.523
294100.000			7.568			-2.523
294201.000			7.569			-2.523
294300.000			7.568			-2.523
294400.000			7.567			-2.522
294501.000			7.568			-2.523
294601.000			7.568			-2.523
294701.000			7.568			-2.523
294801.000			7.567			-2.522
294900.000			7.567			-2.522
295000.000			7.567			-2.522
295101.000			7.567			-2.522
295200.000			7.567			-2.522
295300.000			7.567			-2.522
295401.000			7.568			-2.523
295500.000			7.568			-2.523
295601.000			7.567			-2.522
295702.000			7.568			-2.523
295801.000			7.567			-2.522
295900.000			7.567			-2.522
296001.000			7.567			-2.522
296100.000			7.566			-2.522
296200.000			7.566			-2.522
296301.000			7.566			-2.522
296400.000			7.567			-2.522
296500.000			7.567			-2.522
296602.000			7.566			-2.522
296701.000			7.566			-2.522
296801.000			7.566			-2.522
296900.000			7.566			-2.522
297000.000			7.567			-2.522
297101.000			7.567			-2.522
297200.000			7.566			-2.522
297300.000			7.566			-2.522
297401.000			7.565			-2.522
297500.000			7.566			-2.522
297601.000			7.565			-2.522
297702.000			7.565			-2.522
297800.000			7.565			-2.522
297900.000			7.565			-2.522
298001.000			7.567			-2.522
298100.000			7.567			-2.522
298200.000			7.566			-2.522
298301.000			7.565			-2.522
298400.000			7.565			-2.522
298500.000			7.566			-2.522
298602.000			7.566			-2.522
298701.000			7.565			-2.522
298800.000			7.566			-2.522
298901.000			7.566			-2.522
299000.000			7.567			-2.522
299100.000			7.566			-2.522
299201.000			7.566			-2.522
299300.000			7.567			-2.522
299400.000			7.567			-2.522
299501.000			7.567			-2.522
299601.000			7.567			-2.522
299701.000			7.567			-2.522
299801.000			7.567			-2.522
299900.000			7.566			-2.522
