# Acquired on 14/06/2024 15:54:20 
# SPIDER: CNT0771454D-RODATO_50000_CICLI-10mm_RAW
# STATIC MEASUREMENT

  # x_forw [mm]    f_forw [N]    kms_forw [N/mm]
      -10.98633      27.93559            2.51383
      -10.48340      25.83201            2.43377
       -9.98779      23.85924            2.35701
       -9.48730      21.99516            2.28487
       -8.98682      20.29362            2.22278
       -8.48633      18.72187            2.16866
       -7.98584      17.23643            2.11857
       -7.48779      15.85803            2.07540
       -6.98731      14.58633            2.04205
       -6.48682      13.36375            2.01114
       -5.98633      12.22090            1.98837
       -5.48828      11.10692            1.96583
       -4.99023      10.01071            1.94236
       -4.48975       8.95841            1.92450
       -3.98926       7.92381            1.90660
       -3.48877       6.90735            1.88877
       -2.98828       5.89912            1.86771
       -2.49023       4.93078            1.85240
       -1.98975       4.01090            1.85603
       -1.48682       3.11970            1.88444
       -0.98877       2.25509            1.95922
       -0.48828       1.37107            2.15694
        0.48584      -0.73005            2.15694
        0.98877      -1.48653            1.82490
        1.48926      -2.30172            1.75900
        1.98731      -3.19628            1.76830
        2.49023      -4.16834            1.80153
        2.98828      -5.19406            1.84452
        3.48877      -6.26163            1.88591
        3.98926      -7.35416            1.92317
        4.48975      -8.47918            1.95937
        4.99023      -9.62361            1.99219
        5.48828     -10.80847            2.02729
        5.98389     -12.01965            2.06179
        6.48438     -13.28921            2.09844
        6.98486     -14.63009            2.14005
        7.49023     -16.05939            2.18648
        7.98584     -17.55007            2.23745
        8.48633     -19.12490            2.29107
        8.98682     -20.77462            2.34705
        9.48730     -22.52154            2.40737
        9.99023     -24.27857            2.46205
       10.48340     -26.06507            2.51664
       10.98145     -27.82674            2.56292

  # x_back [mm]    f_back [N]    kms_back [N/mm]
      -10.98389      27.85052            2.50708
      -10.48340      25.46444            2.39916
       -9.98779      23.37613            2.30912
       -9.48730      21.48470            2.23157
       -8.98682      19.74218            2.16196
       -8.48633      18.14342            2.10107
       -7.98584      16.69812            2.05176
       -7.48779      15.32563            2.00494
       -6.98731      14.06388            1.96797
       -6.48682      12.87196            1.93606
       -5.98633      11.72940            1.90707
       -5.48584      10.63369            1.88132
       -4.99023       9.56796            1.85460
       -4.48975       8.53516            1.83130
       -3.98926       7.51393            1.80506
       -3.48633       6.51544            1.77905
       -2.98584       5.54235            1.75136
       -2.48779       4.59814            1.72243
       -1.98731       3.70285            1.70571
       -1.48682       2.86164            1.71411
       -0.98633       2.07582            1.78717
       -0.48828       1.29854            2.01821
        0.48828      -0.67237            2.01821
        0.98633      -1.40854            1.74548
        1.48682      -2.19609            1.68761
        1.98975      -3.06388            1.69718
        2.49023      -3.99069            1.72826
        2.98828      -4.98059            1.77148
        3.48877      -6.00868            1.81203
        3.98926      -7.06404            1.84925
        4.48975      -8.16164            1.88757
        4.99023      -9.29170            1.92472
        5.48828     -10.43682            1.95870
        5.98877     -11.63398            1.99491
        6.48438     -12.88296            2.03505
        6.98975     -14.20003            2.07634
        7.49023     -15.60567            2.12527
        7.98828     -17.06585            2.17555
        8.48633     -18.64533            2.23399
        8.98682     -20.28583            2.29213
        9.48730     -22.01936            2.35393
        9.99023     -23.84386            2.41806
       10.48340     -25.69036            2.48044
       10.98145     -27.70169            2.55110