# Acquired on 10/01/2024 17:41:29 
# SPIDER: Creep_-9mm_07714532C-2
# CREEP MEASUREMENT

# time [ms]		force [N]		stiffness [N/mm]
1.000			21.886			-2.432
100.000			23.038			-2.560
201.000			23.513			-2.613
300.000			23.536			-2.615
400.000			23.438			-2.604
501.000			23.291			-2.588
601.000			23.235			-2.582
700.000			23.186			-2.576
801.000			23.144			-2.572
900.000			23.103			-2.567
1000.000			23.067			-2.563
1101.000			23.035			-2.559
1200.000			22.975			-2.553
1301.000			22.948			-2.550
1402.000			22.924			-2.547
1500.000			22.902			-2.545
1600.000			22.879			-2.542
1701.000			22.858			-2.540
1800.000			22.838			-2.538
1900.000			22.818			-2.535
2002.000			22.782			-2.531
2101.000			22.766			-2.530
2200.000			22.749			-2.528
2301.000			22.735			-2.526
2400.000			22.720			-2.524
2500.000			22.705			-2.523
2601.000			22.691			-2.521
2700.000			22.664			-2.518
2802.000			22.651			-2.517
2901.000			22.638			-2.515
3000.000			22.627			-2.514
3101.000			22.615			-2.513
3200.000			22.603			-2.511
3300.000			22.591			-2.510
3401.000			22.570			-2.508
3500.000			22.560			-2.507
3601.000			22.550			-2.506
3702.000			22.540			-2.504
3800.000			22.531			-2.503
3900.000			22.521			-2.502
4001.000			22.512			-2.501
4100.000			22.503			-2.500
4200.000			22.484			-2.498
4302.000			22.476			-2.497
4401.000			22.468			-2.496
4500.000			22.460			-2.496
4601.000			22.452			-2.495
4700.000			22.445			-2.494
4800.000			22.438			-2.493
4901.000			22.421			-2.491
5000.000			22.413			-2.490
5101.000			22.406			-2.490
5202.000			22.400			-2.489
5300.000			22.393			-2.488
5400.000			22.385			-2.487
5501.000			22.379			-2.487
5600.000			22.366			-2.485
5700.000			22.360			-2.484
5802.000			22.354			-2.484
5901.000			22.348			-2.483
6001.000			22.342			-2.482
6100.000			22.336			-2.482
6200.000			22.330			-2.481
6301.000			22.317			-2.480
6400.000			22.311			-2.479
6500.000			22.306			-2.478
6602.000			22.302			-2.478
6701.000			22.295			-2.477
6800.000			22.289			-2.477
6901.000			22.283			-2.476
7000.000			22.278			-2.475
7100.000			22.268			-2.474
7201.000			22.263			-2.474
7301.000			22.258			-2.473
7401.000			22.252			-2.472
7501.000			22.248			-2.472
7600.000			22.243			-2.471
7700.000			22.239			-2.471
7801.000			22.228			-2.470
7900.000			22.224			-2.469
8000.000			22.218			-2.469
8102.000			22.214			-2.468
8201.000			22.210			-2.468
8300.000			22.205			-2.467
8401.000			22.201			-2.467
8500.000			22.192			-2.466
8600.000			22.188			-2.465
8701.000			22.183			-2.465
8801.000			22.179			-2.464
8901.000			22.173			-2.464
9001.000			22.169			-2.463
9100.000			22.166			-2.463
9201.000			22.158			-2.462
9300.000			22.154			-2.462
9400.000			22.150			-2.461
9501.000			22.145			-2.461
9601.000			22.142			-2.460
9701.000			22.137			-2.460
9801.000			22.133			-2.459
9900.000			22.130			-2.459
10000.000			22.122			-2.458
10101.000			22.118			-2.458
10200.000			22.115			-2.457
10300.000			22.111			-2.457
10402.000			22.108			-2.456
10501.000			22.105			-2.456
10600.000			22.101			-2.456
10701.000			22.092			-2.455
10800.000			22.089			-2.454
10900.000			22.087			-2.454
11001.000			22.083			-2.454
11101.000			22.078			-2.453
11201.000			22.076			-2.453
11301.000			22.074			-2.453
11400.000			22.067			-2.452
11500.000			22.063			-2.451
11601.000			22.059			-2.451
11700.000			22.057			-2.451
11800.000			22.054			-2.450
11902.000			22.051			-2.450
12001.000			22.047			-2.450
12100.000			22.040			-2.449
12201.000			22.037			-2.449
12300.000			22.035			-2.448
12401.000			22.031			-2.448
12500.000			22.028			-2.448
12600.000			22.026			-2.447
12702.000			22.022			-2.447
12801.000			22.019			-2.447
12900.000			22.014			-2.446
13001.000			22.011			-2.446
13100.000			22.009			-2.445
13200.000			22.006			-2.445
13301.000			22.002			-2.445
13401.000			21.999			-2.444
13501.000			21.997			-2.444
13601.000			21.992			-2.444
13700.000			21.989			-2.443
13800.000			21.986			-2.443
13901.000			21.984			-2.443
14000.000			21.980			-2.442
14100.000			21.977			-2.442
14202.000			21.975			-2.442
14301.000			21.969			-2.441
14400.000			21.967			-2.441
14501.000			21.965			-2.441
14600.000			21.963			-2.440
14700.000			21.960			-2.440
14801.000			21.957			-2.440
14900.000			21.955			-2.439
15001.000			21.950			-2.439
15102.000			21.947			-2.439
15201.000			21.944			-2.438
15300.000			21.941			-2.438
15401.000			21.940			-2.438
15500.000			21.937			-2.437
15601.000			21.934			-2.437
15700.000			21.931			-2.437
15800.000			21.926			-2.436
15902.000			21.924			-2.436
16001.000			21.922			-2.436
16100.000			21.920			-2.436
16201.000			21.918			-2.435
16300.000			21.914			-2.435
16400.000			21.912			-2.435
16501.000			21.907			-2.434
16601.000			21.906			-2.434
16701.000			21.903			-2.434
16801.000			21.902			-2.434
16900.000			21.900			-2.433
17000.000			21.897			-2.433
17101.000			21.895			-2.433
17200.000			21.890			-2.432
17300.000			21.888			-2.432
17402.000			21.885			-2.432
17501.000			21.883			-2.431
17600.000			21.881			-2.431
17701.000			21.879			-2.431
17800.000			21.877			-2.431
17900.000			21.874			-2.430
18001.000			21.870			-2.430
18100.000			21.867			-2.430
18201.000			21.865			-2.429
18302.000			21.864			-2.429
18401.000			21.862			-2.429
18500.000			21.860			-2.429
18601.000			21.857			-2.429
18700.000			21.854			-2.428
18801.000			21.852			-2.428
18900.000			21.850			-2.428
19000.000			21.848			-2.428
19102.000			21.846			-2.427
19201.000			21.843			-2.427
19300.000			21.841			-2.427
19401.000			21.838			-2.426
19500.000			21.836			-2.426
19600.000			21.834			-2.426
19701.000			21.832			-2.426
19800.000			21.831			-2.426
19901.000			21.829			-2.425
20002.000			21.826			-2.425
20100.000			21.823			-2.425
20200.000			21.822			-2.425
20301.000			21.818			-2.424
20400.000			21.816			-2.424
20500.000			21.815			-2.424
20602.000			21.813			-2.424
20701.000			21.811			-2.423
20800.000			21.809			-2.423
20901.000			21.805			-2.423
21000.000			21.803			-2.423
21100.000			21.802			-2.422
21201.000			21.801			-2.422
21300.000			21.799			-2.422
21401.000			21.797			-2.422
21502.000			21.795			-2.422
21600.000			21.791			-2.421
21700.000			21.790			-2.421
21801.000			21.788			-2.421
21900.000			21.787			-2.421
22001.000			21.785			-2.421
22100.000			21.782			-2.420
22201.000			21.782			-2.420
22302.000			21.777			-2.420
22400.000			21.776			-2.420
22500.000			21.775			-2.419
22601.000			21.773			-2.419
22700.000			21.770			-2.419
22800.000			21.768			-2.419
22901.000			21.768			-2.419
23001.000			21.764			-2.418
23101.000			21.763			-2.418
23201.000			21.761			-2.418
23300.000			21.759			-2.418
23400.000			21.758			-2.418
23501.000			21.756			-2.417
23600.000			21.754			-2.417
23700.000			21.752			-2.417
23802.000			21.750			-2.417
23901.000			21.748			-2.416
24000.000			21.746			-2.416
24101.000			21.745			-2.416
24200.000			21.744			-2.416
24300.000			21.742			-2.416
24401.000			21.740			-2.416
24500.000			21.736			-2.415
24601.000			21.734			-2.415
24702.000			21.733			-2.415
24800.000			21.731			-2.415
24900.000			21.731			-2.415
25001.000			21.729			-2.414
25100.000			21.727			-2.414
25201.000			21.725			-2.414
25300.000			21.723			-2.414
25401.000			21.721			-2.413
25502.000			21.720			-2.413
25600.000			21.718			-2.413
25700.000			21.717			-2.413
25801.000			21.716			-2.413
25900.000			21.714			-2.413
26000.000			21.711			-2.412
26102.000			21.709			-2.412
26201.000			21.707			-2.412
26300.000			21.705			-2.412
26401.000			21.705			-2.412
26500.000			21.704			-2.412
26600.000			21.703			-2.411
26701.000			21.699			-2.411
26800.000			21.697			-2.411
26901.000			21.697			-2.411
27002.000			21.695			-2.411
27101.000			21.694			-2.410
27200.000			21.693			-2.410
27301.000			21.691			-2.410
27400.000			21.688			-2.410
27500.000			21.687			-2.410
27601.000			21.685			-2.409
27701.000			21.684			-2.409
27801.000			21.683			-2.409
27902.000			21.681			-2.409
28000.000			21.679			-2.409
28100.000			21.677			-2.409
28201.000			21.676			-2.408
28300.000			21.674			-2.408
28401.000			21.673			-2.408
28500.000			21.672			-2.408
28601.000			21.670			-2.408
28702.000			21.668			-2.408
28800.000			21.667			-2.407
28900.000			21.664			-2.407
29001.000			21.663			-2.407
29100.000			21.662			-2.407
29200.000			21.660			-2.407
29301.000			21.659			-2.407
29401.000			21.657			-2.406
29501.000			21.656			-2.406
29601.000			21.655			-2.406
29700.000			21.652			-2.406
29800.000			21.652			-2.406
29901.000			21.651			-2.406
30000.000			21.649			-2.405
30100.000			21.647			-2.405
30202.000			21.646			-2.405
30301.000			21.644			-2.405
30400.000			21.643			-2.405
30501.000			21.642			-2.405
30600.000			21.641			-2.405
30700.000			21.640			-2.404
30801.000			21.639			-2.404
30901.000			21.637			-2.404
31001.000			21.634			-2.404
31102.000			21.634			-2.404
31200.000			21.632			-2.404
31300.000			21.630			-2.403
31401.000			21.628			-2.403
31500.000			21.627			-2.403
31601.000			21.626			-2.403
31701.000			21.625			-2.403
31801.000			21.622			-2.402
31901.000			21.621			-2.402
32000.000			21.620			-2.402
32100.000			21.619			-2.402
32201.000			21.618			-2.402
32300.000			21.617			-2.402
32400.000			21.616			-2.402
32502.000			21.614			-2.402
32601.000			21.612			-2.401
32700.000			21.612			-2.401
32801.000			21.610			-2.401
32900.000			21.609			-2.401
33000.000			21.609			-2.401
33101.000			21.607			-2.401
33200.000			21.603			-2.400
33301.000			21.603			-2.400
33402.000			21.602			-2.400
33500.000			21.600			-2.400
33600.000			21.599			-2.400
33701.000			21.598			-2.400
33800.000			21.597			-2.400
33900.000			21.596			-2.400
34001.000			21.594			-2.399
34101.000			21.593			-2.399
34201.000			21.591			-2.399
34301.000			21.590			-2.399
34400.000			21.589			-2.399
34500.000			21.588			-2.399
34601.000			21.588			-2.399
34700.000			21.585			-2.398
34801.000			21.584			-2.398
34901.000			21.583			-2.398
35001.000			21.581			-2.398
35101.000			21.581			-2.398
35200.000			21.580			-2.398
35300.000			21.577			-2.397
35401.000			21.576			-2.397
35500.000			21.576			-2.397
35600.000			21.574			-2.397
35702.000			21.573			-2.397
35801.000			21.572			-2.397
35900.000			21.571			-2.397
36001.000			21.570			-2.397
36100.000			21.568			-2.396
36200.000			21.567			-2.396
36301.000			21.565			-2.396
36400.000			21.565			-2.396
36501.000			21.564			-2.396
36602.000			21.563			-2.396
36700.000			21.562			-2.396
36800.000			21.559			-2.395
36901.000			21.558			-2.395
37000.000			21.557			-2.395
37100.000			21.556			-2.395
37201.000			21.555			-2.395
37301.000			21.555			-2.395
37401.000			21.553			-2.395
37501.000			21.552			-2.395
37600.000			21.551			-2.395
37700.000			21.549			-2.394
37801.000			21.547			-2.394
37900.000			21.546			-2.394
38001.000			21.546			-2.394
38101.000			21.544			-2.394
38201.000			21.542			-2.394
38301.000			21.542			-2.394
38400.000			21.541			-2.393
38500.000			21.539			-2.393
38601.000			21.537			-2.393
38700.000			21.537			-2.393
38800.000			21.535			-2.393
38902.000			21.535			-2.393
39001.000			21.533			-2.393
39100.000			21.532			-2.392
39201.000			21.531			-2.392
39300.000			21.530			-2.392
39400.000			21.529			-2.392
39501.000			21.528			-2.392
39601.000			21.528			-2.392
39701.000			21.526			-2.392
39802.000			21.525			-2.392
39900.000			21.523			-2.391
40000.000			21.522			-2.391
40101.000			21.522			-2.391
40200.000			21.521			-2.391
40300.000			21.520			-2.391
40402.000			21.519			-2.391
40501.000			21.517			-2.391
40600.000			21.516			-2.391
40701.000			21.515			-2.391
40800.000			21.514			-2.390
40900.000			21.512			-2.390
41001.000			21.511			-2.390
41100.000			21.511			-2.390
41202.000			21.509			-2.390
41301.000			21.509			-2.390
41400.000			21.508			-2.390
41501.000			21.507			-2.390
41600.000			21.505			-2.389
41700.000			21.504			-2.389
41801.000			21.504			-2.389
41901.000			21.502			-2.389
42001.000			21.502			-2.389
42101.000			21.501			-2.389
42200.000			21.500			-2.389
42300.000			21.498			-2.389
42401.000			21.497			-2.389
42500.000			21.497			-2.389
42600.000			21.496			-2.388
42702.000			21.494			-2.388
42801.000			21.492			-2.388
42900.000			21.492			-2.388
43001.000			21.491			-2.388
43100.000			21.490			-2.388
43200.000			21.489			-2.388
43301.000			21.489			-2.388
43400.000			21.486			-2.387
43501.000			21.486			-2.387
43602.000			21.485			-2.387
43701.000			21.484			-2.387
43800.000			21.484			-2.387
43901.000			21.483			-2.387
44000.000			21.481			-2.387
44100.000			21.479			-2.387
44201.000			21.479			-2.387
44301.000			21.478			-2.386
44402.000			21.476			-2.386
44501.000			21.476			-2.386
44600.000			21.476			-2.386
44701.000			21.475			-2.386
44800.000			21.473			-2.386
44900.000			21.473			-2.386
45001.000			21.472			-2.386
45101.000			21.470			-2.386
45201.000			21.469			-2.385
45302.000			21.468			-2.385
45400.000			21.468			-2.385
45500.000			21.467			-2.385
45601.000			21.465			-2.385
45700.000			21.464			-2.385
45800.000			21.462			-2.385
45902.000			21.461			-2.385
46001.000			21.460			-2.384
46100.000			21.459			-2.384
46201.000			21.459			-2.384
46300.000			21.458			-2.384
46400.000			21.456			-2.384
46501.000			21.456			-2.384
46600.000			21.456			-2.384
46701.000			21.454			-2.384
46802.000			21.454			-2.384
46900.000			21.454			-2.384
47000.000			21.451			-2.383
47101.000			21.451			-2.383
47200.000			21.450			-2.383
47300.000			21.450			-2.383
47401.000			21.449			-2.383
47501.000			21.448			-2.383
47602.000			21.446			-2.383
47700.000			21.444			-2.383
47800.000			21.444			-2.383
47901.000			21.444			-2.383
48000.000			21.443			-2.383
48100.000			21.442			-2.382
48201.000			21.440			-2.382
48301.000			21.438			-2.382
48401.000			21.438			-2.382
48501.000			21.437			-2.382
48600.000			21.437			-2.382
48700.000			21.436			-2.382
48801.000			21.435			-2.382
48900.000			21.435			-2.382
49000.000			21.434			-2.382
49102.000			21.432			-2.381
49201.000			21.430			-2.381
49300.000			21.430			-2.381
49401.000			21.429			-2.381
49500.000			21.429			-2.381
49600.000			21.428			-2.381
49701.000			21.427			-2.381
49800.000			21.426			-2.381
49901.000			21.425			-2.381
50002.000			21.424			-2.380
50100.000			21.423			-2.380
50200.000			21.423			-2.380
50301.000			21.422			-2.380
50400.000			21.421			-2.380
50500.000			21.422			-2.380
50601.000			21.417			-2.380
50701.000			21.418			-2.380
50802.000			21.417			-2.380
50900.000			21.416			-2.380
51000.000			21.416			-2.380
51101.000			21.415			-2.379
51200.000			21.414			-2.379
51300.000			21.413			-2.379
51401.000			21.411			-2.379
51501.000			21.410			-2.379
51601.000			21.409			-2.379
51701.000			21.410			-2.379
51800.000			21.409			-2.379
51900.000			21.408			-2.379
52001.000			21.408			-2.379
52100.000			21.406			-2.378
52201.000			21.405			-2.378
52302.000			21.404			-2.378
52400.000			21.403			-2.378
52500.000			21.403			-2.378
52601.000			21.403			-2.378
52700.000			21.402			-2.378
52800.000			21.400			-2.378
52901.000			21.399			-2.378
53001.000			21.398			-2.378
53101.000			21.397			-2.377
53201.000			21.397			-2.377
53300.000			21.397			-2.377
53400.000			21.395			-2.377
53501.000			21.394			-2.377
53600.000			21.394			-2.377
53700.000			21.392			-2.377
53802.000			21.391			-2.377
53901.000			21.391			-2.377
54001.000			21.391			-2.377
54100.000			21.390			-2.377
54200.000			21.389			-2.377
54301.000			21.388			-2.376
54400.000			21.387			-2.376
54500.000			21.387			-2.376
54602.000			21.387			-2.376
54701.000			21.385			-2.376
54800.000			21.384			-2.376
54901.000			21.383			-2.376
55000.000			21.381			-2.376
55100.000			21.381			-2.376
55201.000			21.381			-2.376
55300.000			21.380			-2.376
55401.000			21.379			-2.375
55502.000			21.378			-2.375
55600.000			21.378			-2.375
55700.000			21.376			-2.375
55801.000			21.375			-2.375
55900.000			21.374			-2.375
56000.000			21.373			-2.375
56101.000			21.373			-2.375
56201.000			21.372			-2.375
56301.000			21.372			-2.375
56401.000			21.371			-2.375
56500.000			21.370			-2.374
56600.000			21.370			-2.374
56701.000			21.369			-2.374
56800.000			21.368			-2.374
56900.000			21.367			-2.374
57002.000			21.366			-2.374
57101.000			21.365			-2.374
57201.000			21.365			-2.374
57300.000			21.363			-2.374
57400.000			21.363			-2.374
57501.000			21.362			-2.374
57600.000			21.361			-2.373
57700.000			21.361			-2.373
57802.000			21.360			-2.373
57901.000			21.359			-2.373
58000.000			21.358			-2.373
58101.000			21.358			-2.373
58200.000			21.357			-2.373
58300.000			21.356			-2.373
58401.000			21.356			-2.373
58501.000			21.355			-2.373
58601.000			21.354			-2.373
58702.000			21.354			-2.373
58800.000			21.354			-2.373
58900.000			21.352			-2.372
59001.000			21.351			-2.372
59100.000			21.350			-2.372
59200.000			21.350			-2.372
59301.000			21.349			-2.372
59401.000			21.347			-2.372
59501.000			21.347			-2.372
59601.000			21.346			-2.372
59700.000			21.345			-2.372
59800.000			21.345			-2.372
59901.000			21.344			-2.372
60000.000			21.344			-2.372
60100.000			21.343			-2.371
60202.000			21.342			-2.371
60301.000			21.342			-2.371
60401.000			21.341			-2.371
60500.000			21.340			-2.371
60600.000			21.338			-2.371
60701.000			21.338			-2.371
60800.000			21.338			-2.371
60901.000			21.336			-2.371
61002.000			21.336			-2.371
61100.000			21.336			-2.371
61200.000			21.335			-2.371
61301.000			21.334			-2.370
61400.000			21.334			-2.370
61500.000			21.332			-2.370
61601.000			21.332			-2.370
61701.000			21.332			-2.370
61801.000			21.331			-2.370
61901.000			21.330			-2.370
62000.000			21.329			-2.370
62100.000			21.329			-2.370
62201.000			21.328			-2.370
62300.000			21.327			-2.370
62400.000			21.327			-2.370
62502.000			21.326			-2.370
62601.000			21.326			-2.370
62700.000			21.326			-2.370
62801.000			21.324			-2.369
62900.000			21.323			-2.369
63000.000			21.323			-2.369
63101.000			21.321			-2.369
63200.000			21.320			-2.369
63301.000			21.320			-2.369
63402.000			21.319			-2.369
63500.000			21.318			-2.369
63601.000			21.317			-2.369
63700.000			21.317			-2.369
63800.000			21.317			-2.369
63901.000			21.315			-2.368
64001.000			21.315			-2.368
64101.000			21.315			-2.368
64201.000			21.314			-2.368
64300.000			21.314			-2.368
64400.000			21.312			-2.368
64501.000			21.311			-2.368
64600.000			21.310			-2.368
64700.000			21.310			-2.368
64802.000			21.310			-2.368
64901.000			21.308			-2.368
65000.000			21.308			-2.368
65101.000			21.308			-2.368
65200.000			21.306			-2.367
65300.000			21.306			-2.367
65401.000			21.305			-2.367
65500.000			21.304			-2.367
65601.000			21.304			-2.367
65702.000			21.303			-2.367
65800.000			21.303			-2.367
65900.000			21.301			-2.367
66001.000			21.301			-2.367
66100.000			21.301			-2.367
66200.000			21.300			-2.367
66301.000			21.299			-2.367
66401.000			21.298			-2.366
66501.000			21.297			-2.366
66601.000			21.298			-2.366
66700.000			21.297			-2.366
66801.000			21.294			-2.366
66900.000			21.294			-2.366
67000.000			21.294			-2.366
67101.000			21.294			-2.366
67201.000			21.293			-2.366
67301.000			21.291			-2.366
67401.000			21.291			-2.366
67500.000			21.291			-2.366
67600.000			21.290			-2.366
67701.000			21.290			-2.366
67800.000			21.290			-2.366
67900.000			21.289			-2.365
68002.000			21.287			-2.365
68101.000			21.286			-2.365
68200.000			21.287			-2.365
68301.000			21.286			-2.365
68400.000			21.285			-2.365
68500.000			21.284			-2.365
68601.000			21.284			-2.365
68700.000			21.285			-2.365
68801.000			21.283			-2.365
68902.000			21.283			-2.365
69000.000			21.282			-2.365
69100.000			21.281			-2.365
69201.000			21.280			-2.364
69300.000			21.278			-2.364
69400.000			21.278			-2.364
69501.000			21.278			-2.364
69601.000			21.277			-2.364
69701.000			21.276			-2.364
69801.000			21.276			-2.364
69900.000			21.275			-2.364
70001.000			21.275			-2.364
70100.000			21.275			-2.364
70200.000			21.273			-2.364
70301.000			21.273			-2.364
70401.000			21.273			-2.364
70501.000			21.272			-2.364
70601.000			21.272			-2.364
70700.000			21.271			-2.363
70800.000			21.270			-2.363
70901.000			21.270			-2.363
71000.000			21.269			-2.363
71100.000			21.268			-2.363
71202.000			21.267			-2.363
71301.000			21.266			-2.363
71400.000			21.265			-2.363
71501.000			21.265			-2.363
71600.000			21.265			-2.363
71700.000			21.264			-2.363
71801.000			21.264			-2.363
71900.000			21.262			-2.362
72001.000			21.261			-2.362
72102.000			21.262			-2.362
72200.000			21.262			-2.362
72300.000			21.261			-2.362
72401.000			21.259			-2.362
72500.000			21.260			-2.362
72600.000			21.259			-2.362
72701.000			21.258			-2.362
72801.000			21.257			-2.362
72901.000			21.256			-2.362
73001.000			21.256			-2.362
73100.000			21.256			-2.362
73201.000			21.255			-2.362
73300.000			21.254			-2.362
73400.000			21.253			-2.361
73501.000			21.253			-2.361
73601.000			21.252			-2.361
73701.000			21.252			-2.361
73801.000			21.250			-2.361
73900.000			21.251			-2.361
74000.000			21.251			-2.361
74101.000			21.250			-2.361
74200.000			21.249			-2.361
74300.000			21.248			-2.361
74402.000			21.247			-2.361
74501.000			21.246			-2.361
74600.000			21.246			-2.361
74701.000			21.245			-2.361
74800.000			21.245			-2.361
74900.000			21.245			-2.361
75001.000			21.244			-2.360
75100.000			21.243			-2.360
75201.000			21.243			-2.360
75302.000			21.242			-2.360
75400.000			21.242			-2.360
75500.000			21.240			-2.360
75601.000			21.240			-2.360
75700.000			21.240			-2.360
75800.000			21.240			-2.360
75901.000			21.239			-2.360
76001.000			21.238			-2.360
76101.000			21.238			-2.360
76201.000			21.237			-2.360
76300.000			21.237			-2.360
76401.000			21.236			-2.360
76500.000			21.235			-2.359
76600.000			21.235			-2.359
76701.000			21.234			-2.359
76801.000			21.234			-2.359
76901.000			21.234			-2.359
77001.000			21.232			-2.359
77100.000			21.231			-2.359
77200.000			21.231			-2.359
77301.000			21.231			-2.359
77400.000			21.230			-2.359
77500.000			21.229			-2.359
77602.000			21.228			-2.359
77701.000			21.229			-2.359
77800.000			21.228			-2.359
77901.000			21.228			-2.359
78000.000			21.227			-2.359
78100.000			21.226			-2.358
78201.000			21.224			-2.358
78300.000			21.224			-2.358
78401.000			21.224			-2.358
78502.000			21.223			-2.358
78600.000			21.224			-2.358
78700.000			21.223			-2.358
78801.000			21.222			-2.358
78900.000			21.221			-2.358
79000.000			21.221			-2.358
79101.000			21.221			-2.358
79201.000			21.219			-2.358
79301.000			21.219			-2.358
79401.000			21.219			-2.358
79500.000			21.218			-2.358
79601.000			21.217			-2.357
79700.000			21.217			-2.357
79800.000			21.217			-2.357
79901.000			21.215			-2.357
80001.000			21.215			-2.357
80101.000			21.215			-2.357
80201.000			21.215			-2.357
80300.000			21.214			-2.357
80400.000			21.214			-2.357
80501.000			21.214			-2.357
80600.000			21.214			-2.357
80700.000			21.213			-2.357
80802.000			21.213			-2.357
80901.000			21.211			-2.357
81000.000			21.211			-2.357
81101.000			21.209			-2.357
81200.000			21.209			-2.357
81300.000			21.209			-2.357
81401.000			21.209			-2.357
81500.000			21.208			-2.356
81601.000			21.207			-2.356
81702.000			21.207			-2.356
81800.000			21.206			-2.356
81900.000			21.206			-2.356
82001.000			21.206			-2.356
82100.000			21.205			-2.356
82200.000			21.203			-2.356
82301.000			21.203			-2.356
82401.000			21.203			-2.356
82501.000			21.202			-2.356
82601.000			21.201			-2.356
82700.000			21.201			-2.356
82801.000			21.200			-2.356
82900.000			21.200			-2.356
83000.000			21.199			-2.355
83101.000			21.198			-2.355
83201.000			21.198			-2.355
83301.000			21.199			-2.355
83401.000			21.198			-2.355
83500.000			21.196			-2.355
83600.000			21.195			-2.355
83701.000			21.195			-2.355
83800.000			21.196			-2.355
83900.000			21.195			-2.355
84002.000			21.193			-2.355
84101.000			21.193			-2.355
84200.000			21.194			-2.355
84301.000			21.193			-2.355
84400.000			21.192			-2.355
84500.000			21.191			-2.355
84601.000			21.190			-2.354
84700.000			21.190			-2.354
84801.000			21.189			-2.354
84902.000			21.189			-2.354
85000.000			21.187			-2.354
85100.000			21.187			-2.354
85201.000			21.187			-2.354
85300.000			21.186			-2.354
85400.000			21.187			-2.354
85501.000			21.185			-2.354
85601.000			21.184			-2.354
85701.000			21.184			-2.354
85801.000			21.184			-2.354
85900.000			21.183			-2.354
86001.000			21.183			-2.354
86100.000			21.183			-2.354
86200.000			21.182			-2.354
86301.000			21.181			-2.353
86401.000			21.182			-2.354
86501.000			21.180			-2.353
86601.000			21.180			-2.353
86700.000			21.180			-2.353
86800.000			21.179			-2.353
86901.000			21.178			-2.353
87000.000			21.178			-2.353
87100.000			21.178			-2.353
87202.000			21.177			-2.353
87301.000			21.176			-2.353
87401.000			21.175			-2.353
87501.000			21.175			-2.353
87600.000			21.175			-2.353
87700.000			21.175			-2.353
87801.000			21.174			-2.353
87900.000			21.174			-2.353
88000.000			21.174			-2.353
88102.000			21.174			-2.353
88201.000			21.174			-2.353
88300.000			21.173			-2.353
88401.000			21.172			-2.352
88500.000			21.171			-2.352
88600.000			21.171			-2.352
88701.000			21.170			-2.352
88800.000			21.168			-2.352
88901.000			21.169			-2.352
89002.000			21.168			-2.352
89100.000			21.168			-2.352
89201.000			21.167			-2.352
89300.000			21.168			-2.352
89400.000			21.167			-2.352
89501.000			21.166			-2.352
89600.000			21.166			-2.352
89701.000			21.166			-2.352
89802.000			21.165			-2.352
89900.000			21.165			-2.352
90000.000			21.164			-2.352
90101.000			21.163			-2.351
90200.000			21.162			-2.351
90300.000			21.161			-2.351
90401.000			21.162			-2.351
90501.000			21.160			-2.351
90601.000			21.160			-2.351
90701.000			21.160			-2.351
90800.000			21.159			-2.351
90900.000			21.158			-2.351
91001.000			21.159			-2.351
91100.000			21.158			-2.351
91200.000			21.158			-2.351
91302.000			21.157			-2.351
91401.000			21.156			-2.351
91500.000			21.155			-2.351
91601.000			21.155			-2.351
91700.000			21.155			-2.351
91800.000			21.154			-2.350
91901.000			21.154			-2.350
92000.000			21.153			-2.350
92101.000			21.153			-2.350
92202.000			21.152			-2.350
92300.000			21.151			-2.350
92401.000			21.151			-2.350
92500.000			21.151			-2.350
92600.000			21.150			-2.350
92701.000			21.150			-2.350
92800.000			21.149			-2.350
92901.000			21.149			-2.350
93002.000			21.148			-2.350
93100.000			21.147			-2.350
93200.000			21.147			-2.350
93301.000			21.148			-2.350
93400.000			21.146			-2.350
93500.000			21.146			-2.350
93601.000			21.145			-2.349
93701.000			21.144			-2.349
93801.000			21.143			-2.349
93901.000			21.144			-2.349
94000.000			21.144			-2.349
94100.000			21.144			-2.349
94201.000			21.142			-2.349
94300.000			21.142			-2.349
94400.000			21.142			-2.349
94502.000			21.141			-2.349
94601.000			21.140			-2.349
94700.000			21.140			-2.349
94801.000			21.140			-2.349
94900.000			21.139			-2.349
95000.000			21.138			-2.349
95101.000			21.137			-2.349
95200.000			21.137			-2.349
95301.000			21.138			-2.349
95402.000			21.137			-2.349
95500.000			21.136			-2.348
95601.000			21.136			-2.348
95700.000			21.135			-2.348
95800.000			21.135			-2.348
95901.000			21.134			-2.348
96000.000			21.134			-2.348
96101.000			21.133			-2.348
96202.000			21.134			-2.348
96300.000			21.133			-2.348
96400.000			21.131			-2.348
96501.000			21.131			-2.348
96600.000			21.131			-2.348
96700.000			21.129			-2.348
96801.000			21.129			-2.348
96901.000			21.129			-2.348
97001.000			21.129			-2.348
97101.000			21.129			-2.348
97200.000			21.128			-2.348
97300.000			21.127			-2.347
97401.000			21.127			-2.347
97500.000			21.126			-2.347
97600.000			21.126			-2.347
97702.000			21.125			-2.347
97801.000			21.125			-2.347
97900.000			21.125			-2.347
98001.000			21.124			-2.347
98100.000			21.122			-2.347
98200.000			21.122			-2.347
98301.000			21.123			-2.347
98400.000			21.123			-2.347
98501.000			21.122			-2.347
98602.000			21.123			-2.347
98700.000			21.122			-2.347
98801.000			21.120			-2.347
98900.000			21.119			-2.347
99000.000			21.119			-2.347
99101.000			21.119			-2.347
99200.000			21.120			-2.347
99301.000			21.119			-2.347
99402.000			21.118			-2.346
99500.000			21.119			-2.347
99600.000			21.118			-2.346
99701.000			21.117			-2.346
99800.000			21.117			-2.346
99900.000			21.117			-2.346
100001.000			21.114			-2.346
100101.000			21.114			-2.346
100201.000			21.114			-2.346
100301.000			21.113			-2.346
100400.000			21.113			-2.346
100500.000			21.113			-2.346
100601.000			21.113			-2.346
100700.000			21.113			-2.346
100800.000			21.112			-2.346
100902.000			21.112			-2.346
101001.000			21.112			-2.346
101100.000			21.112			-2.346
101201.000			21.111			-2.346
101300.000			21.109			-2.345
101400.000			21.109			-2.345
101501.000			21.109			-2.345
101600.000			21.108			-2.345
101701.000			21.108			-2.345
101802.000			21.107			-2.345
101900.000			21.107			-2.345
102001.000			21.107			-2.345
102100.000			21.106			-2.345
102200.000			21.105			-2.345
102301.000			21.104			-2.345
102400.000			21.105			-2.345
102501.000			21.104			-2.345
102602.000			21.103			-2.345
102700.000			21.103			-2.345
102800.000			21.103			-2.345
102901.000			21.102			-2.345
103000.000			21.102			-2.345
103100.000			21.102			-2.345
103201.000			21.101			-2.345
103301.000			21.101			-2.345
103401.000			21.101			-2.345
103501.000			21.101			-2.345
103600.000			21.098			-2.344
103700.000			21.098			-2.344
103801.000			21.098			-2.344
103900.000			21.098			-2.344
104000.000			21.098			-2.344
104102.000			21.097			-2.344
104201.000			21.097			-2.344
104300.000			21.097			-2.344
104401.000			21.096			-2.344
104500.000			21.096			-2.344
104600.000			21.095			-2.344
104701.000			21.095			-2.344
104800.000			21.095			-2.344
104901.000			21.094			-2.344
105002.000			21.094			-2.344
105100.000			21.093			-2.344
105201.000			21.092			-2.344
105300.000			21.092			-2.344
105400.000			21.092			-2.344
105501.000			21.092			-2.344
105600.000			21.091			-2.343
105701.000			21.090			-2.343
105802.000			21.090			-2.343
105900.000			21.090			-2.343
106000.000			21.090			-2.343
106101.000			21.090			-2.343
106200.000			21.089			-2.343
106300.000			21.088			-2.343
106401.000			21.086			-2.343
106501.000			21.086			-2.343
106601.000			21.087			-2.343
106701.000			21.086			-2.343
106800.000			21.085			-2.343
106900.000			21.085			-2.343
107001.000			21.085			-2.343
107100.000			21.084			-2.343
107200.000			21.084			-2.343
107302.000			21.085			-2.343
107401.000			21.084			-2.343
107501.000			21.083			-2.343
107601.000			21.082			-2.342
107700.000			21.082			-2.342
107800.000			21.082			-2.342
107901.000			21.082			-2.342
108000.000			21.081			-2.342
108100.000			21.080			-2.342
108202.000			21.079			-2.342
108301.000			21.079			-2.342
108401.000			21.079			-2.342
108500.000			21.078			-2.342
108600.000			21.077			-2.342
108701.000			21.077			-2.342
108800.000			21.078			-2.342
108900.000			21.078			-2.342
109002.000			21.077			-2.342
109101.000			21.076			-2.342
109200.000			21.074			-2.342
109301.000			21.074			-2.342
109400.000			21.076			-2.342
109500.000			21.075			-2.342
109601.000			21.073			-2.341
109700.000			21.073			-2.341
109800.000			21.072			-2.341
109902.000			21.072			-2.341
110001.000			21.073			-2.341
110100.000			21.072			-2.341
110201.000			21.071			-2.341
110300.000			21.070			-2.341
110400.000			21.071			-2.341
110501.000			21.070			-2.341
110601.000			21.070			-2.341
110701.000			21.069			-2.341
110802.000			21.069			-2.341
110900.000			21.068			-2.341
111000.000			21.068			-2.341
111101.000			21.068			-2.341
111200.000			21.067			-2.341
111300.000			21.067			-2.341
111401.000			21.067			-2.341
111501.000			21.067			-2.341
111602.000			21.066			-2.341
111700.000			21.065			-2.341
111800.000			21.065			-2.341
111901.000			21.064			-2.340
112000.000			21.064			-2.340
112100.000			21.063			-2.340
112201.000			21.063			-2.340
112301.000			21.063			-2.340
112401.000			21.062			-2.340
112501.000			21.062			-2.340
112600.000			21.062			-2.340
112700.000			21.061			-2.340
112801.000			21.061			-2.340
112900.000			21.060			-2.340
113000.000			21.059			-2.340
113102.000			21.059			-2.340
113201.000			21.060			-2.340
113300.000			21.059			-2.340
113401.000			21.059			-2.340
113500.000			21.059			-2.340
113600.000			21.058			-2.340
113701.000			21.057			-2.340
113800.000			21.056			-2.340
113901.000			21.057			-2.340
114002.000			21.056			-2.340
114100.000			21.055			-2.339
114200.000			21.055			-2.339
114301.000			21.055			-2.339
114400.000			21.056			-2.340
114500.000			21.054			-2.339
114601.000			21.053			-2.339
114701.000			21.054			-2.339
114802.000			21.053			-2.339
114901.000			21.052			-2.339
115000.000			21.052			-2.339
115101.000			21.052			-2.339
115200.000			21.051			-2.339
115300.000			21.050			-2.339
115401.000			21.050			-2.339
115501.000			21.051			-2.339
115601.000			21.050			-2.339
115701.000			21.049			-2.339
115800.000			21.049			-2.339
115900.000			21.048			-2.339
116001.000			21.047			-2.339
116100.000			21.047			-2.339
116200.000			21.047			-2.339
116302.000			21.047			-2.339
116401.000			21.047			-2.339
116501.000			21.047			-2.339
116601.000			21.046			-2.338
116700.000			21.045			-2.338
116800.000			21.045			-2.338
116901.000			21.045			-2.338
117000.000			21.045			-2.338
117100.000			21.044			-2.338
117202.000			21.044			-2.338
117301.000			21.043			-2.338
117400.000			21.043			-2.338
117501.000			21.043			-2.338
117600.000			21.042			-2.338
117700.000			21.042			-2.338
117801.000			21.041			-2.338
117900.000			21.041			-2.338
118002.000			21.042			-2.338
118101.000			21.041			-2.338
118200.000			21.041			-2.338
118301.000			21.038			-2.338
118400.000			21.038			-2.338
118500.000			21.039			-2.338
118601.000			21.039			-2.338
118700.000			21.038			-2.338
118801.000			21.038			-2.338
118902.000			21.037			-2.337
119001.000			21.036			-2.337
119100.000			21.037			-2.337
119201.000			21.036			-2.337
119300.000			21.036			-2.337
119400.000			21.035			-2.337
119501.000			21.035			-2.337
119601.000			21.033			-2.337
119701.000			21.033			-2.337
119802.000			21.033			-2.337
119900.000			21.033			-2.337
120000.000			21.032			-2.337
120101.000			21.033			-2.337
120200.000			21.032			-2.337
120300.000			21.032			-2.337
120401.000			21.031			-2.337
120501.000			21.030			-2.337
120601.000			21.030			-2.337
120701.000			21.030			-2.337
120800.000			21.030			-2.337
120900.000			21.031			-2.337
121001.000			21.029			-2.337
121100.000			21.029			-2.337
121201.000			21.029			-2.337
121301.000			21.028			-2.336
121401.000			21.027			-2.336
121501.000			21.027			-2.336
121600.000			21.027			-2.336
121700.000			21.027			-2.336
121801.000			21.027			-2.336
121900.000			21.026			-2.336
122000.000			21.026			-2.336
122102.000			21.026			-2.336
122201.000			21.025			-2.336
122300.000			21.023			-2.336
122401.000			21.023			-2.336
122500.000			21.022			-2.336
122600.000			21.022			-2.336
122701.000			21.023			-2.336
122800.000			21.023			-2.336
122901.000			21.022			-2.336
123002.000			21.021			-2.336
123100.000			21.021			-2.336
123200.000			21.021			-2.336
123301.000			21.021			-2.336
123400.000			21.020			-2.336
123500.000			21.020			-2.336
123602.000			21.019			-2.335
123701.000			21.019			-2.335
123801.000			21.019			-2.335
123901.000			21.019			-2.335
124000.000			21.018			-2.335
124100.000			21.018			-2.335
124201.000			21.017			-2.335
124300.000			21.017			-2.335
124402.000			21.017			-2.335
124501.000			21.016			-2.335
124601.000			21.016			-2.335
124701.000			21.015			-2.335
124800.000			21.015			-2.335
124900.000			21.015			-2.335
125001.000			21.015			-2.335
125100.000			21.015			-2.335
125200.000			21.014			-2.335
125302.000			21.012			-2.335
125401.000			21.014			-2.335
125500.000			21.012			-2.335
125601.000			21.013			-2.335
125700.000			21.012			-2.335
125800.000			21.011			-2.335
125901.000			21.011			-2.335
126000.000			21.010			-2.334
126101.000			21.010			-2.334
126202.000			21.009			-2.334
126300.000			21.010			-2.334
126400.000			21.010			-2.334
126501.000			21.009			-2.334
126600.000			21.008			-2.334
126700.000			21.008			-2.334
126801.000			21.008			-2.334
126901.000			21.008			-2.334
127001.000			21.008			-2.334
127101.000			21.008			-2.334
127200.000			21.008			-2.334
127300.000			21.008			-2.334
127401.000			21.007			-2.334
127500.000			21.007			-2.334
127601.000			21.005			-2.334
127701.000			21.005			-2.334
127801.000			21.004			-2.334
127901.000			21.004			-2.334
128000.000			21.004			-2.334
128100.000			21.004			-2.334
128201.000			21.003			-2.334
128300.000			21.002			-2.334
128400.000			21.003			-2.334
128502.000			21.003			-2.334
128601.000			21.003			-2.334
128700.000			21.001			-2.333
128801.000			21.002			-2.334
128900.000			21.002			-2.334
129000.000			21.001			-2.333
129101.000			21.000			-2.333
129200.000			21.000			-2.333
129301.000			21.000			-2.333
129402.000			20.999			-2.333
129501.000			20.999			-2.333
129600.000			20.999			-2.333
129701.000			20.998			-2.333
129800.000			20.998			-2.333
129900.000			20.998			-2.333
130001.000			20.997			-2.333
130100.000			20.997			-2.333
130201.000			20.997			-2.333
130302.000			20.996			-2.333
130401.000			20.996			-2.333
130500.000			20.995			-2.333
130601.000			20.996			-2.333
130700.000			20.996			-2.333
130801.000			20.995			-2.333
130900.000			20.994			-2.333
131000.000			20.994			-2.333
131102.000			20.994			-2.333
131201.000			20.994			-2.333
131300.000			20.994			-2.333
131401.000			20.994			-2.333
131500.000			20.994			-2.333
131600.000			20.994			-2.333
131701.000			20.992			-2.332
131800.000			20.991			-2.332
131900.000			20.992			-2.332
132002.000			20.991			-2.332
132101.000			20.990			-2.332
132201.000			20.991			-2.332
132301.000			20.991			-2.332
132400.000			20.991			-2.332
132500.000			20.991			-2.332
132601.000			20.990			-2.332
132700.000			20.989			-2.332
132800.000			20.988			-2.332
132901.000			20.988			-2.332
133001.000			20.988			-2.332
133101.000			20.988			-2.332
133201.000			20.987			-2.332
133300.000			20.987			-2.332
133400.000			20.986			-2.332
133501.000			20.986			-2.332
133600.000			20.986			-2.332
133700.000			20.986			-2.332
133801.000			20.986			-2.332
133901.000			20.986			-2.332
134002.000			20.986			-2.332
134101.000			20.984			-2.332
134200.000			20.984			-2.332
134301.000			20.985			-2.332
134400.000			20.983			-2.331
134500.000			20.982			-2.331
134601.000			20.982			-2.331
134700.000			20.983			-2.331
134800.000			20.983			-2.331
134902.000			20.981			-2.331
135001.000			20.980			-2.331
135100.000			20.980			-2.331
135201.000			20.981			-2.331
135300.000			20.980			-2.331
135400.000			20.980			-2.331
135501.000			20.980			-2.331
135600.000			20.979			-2.331
135700.000			20.979			-2.331
135802.000			20.979			-2.331
135901.000			20.978			-2.331
136000.000			20.977			-2.331
136101.000			20.977			-2.331
136200.000			20.978			-2.331
136300.000			20.978			-2.331
136401.000			20.977			-2.331
136500.000			20.976			-2.331
136600.000			20.975			-2.331
136702.000			20.975			-2.331
136801.000			20.975			-2.331
136901.000			20.975			-2.331
137001.000			20.974			-2.330
137100.000			20.974			-2.330
137201.000			20.974			-2.330
137300.000			20.975			-2.331
137400.000			20.974			-2.330
137501.000			20.973			-2.330
137600.000			20.973			-2.330
137701.000			20.972			-2.330
137802.000			20.971			-2.330
137901.000			20.971			-2.330
138000.000			20.971			-2.330
138101.000			20.970			-2.330
138200.000			20.970			-2.330
138300.000			20.969			-2.330
138401.000			20.968			-2.330
138500.000			20.969			-2.330
138601.000			20.968			-2.330
138702.000			20.968			-2.330
138801.000			20.967			-2.330
138900.000			20.966			-2.330
139001.000			20.967			-2.330
139100.000			20.968			-2.330
139200.000			20.967			-2.330
139301.000			20.966			-2.330
139400.000			20.967			-2.330
139500.000			20.966			-2.330
139602.000			20.965			-2.329
139701.000			20.965			-2.329
139801.000			20.965			-2.329
139901.000			20.963			-2.329
140000.000			20.963			-2.329
140100.000			20.964			-2.329
140201.000			20.964			-2.329
140300.000			20.964			-2.329
140401.000			20.963			-2.329
140500.000			20.962			-2.329
140601.000			20.961			-2.329
140702.000			20.961			-2.329
140800.000			20.961			-2.329
140900.000			20.960			-2.329
141001.000			20.960			-2.329
141100.000			20.959			-2.329
141200.000			20.960			-2.329
141301.000			20.960			-2.329
141400.000			20.959			-2.329
141501.000			20.958			-2.329
141602.000			20.958			-2.329
141700.000			20.958			-2.329
141800.000			20.958			-2.329
141901.000			20.956			-2.328
142000.000			20.956			-2.328
142100.000			20.957			-2.329
142201.000			20.956			-2.328
142300.000			20.956			-2.328
142401.000			20.955			-2.328
142502.000			20.955			-2.328
142601.000			20.955			-2.328
142700.000			20.955			-2.328
142801.000			20.953			-2.328
142900.000			20.953			-2.328
143000.000			20.953			-2.328
143101.000			20.952			-2.328
143200.000			20.953			-2.328
143301.000			20.952			-2.328
143402.000			20.952			-2.328
143501.000			20.952			-2.328
143601.000			20.953			-2.328
143700.000			20.952			-2.328
143800.000			20.951			-2.328
143901.000			20.950			-2.328
144000.000			20.951			-2.328
144100.000			20.951			-2.328
144202.000			20.952			-2.328
144301.000			20.950			-2.328
144401.000			20.949			-2.328
144501.000			20.950			-2.328
144600.000			20.950			-2.328
144700.000			20.949			-2.328
144801.000			20.947			-2.327
144900.000			20.947			-2.327
145000.000			20.947			-2.327
145101.000			20.947			-2.327
145201.000			20.946			-2.327
145301.000			20.946			-2.327
145401.000			20.946			-2.327
145500.000			20.945			-2.327
145600.000			20.945			-2.327
145701.000			20.945			-2.327
145800.000			20.944			-2.327
145900.000			20.944			-2.327
146001.000			20.944			-2.327
146101.000			20.944			-2.327
146201.000			20.942			-2.327
146302.000			20.943			-2.327
146400.000			20.942			-2.327
146500.000			20.942			-2.327
146601.000			20.941			-2.327
146700.000			20.941			-2.327
146801.000			20.941			-2.327
146900.000			20.941			-2.327
147000.000			20.941			-2.327
147102.000			20.940			-2.327
147201.000			20.940			-2.327
147300.000			20.939			-2.327
147401.000			20.939			-2.327
147500.000			20.939			-2.327
147600.000			20.938			-2.326
147701.000			20.938			-2.326
147800.000			20.938			-2.326
147900.000			20.938			-2.326
148002.000			20.938			-2.326
148101.000			20.937			-2.326
148200.000			20.937			-2.326
148301.000			20.937			-2.326
148400.000			20.937			-2.326
148500.000			20.938			-2.326
148601.000			20.936			-2.326
148700.000			20.936			-2.326
148800.000			20.937			-2.326
148902.000			20.937			-2.326
149001.000			20.936			-2.326
149101.000			20.935			-2.326
149201.000			20.935			-2.326
149300.000			20.935			-2.326
149400.000			20.933			-2.326
149501.000			20.933			-2.326
149600.000			20.933			-2.326
149700.000			20.933			-2.326
149801.000			20.933			-2.326
149901.000			20.932			-2.326
150002.000			20.931			-2.326
150100.000			20.933			-2.326
150200.000			20.932			-2.326
150301.000			20.932			-2.326
150400.000			20.932			-2.326
150500.000			20.931			-2.326
150601.000			20.931			-2.326
150700.000			20.931			-2.326
150801.000			20.931			-2.326
150902.000			20.930			-2.326
151001.000			20.930			-2.326
151100.000			20.930			-2.326
151201.000			20.929			-2.325
151300.000			20.928			-2.325
151400.000			20.929			-2.325
151501.000			20.929			-2.325
151600.000			20.928			-2.325
151701.000			20.928			-2.325
151802.000			20.928			-2.325
151901.000			20.928			-2.325
152000.000			20.927			-2.325
152101.000			20.927			-2.325
152200.000			20.927			-2.325
152300.000			20.925			-2.325
152401.000			20.925			-2.325
152500.000			20.925			-2.325
152601.000			20.925			-2.325
152702.000			20.924			-2.325
152801.000			20.924			-2.325
152900.000			20.924			-2.325
153001.000			20.923			-2.325
153100.000			20.924			-2.325
153201.000			20.923			-2.325
153300.000			20.922			-2.325
153400.000			20.923			-2.325
153502.000			20.922			-2.325
153601.000			20.923			-2.325
153701.000			20.923			-2.325
153801.000			20.922			-2.325
153900.000			20.922			-2.325
154000.000			20.922			-2.325
154101.000			20.921			-2.325
154200.000			20.921			-2.325
154300.000			20.922			-2.325
154402.000			20.921			-2.325
154501.000			20.921			-2.325
154601.000			20.921			-2.325
154701.000			20.921			-2.325
154800.000			20.920			-2.324
154900.000			20.920			-2.324
155001.000			20.920			-2.324
155100.000			20.920			-2.324
155200.000			20.919			-2.324
155301.000			20.919			-2.324
155401.000			20.918			-2.324
155501.000			20.918			-2.324
155601.000			20.918			-2.324
155700.000			20.918			-2.324
155800.000			20.918			-2.324
155901.000			20.918			-2.324
156000.000			20.917			-2.324
156100.000			20.917			-2.324
156201.000			20.916			-2.324
156301.000			20.916			-2.324
156402.000			20.915			-2.324
156501.000			20.915			-2.324
156600.000			20.916			-2.324
156701.000			20.917			-2.324
156800.000			20.916			-2.324
156900.000			20.913			-2.324
157001.000			20.914			-2.324
157100.000			20.914			-2.324
157201.000			20.915			-2.324
157302.000			20.914			-2.324
157401.000			20.913			-2.324
157500.000			20.913			-2.324
157601.000			20.913			-2.324
157700.000			20.913			-2.324
157800.000			20.912			-2.324
157901.000			20.913			-2.324
158000.000			20.913			-2.324
158100.000			20.911			-2.323
158202.000			20.912			-2.324
158301.000			20.912			-2.324
158400.000			20.912			-2.324
158501.000			20.911			-2.323
158600.000			20.911			-2.323
158700.000			20.911			-2.323
158801.000			20.910			-2.323
158900.000			20.909			-2.323
159000.000			20.909			-2.323
159102.000			20.909			-2.323
159201.000			20.908			-2.323
159300.000			20.908			-2.323
159401.000			20.908			-2.323
159500.000			20.908			-2.323
159601.000			20.908			-2.323
159700.000			20.907			-2.323
159800.000			20.907			-2.323
159901.000			20.907			-2.323
160000.000			20.906			-2.323
160101.000			20.906			-2.323
160202.000			20.905			-2.323
160300.000			20.905			-2.323
160400.000			20.905			-2.323
160501.000			20.905			-2.323
160600.000			20.904			-2.323
160700.000			20.904			-2.323
160801.000			20.903			-2.323
160900.000			20.904			-2.323
161001.000			20.904			-2.323
161102.000			20.904			-2.323
161200.000			20.903			-2.323
161300.000			20.901			-2.322
161401.000			20.901			-2.322
161500.000			20.901			-2.322
161600.000			20.901			-2.322
161701.000			20.900			-2.322
161800.000			20.900			-2.322
161901.000			20.901			-2.322
162002.000			20.901			-2.322
162100.000			20.901			-2.322
162200.000			20.901			-2.322
162301.000			20.899			-2.322
162400.000			20.899			-2.322
162500.000			20.898			-2.322
162601.000			20.899			-2.322
162700.000			20.899			-2.322
162802.000			20.898			-2.322
162901.000			20.897			-2.322
163001.000			20.897			-2.322
163101.000			20.898			-2.322
163200.000			20.897			-2.322
163300.000			20.897			-2.322
163401.000			20.896			-2.322
163500.000			20.896			-2.322
163600.000			20.895			-2.322
163701.000			20.895			-2.322
163801.000			20.895			-2.322
163901.000			20.893			-2.321
164001.000			20.892			-2.321
164100.000			20.893			-2.321
164200.000			20.894			-2.322
164301.000			20.894			-2.322
164400.000			20.892			-2.321
164500.000			20.892			-2.321
164601.000			20.890			-2.321
164701.000			20.890			-2.321
164801.000			20.890			-2.321
164902.000			20.889			-2.321
165000.000			20.889			-2.321
165100.000			20.889			-2.321
165201.000			20.889			-2.321
165300.000			20.888			-2.321
165400.000			20.888			-2.321
165501.000			20.889			-2.321
165600.000			20.888			-2.321
165701.000			20.887			-2.321
165802.000			20.886			-2.321
165900.000			20.887			-2.321
166001.000			20.886			-2.321
166100.000			20.885			-2.321
166200.000			20.885			-2.321
166301.000			20.885			-2.321
166400.000			20.884			-2.320
166500.000			20.885			-2.321
166602.000			20.885			-2.321
166701.000			20.883			-2.320
166801.000			20.884			-2.320
166901.000			20.884			-2.320
167000.000			20.883			-2.320
167100.000			20.883			-2.320
167201.000			20.883			-2.320
167300.000			20.883			-2.320
167400.000			20.882			-2.320
167501.000			20.881			-2.320
167601.000			20.880			-2.320
167701.000			20.881			-2.320
167801.000			20.880			-2.320
167900.000			20.880			-2.320
168000.000			20.880			-2.320
168101.000			20.879			-2.320
168200.000			20.878			-2.320
168300.000			20.879			-2.320
168401.000			20.879			-2.320
168501.000			20.879			-2.320
168601.000			20.878			-2.320
168702.000			20.878			-2.320
168800.000			20.878			-2.320
168900.000			20.877			-2.320
169001.000			20.877			-2.320
169100.000			20.877			-2.320
169201.000			20.876			-2.320
169300.000			20.875			-2.319
169400.000			20.875			-2.319
169502.000			20.875			-2.319
169601.000			20.876			-2.320
169701.000			20.875			-2.319
169801.000			20.875			-2.319
169900.000			20.874			-2.319
170000.000			20.874			-2.319
170101.000			20.875			-2.319
170200.000			20.874			-2.319
170300.000			20.874			-2.319
170401.000			20.873			-2.319
170501.000			20.873			-2.319
170601.000			20.872			-2.319
170701.000			20.872			-2.319
170800.000			20.872			-2.319
170900.000			20.872			-2.319
171001.000			20.872			-2.319
171100.000			20.870			-2.319
171200.000			20.870			-2.319
171301.000			20.872			-2.319
171401.000			20.871			-2.319
171501.000			20.870			-2.319
171602.000			20.869			-2.319
171700.000			20.869			-2.319
171800.000			20.870			-2.319
171901.000			20.869			-2.319
172000.000			20.869			-2.319
172100.000			20.869			-2.319
172201.000			20.868			-2.319
172301.000			20.867			-2.319
172402.000			20.868			-2.319
172501.000			20.868			-2.319
172600.000			20.867			-2.319
172701.000			20.867			-2.319
172800.000			20.867			-2.319
172900.000			20.866			-2.318
173001.000			20.865			-2.318
173100.000			20.867			-2.319
173200.000			20.866			-2.318
173302.000			20.864			-2.318
173401.000			20.864			-2.318
173500.000			20.865			-2.318
173601.000			20.864			-2.318
173700.000			20.864			-2.318
173800.000			20.863			-2.318
173901.000			20.863			-2.318
174000.000			20.862			-2.318
174100.000			20.861			-2.318
174202.000			20.861			-2.318
174301.000			20.863			-2.318
174401.000			20.862			-2.318
174501.000			20.861			-2.318
174600.000			20.862			-2.318
174700.000			20.862			-2.318
174801.000			20.861			-2.318
174900.000			20.860			-2.318
175000.000			20.860			-2.318
175102.000			20.860			-2.318
175201.000			20.860			-2.318
175301.000			20.860			-2.318
175401.000			20.860			-2.318
175500.000			20.859			-2.318
175601.000			20.859			-2.318
175700.000			20.859			-2.318
175800.000			20.858			-2.318
175901.000			20.858			-2.318
176000.000			20.858			-2.318
176101.000			20.857			-2.317
176202.000			20.857			-2.317
176301.000			20.857			-2.317
176400.000			20.857			-2.317
176501.000			20.857			-2.317
176600.000			20.857			-2.317
176700.000			20.857			-2.317
176801.000			20.856			-2.317
176900.000			20.856			-2.317
177000.000			20.856			-2.317
177102.000			20.855			-2.317
177201.000			20.856			-2.317
177300.000			20.855			-2.317
177401.000			20.855			-2.317
177500.000			20.854			-2.317
177600.000			20.854			-2.317
177701.000			20.854			-2.317
177800.000			20.854			-2.317
177900.000			20.853			-2.317
178002.000			20.852			-2.317
178101.000			20.852			-2.317
178201.000			20.851			-2.317
178301.000			20.852			-2.317
178400.000			20.852			-2.317
178500.000			20.851			-2.317
178601.000			20.849			-2.317
178700.000			20.850			-2.317
178801.000			20.851			-2.317
178900.000			20.851			-2.317
179001.000			20.851			-2.317
179102.000			20.850			-2.317
179201.000			20.850			-2.317
179300.000			20.849			-2.317
179401.000			20.849			-2.317
179500.000			20.849			-2.317
179600.000			20.849			-2.317
179701.000			20.848			-2.316
179800.000			20.849			-2.317
179900.000			20.848			-2.316
180002.000			20.848			-2.316
180101.000			20.847			-2.316
180201.000			20.848			-2.316
180301.000			20.848			-2.316
180400.000			20.847			-2.316
180500.000			20.846			-2.316
180601.000			20.846			-2.316
180700.000			20.845			-2.316
180800.000			20.846			-2.316
180902.000			20.846			-2.316
181001.000			20.846			-2.316
181101.000			20.845			-2.316
181201.000			20.845			-2.316
181300.000			20.844			-2.316
181400.000			20.844			-2.316
181501.000			20.844			-2.316
181600.000			20.843			-2.316
181700.000			20.842			-2.316
181801.000			20.843			-2.316
181901.000			20.843			-2.316
182002.000			20.841			-2.316
182100.000			20.841			-2.316
182200.000			20.841			-2.316
182301.000			20.841			-2.316
182400.000			20.841			-2.316
182500.000			20.841			-2.316
182601.000			20.841			-2.316
182700.000			20.842			-2.316
182801.000			20.841			-2.316
182902.000			20.840			-2.316
183001.000			20.840			-2.316
183100.000			20.839			-2.315
183201.000			20.840			-2.316
183300.000			20.840			-2.316
183400.000			20.840			-2.316
183501.000			20.838			-2.315
183600.000			20.838			-2.315
183701.000			20.838			-2.315
183802.000			20.838			-2.315
183901.000			20.838			-2.315
184000.000			20.838			-2.315
184101.000			20.837			-2.315
184200.000			20.837			-2.315
184300.000			20.836			-2.315
184401.000			20.835			-2.315
184500.000			20.836			-2.315
184600.000			20.837			-2.315
184702.000			20.836			-2.315
184801.000			20.836			-2.315
184901.000			20.836			-2.315
185001.000			20.836			-2.315
185100.000			20.835			-2.315
185201.000			20.835			-2.315
185300.000			20.834			-2.315
185400.000			20.834			-2.315
185501.000			20.834			-2.315
185601.000			20.833			-2.315
185701.000			20.834			-2.315
185802.000			20.833			-2.315
185900.000			20.832			-2.315
186000.000			20.832			-2.315
186101.000			20.832			-2.315
186200.000			20.832			-2.315
186300.000			20.832			-2.315
186401.000			20.833			-2.315
186500.000			20.832			-2.315
186601.000			20.832			-2.315
186702.000			20.832			-2.315
186800.000			20.831			-2.315
186900.000			20.830			-2.314
187001.000			20.831			-2.315
187100.000			20.830			-2.314
187200.000			20.829			-2.314
187301.000			20.829			-2.314
187400.000			20.830			-2.314
187501.000			20.829			-2.314
187602.000			20.828			-2.314
187701.000			20.829			-2.314
187800.000			20.828			-2.314
187901.000			20.829			-2.314
188000.000			20.828			-2.314
188100.000			20.828			-2.314
188201.000			20.828			-2.314
188300.000			20.828			-2.314
188401.000			20.827			-2.314
188501.000			20.827			-2.314
188601.000			20.828			-2.314
188701.000			20.826			-2.314
188800.000			20.827			-2.314
188900.000			20.827			-2.314
189001.000			20.826			-2.314
189100.000			20.825			-2.314
189200.000			20.825			-2.314
189301.000			20.826			-2.314
189400.000			20.824			-2.314
189501.000			20.824			-2.314
189602.000			20.825			-2.314
189700.000			20.825			-2.314
189800.000			20.824			-2.314
189901.000			20.823			-2.314
190000.000			20.823			-2.314
190100.000			20.824			-2.314
190201.000			20.823			-2.314
190300.000			20.823			-2.314
190401.000			20.822			-2.314
190502.000			20.822			-2.314
190600.000			20.822			-2.314
190700.000			20.822			-2.314
190801.000			20.822			-2.314
190900.000			20.821			-2.313
191000.000			20.821			-2.313
191101.000			20.821			-2.313
191200.000			20.820			-2.313
191301.000			20.820			-2.313
191402.000			20.821			-2.313
191501.000			20.820			-2.313
191601.000			20.819			-2.313
191700.000			20.818			-2.313
191800.000			20.819			-2.313
191901.000			20.820			-2.313
192000.000			20.818			-2.313
192100.000			20.818			-2.313
192201.000			20.818			-2.313
192301.000			20.819			-2.313
192401.000			20.817			-2.313
192501.000			20.817			-2.313
192600.000			20.818			-2.313
192700.000			20.817			-2.313
192801.000			20.817			-2.313
192900.000			20.818			-2.313
193000.000			20.817			-2.313
193101.000			20.817			-2.313
193201.000			20.817			-2.313
193301.000			20.818			-2.313
193401.000			20.818			-2.313
193500.000			20.817			-2.313
193600.000			20.816			-2.313
193701.000			20.816			-2.313
193800.000			20.817			-2.313
193900.000			20.816			-2.313
194001.000			20.817			-2.313
194101.000			20.816			-2.313
194201.000			20.815			-2.313
194302.000			20.816			-2.313
194400.000			20.816			-2.313
194500.000			20.816			-2.313
194601.000			20.815			-2.313
194700.000			20.815			-2.313
194801.000			20.814			-2.313
194900.000			20.814			-2.313
195000.000			20.813			-2.313
195102.000			20.814			-2.313
195201.000			20.814			-2.313
195300.000			20.814			-2.313
195401.000			20.813			-2.313
195500.000			20.813			-2.313
195600.000			20.812			-2.312
195701.000			20.813			-2.313
195800.000			20.812			-2.312
195900.000			20.811			-2.312
196002.000			20.812			-2.312
196101.000			20.812			-2.312
196201.000			20.812			-2.312
196301.000			20.810			-2.312
196400.000			20.809			-2.312
196500.000			20.811			-2.312
196601.000			20.810			-2.312
196700.000			20.809			-2.312
196800.000			20.808			-2.312
196902.000			20.810			-2.312
197001.000			20.810			-2.312
197101.000			20.809			-2.312
197201.000			20.809			-2.312
197300.000			20.808			-2.312
197400.000			20.809			-2.312
197501.000			20.808			-2.312
197600.000			20.807			-2.312
197700.000			20.808			-2.312
197801.000			20.809			-2.312
197901.000			20.808			-2.312
198002.000			20.807			-2.312
198101.000			20.807			-2.312
198200.000			20.807			-2.312
198301.000			20.806			-2.312
198400.000			20.806			-2.312
198500.000			20.806			-2.312
198601.000			20.806			-2.312
198700.000			20.805			-2.312
198800.000			20.806			-2.312
198902.000			20.805			-2.312
199001.000			20.804			-2.312
199100.000			20.804			-2.312
199201.000			20.805			-2.312
199300.000			20.804			-2.312
199400.000			20.805			-2.312
199501.000			20.804			-2.312
199600.000			20.803			-2.311
199700.000			20.802			-2.311
199802.000			20.802			-2.311
199901.000			20.802			-2.311
200001.000			20.802			-2.311
200101.000			20.803			-2.311
200200.000			20.802			-2.311
200300.000			20.802			-2.311
200401.000			20.802			-2.311
200500.000			20.801			-2.311
200600.000			20.800			-2.311
200702.000			20.800			-2.311
200801.000			20.799			-2.311
200901.000			20.800			-2.311
201001.000			20.800			-2.311
201100.000			20.799			-2.311
201201.000			20.798			-2.311
201300.000			20.799			-2.311
201400.000			20.799			-2.311
201501.000			20.798			-2.311
201601.000			20.797			-2.311
201701.000			20.798			-2.311
201802.000			20.798			-2.311
201900.000			20.797			-2.311
202000.000			20.798			-2.311
202101.000			20.797			-2.311
202200.000			20.796			-2.311
202300.000			20.796			-2.311
202401.000			20.797			-2.311
202500.000			20.798			-2.311
202601.000			20.797			-2.311
202702.000			20.798			-2.311
202800.000			20.798			-2.311
202900.000			20.796			-2.311
203001.000			20.796			-2.311
203100.000			20.795			-2.311
203200.000			20.795			-2.311
203301.000			20.794			-2.310
203400.000			20.795			-2.311
203501.000			20.795			-2.311
203602.000			20.794			-2.310
203701.000			20.793			-2.310
203800.000			20.794			-2.310
203901.000			20.794			-2.310
204000.000			20.793			-2.310
204100.000			20.792			-2.310
204201.000			20.792			-2.310
204300.000			20.792			-2.310
204402.000			20.792			-2.310
204501.000			20.792			-2.310
204601.000			20.791			-2.310
204701.000			20.790			-2.310
204800.000			20.790			-2.310
204900.000			20.790			-2.310
205001.000			20.791			-2.310
205100.000			20.790			-2.310
205200.000			20.791			-2.310
205302.000			20.791			-2.310
205401.000			20.791			-2.310
205501.000			20.791			-2.310
205601.000			20.790			-2.310
205700.000			20.790			-2.310
205800.000			20.789			-2.310
205901.000			20.788			-2.310
206000.000			20.789			-2.310
206100.000			20.790			-2.310
206201.000			20.790			-2.310
206301.000			20.790			-2.310
206401.000			20.790			-2.310
206501.000			20.788			-2.310
206600.000			20.787			-2.310
206700.000			20.788			-2.310
206801.000			20.787			-2.310
206900.000			20.788			-2.310
207000.000			20.787			-2.310
207101.000			20.788			-2.310
207201.000			20.788			-2.310
207301.000			20.787			-2.310
207402.000			20.786			-2.310
207500.000			20.786			-2.310
207601.000			20.786			-2.310
207700.000			20.786			-2.310
207800.000			20.786			-2.310
207901.000			20.786			-2.310
208000.000			20.787			-2.310
208100.000			20.785			-2.309
208202.000			20.783			-2.309
208301.000			20.784			-2.309
208400.000			20.784			-2.309
208501.000			20.785			-2.309
208600.000			20.784			-2.309
208700.000			20.784			-2.309
208801.000			20.783			-2.309
208900.000			5.033			-0.559
209076.000			20.783			-2.309
209164.000			20.782			-2.309
209251.000			20.782			-2.309
209339.000			20.783			-2.309
209427.000			20.783			-2.309
209515.000			20.783			-2.309
209603.000			20.782			-2.309
209702.000			20.781			-2.309
209801.000			20.781			-2.309
209900.000			20.781			-2.309
210001.000			20.782			-2.309
210100.000			20.781			-2.309
210200.000			20.780			-2.309
210301.000			20.780			-2.309
210400.000			20.781			-2.309
210500.000			20.780			-2.309
210602.000			20.780			-2.309
210701.000			20.780			-2.309
210801.000			20.780			-2.309
210900.000			20.780			-2.309
211000.000			20.779			-2.309
211101.000			20.779			-2.309
211200.000			20.779			-2.309
211300.000			20.779			-2.309
211401.000			20.779			-2.309
211501.000			20.778			-2.309
211601.000			20.777			-2.309
211701.000			20.778			-2.309
211800.000			20.778			-2.309
211900.000			20.777			-2.309
212001.000			20.777			-2.309
212100.000			20.776			-2.308
212200.000			20.776			-2.308
212301.000			20.775			-2.308
212401.000			20.776			-2.308
212501.000			20.775			-2.308
212602.000			20.776			-2.308
212700.000			20.776			-2.308
212800.000			20.776			-2.308
212901.000			20.775			-2.308
213000.000			20.774			-2.308
213100.000			20.774			-2.308
213201.000			20.774			-2.308
213301.000			20.774			-2.308
213401.000			20.773			-2.308
213502.000			20.774			-2.308
213600.000			20.774			-2.308
213700.000			20.773			-2.308
213801.000			20.774			-2.308
213900.000			20.773			-2.308
214001.000			20.773			-2.308
214100.000			20.774			-2.308
214200.000			20.773			-2.308
214302.000			20.771			-2.308
214401.000			20.771			-2.308
214500.000			20.771			-2.308
214601.000			20.771			-2.308
214700.000			20.771			-2.308
214800.000			20.772			-2.308
214901.000			20.771			-2.308
215000.000			20.769			-2.308
215100.000			20.770			-2.308
215202.000			20.770			-2.308
215301.000			20.770			-2.308
215400.000			20.771			-2.308
215501.000			20.769			-2.308
215600.000			20.769			-2.308
215700.000			20.769			-2.308
215801.000			20.768			-2.308
215900.000			20.769			-2.308
216000.000			20.769			-2.308
216102.000			20.769			-2.308
216201.000			20.769			-2.308
216300.000			20.767			-2.307
216401.000			20.767			-2.307
216500.000			20.767			-2.307
216600.000			20.766			-2.307
216701.000			20.766			-2.307
216800.000			20.766			-2.307
216900.000			20.766			-2.307
217002.000			20.766			-2.307
217101.000			20.766			-2.307
217202.000			20.766			-2.307
217300.000			20.766			-2.307
217400.000			20.766			-2.307
217501.000			20.765			-2.307
217600.000			20.764			-2.307
217700.000			20.765			-2.307
217801.000			20.764			-2.307
217900.000			20.763			-2.307
218001.000			20.764			-2.307
218102.000			20.764			-2.307
218200.000			20.764			-2.307
218300.000			20.764			-2.307
218401.000			20.763			-2.307
218500.000			20.763			-2.307
218600.000			20.763			-2.307
218701.000			20.762			-2.307
218800.000			20.762			-2.307
218901.000			20.762			-2.307
219002.000			20.761			-2.307
219100.000			20.761			-2.307
219200.000			20.759			-2.307
219301.000			20.760			-2.307
219400.000			20.760			-2.307
219500.000			20.758			-2.306
219601.000			20.758			-2.306
219700.000			20.759			-2.307
219801.000			20.759			-2.307
219902.000			20.759			-2.307
220001.000			20.758			-2.306
220100.000			20.757			-2.306
220201.000			20.757			-2.306
220300.000			20.757			-2.306
220401.000			20.757			-2.306
220500.000			20.757			-2.306
220600.000			20.758			-2.306
220702.000			20.758			-2.306
220801.000			20.756			-2.306
220901.000			20.757			-2.306
221001.000			20.756			-2.306
221100.000			20.756			-2.306
221200.000			20.757			-2.306
221301.000			20.754			-2.306
221400.000			20.754			-2.306
221500.000			20.756			-2.306
221602.000			20.755			-2.306
221701.000			20.755			-2.306
221801.000			20.754			-2.306
221901.000			20.754			-2.306
222000.000			20.752			-2.306
222100.000			20.752			-2.306
222201.000			20.752			-2.306
222300.000			20.752			-2.306
222400.000			20.752			-2.306
222502.000			20.753			-2.306
222601.000			20.752			-2.306
222701.000			20.752			-2.306
222801.000			20.751			-2.306
222900.000			20.751			-2.306
223000.000			20.750			-2.306
223101.000			20.750			-2.306
223200.000			20.750			-2.306
223300.000			20.750			-2.306
223402.000			20.749			-2.305
223501.000			20.748			-2.305
223602.000			20.748			-2.305
223700.000			20.749			-2.305
223800.000			20.747			-2.305
223901.000			20.747			-2.305
224000.000			20.748			-2.305
224100.000			20.748			-2.305
224201.000			20.747			-2.305
224300.000			20.747			-2.305
224401.000			20.747			-2.305
224502.000			20.747			-2.305
224600.000			20.748			-2.305
224700.000			20.746			-2.305
224801.000			20.745			-2.305
224900.000			20.746			-2.305
225000.000			20.746			-2.305
225101.000			20.745			-2.305
225200.000			20.744			-2.305
225301.000			20.744			-2.305
225402.000			20.744			-2.305
225501.000			20.744			-2.305
225600.000			20.744			-2.305
225701.000			20.744			-2.305
225800.000			20.744			-2.305
225900.000			20.744			-2.305
226001.000			20.742			-2.305
226100.000			20.743			-2.305
226201.000			20.743			-2.305
226302.000			20.741			-2.305
226401.000			20.741			-2.305
226500.000			20.742			-2.305
226601.000			20.742			-2.305
226700.000			20.741			-2.305
226801.000			20.740			-2.304
226900.000			20.741			-2.305
227000.000			20.740			-2.304
227102.000			20.740			-2.304
227201.000			20.741			-2.305
227301.000			20.740			-2.304
227401.000			20.740			-2.304
227500.000			20.740			-2.304
227600.000			20.738			-2.304
227701.000			20.739			-2.304
227800.000			20.738			-2.304
227900.000			20.739			-2.304
228001.000			20.738			-2.304
228101.000			20.737			-2.304
228201.000			20.739			-2.304
228301.000			20.738			-2.304
228400.000			20.738			-2.304
228500.000			20.736			-2.304
228601.000			20.738			-2.304
228700.000			20.738			-2.304
228800.000			20.738			-2.304
228901.000			20.737			-2.304
229001.000			20.738			-2.304
229101.000			20.738			-2.304
229202.000			20.737			-2.304
229300.000			20.737			-2.304
229400.000			20.738			-2.304
229501.000			20.738			-2.304
229600.000			20.737			-2.304
229700.000			20.737			-2.304
229801.000			20.736			-2.304
229900.000			20.736			-2.304
230002.000			20.736			-2.304
230101.000			20.736			-2.304
230200.000			20.736			-2.304
230301.000			20.736			-2.304
230400.000			20.735			-2.304
230500.000			20.736			-2.304
230601.000			20.737			-2.304
230700.000			20.736			-2.304
230800.000			20.734			-2.304
230902.000			20.734			-2.304
231001.000			20.734			-2.304
231100.000			20.735			-2.304
231201.000			20.735			-2.304
231300.000			20.734			-2.304
231400.000			20.735			-2.304
231501.000			20.734			-2.304
231600.000			20.733			-2.304
231700.000			20.732			-2.304
231802.000			20.733			-2.304
231901.000			20.733			-2.304
232001.000			20.733			-2.304
232101.000			20.732			-2.304
232200.000			20.732			-2.304
232300.000			20.731			-2.303
232401.000			20.731			-2.303
232500.000			20.730			-2.303
232600.000			20.731			-2.303
232702.000			20.731			-2.303
232801.000			20.730			-2.303
232900.000			20.729			-2.303
233001.000			20.729			-2.303
233100.000			20.729			-2.303
233201.000			20.729			-2.303
233300.000			20.728			-2.303
233400.000			20.728			-2.303
233501.000			20.728			-2.303
233601.000			20.728			-2.303
233701.000			20.727			-2.303
233802.000			20.727			-2.303
233900.000			20.727			-2.303
234000.000			20.728			-2.303
234101.000			20.726			-2.303
234200.000			20.726			-2.303
234300.000			20.726			-2.303
234401.000			20.726			-2.303
234501.000			20.726			-2.303
234601.000			20.726			-2.303
234702.000			20.726			-2.303
234800.000			20.726			-2.303
234900.000			20.724			-2.303
235001.000			20.723			-2.303
235100.000			20.723			-2.303
235200.000			20.725			-2.303
235301.000			20.723			-2.303
235401.000			20.723			-2.303
235501.000			20.724			-2.303
235602.000			20.724			-2.303
235700.000			20.723			-2.303
235800.000			20.723			-2.303
235901.000			20.723			-2.303
236000.000			20.722			-2.302
236100.000			20.723			-2.303
236201.000			20.723			-2.303
236300.000			20.723			-2.303
236402.000			20.722			-2.302
236501.000			20.722			-2.302
236600.000			20.721			-2.302
236701.000			20.722			-2.302
236800.000			20.721			-2.302
236900.000			20.722			-2.302
237001.000			20.721			-2.302
237100.000			20.721			-2.302
237200.000			20.720			-2.302
237302.000			20.721			-2.302
237401.000			20.720			-2.302
237500.000			20.720			-2.302
237601.000			20.719			-2.302
237700.000			20.719			-2.302
237800.000			20.720			-2.302
237901.000			20.720			-2.302
238000.000			20.718			-2.302
238100.000			20.718			-2.302
238202.000			20.718			-2.302
238301.000			20.717			-2.302
238400.000			20.717			-2.302
238501.000			20.717			-2.302
238600.000			20.718			-2.302
238700.000			20.716			-2.302
238801.000			20.717			-2.302
238900.000			20.718			-2.302
239000.000			20.717			-2.302
239102.000			20.716			-2.302
239201.000			20.716			-2.302
239301.000			20.716			-2.302
239401.000			20.715			-2.302
239500.000			20.716			-2.302
239601.000			20.717			-2.302
239700.000			20.716			-2.302
239800.000			20.716			-2.302
239901.000			20.716			-2.302
240000.000			20.715			-2.302
240101.000			20.715			-2.302
240202.000			20.714			-2.302
240300.000			20.714			-2.302
240400.000			20.714			-2.302
240501.000			20.713			-2.301
240600.000			20.713			-2.301
240700.000			20.714			-2.302
240801.000			20.714			-2.302
240900.000			20.713			-2.301
241001.000			20.713			-2.301
241102.000			20.713			-2.301
241200.000			20.713			-2.301
241300.000			20.712			-2.301
241401.000			20.712			-2.301
241500.000			20.713			-2.301
241600.000			20.712			-2.301
241701.000			20.710			-2.301
241801.000			20.710			-2.301
241901.000			20.710			-2.301
242002.000			20.710			-2.301
242100.000			20.710			-2.301
242200.000			20.710			-2.301
242301.000			20.709			-2.301
242400.000			20.711			-2.301
242500.000			20.710			-2.301
242601.000			20.710			-2.301
242701.000			20.710			-2.301
242802.000			20.709			-2.301
242901.000			20.709			-2.301
243000.000			20.709			-2.301
243101.000			20.709			-2.301
243200.000			20.709			-2.301
243300.000			20.709			-2.301
243401.000			20.708			-2.301
243500.000			20.708			-2.301
243600.000			20.708			-2.301
243702.000			20.707			-2.301
243801.000			20.707			-2.301
243900.000			20.707			-2.301
244001.000			20.707			-2.301
244100.000			20.708			-2.301
244200.000			20.707			-2.301
244301.000			20.707			-2.301
244400.000			20.706			-2.301
244501.000			20.706			-2.301
244602.000			20.706			-2.301
244701.000			20.705			-2.301
244800.000			20.705			-2.301
244901.000			20.706			-2.301
245000.000			20.706			-2.301
245100.000			20.705			-2.301
245201.000			20.705			-2.301
245300.000			20.706			-2.301
245400.000			20.706			-2.301
245502.000			20.705			-2.301
245601.000			20.706			-2.301
245700.000			20.706			-2.301
245801.000			20.706			-2.301
245900.000			20.705			-2.301
246001.000			20.705			-2.301
246100.000			20.705			-2.301
246200.000			20.706			-2.301
246301.000			20.705			-2.301
246401.000			20.705			-2.301
246501.000			20.705			-2.301
246601.000			20.706			-2.301
246700.000			20.705			-2.301
246800.000			20.704			-2.300
246901.000			20.704			-2.300
247000.000			20.704			-2.300
247100.000			20.704			-2.300
247201.000			20.705			-2.301
247301.000			20.703			-2.300
247401.000			20.703			-2.300
247501.000			20.703			-2.300
247600.000			20.704			-2.300
247700.000			20.704			-2.300
247801.000			20.703			-2.300
247900.000			20.703			-2.300
248000.000			20.704			-2.300
248101.000			20.702			-2.300
248201.000			20.702			-2.300
248301.000			20.702			-2.300
248401.000			20.702			-2.300
248500.000			20.701			-2.300
248600.000			20.700			-2.300
248701.000			20.700			-2.300
248800.000			20.701			-2.300
248900.000			20.700			-2.300
249001.000			20.700			-2.300
249101.000			20.700			-2.300
249202.000			20.699			-2.300
249301.000			20.699			-2.300
249400.000			20.699			-2.300
249501.000			20.699			-2.300
249600.000			20.699			-2.300
249700.000			20.698			-2.300
249801.000			20.698			-2.300
249900.000			20.697			-2.300
250000.000			20.696			-2.300
250102.000			20.696			-2.300
250201.000			20.696			-2.300
250301.000			20.696			-2.300
250401.000			20.696			-2.300
250500.000			20.696			-2.300
250600.000			20.696			-2.300
250701.000			20.695			-2.299
250800.000			20.696			-2.300
250900.000			20.695			-2.299
251002.000			20.695			-2.299
251101.000			20.695			-2.299
251201.000			20.694			-2.299
251301.000			20.693			-2.299
251400.000			20.693			-2.299
251500.000			20.693			-2.299
251601.000			20.693			-2.299
251700.000			20.693			-2.299
251800.000			20.693			-2.299
251901.000			20.692			-2.299
252001.000			20.693			-2.299
252101.000			20.693			-2.299
252201.000			20.693			-2.299
252300.000			20.692			-2.299
252401.000			20.692			-2.299
252500.000			20.692			-2.299
252600.000			20.691			-2.299
252701.000			20.692			-2.299
252800.000			20.692			-2.299
252901.000			20.692			-2.299
253002.000			20.692			-2.299
253101.000			20.691			-2.299
253200.000			20.691			-2.299
253301.000			20.690			-2.299
253400.000			20.691			-2.299
253500.000			20.691			-2.299
253601.000			20.690			-2.299
253700.000			20.690			-2.299
253801.000			20.691			-2.299
253902.000			20.691			-2.299
254001.000			20.690			-2.299
254100.000			20.690			-2.299
254201.000			20.689			-2.299
254300.000			20.690			-2.299
254400.000			20.689			-2.299
254501.000			20.690			-2.299
254600.000			20.690			-2.299
254700.000			20.689			-2.299
254802.000			20.689			-2.299
254901.000			20.689			-2.299
255000.000			20.689			-2.299
255101.000			20.689			-2.299
255200.000			20.690			-2.299
255300.000			20.689			-2.299
255401.000			20.688			-2.299
255500.000			20.687			-2.299
255601.000			20.687			-2.299
255700.000			20.687			-2.299
255801.000			20.687			-2.299
255902.000			20.687			-2.299
256000.000			20.687			-2.299
256100.000			20.688			-2.299
256201.000			20.686			-2.298
256300.000			20.686			-2.298
256400.000			20.686			-2.298
256501.000			20.685			-2.298
256600.000			20.685			-2.298
256701.000			20.685			-2.298
256802.000			20.685			-2.298
256901.000			20.685			-2.298
257000.000			20.685			-2.298
257101.000			20.685			-2.298
257200.000			20.684			-2.298
257300.000			20.684			-2.298
257401.000			20.684			-2.298
257500.000			20.684			-2.298
257600.000			20.683			-2.298
257702.000			20.683			-2.298
257801.000			20.683			-2.298
257900.000			20.683			-2.298
258001.000			20.682			-2.298
258100.000			20.682			-2.298
258200.000			20.682			-2.298
258301.000			20.681			-2.298
258400.000			20.681			-2.298
258500.000			20.681			-2.298
258602.000			20.681			-2.298
258701.000			20.680			-2.298
258801.000			20.681			-2.298
258900.000			20.681			-2.298
259000.000			20.680			-2.298
259101.000			20.680			-2.298
259200.000			20.679			-2.298
259300.000			20.679			-2.298
259401.000			20.679			-2.298
259501.000			20.679			-2.298
259601.000			20.680			-2.298
259702.000			20.679			-2.298
259800.000			20.678			-2.298
259900.000			20.678			-2.298
260001.000			20.677			-2.297
260100.000			20.676			-2.297
260200.000			20.677			-2.297
260301.000			20.677			-2.297
260400.000			20.677			-2.297
260501.000			20.677			-2.297
260602.000			20.677			-2.297
260700.000			20.676			-2.297
260800.000			20.676			-2.297
260901.000			20.675			-2.297
261000.000			20.676			-2.297
261100.000			20.676			-2.297
261201.000			20.675			-2.297
261300.000			20.676			-2.297
261401.000			20.675			-2.297
261502.000			20.675			-2.297
261601.000			20.675			-2.297
261700.000			20.675			-2.297
261801.000			20.675			-2.297
261900.000			20.674			-2.297
262001.000			20.675			-2.297
262100.000			20.675			-2.297
262200.000			20.674			-2.297
262301.000			20.673			-2.297
262401.000			20.673			-2.297
262501.000			20.673			-2.297
262601.000			20.673			-2.297
262700.000			20.672			-2.297
262800.000			20.673			-2.297
262901.000			20.672			-2.297
263000.000			20.672			-2.297
263100.000			20.671			-2.297
263201.000			20.671			-2.297
263301.000			20.671			-2.297
263401.000			20.671			-2.297
263501.000			20.671			-2.297
263600.000			20.671			-2.297
263700.000			20.670			-2.297
263801.000			20.671			-2.297
263900.000			20.670			-2.297
264000.000			20.670			-2.297
264101.000			20.669			-2.297
264201.000			20.669			-2.297
264301.000			20.669			-2.297
264401.000			20.670			-2.297
264500.000			20.669			-2.297
264600.000			20.670			-2.297
264701.000			20.670			-2.297
264800.000			20.670			-2.297
264900.000			20.669			-2.297
265001.000			20.669			-2.297
265101.000			20.669			-2.297
265202.000			20.668			-2.296
265301.000			20.668			-2.296
265400.000			20.668			-2.296
265501.000			20.668			-2.296
265600.000			20.668			-2.296
265700.000			20.668			-2.296
265801.000			20.668			-2.296
265900.000			20.668			-2.296
266000.000			20.666			-2.296
266102.000			20.666			-2.296
266201.000			20.667			-2.296
266300.000			20.667			-2.296
266401.000			20.666			-2.296
266500.000			20.665			-2.296
266600.000			20.666			-2.296
266701.000			20.666			-2.296
266800.000			20.666			-2.296
266900.000			20.666			-2.296
267002.000			20.666			-2.296
267101.000			20.665			-2.296
267201.000			20.665			-2.296
267301.000			20.665			-2.296
267400.000			20.666			-2.296
267500.000			20.664			-2.296
267601.000			20.664			-2.296
267700.000			20.664			-2.296
267800.000			20.664			-2.296
267901.000			20.663			-2.296
268001.000			20.664			-2.296
268101.000			20.663			-2.296
268201.000			20.662			-2.296
268300.000			20.663			-2.296
268401.000			20.663			-2.296
268500.000			20.664			-2.296
268600.000			20.663			-2.296
268701.000			20.662			-2.296
268800.000			20.662			-2.296
268901.000			20.662			-2.296
269002.000			20.662			-2.296
269101.000			20.662			-2.296
269200.000			20.662			-2.296
269301.000			20.662			-2.296
269400.000			20.661			-2.296
269500.000			20.661			-2.296
269601.000			20.661			-2.296
269700.000			20.661			-2.296
269800.000			20.661			-2.296
269902.000			20.660			-2.296
270001.000			20.660			-2.296
270100.000			20.661			-2.296
270201.000			20.661			-2.296
270300.000			20.660			-2.296
270400.000			20.659			-2.295
270501.000			20.659			-2.295
270600.000			20.659			-2.295
270700.000			20.660			-2.296
270802.000			20.659			-2.295
270901.000			20.658			-2.295
271000.000			20.658			-2.295
271101.000			20.658			-2.295
271200.000			20.658			-2.295
271300.000			20.657			-2.295
271401.000			20.658			-2.295
271500.000			20.658			-2.295
271601.000			20.657			-2.295
271701.000			20.657			-2.295
271801.000			20.658			-2.295
271902.000			20.658			-2.295
272000.000			20.658			-2.295
272100.000			20.657			-2.295
272201.000			20.656			-2.295
272300.000			20.654			-2.295
272400.000			20.655			-2.295
272501.000			20.656			-2.295
272600.000			20.656			-2.295
272701.000			20.656			-2.295
272802.000			20.656			-2.295
272900.000			20.655			-2.295
273000.000			20.655			-2.295
273101.000			20.656			-2.295
273200.000			20.656			-2.295
273300.000			20.654			-2.295
273401.000			20.655			-2.295
273500.000			20.656			-2.295
273601.000			20.654			-2.295
273702.000			20.654			-2.295
273800.000			20.653			-2.295
273900.000			20.654			-2.295
274001.000			20.653			-2.295
274100.000			20.653			-2.295
274200.000			20.653			-2.295
274301.000			20.653			-2.295
274400.000			20.653			-2.295
274500.000			20.653			-2.295
274602.000			20.653			-2.295
274701.000			20.653			-2.295
274801.000			20.653			-2.295
274900.000			20.652			-2.295
275000.000			20.652			-2.295
275101.000			20.652			-2.295
275200.000			20.651			-2.295
275300.000			20.651			-2.295
275401.000			20.651			-2.295
275501.000			20.651			-2.295
275601.000			20.651			-2.295
275701.000			20.650			-2.294
275800.000			20.650			-2.294
275900.000			20.650			-2.294
276001.000			20.651			-2.295
276100.000			20.650			-2.294
276200.000			20.651			-2.295
276301.000			20.650			-2.294
276401.000			20.651			-2.295
276501.000			20.649			-2.294
276601.000			20.649			-2.294
276700.000			20.650			-2.294
276800.000			20.649			-2.294
276901.000			20.649			-2.294
277000.000			20.649			-2.294
277100.000			20.648			-2.294
277201.000			20.647			-2.294
277301.000			20.648			-2.294
277401.000			20.648			-2.294
277502.000			20.647			-2.294
277600.000			20.648			-2.294
277700.000			20.648			-2.294
277801.000			20.647			-2.294
277900.000			20.647			-2.294
278001.000			20.646			-2.294
278100.000			20.646			-2.294
278200.000			20.647			-2.294
278302.000			20.647			-2.294
278401.000			20.646			-2.294
278501.000			20.646			-2.294
278601.000			20.646			-2.294
278700.000			20.645			-2.294
278800.000			20.646			-2.294
278901.000			20.646			-2.294
279000.000			20.645			-2.294
279100.000			20.645			-2.294
279201.000			20.645			-2.294
279301.000			20.645			-2.294
279401.000			20.644			-2.294
279501.000			20.644			-2.294
279600.000			20.643			-2.294
279700.000			20.644			-2.294
279801.000			20.644			-2.294
279900.000			20.643			-2.294
280000.000			20.643			-2.294
280101.000			20.642			-2.294
280201.000			20.644			-2.294
280301.000			20.643			-2.294
280402.000			20.643			-2.294
280500.000			20.643			-2.294
280600.000			20.643			-2.294
280701.000			20.643			-2.294
280800.000			20.643			-2.294
280900.000			20.643			-2.294
281001.000			20.642			-2.294
281101.000			20.641			-2.293
281202.000			20.641			-2.293
281301.000			20.640			-2.293
281400.000			20.641			-2.293
281501.000			20.641			-2.293
281600.000			20.641			-2.293
281700.000			20.641			-2.293
281801.000			20.640			-2.293
281900.000			20.641			-2.293
282001.000			20.641			-2.293
282102.000			20.640			-2.293
282201.000			20.640			-2.293
282300.000			20.640			-2.293
282401.000			20.638			-2.293
282500.000			20.638			-2.293
282600.000			20.639			-2.293
282701.000			20.639			-2.293
282800.000			20.639			-2.293
282900.000			20.639			-2.293
283002.000			20.639			-2.293
283101.000			20.638			-2.293
283200.000			20.639			-2.293
283301.000			20.637			-2.293
283400.000			20.638			-2.293
283500.000			20.638			-2.293
283601.000			20.638			-2.293
283700.000			20.639			-2.293
283800.000			20.637			-2.293
283902.000			20.637			-2.293
284001.000			20.637			-2.293
284101.000			20.637			-2.293
284201.000			20.637			-2.293
284300.000			20.638			-2.293
284401.000			20.637			-2.293
284500.000			20.636			-2.293
284600.000			20.636			-2.293
284701.000			20.636			-2.293
284800.000			20.636			-2.293
284901.000			20.635			-2.293
285002.000			20.635			-2.293
285100.000			20.636			-2.293
285200.000			20.636			-2.293
285301.000			20.634			-2.293
285400.000			20.635			-2.293
285500.000			20.635			-2.293
285601.000			20.634			-2.293
285700.000			20.634			-2.293
285801.000			20.634			-2.293
285902.000			20.634			-2.293
286001.000			20.635			-2.293
286100.000			20.635			-2.293
286201.000			20.634			-2.293
286300.000			20.634			-2.293
286400.000			20.633			-2.293
286501.000			20.633			-2.293
286600.000			20.633			-2.293
286701.000			20.634			-2.293
286802.000			20.633			-2.293
286901.000			20.633			-2.293
287000.000			20.633			-2.293
287101.000			20.632			-2.292
287200.000			20.632			-2.292
287300.000			20.633			-2.293
287401.000			20.632			-2.292
287500.000			20.631			-2.292
287601.000			20.630			-2.292
287701.000			20.630			-2.292
287801.000			20.631			-2.292
287901.000			20.630			-2.292
288000.000			20.631			-2.292
288100.000			20.631			-2.292
288201.000			20.629			-2.292
288300.000			20.629			-2.292
288400.000			20.629			-2.292
288501.000			20.630			-2.292
288601.000			20.630			-2.292
288701.000			20.629			-2.292
288801.000			20.629			-2.292
288900.000			20.630			-2.292
289000.000			20.629			-2.292
289101.000			20.629			-2.292
289200.000			20.629			-2.292
289300.000			20.629			-2.292
289401.000			20.628			-2.292
289500.000			20.628			-2.292
289601.000			20.628			-2.292
289702.000			20.628			-2.292
289800.000			20.629			-2.292
289900.000			20.629			-2.292
290001.000			20.629			-2.292
290100.000			20.628			-2.292
290200.000			20.627			-2.292
290301.000			20.626			-2.292
290400.000			20.628			-2.292
290501.000			20.628			-2.292
290602.000			20.628			-2.292
290701.000			20.627			-2.292
290801.000			20.628			-2.292
290900.000			20.627			-2.292
291000.000			20.626			-2.292
291101.000			20.626			-2.292
291200.000			20.627			-2.292
291300.000			20.626			-2.292
291401.000			20.625			-2.292
291501.000			20.626			-2.292
291601.000			20.625			-2.292
291701.000			20.625			-2.292
291800.000			20.626			-2.292
291900.000			20.626			-2.292
292001.000			20.626			-2.292
292100.000			20.626			-2.292
292200.000			20.625			-2.292
292301.000			20.625			-2.292
292401.000			20.625			-2.292
292501.000			20.625			-2.292
292601.000			20.625			-2.292
292700.000			20.624			-2.292
292800.000			20.624			-2.292
292901.000			20.624			-2.292
293000.000			20.624			-2.292
293100.000			20.623			-2.291
293201.000			20.624			-2.292
293301.000			20.623			-2.291
293401.000			20.624			-2.292
293501.000			20.623			-2.291
293600.000			20.622			-2.291
293700.000			20.622			-2.291
293801.000			20.623			-2.291
293900.000			20.623			-2.291
294001.000			20.623			-2.291
294100.000			20.622			-2.291
294201.000			20.622			-2.291
294302.000			20.622			-2.291
294401.000			20.621			-2.291
294500.000			20.621			-2.291
294601.000			20.621			-2.291
294700.000			20.621			-2.291
294800.000			20.621			-2.291
294901.000			20.620			-2.291
295000.000			20.620			-2.291
295101.000			20.620			-2.291
295202.000			20.620			-2.291
295301.000			20.620			-2.291
295400.000			20.620			-2.291
295501.000			20.620			-2.291
295600.000			20.620			-2.291
295700.000			20.619			-2.291
295801.000			20.619			-2.291
295900.000			20.620			-2.291
296000.000			20.620			-2.291
296102.000			20.619			-2.291
296201.000			20.619			-2.291
296300.000			20.619			-2.291
296401.000			20.619			-2.291
296500.000			20.618			-2.291
296600.000			20.618			-2.291
296701.000			20.619			-2.291
296800.000			20.619			-2.291
296900.000			20.619			-2.291
297002.000			20.619			-2.291
297101.000			20.618			-2.291
297202.000			20.618			-2.291
297300.000			20.619			-2.291
297400.000			20.618			-2.291
297501.000			20.618			-2.291
297600.000			20.618			-2.291
297700.000			20.618			-2.291
297801.000			20.618			-2.291
297900.000			20.617			-2.291
298001.000			20.617			-2.291
298102.000			20.617			-2.291
298200.000			20.618			-2.291
298300.000			20.618			-2.291
298401.000			20.617			-2.291
298500.000			20.617			-2.291
298600.000			20.617			-2.291
298701.000			20.615			-2.291
298800.000			20.616			-2.291
298901.000			20.616			-2.291
299002.000			20.615			-2.291
299101.000			20.616			-2.291
299200.000			20.615			-2.291
299301.000			20.616			-2.291
299400.000			20.616			-2.291
299500.000			20.615			-2.291
299601.000			20.614			-2.290
299700.000			20.614			-2.290
299800.000			20.613			-2.290
299902.000			20.614			-2.290
