# Acquired on 30/01/2024 12:24:25 
# SPIDER: Creep_-11mm_HM077x145x38AA-1
# CREEP MEASUREMENT

# time [ms]		force [N]		stiffness [N/mm]
1.000			64.895			-5.900
105.000			66.142			-6.013
204.000			66.412			-6.037
304.000			66.090			-6.008
404.000			65.653			-5.968
504.000			65.515			-5.956
604.000			65.394			-5.945
705.000			65.285			-5.935
804.000			65.191			-5.926
903.000			65.105			-5.919
1005.000			65.024			-5.911
1104.000			64.883			-5.898
1204.000			64.819			-5.893
1305.000			64.760			-5.887
1404.000			64.703			-5.882
1504.000			64.648			-5.877
1604.000			64.597			-5.872
1704.000			64.549			-5.868
1804.000			64.457			-5.860
1905.000			64.415			-5.856
2004.000			64.374			-5.852
2104.000			64.336			-5.849
2205.000			64.298			-5.845
2303.000			64.260			-5.842
2404.000			64.225			-5.839
2505.000			64.191			-5.836
2604.000			64.126			-5.830
2705.000			64.094			-5.827
2803.000			64.064			-5.824
2904.000			64.035			-5.821
3005.000			64.006			-5.819
3104.000			63.976			-5.816
3204.000			63.949			-5.814
3305.000			63.895			-5.809
3404.000			63.870			-5.806
3503.000			63.844			-5.804
3605.000			63.820			-5.802
3704.000			63.797			-5.800
3804.000			63.773			-5.798
3905.000			63.750			-5.795
4004.000			63.706			-5.791
4104.000			63.684			-5.789
4204.000			63.662			-5.787
4304.000			63.643			-5.786
4404.000			63.624			-5.784
4505.000			63.604			-5.782
4604.000			63.583			-5.780
4703.000			63.545			-5.777
4805.000			63.527			-5.775
4904.000			63.509			-5.774
5004.000			63.492			-5.772
5105.000			63.474			-5.770
5204.000			63.456			-5.769
5304.000			63.438			-5.767
5404.000			63.422			-5.766
5504.000			63.390			-5.763
5604.000			63.375			-5.761
5704.000			63.358			-5.760
5804.000			63.342			-5.758
5905.000			63.328			-5.757
6004.000			63.313			-5.756
6103.000			63.296			-5.754
6205.000			63.268			-5.752
6304.000			63.253			-5.750
6404.000			63.237			-5.749
6505.000			63.224			-5.748
6603.000			63.211			-5.746
6704.000			63.197			-5.745
6805.000			63.183			-5.744
6904.000			63.159			-5.742
7004.000			63.146			-5.741
7105.000			63.133			-5.739
7204.000			63.118			-5.738
7303.000			63.105			-5.737
7405.000			63.094			-5.736
7504.000			63.082			-5.735
7604.000			63.059			-5.733
7705.000			63.047			-5.732
7803.000			63.034			-5.730
7904.000			63.022			-5.729
8005.000			63.010			-5.728
8104.000			62.998			-5.727
8204.000			62.988			-5.726
8305.000			62.976			-5.725
8404.000			62.954			-5.723
8503.000			62.944			-5.722
8605.000			62.934			-5.721
8704.000			62.923			-5.720
8804.000			62.911			-5.719
8905.000			62.900			-5.718
9004.000			62.889			-5.717
9105.000			62.869			-5.715
9203.000			62.859			-5.714
9304.000			62.850			-5.714
9405.000			62.839			-5.713
9504.000			62.828			-5.712
9604.000			62.820			-5.711
9705.000			62.811			-5.710
9804.000			62.790			-5.708
9903.000			62.780			-5.707
10005.000			62.770			-5.706
10104.000			62.761			-5.706
10204.000			62.753			-5.705
10305.000			62.745			-5.704
10404.000			62.735			-5.703
10504.000			62.726			-5.702
10604.000			62.708			-5.701
10704.000			62.699			-5.700
10804.000			62.690			-5.699
10905.000			62.681			-5.698
11004.000			62.672			-5.697
11103.000			62.663			-5.697
11205.000			62.656			-5.696
11304.000			62.638			-5.694
11404.000			62.630			-5.694
11505.000			62.623			-5.693
11604.000			62.614			-5.692
11704.000			62.606			-5.691
11804.000			62.597			-5.691
11904.000			62.589			-5.690
12004.000			62.574			-5.689
12104.000			62.566			-5.688
12204.000			62.560			-5.687
12305.000			62.552			-5.687
12404.000			62.545			-5.686
12503.000			62.537			-5.685
12605.000			62.528			-5.684
12704.000			62.513			-5.683
12804.000			62.506			-5.682
12905.000			62.499			-5.682
13004.000			62.491			-5.681
13104.000			62.483			-5.680
13204.000			62.476			-5.680
13304.000			62.469			-5.679
13404.000			62.463			-5.678
13505.000			62.448			-5.677
13604.000			62.441			-5.676
13704.000			62.434			-5.676
13805.000			62.428			-5.675
13903.000			62.420			-5.675
14004.000			62.413			-5.674
14105.000			62.407			-5.673
14204.000			62.393			-5.672
14304.000			62.386			-5.671
14404.000			62.379			-5.671
14504.000			62.373			-5.670
14603.000			62.366			-5.670
14705.000			62.360			-5.669
14804.000			62.353			-5.668
14904.000			62.341			-5.667
15005.000			62.334			-5.667
15103.000			62.328			-5.666
15204.000			62.321			-5.666
15305.000			62.313			-5.665
15404.000			62.307			-5.664
15505.000			62.302			-5.664
15604.000			62.290			-5.663
15704.000			62.284			-5.662
15804.000			62.277			-5.662
15904.000			62.271			-5.661
16004.000			62.265			-5.660
16105.000			62.260			-5.660
16204.000			62.254			-5.659
16304.000			62.248			-5.659
16405.000			62.236			-5.658
16503.000			62.229			-5.657
16604.000			62.224			-5.657
16705.000			62.219			-5.656
16804.000			62.213			-5.656
16904.000			62.208			-5.655
17005.000			62.202			-5.655
17104.000			62.189			-5.654
17203.000			62.183			-5.653
17305.000			62.179			-5.653
17404.000			62.173			-5.652
17504.000			62.167			-5.652
17605.000			62.162			-5.651
17704.000			62.156			-5.651
17804.000			62.145			-5.650
17904.000			62.140			-5.649
18004.000			62.134			-5.649
18104.000			62.129			-5.648
18205.000			62.124			-5.648
18304.000			62.117			-5.647
18404.000			62.113			-5.647
18505.000			62.102			-5.646
18603.000			62.096			-5.645
18705.000			62.092			-5.645
18804.000			62.087			-5.644
18904.000			62.082			-5.644
19005.000			62.076			-5.643
19104.000			62.072			-5.643
19204.000			62.066			-5.642
19304.000			62.055			-5.641
19404.000			62.052			-5.641
19504.000			62.047			-5.641
19605.000			62.042			-5.640
19704.000			62.035			-5.640
19803.000			62.031			-5.639
19905.000			62.026			-5.639
20004.000			62.016			-5.638
20104.000			62.012			-5.637
20205.000			62.007			-5.637
20304.000			62.001			-5.636
20404.000			61.997			-5.636
20504.000			61.991			-5.636
20604.000			61.986			-5.635
20704.000			61.976			-5.634
20805.000			61.973			-5.634
20904.000			61.968			-5.633
21004.000			61.964			-5.633
21105.000			61.959			-5.633
21203.000			61.954			-5.632
21304.000			61.949			-5.632
21405.000			61.940			-5.631
21504.000			61.934			-5.630
21604.000			61.930			-5.630
21704.000			61.927			-5.630
21804.000			61.923			-5.629
21904.000			61.918			-5.629
22004.000			61.913			-5.628
22104.000			61.909			-5.628
22205.000			61.900			-5.627
22304.000			61.896			-5.627
22404.000			61.892			-5.627
22505.000			61.886			-5.626
22603.000			61.882			-5.626
22704.000			61.878			-5.625
22805.000			61.873			-5.625
22904.000			61.863			-5.624
23004.000			61.860			-5.624
23104.000			61.856			-5.623
23204.000			61.852			-5.623
23304.000			61.848			-5.623
23405.000			61.843			-5.622
23504.000			61.839			-5.622
23604.000			61.830			-5.621
23705.000			61.827			-5.621
23803.000			61.822			-5.620
23904.000			61.818			-5.620
24005.000			61.814			-5.619
24104.000			61.811			-5.619
24204.000			61.806			-5.619
24305.000			61.797			-5.618
24404.000			61.793			-5.618
24503.000			61.788			-5.617
24605.000			61.784			-5.617
24704.000			61.781			-5.616
24804.000			61.776			-5.616
24905.000			61.771			-5.616
25004.000			61.768			-5.615
25105.000			61.760			-5.615
25203.000			61.757			-5.614
25304.000			61.753			-5.614
25405.000			61.748			-5.613
25504.000			61.744			-5.613
25604.000			61.741			-5.613
25705.000			61.737			-5.612
25804.000			61.730			-5.612
25903.000			61.726			-5.611
26005.000			61.722			-5.611
26104.000			61.719			-5.611
26204.000			61.716			-5.611
26305.000			61.711			-5.610
26404.000			61.707			-5.610
26504.000			61.700			-5.609
26604.000			61.696			-5.609
26704.000			61.693			-5.608
26804.000			61.689			-5.608
26905.000			61.685			-5.608
27004.000			61.681			-5.607
27104.000			61.677			-5.607
27205.000			61.670			-5.606
27303.000			61.667			-5.606
27404.000			61.663			-5.606
27505.000			61.658			-5.605
27604.000			61.655			-5.605
27704.000			61.652			-5.605
27804.000			61.648			-5.604
27904.000			61.644			-5.604
28003.000			61.636			-5.603
28105.000			61.633			-5.603
28204.000			61.629			-5.603
28305.000			61.626			-5.602
28404.000			61.623			-5.602
28503.000			61.619			-5.602
28605.000			61.614			-5.601
28704.000			61.608			-5.601
28804.000			61.605			-5.600
28905.000			61.602			-5.600
29004.000			61.599			-5.600
29104.000			61.595			-5.600
29204.000			61.591			-5.599
29304.000			61.587			-5.599
29404.000			61.580			-5.598
29505.000			61.578			-5.598
29604.000			61.574			-5.598
29704.000			61.571			-5.597
29805.000			61.568			-5.597
29903.000			61.564			-5.597
30004.000			61.561			-5.596
30105.000			61.555			-5.596
30204.000			61.552			-5.596
30304.000			61.548			-5.595
30405.000			61.545			-5.595
30504.000			61.541			-5.595
30603.000			61.538			-5.594
30705.000			61.534			-5.594
30804.000			61.532			-5.594
30904.000			61.524			-5.593
31005.000			61.521			-5.593
31104.000			61.518			-5.593
31204.000			61.514			-5.592
31303.000			61.511			-5.592
31404.000			61.507			-5.592
31505.000			61.504			-5.591
31604.000			61.498			-5.591
31704.000			61.496			-5.591
31805.000			61.493			-5.590
31904.000			61.490			-5.590
32003.000			61.486			-5.590
32105.000			61.483			-5.589
32204.000			61.480			-5.589
32304.000			61.473			-5.588
32405.000			61.469			-5.588
32504.000			61.466			-5.588
32604.000			61.464			-5.588
32704.000			61.462			-5.587
32804.000			61.458			-5.587
32904.000			61.455			-5.587
33005.000			61.448			-5.586
33104.000			61.445			-5.586
33203.000			61.442			-5.586
33305.000			61.439			-5.585
33404.000			61.436			-5.585
33504.000			61.434			-5.585
33605.000			61.430			-5.585
33704.000			61.427			-5.584
33804.000			61.421			-5.584
33904.000			61.418			-5.583
34004.000			61.415			-5.583
34104.000			61.412			-5.583
34205.000			61.409			-5.583
34304.000			61.406			-5.582
34404.000			61.403			-5.582
34505.000			61.398			-5.582
34603.000			61.395			-5.581
34705.000			61.391			-5.581
34804.000			61.389			-5.581
34904.000			61.385			-5.580
35005.000			61.381			-5.580
35104.000			61.380			-5.580
35204.000			61.375			-5.580
35304.000			61.372			-5.579
35404.000			61.368			-5.579
35504.000			61.365			-5.579
35605.000			61.361			-5.578
35704.000			61.359			-5.578
35804.000			61.357			-5.578
35905.000			61.351			-5.577
36003.000			61.348			-5.577
36104.000			61.345			-5.577
36205.000			61.343			-5.577
36304.000			61.339			-5.576
36404.000			61.336			-5.576
36504.000			61.332			-5.576
36604.000			61.330			-5.575
36704.000			61.327			-5.575
36805.000			61.323			-5.575
36904.000			61.320			-5.575
37004.000			61.318			-5.574
37105.000			61.314			-5.574
37203.000			61.313			-5.574
37304.000			61.310			-5.574
37405.000			61.303			-5.573
37504.000			61.300			-5.573
37604.000			61.297			-5.572
37704.000			61.296			-5.572
37804.000			61.293			-5.572
37904.000			61.290			-5.572
38004.000			61.287			-5.572
38104.000			61.282			-5.571
38205.000			61.279			-5.571
38304.000			61.276			-5.571
38404.000			61.273			-5.570
38505.000			61.270			-5.570
38603.000			61.268			-5.570
38704.000			61.266			-5.570
38805.000			61.261			-5.569
38904.000			61.258			-5.569
39004.000			61.255			-5.569
39105.000			61.252			-5.568
39204.000			61.250			-5.568
39303.000			61.248			-5.568
39405.000			61.244			-5.568
39504.000			61.242			-5.567
39604.000			61.237			-5.567
39705.000			61.234			-5.567
39804.000			61.232			-5.567
39904.000			61.230			-5.566
40004.000			61.227			-5.566
40104.000			61.224			-5.566
40204.000			61.222			-5.566
40305.000			61.217			-5.565
40404.000			61.214			-5.565
40503.000			61.212			-5.565
40605.000			61.210			-5.565
40704.000			61.208			-5.564
40804.000			61.205			-5.564
40905.000			61.202			-5.564
41004.000			61.196			-5.563
41105.000			61.194			-5.563
41203.000			61.191			-5.563
41304.000			61.188			-5.563
41405.000			61.186			-5.562
41504.000			61.184			-5.562
41604.000			61.181			-5.562
41705.000			61.179			-5.562
41804.000			61.174			-5.561
41903.000			61.173			-5.561
42005.000			61.169			-5.561
42104.000			61.167			-5.561
42204.000			61.164			-5.560
42305.000			61.161			-5.560
42403.000			61.159			-5.560
42504.000			61.154			-5.559
42605.000			61.151			-5.559
42704.000			61.149			-5.559
42804.000			61.146			-5.559
42905.000			61.144			-5.559
43004.000			61.141			-5.558
43103.000			61.140			-5.558
43205.000			61.135			-5.558
43304.000			61.133			-5.558
43404.000			61.130			-5.557
43505.000			61.129			-5.557
43604.000			61.125			-5.557
43704.000			61.122			-5.557
43804.000			61.120			-5.556
43904.000			61.115			-5.556
44004.000			61.114			-5.556
44104.000			61.113			-5.556
44204.000			61.110			-5.555
44304.000			61.108			-5.555
44404.000			61.105			-5.555
44504.000			61.103			-5.555
44605.000			61.097			-5.554
44704.000			61.094			-5.554
44804.000			61.093			-5.554
44905.000			61.091			-5.554
45003.000			61.090			-5.554
45104.000			61.088			-5.553
45205.000			61.085			-5.553
45304.000			61.083			-5.553
45404.000			61.077			-5.552
45505.000			61.075			-5.552
45604.000			61.073			-5.552
45703.000			61.070			-5.552
45805.000			61.067			-5.552
45904.000			61.065			-5.551
46004.000			61.063			-5.551
46105.000			61.058			-5.551
46204.000			61.057			-5.551
46304.000			61.054			-5.550
46404.000			61.052			-5.550
46504.000			61.049			-5.550
46604.000			61.049			-5.550
46705.000			61.046			-5.550
46804.000			61.042			-5.549
46904.000			61.040			-5.549
47005.000			61.038			-5.549
47103.000			61.035			-5.549
47204.000			61.033			-5.548
47305.000			61.030			-5.548
47404.000			61.028			-5.548
47505.000			61.024			-5.548
47603.000			61.021			-5.547
47704.000			61.019			-5.547
47805.000			61.017			-5.547
47904.000			61.014			-5.547
48004.000			61.013			-5.547
48105.000			61.010			-5.546
48204.000			61.009			-5.546
48303.000			61.004			-5.546
48405.000			61.001			-5.546
48504.000			61.000			-5.545
48604.000			60.998			-5.545
48705.000			60.995			-5.545
48804.000			60.993			-5.545
48904.000			60.990			-5.545
49004.000			60.988			-5.544
49104.000			60.986			-5.544
49204.000			60.983			-5.544
49305.000			60.982			-5.544
49404.000			60.979			-5.544
49504.000			60.977			-5.543
49605.000			60.974			-5.543
49703.000			60.969			-5.543
49804.000			60.967			-5.542
49904.000			60.966			-5.542
50004.000			60.964			-5.542
50104.000			60.962			-5.542
50205.000			60.959			-5.542
50304.000			60.957			-5.542
50403.000			60.952			-5.541
50505.000			60.950			-5.541
50604.000			60.949			-5.541
50705.000			60.946			-5.541
50804.000			60.944			-5.540
50904.000			60.942			-5.540
51005.000			60.941			-5.540
51103.000			60.938			-5.540
51204.000			60.935			-5.540
51305.000			60.934			-5.539
51404.000			60.931			-5.539
51504.000			60.928			-5.539
51605.000			60.925			-5.539
51704.000			60.924			-5.539
51803.000			60.923			-5.538
51905.000			60.918			-5.538
52004.000			60.916			-5.538
52104.000			60.915			-5.538
52205.000			60.912			-5.537
52304.000			60.910			-5.537
52404.000			60.909			-5.537
52504.000			60.907			-5.537
52604.000			60.901			-5.536
52704.000			60.900			-5.536
52805.000			60.899			-5.536
52904.000			60.897			-5.536
53004.000			60.893			-5.536
53105.000			60.892			-5.536
53203.000			60.890			-5.535
53304.000			60.887			-5.535
53405.000			60.885			-5.535
53504.000			60.883			-5.535
53604.000			60.881			-5.535
53704.000			60.879			-5.534
53804.000			60.877			-5.534
53904.000			60.876			-5.534
54004.000			60.873			-5.534
54104.000			60.868			-5.533
54205.000			60.867			-5.533
54304.000			60.865			-5.533
54404.000			60.862			-5.533
54505.000			60.861			-5.533
54603.000			60.859			-5.533
54704.000			60.856			-5.532
54805.000			60.853			-5.532
54904.000			60.852			-5.532
55004.000			60.850			-5.532
55105.000			60.846			-5.531
55204.000			60.844			-5.531
55303.000			60.844			-5.531
55405.000			60.842			-5.531
55504.000			60.838			-5.531
55604.000			60.837			-5.531
55705.000			60.835			-5.530
55804.000			60.832			-5.530
55904.000			60.831			-5.530
56004.000			60.829			-5.530
56104.000			60.827			-5.530
56204.000			60.824			-5.529
56305.000			60.821			-5.529
56404.000			60.819			-5.529
56504.000			60.818			-5.529
56605.000			60.815			-5.529
56703.000			60.814			-5.529
56804.000			60.813			-5.528
56905.000			60.810			-5.528
57004.000			60.805			-5.528
57105.000			60.803			-5.528
57204.000			60.801			-5.527
57304.000			60.799			-5.527
57404.000			60.798			-5.527
57504.000			60.797			-5.527
57604.000			60.796			-5.527
57705.000			60.792			-5.527
57804.000			60.790			-5.526
57904.000			60.788			-5.526
58005.000			60.786			-5.526
58103.000			60.784			-5.526
58204.000			60.782			-5.526
58305.000			60.780			-5.525
58404.000			60.777			-5.525
58504.000			60.776			-5.525
58605.000			60.773			-5.525
58704.000			60.772			-5.525
58803.000			60.770			-5.525
58905.000			60.768			-5.524
59004.000			60.767			-5.524
59104.000			60.762			-5.524
59205.000			60.760			-5.524
59304.000			60.758			-5.523
59404.000			60.757			-5.523
59504.000			60.756			-5.523
59604.000			60.755			-5.523
59704.000			60.752			-5.523
59805.000			60.750			-5.523
59904.000			60.747			-5.522
60004.000			60.744			-5.522
60105.000			60.742			-5.522
60203.000			60.742			-5.522
60305.000			60.740			-5.522
60404.000			60.738			-5.522
60504.000			60.736			-5.521
60605.000			60.732			-5.521
60704.000			60.731			-5.521
60804.000			60.729			-5.521
60904.000			60.727			-5.521
61004.000			60.725			-5.520
61104.000			60.723			-5.520
61205.000			60.722			-5.520
61304.000			60.718			-5.520
61403.000			60.717			-5.520
61505.000			60.715			-5.520
61604.000			60.712			-5.519
61704.000			60.711			-5.519
61805.000			60.710			-5.519
61904.000			60.708			-5.519
62004.000			60.704			-5.519
62104.000			60.702			-5.518
62204.000			60.701			-5.518
62304.000			60.700			-5.518
62405.000			60.699			-5.518
62504.000			60.697			-5.518
62604.000			60.696			-5.518
62705.000			60.692			-5.517
62803.000			60.690			-5.517
62904.000			60.688			-5.517
63005.000			60.685			-5.517
63104.000			60.684			-5.517
63204.000			60.683			-5.517
63304.000			60.681			-5.516
63404.000			60.680			-5.516
63504.000			60.676			-5.516
63604.000			60.674			-5.516
63704.000			60.672			-5.516
63805.000			60.671			-5.516
63904.000			60.670			-5.515
64004.000			60.669			-5.515
64105.000			60.666			-5.515
64203.000			60.664			-5.515
64304.000			60.662			-5.515
64405.000			60.659			-5.514
64504.000			60.657			-5.514
64604.000			60.656			-5.514
64705.000			60.654			-5.514
64804.000			60.653			-5.514
64903.000			60.649			-5.514
65005.000			60.648			-5.513
65104.000			60.646			-5.513
65204.000			60.644			-5.513
65305.000			60.642			-5.513
65404.000			60.641			-5.513
65504.000			60.639			-5.513
65604.000			60.637			-5.512
65704.000			60.634			-5.512
65804.000			60.634			-5.512
65905.000			60.633			-5.512
66004.000			60.632			-5.512
66104.000			60.629			-5.512
66205.000			60.628			-5.512
66303.000			60.627			-5.512
66404.000			60.623			-5.511
66505.000			60.620			-5.511
66604.000			60.619			-5.511
66705.000			60.617			-5.511
66804.000			60.616			-5.511
66904.000			60.614			-5.510
67004.000			60.612			-5.510
67104.000			60.610			-5.510
67204.000			60.607			-5.510
67305.000			60.606			-5.510
67404.000			60.605			-5.510
67504.000			60.602			-5.509
67605.000			60.600			-5.509
67703.000			60.600			-5.509
67804.000			60.596			-5.509
67905.000			60.596			-5.509
68004.000			60.594			-5.509
68104.000			60.591			-5.508
68205.000			60.590			-5.508
68304.000			60.589			-5.508
68403.000			60.588			-5.508
68505.000			60.586			-5.508
68604.000			60.583			-5.508
68704.000			60.580			-5.507
68805.000			60.580			-5.507
68904.000			60.577			-5.507
69004.000			60.576			-5.507
69104.000			60.576			-5.507
69204.000			60.574			-5.507
69304.000			60.570			-5.506
69405.000			60.569			-5.506
69504.000			60.568			-5.506
69604.000			60.566			-5.506
69705.000			60.565			-5.506
69803.000			60.563			-5.506
69905.000			60.562			-5.506
70003.000			60.560			-5.505
70104.000			60.557			-5.505
70205.000			60.556			-5.505
70304.000			60.555			-5.505
70404.000			60.553			-5.505
70504.000			60.551			-5.505
70604.000			60.549			-5.504
70704.000			60.547			-5.504
70805.000			60.545			-5.504
70904.000			60.543			-5.504
71004.000			60.542			-5.504
71105.000			60.541			-5.504
71203.000			60.538			-5.503
71304.000			60.537			-5.503
71405.000			60.533			-5.503
71504.000			60.531			-5.503
71604.000			60.529			-5.503
71705.000			60.529			-5.503
71804.000			60.528			-5.503
71903.000			60.526			-5.502
72005.000			60.524			-5.502
72104.000			60.523			-5.502
72204.000			60.521			-5.502
72305.000			60.519			-5.502
72404.000			60.516			-5.501
72504.000			60.515			-5.501
72604.000			60.514			-5.501
72704.000			60.513			-5.501
72804.000			60.512			-5.501
72904.000			60.508			-5.501
73004.000			60.507			-5.501
73105.000			60.506			-5.501
73204.000			60.504			-5.500
73303.000			60.502			-5.500
73405.000			60.501			-5.500
73504.000			60.499			-5.500
73604.000			60.496			-5.500
73705.000			60.496			-5.500
73804.000			60.494			-5.499
73904.000			60.492			-5.499
74004.000			60.490			-5.499
74104.000			60.489			-5.499
74204.000			60.488			-5.499
74305.000			60.484			-5.499
74404.000			60.484			-5.499
74504.000			60.483			-5.498
74605.000			60.482			-5.498
74703.000			60.480			-5.498
74804.000			60.478			-5.498
74905.000			60.477			-5.498
75004.000			60.476			-5.498
75104.000			60.473			-5.498
75205.000			60.471			-5.497
75304.000			60.470			-5.497
75403.000			60.468			-5.497
75505.000			60.466			-5.497
75604.000			60.466			-5.497
75704.000			60.465			-5.497
75805.000			60.460			-5.496
75904.000			60.460			-5.496
76004.000			60.459			-5.496
76103.000			60.457			-5.496
76204.000			60.456			-5.496
76305.000			60.455			-5.496
76404.000			60.453			-5.496
76504.000			60.449			-5.495
76605.000			60.449			-5.495
76704.000			60.447			-5.495
76803.000			60.445			-5.495
76905.000			60.444			-5.495
77004.000			60.442			-5.495
77104.000			60.442			-5.495
77205.000			60.439			-5.494
77304.000			60.439			-5.494
77404.000			60.438			-5.494
77504.000			60.435			-5.494
77604.000			60.432			-5.494
77704.000			60.430			-5.494
77805.000			60.430			-5.494
77904.000			60.428			-5.493
78004.000			60.427			-5.493
78105.000			60.426			-5.493
78203.000			60.425			-5.493
78304.000			60.423			-5.493
78405.000			60.421			-5.493
78504.000			60.420			-5.493
78604.000			60.418			-5.493
78705.000			60.415			-5.492
78804.000			60.414			-5.492
78903.000			60.413			-5.492
79005.000			60.411			-5.492
79104.000			60.409			-5.492
79204.000			60.409			-5.492
79305.000			60.407			-5.492
79404.000			60.404			-5.491
79505.000			60.402			-5.491
79603.000			60.401			-5.491
79704.000			60.399			-5.491
79805.000			60.399			-5.491
79904.000			60.398			-5.491
80004.000			60.396			-5.491
80105.000			60.393			-5.490
80204.000			60.391			-5.490
80303.000			60.390			-5.490
80405.000			60.390			-5.490
80504.000			60.388			-5.490
80604.000			60.386			-5.490
80705.000			60.385			-5.490
80804.000			60.383			-5.489
80904.000			60.381			-5.489
81004.000			60.379			-5.489
81104.000			60.379			-5.489
81204.000			60.378			-5.489
81305.000			60.377			-5.489
81404.000			60.374			-5.489
81504.000			60.372			-5.488
81605.000			60.371			-5.488
81703.000			60.370			-5.488
81804.000			60.367			-5.488
81905.000			60.366			-5.488
82004.000			60.365			-5.488
82104.000			60.364			-5.488
82205.000			60.363			-5.488
82304.000			60.359			-5.487
82403.000			60.357			-5.487
82505.000			60.356			-5.487
82604.000			60.356			-5.487
82705.000			60.354			-5.487
82804.000			60.353			-5.487
82904.000			60.352			-5.487
83005.000			60.351			-5.486
83103.000			60.349			-5.486
83204.000			60.347			-5.486
83305.000			60.347			-5.486
83404.000			60.345			-5.486
83504.000			60.343			-5.486
83605.000			60.342			-5.486
83704.000			60.340			-5.485
83803.000			60.338			-5.485
83905.000			60.337			-5.485
84004.000			60.336			-5.485
84104.000			60.334			-5.485
84205.000			60.333			-5.485
84304.000			60.331			-5.485
84404.000			60.329			-5.484
84504.000			60.328			-5.484
84604.000			60.327			-5.484
84704.000			60.325			-5.484
84805.000			60.323			-5.484
84904.000			60.322			-5.484
85004.000			60.321			-5.484
85105.000			60.321			-5.484
85203.000			60.318			-5.483
85304.000			60.316			-5.483
85405.000			60.316			-5.483
85504.000			60.314			-5.483
85604.000			60.312			-5.483
85703.000			60.311			-5.483
85804.000			60.310			-5.483
85904.000			60.306			-5.482
86004.000			60.305			-5.482
86104.000			60.304			-5.482
86205.000			60.302			-5.482
86304.000			60.301			-5.482
86403.000			60.301			-5.482
86505.000			60.300			-5.482
86604.000			60.300			-5.482
86704.000			60.296			-5.481
86805.000			60.295			-5.481
86904.000			60.294			-5.481
87004.000			60.292			-5.481
87104.000			60.291			-5.481
87204.000			60.289			-5.481
87304.000			60.288			-5.481
87405.000			60.286			-5.481
87504.000			60.285			-5.480
87604.000			60.283			-5.480
87705.000			60.283			-5.480
87803.000			60.281			-5.480
87904.000			60.280			-5.480
88004.000			60.279			-5.480
88104.000			60.276			-5.480
88204.000			60.275			-5.480
88305.000			60.273			-5.479
88404.000			60.273			-5.479
88504.000			60.272			-5.479
88605.000			60.269			-5.479
88703.000			60.267			-5.479
88804.000			60.266			-5.479
88905.000			60.265			-5.479
89004.000			60.265			-5.479
89105.000			60.264			-5.479
89204.000			60.262			-5.478
89304.000			60.260			-5.478
89404.000			60.259			-5.478
89504.000			60.259			-5.478
89604.000			60.256			-5.478
89705.000			60.254			-5.478
89804.000			60.253			-5.478
89904.000			60.251			-5.477
90005.000			60.250			-5.477
90103.000			60.249			-5.477
90204.000			60.248			-5.477
90305.000			60.245			-5.477
90404.000			60.244			-5.477
90504.000			60.244			-5.477
90605.000			60.242			-5.477
90704.000			60.241			-5.476
90803.000			60.239			-5.476
90905.000			60.239			-5.476
91004.000			60.235			-5.476
91104.000			60.234			-5.476
91205.000			60.234			-5.476
91303.000			60.232			-5.476
91404.000			60.232			-5.476
91505.000			60.229			-5.475
91604.000			60.227			-5.475
91704.000			60.226			-5.475
91805.000			60.225			-5.475
91904.000			60.224			-5.475
92003.000			60.224			-5.475
92105.000			60.222			-5.475
92204.000			60.221			-5.475
92305.000			60.219			-5.474
92404.000			60.218			-5.474
92504.000			60.216			-5.474
92605.000			60.215			-5.474
92703.000			60.214			-5.474
92804.000			60.211			-5.474
92905.000			60.210			-5.474
93004.000			60.208			-5.473
93104.000			60.208			-5.473
93205.000			60.205			-5.473
93304.000			60.204			-5.473
93403.000			60.203			-5.473
93505.000			60.202			-5.473
93604.000			60.202			-5.473
93704.000			60.201			-5.473
93805.000			60.201			-5.473
93904.000			60.198			-5.473
94004.000			60.197			-5.472
94104.000			60.194			-5.472
94204.000			60.193			-5.472
94304.000			60.191			-5.472
94405.000			60.191			-5.472
94504.000			60.190			-5.472
94604.000			60.187			-5.472
94705.000			60.187			-5.472
94803.000			60.185			-5.471
94904.000			60.184			-5.471
95005.000			60.183			-5.471
95104.000			60.182			-5.471
95204.000			60.181			-5.471
95304.000			60.178			-5.471
95404.000			60.177			-5.471
95504.000			60.175			-5.470
95604.000			60.174			-5.470
95704.000			60.174			-5.470
95805.000			60.173			-5.470
95904.000			60.173			-5.470
96004.000			60.171			-5.470
96105.000			60.167			-5.470
96203.000			60.168			-5.470
96304.000			60.166			-5.470
96405.000			60.164			-5.469
96504.000			60.163			-5.469
96604.000			60.163			-5.469
96704.000			60.162			-5.469
96804.000			60.159			-5.469
96903.000			60.157			-5.469
97005.000			60.156			-5.469
97104.000			60.156			-5.469
97204.000			60.154			-5.469
97305.000			60.154			-5.469
97404.000			60.152			-5.468
97504.000			60.152			-5.468
97604.000			60.150			-5.468
97704.000			60.149			-5.468
97804.000			60.147			-5.468
97905.000			60.145			-5.468
98004.000			60.145			-5.468
98104.000			60.144			-5.468
98205.000			60.142			-5.467
98303.000			60.142			-5.467
98404.000			60.139			-5.467
98505.000			60.137			-5.467
98604.000			60.136			-5.467
98705.000			60.134			-5.467
98804.000			60.132			-5.467
98904.000			60.132			-5.467
99004.000			60.132			-5.467
99104.000			60.131			-5.466
99204.000			60.129			-5.466
99305.000			60.127			-5.466
99404.000			60.126			-5.466
99504.000			60.126			-5.466
99605.000			60.125			-5.466
99703.000			60.122			-5.466
99804.000			60.121			-5.466
99905.000			60.121			-5.466
100004.000			60.120			-5.465
100104.000			60.119			-5.465
100205.000			60.116			-5.465
100304.000			60.114			-5.465
100403.000			60.114			-5.465
100505.000			60.113			-5.465
100604.000			60.112			-5.465
100704.000			60.110			-5.465
100805.000			60.109			-5.464
100904.000			60.107			-5.464
101004.000			60.106			-5.464
101104.000			60.104			-5.464
101204.000			60.103			-5.464
101304.000			60.102			-5.464
101405.000			60.101			-5.464
101504.000			60.099			-5.464
101604.000			60.099			-5.464
101705.000			60.098			-5.463
101803.000			60.098			-5.463
101905.000			60.095			-5.463
102004.000			60.095			-5.463
102104.000			60.093			-5.463
102205.000			60.091			-5.463
102304.000			60.091			-5.463
102404.000			60.091			-5.463
102504.000			60.089			-5.463
102604.000			60.087			-5.462
102704.000			60.087			-5.462
102805.000			60.086			-5.462
102904.000			60.084			-5.462
103004.000			60.083			-5.462
103105.000			60.081			-5.462
103203.000			60.081			-5.462
103304.000			60.078			-5.462
103405.000			60.078			-5.462
103504.000			60.076			-5.461
103604.000			60.075			-5.461
103705.000			60.073			-5.461
103804.000			60.073			-5.461
103903.000			60.073			-5.461
104005.000			60.070			-5.461
104104.000			60.068			-5.461
104204.000			60.067			-5.461
104305.000			60.066			-5.461
104404.000			60.065			-5.460
104504.000			60.064			-5.460
104604.000			60.062			-5.460
104704.000			60.061			-5.460
104804.000			60.060			-5.460
104904.000			60.059			-5.460
105004.000			60.058			-5.460
105105.000			60.057			-5.460
105204.000			60.055			-5.460
105303.000			60.054			-5.459
105405.000			60.054			-5.459
105504.000			60.050			-5.459
105604.000			60.051			-5.459
105705.000			60.050			-5.459
105804.000			60.049			-5.459
105904.000			60.048			-5.459
106004.000			60.047			-5.459
106104.000			60.046			-5.459
106204.000			60.043			-5.458
106305.000			60.042			-5.458
106404.000			60.042			-5.458
106504.000			60.041			-5.458
106605.000			60.039			-5.458
106703.000			60.038			-5.458
106804.000			60.037			-5.458
106905.000			60.035			-5.458
107004.000			60.034			-5.458
107104.000			60.034			-5.458
107205.000			60.032			-5.457
107304.000			60.030			-5.457
107403.000			60.029			-5.457
107505.000			60.029			-5.457
107604.000			60.028			-5.457
107704.000			60.025			-5.457
107805.000			60.023			-5.457
107904.000			60.023			-5.457
108004.000			60.022			-5.457
108103.000			60.021			-5.456
108204.000			60.019			-5.456
108305.000			60.018			-5.456
108404.000			60.018			-5.456
108504.000			60.017			-5.456
108605.000			60.015			-5.456
108704.000			60.014			-5.456
108803.000			60.013			-5.456
108905.000			60.012			-5.456
109004.000			60.011			-5.456
109104.000			60.009			-5.455
109205.000			60.009			-5.455
109304.000			60.008			-5.455
109404.000			60.007			-5.455
109504.000			60.006			-5.455
109604.000			60.005			-5.455
109704.000			60.004			-5.455
109805.000			60.002			-5.455
109904.000			59.999			-5.454
110004.000			59.997			-5.454
110105.000			59.999			-5.454
110203.000			59.998			-5.454
110304.000			59.996			-5.454
110405.000			59.996			-5.454
110504.000			59.994			-5.454
110604.000			59.992			-5.454
110705.000			59.992			-5.454
110804.000			59.991			-5.454
110903.000			59.990			-5.454
111005.000			59.988			-5.453
111103.000			59.988			-5.453
111204.000			59.987			-5.453
111305.000			59.984			-5.453
111404.000			59.983			-5.453
111505.000			59.981			-5.453
111604.000			59.981			-5.453
111704.000			59.980			-5.453
111804.000			59.979			-5.453
111904.000			59.979			-5.453
112004.000			59.977			-5.452
112105.000			59.977			-5.452
112204.000			59.975			-5.452
112304.000			59.972			-5.452
112405.000			59.971			-5.452
112504.000			59.971			-5.452
112604.000			59.970			-5.452
112704.000			59.968			-5.452
112804.000			59.968			-5.452
112904.000			59.966			-5.451
113005.000			59.966			-5.451
113104.000			59.966			-5.451
113204.000			59.965			-5.451
113305.000			59.963			-5.451
113403.000			59.961			-5.451
113504.000			59.959			-5.451
113605.000			59.959			-5.451
113704.000			59.958			-5.451
113804.000			59.956			-5.451
113905.000			59.956			-5.451
114004.000			59.955			-5.450
114104.000			59.954			-5.450
114205.000			59.951			-5.450
114303.000			59.951			-5.450
114404.000			59.951			-5.450
114505.000			59.949			-5.450
114604.000			59.948			-5.450
114705.000			59.948			-5.450
114804.000			59.947			-5.450
114904.000			59.944			-5.449
115004.000			59.942			-5.449
115104.000			59.942			-5.449
115203.000			59.942			-5.449
115305.000			59.940			-5.449
115404.000			59.939			-5.449
115504.000			59.939			-5.449
115605.000			59.937			-5.449
115704.000			59.936			-5.449
115804.000			59.934			-5.449
115904.000			59.933			-5.448
116004.000			59.932			-5.448
116104.000			59.932			-5.448
116205.000			59.932			-5.448
116304.000			59.929			-5.448
116404.000			59.927			-5.448
116505.000			59.927			-5.448
116604.000			59.926			-5.448
116704.000			59.926			-5.448
116804.000			59.925			-5.448
116904.000			59.923			-5.448
117004.000			59.923			-5.448
117105.000			59.920			-5.447
117204.000			59.920			-5.447
117304.000			59.919			-5.447
117405.000			59.917			-5.447
117503.000			59.916			-5.447
117604.000			59.916			-5.447
117705.000			59.915			-5.447
117804.000			59.912			-5.447
117905.000			59.912			-5.447
118004.000			59.910			-5.446
118104.000			59.910			-5.446
118205.000			59.909			-5.446
118304.000			59.909			-5.446
118403.000			59.908			-5.446
118505.000			59.905			-5.446
118604.000			59.904			-5.446
118704.000			59.903			-5.446
118805.000			59.903			-5.446
118904.000			59.900			-5.445
119004.000			59.899			-5.445
119104.000			59.899			-5.445
119204.000			59.897			-5.445
119303.000			59.896			-5.445
119405.000			59.896			-5.445
119504.000			59.894			-5.445
119604.000			59.893			-5.445
119705.000			59.892			-5.445
119804.000			59.892			-5.445
119904.000			59.891			-5.445
120004.000			59.889			-5.444
120104.000			59.888			-5.444
120203.000			59.887			-5.444
120305.000			59.887			-5.444
120404.000			59.886			-5.444
120504.000			59.884			-5.444
120605.000			59.884			-5.444
120704.000			59.881			-5.444
120804.000			59.880			-5.444
120903.000			59.880			-5.444
121004.000			59.880			-5.444
121105.000			59.879			-5.444
121204.000			59.878			-5.443
121304.000			59.877			-5.443
121405.000			59.875			-5.443
121504.000			59.874			-5.443
121604.000			59.874			-5.443
121705.000			59.872			-5.443
121803.000			59.871			-5.443
121904.000			59.870			-5.443
122005.000			59.869			-5.443
122104.000			59.868			-5.443
122204.000			59.866			-5.442
122305.000			59.865			-5.442
122404.000			59.863			-5.442
122503.000			59.863			-5.442
122605.000			59.863			-5.442
122704.000			59.863			-5.442
122804.000			59.861			-5.442
122905.000			59.860			-5.442
123004.000			59.859			-5.442
123104.000			59.857			-5.442
123205.000			59.857			-5.442
123304.000			59.856			-5.441
123403.000			59.854			-5.441
123505.000			59.853			-5.441
123604.000			59.851			-5.441
123704.000			59.850			-5.441
123805.000			59.849			-5.441
123904.000			59.849			-5.441
124004.000			59.849			-5.441
124103.000			59.848			-5.441
124204.000			59.847			-5.441
124304.000			59.844			-5.440
124404.000			59.844			-5.440
124504.000			59.843			-5.440
124605.000			59.842			-5.440
124704.000			59.841			-5.440
124804.000			59.841			-5.440
124905.000			59.840			-5.440
125003.000			59.838			-5.440
125104.000			59.836			-5.440
125205.000			59.836			-5.440
125304.000			59.836			-5.440
125404.000			59.834			-5.439
125505.000			59.832			-5.439
125604.000			59.830			-5.439
125703.000			59.832			-5.439
125805.000			59.830			-5.439
125903.000			59.828			-5.439
126004.000			59.827			-5.439
126105.000			59.827			-5.439
126204.000			59.827			-5.439
126304.000			59.826			-5.439
126405.000			59.825			-5.439
126504.000			59.822			-5.438
126603.000			59.822			-5.438
126705.000			59.820			-5.438
126804.000			59.820			-5.438
126904.000			59.819			-5.438
127005.000			59.819			-5.438
127104.000			59.818			-5.438
127204.000			59.814			-5.438
127304.000			59.814			-5.438
127404.000			59.813			-5.438
127504.000			59.812			-5.437
127604.000			59.811			-5.437
127704.000			59.810			-5.437
127805.000			59.810			-5.437
127904.000			59.808			-5.437
128004.000			59.807			-5.437
128105.000			59.807			-5.437
128203.000			59.806			-5.437
128304.000			59.805			-5.437
128405.000			59.805			-5.437
128504.000			59.803			-5.437
128604.000			59.802			-5.437
128705.000			59.802			-5.437
128804.000			59.799			-5.436
128904.000			59.798			-5.436
129005.000			59.798			-5.436
129103.000			59.797			-5.436
129204.000			59.796			-5.436
129305.000			59.794			-5.436
129404.000			59.793			-5.436
129504.000			59.792			-5.436
129605.000			59.792			-5.436
129704.000			59.791			-5.436
129804.000			59.790			-5.435
129905.000			59.790			-5.435
130003.000			59.789			-5.435
130104.000			59.787			-5.435
130205.000			59.786			-5.435
130304.000			59.786			-5.435
130404.000			59.785			-5.435
130504.000			59.784			-5.435
130604.000			59.783			-5.435
130704.000			59.782			-5.435
130804.000			59.779			-5.434
130903.000			59.778			-5.434
131005.000			59.778			-5.434
131104.000			59.779			-5.434
131204.000			59.778			-5.434
131305.000			59.775			-5.434
131404.000			59.775			-5.434
131504.000			59.772			-5.434
131604.000			59.772			-5.434
131704.000			59.772			-5.434
131803.000			59.771			-5.434
131905.000			59.770			-5.434
132004.000			59.767			-5.433
132104.000			59.767			-5.433
132205.000			59.766			-5.433
132304.000			59.764			-5.433
132404.000			59.764			-5.433
132504.000			59.764			-5.433
132604.000			59.763			-5.433
132703.000			59.762			-5.433
132805.000			59.761			-5.433
132904.000			59.760			-5.433
133004.000			59.759			-5.433
133105.000			59.758			-5.433
133204.000			59.757			-5.432
133304.000			59.756			-5.432
133404.000			59.756			-5.432
133504.000			59.755			-5.432
133603.000			59.753			-5.432
133705.000			59.751			-5.432
133804.000			59.750			-5.432
133905.000			59.748			-5.432
134004.000			59.748			-5.432
134104.000			59.748			-5.432
134205.000			59.748			-5.432
134304.000			59.747			-5.432
134404.000			59.746			-5.431
134504.000			59.744			-5.431
134604.000			59.743			-5.431
134704.000			59.742			-5.431
134805.000			59.741			-5.431
134904.000			59.741			-5.431
135004.000			59.740			-5.431
135105.000			59.738			-5.431
135204.000			59.737			-5.431
135304.000			59.736			-5.431
135404.000			59.736			-5.431
135504.000			59.736			-5.431
135603.000			59.736			-5.431
135705.000			59.734			-5.430
135804.000			59.733			-5.430
135904.000			59.731			-5.430
136005.000			59.731			-5.430
136104.000			59.730			-5.430
136204.000			59.728			-5.430
136304.000			59.727			-5.430
136404.000			59.726			-5.430
136503.000			59.725			-5.430
136605.000			59.725			-5.430
136704.000			59.724			-5.429
136804.000			59.724			-5.429
136905.000			59.721			-5.429
137004.000			59.720			-5.429
137105.000			59.720			-5.429
137204.000			59.719			-5.429
137304.000			59.717			-5.429
137404.000			59.716			-5.429
137504.000			59.716			-5.429
137604.000			59.715			-5.429
137705.000			59.715			-5.429
137804.000			59.713			-5.428
137904.000			59.713			-5.428
138005.000			59.710			-5.428
138104.000			59.709			-5.428
138204.000			59.709			-5.428
138304.000			59.709			-5.428
138404.000			59.709			-5.428
138503.000			59.708			-5.428
138605.000			59.708			-5.428
138704.000			59.706			-5.428
138804.000			59.703			-5.428
138905.000			59.703			-5.428
139004.000			59.703			-5.428
139104.000			59.702			-5.427
139204.000			59.701			-5.427
139304.000			59.699			-5.427
139403.000			59.698			-5.427
139505.000			59.698			-5.427
139604.000			59.698			-5.427
139704.000			59.696			-5.427
139805.000			59.695			-5.427
139904.000			59.694			-5.427
140004.000			59.694			-5.427
140104.000			59.693			-5.427
140204.000			59.690			-5.426
140304.000			59.690			-5.426
140404.000			59.690			-5.426
140503.000			59.689			-5.426
140605.000			59.688			-5.426
140704.000			59.687			-5.426
140804.000			59.686			-5.426
140905.000			59.684			-5.426
141004.000			59.683			-5.426
141104.000			59.683			-5.426
141204.000			59.682			-5.426
141304.000			59.681			-5.426
141403.000			59.680			-5.425
141505.000			59.679			-5.425
141604.000			59.678			-5.425
141704.000			59.678			-5.425
141805.000			59.677			-5.425
141904.000			59.676			-5.425
142004.000			59.676			-5.425
142105.000			59.675			-5.425
142204.000			59.674			-5.425
142303.000			59.674			-5.425
142405.000			59.671			-5.425
142504.000			59.671			-5.425
142604.000			59.670			-5.425
142705.000			59.669			-5.424
142804.000			59.669			-5.424
142904.000			59.667			-5.424
143005.000			59.665			-5.424
143104.000			59.665			-5.424
143203.000			59.664			-5.424
143305.000			59.663			-5.424
143404.000			59.662			-5.424
143505.000			59.662			-5.424
143604.000			59.661			-5.424
143704.000			59.661			-5.424
143805.000			59.659			-5.424
143904.000			59.658			-5.423
144004.000			59.657			-5.423
144104.000			59.656			-5.423
144204.000			59.655			-5.423
144303.000			59.655			-5.423
144405.000			59.655			-5.423
144504.000			59.653			-5.423
144604.000			59.651			-5.423
144705.000			59.651			-5.423
144804.000			59.651			-5.423
144904.000			59.649			-5.423
145005.000			59.647			-5.422
145104.000			59.646			-5.422
145203.000			59.647			-5.422
145305.000			59.645			-5.422
145404.000			59.645			-5.422
145504.000			59.644			-5.422
145605.000			59.643			-5.422
145704.000			59.642			-5.422
145804.000			59.642			-5.422
145905.000			59.642			-5.422
146004.000			59.639			-5.422
146103.000			59.637			-5.422
146205.000			59.637			-5.422
146304.000			59.636			-5.421
146404.000			59.635			-5.421
146505.000			59.634			-5.421
146604.000			59.634			-5.421
146705.000			59.634			-5.421
146804.000			59.633			-5.421
146904.000			59.631			-5.421
147004.000			59.631			-5.421
147104.000			59.630			-5.421
147203.000			59.628			-5.421
147305.000			59.627			-5.421
147404.000			59.626			-5.421
147504.000			59.626			-5.421
147605.000			59.626			-5.421
147704.000			59.624			-5.420
147804.000			59.623			-5.420
147905.000			59.622			-5.420
148004.000			59.621			-5.420
148103.000			59.621			-5.420
148205.000			59.619			-5.420
148304.000			59.620			-5.420
148404.000			59.620			-5.420
148505.000			59.618			-5.420
148604.000			59.616			-5.420
148704.000			59.617			-5.420
148805.000			59.615			-5.420
148904.000			59.613			-5.419
149003.000			59.613			-5.419
149105.000			59.612			-5.419
149203.000			59.611			-5.419
149304.000			59.611			-5.419
149405.000			59.610			-5.419
149504.000			59.609			-5.419
149604.000			59.607			-5.419
149704.000			59.606			-5.419
149804.000			59.606			-5.419
149905.000			59.606			-5.419
150004.000			59.605			-5.419
150103.000			59.604			-5.419
150205.000			59.604			-5.419
150304.000			59.602			-5.418
150404.000			59.601			-5.418
150505.000			59.600			-5.418
150604.000			59.599			-5.418
150704.000			59.598			-5.418
150804.000			59.597			-5.418
150904.000			59.596			-5.418
151003.000			59.595			-5.418
151105.000			59.595			-5.418
151204.000			59.594			-5.418
151304.000			59.592			-5.417
151405.000			59.591			-5.417
151504.000			59.592			-5.417
151604.000			59.590			-5.417
151705.000			59.589			-5.417
151804.000			59.588			-5.417
151903.000			59.589			-5.417
152005.000			59.587			-5.417
152104.000			59.586			-5.417
152204.000			59.586			-5.417
152305.000			59.585			-5.417
152404.000			59.584			-5.417
152504.000			59.582			-5.417
152605.000			59.581			-5.416
152704.000			59.581			-5.416
152803.000			59.580			-5.416
152905.000			59.579			-5.416
153003.000			59.578			-5.416
153105.000			59.578			-5.416
153204.000			59.577			-5.416
153304.000			59.576			-5.416
153405.000			59.575			-5.416
153504.000			59.574			-5.416
153604.000			59.573			-5.416
153705.000			59.573			-5.416
153804.000			59.572			-5.416
153903.000			59.569			-5.415
154005.000			59.569			-5.415
154104.000			59.569			-5.415
154204.000			59.568			-5.415
154305.000			59.567			-5.415
154404.000			59.567			-5.415
154504.000			59.567			-5.415
154605.000			59.567			-5.415
154704.000			59.565			-5.415
154804.000			59.564			-5.415
154905.000			59.562			-5.415
155003.000			59.562			-5.415
155104.000			59.562			-5.415
155205.000			59.561			-5.415
155304.000			59.560			-5.415
155404.000			59.559			-5.414
155505.000			59.558			-5.414
155604.000			59.557			-5.414
155704.000			59.556			-5.414
155805.000			59.555			-5.414
155903.000			59.554			-5.414
156004.000			59.554			-5.414
156105.000			59.552			-5.414
156204.000			59.551			-5.414
156305.000			59.551			-5.414
156404.000			59.551			-5.414
156504.000			59.550			-5.414
156605.000			59.549			-5.414
156704.000			59.547			-5.413
156803.000			59.546			-5.413
156905.000			59.546			-5.413
157003.000			59.545			-5.413
157104.000			59.544			-5.413
157205.000			59.544			-5.413
157304.000			59.543			-5.413
157404.000			59.543			-5.413
157505.000			59.542			-5.413
157604.000			59.541			-5.413
157704.000			59.539			-5.413
157805.000			59.539			-5.413
157903.000			59.538			-5.413
158004.000			59.537			-5.412
158104.000			59.537			-5.412
158204.000			59.536			-5.412
158304.000			59.534			-5.412
158405.000			59.534			-5.412
158504.000			59.533			-5.412
158604.000			59.532			-5.412
158705.000			59.531			-5.412
158803.000			59.530			-5.412
158904.000			59.529			-5.412
159004.000			59.529			-5.412
159104.000			59.528			-5.412
159204.000			59.528			-5.412
159304.000			59.528			-5.412
159404.000			59.527			-5.412
159505.000			59.526			-5.411
159604.000			59.525			-5.411
159704.000			59.523			-5.411
159805.000			59.523			-5.411
159903.000			59.523			-5.411
160004.000			59.521			-5.411
160105.000			59.519			-5.411
160204.000			59.518			-5.411
160304.000			59.518			-5.411
160405.000			59.516			-5.411
160504.000			59.516			-5.411
160604.000			59.516			-5.411
160705.000			59.515			-5.410
160803.000			59.515			-5.410
160904.000			59.514			-5.410
161005.000			59.513			-5.410
161104.000			59.512			-5.410
161204.000			59.511			-5.410
161305.000			59.510			-5.410
161404.000			59.509			-5.410
161504.000			59.509			-5.410
161605.000			59.508			-5.410
161703.000			59.507			-5.410
161804.000			59.506			-5.410
161905.000			59.505			-5.410
162004.000			59.505			-5.410
162104.000			59.505			-5.410
162205.000			59.503			-5.409
162304.000			59.502			-5.409
162404.000			59.501			-5.409
162505.000			59.500			-5.409
162603.000			59.500			-5.409
162705.000			59.499			-5.409
162803.000			59.499			-5.409
162904.000			59.499			-5.409
163005.000			59.498			-5.409
163104.000			59.497			-5.409
163204.000			59.495			-5.409
163305.000			59.495			-5.409
163404.000			59.494			-5.409
163504.000			59.493			-5.408
163605.000			59.492			-5.408
163703.000			59.491			-5.408
163804.000			59.490			-5.408
163905.000			59.489			-5.408
164004.000			59.489			-5.408
164104.000			59.488			-5.408
164205.000			59.487			-5.408
164304.000			59.486			-5.408
164404.000			59.486			-5.408
164505.000			59.485			-5.408
164604.000			59.484			-5.408
164704.000			59.484			-5.408
164804.000			59.481			-5.407
164904.000			59.480			-5.407
165004.000			59.480			-5.407
165105.000			59.480			-5.407
165204.000			59.479			-5.407
165304.000			59.478			-5.407
165405.000			59.478			-5.407
165504.000			59.476			-5.407
165604.000			59.476			-5.407
165703.000			59.476			-5.407
165804.000			59.474			-5.407
165904.000			59.474			-5.407
166004.000			59.474			-5.407
166104.000			59.473			-5.407
166205.000			59.471			-5.406
166304.000			59.470			-5.406
166404.000			59.469			-5.406
166505.000			59.469			-5.406
166604.000			59.467			-5.406
166704.000			59.467			-5.406
166804.000			59.467			-5.406
166904.000			59.466			-5.406
167004.000			59.466			-5.406
167105.000			59.465			-5.406
167204.000			59.463			-5.406
167304.000			59.463			-5.406
167405.000			59.464			-5.406
167504.000			59.462			-5.406
167604.000			59.461			-5.406
167704.000			59.459			-5.405
167804.000			59.459			-5.405
167903.000			59.459			-5.405
168005.000			59.457			-5.405
168104.000			59.457			-5.405
168204.000			59.457			-5.405
168305.000			59.456			-5.405
168404.000			59.454			-5.405
168504.000			59.454			-5.405
168605.000			59.452			-5.405
168704.000			59.451			-5.405
168803.000			59.451			-5.405
168905.000			59.451			-5.405
169004.000			59.451			-5.405
169105.000			59.449			-5.404
169204.000			59.448			-5.404
169304.000			59.447			-5.404
169405.000			59.445			-5.404
169504.000			59.445			-5.404
169604.000			59.446			-5.404
169704.000			59.445			-5.404
169804.000			59.444			-5.404
169903.000			59.442			-5.404
170005.000			59.442			-5.404
170104.000			59.441			-5.404
170204.000			59.440			-5.404
170305.000			59.440			-5.404
170404.000			59.440			-5.404
170504.000			59.438			-5.403
170605.000			59.436			-5.403
170704.000			59.436			-5.403
170803.000			59.437			-5.403
170905.000			59.435			-5.403
171004.000			59.434			-5.403
171104.000			59.433			-5.403
171205.000			59.433			-5.403
171304.000			59.432			-5.403
171404.000			59.432			-5.403
171505.000			59.430			-5.403
171604.000			59.429			-5.403
171703.000			59.429			-5.403
171805.000			59.428			-5.403
171904.000			59.426			-5.402
172004.000			59.427			-5.402
172105.000			59.426			-5.402
172204.000			59.424			-5.402
172305.000			59.424			-5.402
172404.000			59.424			-5.402
172504.000			59.423			-5.402
172604.000			59.422			-5.402
172704.000			59.422			-5.402
172804.000			59.420			-5.402
172905.000			59.419			-5.402
173004.000			59.419			-5.402
173104.000			59.418			-5.402
173205.000			59.417			-5.402
173304.000			59.416			-5.401
173404.000			59.416			-5.401
173504.000			59.415			-5.401
173604.000			59.414			-5.401
173703.000			59.414			-5.401
173805.000			59.413			-5.401
173904.000			59.413			-5.401
174004.000			59.411			-5.401
174105.000			59.410			-5.401
174204.000			59.408			-5.401
174304.000			59.409			-5.401
174404.000			59.409			-5.401
174504.000			59.408			-5.401
174603.000			59.407			-5.401
174705.000			59.405			-5.400
174804.000			59.406			-5.401
174904.000			59.404			-5.400
175005.000			59.403			-5.400
175104.000			59.402			-5.400
175204.000			59.401			-5.400
175304.000			59.401			-5.400
175404.000			59.402			-5.400
175504.000			59.400			-5.400
175604.000			59.400			-5.400
175704.000			59.400			-5.400
175805.000			59.398			-5.400
175904.000			59.397			-5.400
176004.000			59.397			-5.400
176105.000			59.397			-5.400
176204.000			59.396			-5.400
176304.000			59.395			-5.400
176404.000			59.393			-5.399
176504.000			59.393			-5.399
176603.000			59.393			-5.399
176705.000			59.392			-5.399
176804.000			59.390			-5.399
176904.000			59.389			-5.399
177005.000			59.390			-5.399
177104.000			59.388			-5.399
177204.000			59.387			-5.399
177305.000			59.387			-5.399
177404.000			59.386			-5.399
177503.000			59.385			-5.399
177605.000			59.385			-5.399
177704.000			59.384			-5.399
177804.000			59.385			-5.399
177905.000			59.383			-5.398
178004.000			59.383			-5.398
178104.000			59.383			-5.398
178205.000			59.381			-5.398
178304.000			59.380			-5.398
178404.000			59.380			-5.398
178505.000			59.379			-5.398
178603.000			59.377			-5.398
178705.000			59.376			-5.398
178804.000			59.375			-5.398
178904.000			59.374			-5.398
179005.000			59.375			-5.398
179104.000			59.374			-5.398
179204.000			59.374			-5.398
179305.000			59.372			-5.397
179404.000			59.371			-5.397
179504.000			59.370			-5.397
179605.000			59.369			-5.397
179703.000			59.370			-5.397
179804.000			59.368			-5.397
179905.000			59.367			-5.397
180004.000			59.367			-5.397
180104.000			59.367			-5.397
180205.000			59.365			-5.397
180304.000			59.364			-5.397
180404.000			59.364			-5.397
180505.000			59.363			-5.397
180603.000			59.363			-5.397
180704.000			59.361			-5.396
180804.000			59.360			-5.396
180904.000			59.360			-5.396
181004.000			59.359			-5.396
181105.000			59.359			-5.396
181204.000			59.358			-5.396
181304.000			59.358			-5.396
181405.000			59.357			-5.396
181503.000			59.356			-5.396
181604.000			59.355			-5.396
181703.000			59.355			-5.396
181804.000			59.354			-5.396
181905.000			59.353			-5.396
182004.000			59.353			-5.396
182104.000			59.353			-5.396
182205.000			59.352			-5.396
182304.000			59.351			-5.396
182403.000			59.350			-5.395
182505.000			59.349			-5.395
182603.000			59.350			-5.395
182704.000			59.349			-5.395
182805.000			59.347			-5.395
182904.000			59.346			-5.395
183004.000			59.345			-5.395
183105.000			59.344			-5.395
183204.000			59.343			-5.395
183304.000			59.343			-5.395
183405.000			59.343			-5.395
183503.000			59.342			-5.395
183604.000			59.341			-5.395
183705.000			59.341			-5.395
183804.000			59.340			-5.395
183904.000			59.339			-5.394
184005.000			59.339			-5.394
184104.000			59.339			-5.394
184204.000			59.338			-5.394
184305.000			59.337			-5.394
184403.000			59.336			-5.394
184504.000			59.335			-5.394
184605.000			59.335			-5.394
184704.000			59.334			-5.394
184804.000			59.332			-5.394
184904.000			59.331			-5.394
185004.000			59.331			-5.394
185105.000			59.330			-5.394
185204.000			59.330			-5.394
185303.000			59.330			-5.394
185405.000			59.330			-5.394
185503.000			59.329			-5.394
185604.000			59.328			-5.393
185705.000			59.327			-5.393
185804.000			59.325			-5.393
185904.000			59.324			-5.393
186005.000			59.324			-5.393
186104.000			59.323			-5.393
186204.000			59.324			-5.393
186305.000			59.323			-5.393
186403.000			59.322			-5.393
186504.000			59.321			-5.393
186605.000			59.321			-5.393
186704.000			59.320			-5.393
186804.000			59.317			-5.392
186905.000			59.316			-5.392
187004.000			59.318			-5.393
187104.000			59.317			-5.392
187205.000			59.315			-5.392
187303.000			59.316			-5.392
187404.000			59.314			-5.392
187505.000			59.313			-5.392
187604.000			59.314			-5.392
187704.000			59.314			-5.392
187805.000			59.312			-5.392
187904.000			59.311			-5.392
188004.000			59.309			-5.392
188105.000			59.309			-5.392
188203.000			59.310			-5.392
188305.000			59.309			-5.392
188403.000			59.308			-5.392
188504.000			59.308			-5.392
188605.000			59.308			-5.392
188704.000			59.306			-5.391
188804.000			59.304			-5.391
188905.000			59.303			-5.391
189004.000			59.304			-5.391
189104.000			59.304			-5.391
189205.000			59.303			-5.391
189303.000			59.302			-5.391
189404.000			59.300			-5.391
189505.000			59.299			-5.391
189604.000			59.300			-5.391
189704.000			59.299			-5.391
189805.000			59.297			-5.391
189904.000			59.296			-5.391
190004.000			59.296			-5.391
190105.000			59.295			-5.390
190203.000			59.295			-5.390
190304.000			59.294			-5.390
190404.000			59.294			-5.390
190504.000			59.293			-5.390
190604.000			59.291			-5.390
190705.000			59.291			-5.390
190804.000			59.290			-5.390
190904.000			59.289			-5.390
191005.000			59.289			-5.390
191104.000			59.288			-5.390
191204.000			59.287			-5.390
191303.000			59.287			-5.390
191404.000			59.288			-5.390
191505.000			59.288			-5.390
191604.000			59.284			-5.389
191704.000			59.285			-5.390
191805.000			59.284			-5.389
191904.000			59.283			-5.389
192004.000			59.283			-5.389
192105.000			59.282			-5.389
192203.000			59.281			-5.389
192304.000			59.280			-5.389
192404.000			59.279			-5.389
192504.000			59.279			-5.389
192604.000			59.278			-5.389
192705.000			59.278			-5.389
192804.000			59.278			-5.389
192904.000			59.277			-5.389
193005.000			59.277			-5.389
193104.000			59.275			-5.389
193204.000			59.275			-5.389
193304.000			59.274			-5.389
193404.000			59.274			-5.389
193504.000			59.273			-5.388
193605.000			59.273			-5.388
193704.000			59.272			-5.388
193804.000			59.270			-5.388
193905.000			59.269			-5.388
194004.000			59.270			-5.388
194104.000			59.268			-5.388
194204.000			59.267			-5.388
194304.000			59.267			-5.388
194403.000			59.268			-5.388
194505.000			59.265			-5.388
194604.000			59.264			-5.388
194705.000			59.264			-5.388
194804.000			59.264			-5.388
194904.000			59.263			-5.388
195005.000			59.263			-5.388
195104.000			59.263			-5.388
195204.000			59.261			-5.387
195304.000			59.260			-5.387
195404.000			59.259			-5.387
195504.000			59.258			-5.387
195605.000			59.258			-5.387
195704.000			59.258			-5.387
195804.000			59.258			-5.387
195905.000			59.255			-5.387
196004.000			59.255			-5.387
196104.000			59.254			-5.387
196204.000			59.254			-5.387
196304.000			59.253			-5.387
196403.000			59.252			-5.387
196505.000			59.253			-5.387
196604.000			59.252			-5.387
196704.000			59.251			-5.386
196805.000			59.251			-5.386
196904.000			59.250			-5.386
197004.000			59.248			-5.386
197105.000			59.248			-5.386
197204.000			59.248			-5.386
197303.000			59.246			-5.386
197405.000			59.247			-5.386
197504.000			59.246			-5.386
197604.000			59.245			-5.386
197705.000			59.245			-5.386
197804.000			59.243			-5.386
197905.000			59.243			-5.386
198004.000			59.243			-5.386
198104.000			59.241			-5.386
198204.000			59.241			-5.386
198304.000			59.241			-5.386
198403.000			59.240			-5.385
198505.000			59.239			-5.385
198604.000			59.239			-5.385
198704.000			59.238			-5.385
198805.000			59.237			-5.385
198904.000			59.237			-5.385
199004.000			59.237			-5.385
199105.000			59.235			-5.385
199204.000			59.234			-5.385
199303.000			59.233			-5.385
199405.000			59.233			-5.385
199504.000			59.233			-5.385
199604.000			59.233			-5.385
199705.000			59.232			-5.385
199804.000			59.230			-5.385
199904.000			59.229			-5.384
200005.000			59.229			-5.384
200104.000			59.229			-5.384
200203.000			59.228			-5.384
200305.000			59.228			-5.384
200403.000			59.227			-5.384
200504.000			59.226			-5.384
200605.000			59.226			-5.384
200704.000			59.225			-5.384
200804.000			59.225			-5.384
200904.000			59.225			-5.384
201004.000			59.222			-5.384
201104.000			59.221			-5.384
201204.000			59.221			-5.384
201304.000			59.220			-5.384
201405.000			59.220			-5.384
201504.000			59.219			-5.384
201604.000			59.219			-5.384
201705.000			59.217			-5.383
201804.000			59.216			-5.383
201904.000			59.216			-5.383
202004.000			59.216			-5.383
202104.000			59.215			-5.383
202204.000			59.215			-5.383
202305.000			59.213			-5.383
202404.000			59.213			-5.383
202504.000			59.214			-5.383
202605.000			59.213			-5.383
202703.000			59.211			-5.383
202804.000			59.211			-5.383
202904.000			59.210			-5.383
203004.000			59.209			-5.383
203104.000			59.209			-5.383
203205.000			59.209			-5.383
203304.000			59.208			-5.383
203404.000			59.207			-5.382
203505.000			59.206			-5.382
203603.000			59.204			-5.382
203704.000			59.205			-5.382
203805.000			59.206			-5.382
203904.000			59.203			-5.382
204004.000			59.203			-5.382
204104.000			59.202			-5.382
204204.000			59.201			-5.382
204305.000			59.201			-5.382
204404.000			59.200			-5.382
204503.000			59.199			-5.382
204605.000			59.198			-5.382
204704.000			59.198			-5.382
204804.000			59.198			-5.382
204905.000			59.197			-5.382
205004.000			59.197			-5.382
205104.000			59.196			-5.381
205205.000			59.194			-5.381
205304.000			59.194			-5.381
205403.000			59.193			-5.381
205505.000			59.194			-5.381
205603.000			59.192			-5.381
205704.000			59.192			-5.381
205805.000			59.192			-5.381
205904.000			59.191			-5.381
206004.000			59.190			-5.381
206105.000			59.190			-5.381
206204.000			59.189			-5.381
206304.000			59.188			-5.381
206405.000			59.187			-5.381
206503.000			59.185			-5.380
206604.000			59.185			-5.380
206705.000			59.185			-5.380
206804.000			59.184			-5.380
206904.000			59.184			-5.380
207005.000			59.182			-5.380
207104.000			59.182			-5.380
207204.000			59.182			-5.380
207305.000			59.182			-5.380
207403.000			59.182			-5.380
207505.000			59.180			-5.380
207604.000			59.181			-5.380
207704.000			59.180			-5.380
207805.000			59.178			-5.380
207904.000			59.178			-5.380
208004.000			59.177			-5.380
208105.000			59.177			-5.380
208204.000			59.175			-5.380
208303.000			59.176			-5.380
208405.000			59.175			-5.380
208503.000			59.174			-5.379
208604.000			59.173			-5.379
208705.000			59.172			-5.379
208804.000			59.172			-5.379
208904.000			59.172			-5.379
209005.000			59.171			-5.379
209104.000			59.170			-5.379
209203.000			59.170			-5.379
209305.000			59.170			-5.379
209403.000			59.168			-5.379
209504.000			59.168			-5.379
209605.000			59.167			-5.379
209704.000			59.166			-5.379
209804.000			59.166			-5.379
209905.000			59.166			-5.379
210004.000			59.165			-5.379
210104.000			59.163			-5.378
210205.000			59.163			-5.378
210303.000			59.163			-5.378
210404.000			59.163			-5.378
210505.000			59.162			-5.378
210604.000			59.160			-5.378
210705.000			59.159			-5.378
210804.000			59.159			-5.378
210904.000			59.159			-5.378
211004.000			59.158			-5.378
211104.000			59.158			-5.378
211203.000			59.156			-5.378
211305.000			59.156			-5.378
211404.000			59.155			-5.378
211504.000			59.155			-5.378
211605.000			59.154			-5.378
211704.000			59.154			-5.378
211804.000			59.153			-5.378
211904.000			59.153			-5.378
212004.000			59.151			-5.377
212104.000			59.150			-5.377
212205.000			59.149			-5.377
212304.000			59.150			-5.377
212404.000			59.150			-5.377
212505.000			59.149			-5.377
212604.000			59.148			-5.377
212704.000			59.147			-5.377
212804.000			59.146			-5.377
212904.000			59.145			-5.377
213004.000			59.146			-5.377
213105.000			59.147			-5.377
213204.000			59.145			-5.377
213304.000			59.143			-5.377
213405.000			59.143			-5.377
213504.000			59.142			-5.377
213604.000			59.141			-5.376
213703.000			59.141			-5.376
213804.000			59.140			-5.376
213905.000			59.140			-5.376
214004.000			59.139			-5.376
214104.000			59.138			-5.376
214205.000			59.138			-5.376
214304.000			59.138			-5.376
214404.000			59.137			-5.376
214505.000			59.136			-5.376
214603.000			59.136			-5.376
214704.000			59.136			-5.376
214805.000			59.134			-5.376
214904.000			59.133			-5.376
215004.000			59.132			-5.376
215105.000			59.131			-5.376
215204.000			59.132			-5.376
215304.000			59.131			-5.376
215405.000			59.131			-5.376
215503.000			59.131			-5.376
215604.000			59.131			-5.376
215705.000			59.129			-5.375
215804.000			59.129			-5.375
215904.000			59.129			-5.375
216005.000			59.128			-5.375
216104.000			59.127			-5.375
216204.000			59.125			-5.375
216305.000			59.125			-5.375
216403.000			59.125			-5.375
216504.000			59.124			-5.375
216605.000			59.123			-5.375
216704.000			59.123			-5.375
216804.000			59.124			-5.375
216904.000			59.121			-5.375
217004.000			59.120			-5.375
217105.000			59.119			-5.374
217204.000			59.118			-5.374
217303.000			59.118			-5.374
217405.000			59.118			-5.374
217504.000			59.117			-5.374
217604.000			59.117			-5.374
217705.000			59.117			-5.374
217804.000			59.115			-5.374
217904.000			59.114			-5.374
218005.000			59.114			-5.374
218104.000			59.113			-5.374
218203.000			59.113			-5.374
218305.000			59.113			-5.374
218404.000			59.112			-5.374
218504.000			59.111			-5.374
218605.000			59.110			-5.374
218704.000			59.110			-5.374
218804.000			59.111			-5.374
218905.000			59.109			-5.374
219004.000			59.107			-5.373
219103.000			59.107			-5.373
219205.000			59.106			-5.373
219304.000			59.105			-5.373
219404.000			59.105			-5.373
219505.000			59.105			-5.373
219604.000			59.106			-5.373
219704.000			59.105			-5.373
219805.000			59.104			-5.373
219904.000			59.103			-5.373
220003.000			59.102			-5.373
220105.000			59.103			-5.373
220204.000			59.102			-5.373
220305.000			59.102			-5.373
220404.000			59.101			-5.373
220504.000			59.100			-5.373
220605.000			59.098			-5.373
220704.000			59.098			-5.373
220804.000			59.098			-5.373
220904.000			59.098			-5.373
221004.000			59.096			-5.372
221104.000			59.096			-5.372
221205.000			59.095			-5.372
221304.000			59.094			-5.372
221404.000			59.095			-5.372
221505.000			59.093			-5.372
221604.000			59.093			-5.372
221704.000			59.093			-5.372
221804.000			59.093			-5.372
221904.000			59.092			-5.372
222004.000			59.090			-5.372
222105.000			59.090			-5.372
222204.000			59.089			-5.372
222304.000			59.088			-5.372
222405.000			59.088			-5.372
222504.000			59.088			-5.372
222604.000			59.087			-5.372
222704.000			59.087			-5.372
222804.000			59.086			-5.371
222903.000			59.085			-5.371
223005.000			59.085			-5.371
223104.000			59.085			-5.371
223204.000			59.084			-5.371
223305.000			59.082			-5.371
223404.000			59.082			-5.371
223505.000			59.081			-5.371
223603.000			59.082			-5.371
223704.000			59.081			-5.371
223804.000			59.080			-5.371
223904.000			59.079			-5.371
224004.000			59.079			-5.371
224105.000			59.079			-5.371
224204.000			59.077			-5.371
224304.000			59.076			-5.371
224405.000			59.076			-5.371
224503.000			59.076			-5.371
224604.000			59.075			-5.370
224704.000			59.074			-5.370
224804.000			59.074			-5.370
224904.000			59.074			-5.370
225005.000			59.072			-5.370
225104.000			59.072			-5.370
225204.000			59.072			-5.370
225305.000			59.072			-5.370
225403.000			59.070			-5.370
225504.000			59.071			-5.370
225604.000			59.070			-5.370
225704.000			59.070			-5.370
225804.000			59.068			-5.370
225905.000			59.067			-5.370
226004.000			59.066			-5.370
226104.000			59.065			-5.370
226205.000			59.065			-5.370
226304.000			59.065			-5.370
226404.000			59.064			-5.369
226503.000			59.064			-5.369
226604.000			59.063			-5.369
226705.000			59.063			-5.369
226804.000			59.062			-5.369
226904.000			59.062			-5.369
227005.000			59.061			-5.369
227104.000			59.061			-5.369
227204.000			59.059			-5.369
227305.000			59.058			-5.369
227403.000			59.058			-5.369
227504.000			59.059			-5.369
227605.000			59.057			-5.369
227704.000			59.056			-5.369
227804.000			59.056			-5.369
227905.000			59.055			-5.369
228004.000			59.055			-5.369
228104.000			59.055			-5.369
228205.000			59.054			-5.369
228303.000			59.054			-5.369
228404.000			59.053			-5.368
228505.000			59.052			-5.368
228604.000			59.052			-5.368
228704.000			59.052			-5.368
228805.000			59.051			-5.368
228904.000			59.049			-5.368
229004.000			59.051			-5.368
229105.000			59.050			-5.368
229203.000			59.048			-5.368
229304.000			59.048			-5.368
229405.000			59.047			-5.368
229504.000			59.047			-5.368
229604.000			59.046			-5.368
229704.000			59.045			-5.368
229804.000			59.045			-5.368
229905.000			59.045			-5.368
230004.000			59.043			-5.368
230103.000			59.042			-5.367
230205.000			59.042			-5.367
230304.000			59.043			-5.368
230404.000			59.042			-5.367
230505.000			59.041			-5.367
230604.000			59.041			-5.367
230704.000			59.040			-5.367
230805.000			59.039			-5.367
230904.000			59.037			-5.367
231003.000			59.036			-5.367
231105.000			59.037			-5.367
231204.000			59.037			-5.367
231304.000			59.036			-5.367
231405.000			59.036			-5.367
231504.000			59.036			-5.367
231604.000			59.035			-5.367
231705.000			59.033			-5.367
231804.000			59.033			-5.367
231903.000			59.033			-5.367
232005.000			59.033			-5.367
232104.000			59.031			-5.366
232204.000			59.031			-5.366
232305.000			59.030			-5.366
232404.000			59.030			-5.366
232504.000			59.029			-5.366
232605.000			59.028			-5.366
232704.000			59.026			-5.366
232803.000			59.028			-5.366
232905.000			59.027			-5.366
233004.000			59.027			-5.366
233105.000			59.025			-5.366
233204.000			59.023			-5.366
233304.000			59.023			-5.366
233405.000			59.023			-5.366
233504.000			59.023			-5.366
233604.000			59.023			-5.366
233704.000			59.023			-5.366
233804.000			59.022			-5.366
233904.000			59.022			-5.366
234005.000			59.022			-5.366
234104.000			59.020			-5.365
234204.000			59.019			-5.365
234305.000			59.020			-5.365
234404.000			59.018			-5.365
234504.000			59.017			-5.365
234604.000			59.018			-5.365
234704.000			59.017			-5.365
234804.000			59.016			-5.365
234905.000			59.016			-5.365
235004.000			59.014			-5.365
235104.000			59.013			-5.365
235205.000			59.012			-5.365
235304.000			59.014			-5.365
235404.000			59.014			-5.365
235504.000			59.012			-5.365
235604.000			59.012			-5.365
235704.000			59.011			-5.365
235805.000			59.009			-5.364
235904.000			59.010			-5.365
236004.000			59.010			-5.365
236105.000			59.009			-5.364
236204.000			59.008			-5.364
236305.000			59.008			-5.364
236403.000			59.007			-5.364
236504.000			59.006			-5.364
236605.000			59.005			-5.364
236704.000			59.006			-5.364
236804.000			59.005			-5.364
236905.000			59.004			-5.364
237004.000			59.004			-5.364
237103.000			59.003			-5.364
237205.000			59.002			-5.364
237303.000			59.002			-5.364
237404.000			59.001			-5.364
237505.000			59.000			-5.364
237604.000			59.000			-5.364
237704.000			58.999			-5.364
237805.000			58.999			-5.364
237904.000			58.997			-5.363
238004.000			58.997			-5.363
238105.000			58.997			-5.363
238203.000			58.996			-5.363
238304.000			58.996			-5.363
238405.000			58.996			-5.363
238504.000			58.994			-5.363
238604.000			58.994			-5.363
238705.000			58.993			-5.363
238804.000			58.992			-5.363
238904.000			58.993			-5.363
239005.000			58.993			-5.363
239104.000			58.992			-5.363
239204.000			58.992			-5.363
239303.000			58.991			-5.363
239404.000			58.989			-5.363
239505.000			58.988			-5.363
239604.000			58.988			-5.363
239704.000			58.987			-5.362
239805.000			58.987			-5.362
239904.000			58.986			-5.362
240004.000			58.986			-5.362
240105.000			58.985			-5.362
240204.000			58.984			-5.362
240304.000			58.984			-5.362
240404.000			58.984			-5.362
240504.000			58.983			-5.362
240604.000			58.983			-5.362
240705.000			58.982			-5.362
240804.000			58.981			-5.362
240904.000			58.980			-5.362
241005.000			58.980			-5.362
241104.000			58.980			-5.362
241204.000			58.979			-5.362
241304.000			58.979			-5.362
241404.000			58.979			-5.362
241503.000			58.979			-5.362
241605.000			58.979			-5.362
241704.000			58.977			-5.362
241804.000			58.977			-5.362
241905.000			58.975			-5.361
242004.000			58.974			-5.361
242104.000			58.975			-5.361
242205.000			58.975			-5.361
242304.000			58.973			-5.361
242403.000			58.972			-5.361
242505.000			58.972			-5.361
242604.000			58.972			-5.361
242705.000			58.971			-5.361
242804.000			58.972			-5.361
242904.000			58.972			-5.361
243005.000			58.969			-5.361
243104.000			58.968			-5.361
243204.000			58.968			-5.361
243304.000			58.967			-5.361
243404.000			58.967			-5.361
243503.000			58.966			-5.361
243605.000			58.965			-5.360
243704.000			58.966			-5.361
243804.000			58.965			-5.360
243905.000			58.964			-5.360
244004.000			58.964			-5.360
244104.000			58.964			-5.360
244205.000			58.963			-5.360
244304.000			58.962			-5.360
244403.000			58.962			-5.360
244505.000			58.962			-5.360
244604.000			58.961			-5.360
244704.000			58.959			-5.360
244805.000			58.958			-5.360
244904.000			58.959			-5.360
245004.000			58.960			-5.360
245105.000			58.959			-5.360
245204.000			58.957			-5.360
245303.000			58.957			-5.360
245405.000			58.955			-5.360
245503.000			58.955			-5.360
245604.000			58.954			-5.359
245705.000			58.954			-5.359
245804.000			58.955			-5.360
245905.000			58.955			-5.360
246004.000			58.955			-5.360
246104.000			58.954			-5.359
246205.000			58.953			-5.359
246304.000			58.952			-5.359
246403.000			58.950			-5.359
246505.000			58.950			-5.359
246604.000			58.950			-5.359
246704.000			58.949			-5.359
246805.000			58.948			-5.359
246904.000			58.947			-5.359
247004.000			58.948			-5.359
247105.000			58.948			-5.359
247204.000			58.948			-5.359
247303.000			58.947			-5.359
247405.000			58.947			-5.359
247503.000			58.946			-5.359
247604.000			58.944			-5.359
247705.000			58.943			-5.358
247804.000			58.943			-5.358
247904.000			58.943			-5.358
248005.000			58.944			-5.359
248104.000			58.942			-5.358
248204.000			58.940			-5.358
248305.000			58.940			-5.358
248403.000			58.940			-5.358
248504.000			58.939			-5.358
248604.000			58.938			-5.358
248704.000			58.938			-5.358
248804.000			58.938			-5.358
248904.000			58.937			-5.358
249004.000			58.936			-5.358
249105.000			58.936			-5.358
249204.000			58.936			-5.358
249304.000			58.934			-5.358
249405.000			58.934			-5.358
249503.000			58.934			-5.358
249604.000			58.933			-5.358
249705.000			58.933			-5.358
249804.000			58.931			-5.357
249904.000			58.932			-5.357
250005.000			58.930			-5.357
250104.000			58.931			-5.357
250204.000			58.931			-5.357
250305.000			58.930			-5.357
250403.000			58.929			-5.357
250504.000			58.929			-5.357
250605.000			58.929			-5.357
250704.000			58.929			-5.357
250804.000			58.928			-5.357
250905.000			58.927			-5.357
251004.000			58.926			-5.357
251104.000			58.924			-5.357
251205.000			58.924			-5.357
251303.000			58.924			-5.357
251404.000			58.924			-5.357
251504.000			58.924			-5.357
251604.000			58.924			-5.357
251704.000			58.922			-5.357
251805.000			58.922			-5.357
251904.000			58.923			-5.357
252004.000			58.923			-5.357
252105.000			58.921			-5.356
252204.000			58.920			-5.356
252305.000			58.919			-5.356
252403.000			58.919			-5.356
252504.000			58.918			-5.356
252605.000			58.918			-5.356
252704.000			58.918			-5.356
252804.000			58.917			-5.356
252905.000			58.916			-5.356
253004.000			58.917			-5.356
253104.000			58.916			-5.356
253205.000			58.915			-5.356
253303.000			58.914			-5.356
253404.000			58.914			-5.356
253505.000			58.913			-5.356
253604.000			58.913			-5.356
253704.000			58.912			-5.356
253805.000			58.912			-5.356
253904.000			58.912			-5.356
254004.000			58.910			-5.355
254105.000			58.910			-5.355
254203.000			58.909			-5.355
254304.000			58.909			-5.355
254404.000			58.908			-5.355
254504.000			58.907			-5.355
254604.000			58.907			-5.355
254705.000			58.906			-5.355
254804.000			58.905			-5.355
254904.000			58.905			-5.355
255005.000			58.905			-5.355
255104.000			58.905			-5.355
255204.000			58.905			-5.355
255303.000			58.903			-5.355
255404.000			58.904			-5.355
255505.000			58.904			-5.355
255604.000			58.903			-5.355
255704.000			58.901			-5.355
255805.000			58.901			-5.355
255904.000			58.900			-5.355
256004.000			58.900			-5.355
256105.000			58.900			-5.355
256203.000			58.899			-5.354
256304.000			58.897			-5.354
256405.000			58.899			-5.354
256504.000			58.899			-5.354
256604.000			58.898			-5.354
256705.000			58.898			-5.354
256804.000			58.896			-5.354
256904.000			58.896			-5.354
257005.000			58.895			-5.354
257104.000			58.894			-5.354
257204.000			58.894			-5.354
257304.000			58.894			-5.354
257404.000			58.893			-5.354
257503.000			58.891			-5.354
257605.000			58.891			-5.354
257704.000			58.890			-5.354
257804.000			58.889			-5.354
257905.000			58.889			-5.354
258004.000			58.889			-5.354
258104.000			58.889			-5.354
258205.000			58.889			-5.354
258304.000			58.888			-5.353
258403.000			58.888			-5.353
258505.000			58.887			-5.353
258604.000			58.886			-5.353
258705.000			58.885			-5.353
258804.000			58.885			-5.353
258904.000			58.884			-5.353
259005.000			58.884			-5.353
259104.000			58.884			-5.353
259204.000			58.883			-5.353
259305.000			58.882			-5.353
259404.000			58.882			-5.353
259503.000			58.881			-5.353
259605.000			58.881			-5.353
259704.000			58.879			-5.353
259804.000			58.879			-5.353
259905.000			58.880			-5.353
260004.000			58.879			-5.353
260104.000			58.879			-5.353
260205.000			58.879			-5.353
260304.000			58.878			-5.353
260404.000			58.876			-5.352
260505.000			58.877			-5.352
260603.000			58.877			-5.352
260704.000			58.875			-5.352
260805.000			58.874			-5.352
260904.000			58.873			-5.352
261004.000			58.873			-5.352
261105.000			58.873			-5.352
261204.000			58.872			-5.352
261304.000			58.872			-5.352
261405.000			58.872			-5.352
261503.000			58.873			-5.352
261604.000			58.872			-5.352
261703.000			58.870			-5.352
261804.000			58.869			-5.352
261905.000			58.868			-5.352
262004.000			58.868			-5.352
262104.000			58.867			-5.352
262205.000			58.867			-5.352
262304.000			58.868			-5.352
262404.000			58.867			-5.352
262505.000			58.867			-5.352
262603.000			58.863			-5.351
262704.000			58.864			-5.351
262805.000			58.864			-5.351
262904.000			58.864			-5.351
263004.000			58.864			-5.351
263105.000			58.863			-5.351
263204.000			58.862			-5.351
263304.000			58.861			-5.351
263405.000			58.860			-5.351
263503.000			58.859			-5.351
263604.000			58.861			-5.351
263705.000			58.860			-5.351
263804.000			58.859			-5.351
263904.000			58.858			-5.351
264005.000			58.858			-5.351
264104.000			58.858			-5.351
264204.000			58.858			-5.351
264305.000			58.858			-5.351
264404.000			58.857			-5.351
264504.000			58.857			-5.351
264604.000			58.857			-5.351
264704.000			58.855			-5.350
264804.000			58.853			-5.350
264904.000			58.854			-5.350
265004.000			58.854			-5.350
265105.000			58.852			-5.350
265204.000			58.852			-5.350
265304.000			58.851			-5.350
265405.000			58.851			-5.350
265503.000			58.851			-5.350
265604.000			58.850			-5.350
265704.000			58.850			-5.350
265804.000			58.848			-5.350
265904.000			58.847			-5.350
266005.000			58.846			-5.350
266104.000			58.847			-5.350
266204.000			58.847			-5.350
266305.000			58.846			-5.350
266404.000			58.846			-5.350
266504.000			58.845			-5.350
266604.000			58.845			-5.350
266704.000			58.844			-5.349
266804.000			58.845			-5.350
266905.000			58.844			-5.349
267004.000			58.843			-5.349
267104.000			58.842			-5.349
267205.000			58.841			-5.349
267304.000			58.841			-5.349
267404.000			58.840			-5.349
267504.000			58.840			-5.349
267604.000			58.840			-5.349
267703.000			58.838			-5.349
267805.000			58.838			-5.349
267904.000			58.840			-5.349
268004.000			58.839			-5.349
268105.000			58.838			-5.349
268204.000			58.837			-5.349
268305.000			58.836			-5.349
268404.000			58.835			-5.349
268504.000			58.835			-5.349
268604.000			58.834			-5.349
268704.000			58.834			-5.349
268803.000			58.834			-5.349
268905.000			58.834			-5.349
269004.000			58.833			-5.348
269104.000			58.833			-5.348
269205.000			58.832			-5.348
269304.000			58.831			-5.348
269404.000			58.831			-5.348
269504.000			58.831			-5.348
269604.000			58.830			-5.348
269703.000			58.829			-5.348
269805.000			58.829			-5.348
269904.000			58.829			-5.348
270004.000			58.829			-5.348
270105.000			58.828			-5.348
270204.000			58.827			-5.348
270304.000			58.827			-5.348
270405.000			58.826			-5.348
270504.000			58.827			-5.348
270603.000			58.824			-5.348
270705.000			58.823			-5.348
270804.000			58.823			-5.348
270904.000			58.822			-5.347
271005.000			58.823			-5.348
271104.000			58.823			-5.348
271204.000			58.821			-5.347
271304.000			58.822			-5.347
271404.000			58.822			-5.347
271504.000			58.821			-5.347
271604.000			58.820			-5.347
271704.000			58.820			-5.347
271805.000			58.819			-5.347
271904.000			58.819			-5.347
272004.000			58.818			-5.347
272105.000			58.819			-5.347
272204.000			58.818			-5.347
272304.000			58.818			-5.347
272404.000			58.817			-5.347
272504.000			58.816			-5.347
272603.000			58.815			-5.347
272705.000			58.815			-5.347
272804.000			58.813			-5.347
272904.000			58.813			-5.347
273005.000			58.812			-5.347
273104.000			58.812			-5.347
273204.000			58.811			-5.346
273304.000			58.811			-5.346
273404.000			58.810			-5.346
273503.000			58.811			-5.346
273605.000			58.810			-5.346
273704.000			58.810			-5.346
273804.000			58.809			-5.346
273905.000			58.807			-5.346
274004.000			58.807			-5.346
274104.000			58.807			-5.346
274204.000			58.807			-5.346
274304.000			58.807			-5.346
274403.000			58.806			-5.346
274505.000			58.805			-5.346
274604.000			58.805			-5.346
274705.000			58.806			-5.346
274804.000			58.804			-5.346
274904.000			58.804			-5.346
275005.000			58.803			-5.346
275104.000			58.801			-5.346
275204.000			58.802			-5.346
275304.000			58.802			-5.346
275404.000			58.802			-5.346
275504.000			58.802			-5.346
275605.000			58.801			-5.346
275704.000			58.799			-5.345
275804.000			58.798			-5.345
275905.000			58.797			-5.345
276004.000			58.798			-5.345
276104.000			58.799			-5.345
276204.000			58.798			-5.345
276304.000			58.797			-5.345
276403.000			58.796			-5.345
276505.000			58.795			-5.345
276604.000			58.794			-5.345
276704.000			58.794			-5.345
276805.000			58.793			-5.345
276904.000			58.793			-5.345
277004.000			58.793			-5.345
277105.000			58.794			-5.345
277204.000			58.792			-5.345
277303.000			58.791			-5.345
277405.000			58.791			-5.345
277503.000			58.791			-5.345
277604.000			58.791			-5.345
277705.000			58.791			-5.345
277804.000			58.790			-5.345
277905.000			58.790			-5.345
278004.000			58.788			-5.344
278104.000			58.788			-5.344
278205.000			58.787			-5.344
278304.000			58.787			-5.344
278403.000			58.787			-5.344
278505.000			58.787			-5.344
278603.000			58.786			-5.344
278704.000			58.785			-5.344
278805.000			58.785			-5.344
278904.000			58.784			-5.344
279004.000			58.783			-5.344
279105.000			58.782			-5.344
279204.000			58.782			-5.344
279304.000			58.782			-5.344
279405.000			58.781			-5.344
279503.000			58.781			-5.344
279604.000			58.781			-5.344
279704.000			58.780			-5.344
279804.000			58.779			-5.344
279904.000			58.779			-5.344
280005.000			58.778			-5.343
280104.000			58.778			-5.343
280204.000			58.778			-5.343
280305.000			58.777			-5.343
280404.000			58.777			-5.343
280504.000			58.776			-5.343
280604.000			58.776			-5.343
280704.000			58.776			-5.343
280803.000			58.776			-5.343
280905.000			58.776			-5.343
281004.000			58.775			-5.343
281105.000			58.774			-5.343
281204.000			58.774			-5.343
281304.000			58.772			-5.343
281405.000			58.771			-5.343
281503.000			58.770			-5.343
281604.000			58.770			-5.343
281704.000			58.771			-5.343
281804.000			58.770			-5.343
281904.000			58.770			-5.343
282005.000			58.768			-5.343
282104.000			58.767			-5.342
282204.000			58.768			-5.343
282305.000			58.769			-5.343
282404.000			58.768			-5.343
282504.000			58.767			-5.342
282604.000			58.766			-5.342
282704.000			58.765			-5.342
282803.000			58.764			-5.342
282905.000			58.764			-5.342
283004.000			58.763			-5.342
283104.000			58.764			-5.342
283205.000			58.763			-5.342
283304.000			58.762			-5.342
283404.000			58.762			-5.342
283504.000			58.762			-5.342
283604.000			58.760			-5.342
283703.000			58.761			-5.342
283805.000			58.761			-5.342
283904.000			58.761			-5.342
284004.000			58.760			-5.342
284105.000			58.760			-5.342
284204.000			58.759			-5.342
284305.000			58.758			-5.342
284404.000			58.757			-5.342
284504.000			58.756			-5.341
284604.000			58.755			-5.341
284704.000			58.755			-5.341
284803.000			58.756			-5.341
284905.000			58.756			-5.341
285004.000			58.754			-5.341
285104.000			58.754			-5.341
285205.000			58.754			-5.341
285304.000			58.753			-5.341
285404.000			58.753			-5.341
285504.000			58.753			-5.341
285604.000			58.752			-5.341
285703.000			58.751			-5.341
285805.000			58.749			-5.341
285904.000			58.750			-5.341
286004.000			58.750			-5.341
286105.000			58.750			-5.341
286204.000			58.750			-5.341
286304.000			58.749			-5.341
286405.000			58.749			-5.341
286504.000			58.747			-5.341
286603.000			58.747			-5.341
286705.000			58.746			-5.341
286803.000			58.747			-5.341
286904.000			58.747			-5.341
287005.000			58.747			-5.341
287104.000			58.746			-5.341
287204.000			58.745			-5.340
287304.000			58.744			-5.340
287404.000			58.743			-5.340
287505.000			58.744			-5.340
287604.000			58.743			-5.340
287703.000			58.742			-5.340
287805.000			58.742			-5.340
287903.000			58.742			-5.340
288004.000			58.741			-5.340
288105.000			58.740			-5.340
288204.000			58.740			-5.340
288304.000			58.739			-5.340
288405.000			58.739			-5.340
288504.000			58.738			-5.340
288604.000			58.738			-5.340
288705.000			58.737			-5.340
288803.000			58.736			-5.340
288904.000			58.736			-5.340
289005.000			58.735			-5.340
289104.000			58.735			-5.340
289204.000			58.735			-5.340
289305.000			58.735			-5.340
289404.000			58.732			-5.339
289504.000			58.733			-5.339
289605.000			58.732			-5.339
289704.000			58.732			-5.339
289804.000			58.732			-5.339
289904.000			58.732			-5.339
290004.000			58.733			-5.339
290104.000			58.732			-5.339
290205.000			58.730			-5.339
290304.000			58.729			-5.339
290404.000			58.728			-5.339
290505.000			58.728			-5.339
290604.000			58.727			-5.339
290705.000			58.726			-5.339
290803.000			58.727			-5.339
290904.000			58.727			-5.339
291005.000			58.728			-5.339
291104.000			58.727			-5.339
291204.000			58.726			-5.339
291305.000			58.725			-5.339
291404.000			58.725			-5.339
291504.000			58.724			-5.339
291605.000			58.724			-5.339
291703.000			58.724			-5.339
291804.000			58.723			-5.338
291904.000			58.723			-5.338
292004.000			58.722			-5.338
292104.000			58.721			-5.338
292205.000			58.721			-5.338
292304.000			58.720			-5.338
292404.000			58.719			-5.338
292505.000			58.719			-5.338
292603.000			58.718			-5.338
292704.000			58.718			-5.338
292804.000			58.717			-5.338
292904.000			58.716			-5.338
293004.000			58.716			-5.338
293105.000			58.716			-5.338
293204.000			58.715			-5.338
293304.000			58.715			-5.338
293405.000			58.715			-5.338
293504.000			58.714			-5.338
293604.000			58.714			-5.338
293703.000			58.713			-5.338
293804.000			58.712			-5.337
293905.000			58.712			-5.337
294004.000			58.712			-5.337
294104.000			58.711			-5.337
294205.000			58.710			-5.337
294304.000			58.711			-5.337
294404.000			58.711			-5.337
294505.000			58.709			-5.337
294603.000			58.708			-5.337
294704.000			58.707			-5.337
294805.000			58.707			-5.337
294904.000			58.707			-5.337
295004.000			58.707			-5.337
295105.000			58.707			-5.337
295204.000			58.706			-5.337
295304.000			58.706			-5.337
295405.000			58.706			-5.337
295503.000			58.705			-5.337
295604.000			58.704			-5.337
295704.000			58.704			-5.337
295804.000			58.703			-5.337
295904.000			58.703			-5.337
296005.000			58.703			-5.337
296104.000			58.701			-5.336
296204.000			58.701			-5.336
296305.000			58.702			-5.337
296404.000			58.702			-5.337
296504.000			58.701			-5.336
296604.000			58.701			-5.336
296704.000			58.701			-5.336
296804.000			58.700			-5.336
296904.000			58.699			-5.336
297004.000			58.698			-5.336
297105.000			58.699			-5.336
297204.000			58.699			-5.336
297304.000			58.698			-5.336
297405.000			58.696			-5.336
297503.000			58.696			-5.336
297604.000			58.696			-5.336
297704.000			58.696			-5.336
297804.000			58.695			-5.336
297904.000			58.694			-5.336
298005.000			58.694			-5.336
298104.000			58.693			-5.336
298204.000			58.693			-5.336
298305.000			58.693			-5.336
298404.000			58.693			-5.336
298504.000			58.692			-5.336
298604.000			58.692			-5.336
298704.000			58.691			-5.336
298803.000			58.691			-5.336
298905.000			58.691			-5.336
299004.000			58.690			-5.335
299104.000			58.690			-5.335
299205.000			58.689			-5.335
299304.000			58.688			-5.335
299404.000			58.688			-5.335
299505.000			58.687			-5.335
299604.000			58.687			-5.335
299703.000			58.685			-5.335
299805.000			58.685			-5.335
299903.000			58.686			-5.335
