# Acquired on 09/01/2024 15:15:52 
# SPIDER: Creep_-8mm_07714532C-1
# CREEP MEASUREMENT

# time [ms]		force [N]		stiffness [N/mm]
1.000			13.368			-1.671
101.000			14.356			-1.794
201.000			14.927			-1.866
300.000			14.854			-1.857
400.000			14.785			-1.848
501.000			14.732			-1.842
600.000			14.688			-1.836
700.000			14.650			-1.831
802.000			14.617			-1.827
900.000			14.559			-1.820
1000.000			14.535			-1.817
1100.000			14.514			-1.814
1200.000			14.493			-1.812
1301.000			14.473			-1.809
1400.000			14.455			-1.807
1501.000			14.436			-1.805
1602.000			14.406			-1.801
1700.000			14.391			-1.799
1800.000			14.377			-1.797
1901.000			14.364			-1.795
2000.000			14.352			-1.794
2100.000			14.340			-1.792
2201.000			14.328			-1.791
2301.000			14.317			-1.790
2401.000			14.295			-1.787
2501.000			14.284			-1.786
2600.000			14.275			-1.784
2700.000			14.266			-1.783
2801.000			14.258			-1.782
2900.000			14.248			-1.781
3001.000			14.240			-1.780
3102.000			14.224			-1.778
3200.000			14.215			-1.777
3300.000			14.208			-1.776
3401.000			14.200			-1.775
3500.000			14.193			-1.774
3600.000			14.187			-1.773
3701.000			14.179			-1.772
3801.000			14.166			-1.771
3901.000			14.160			-1.770
4001.000			14.154			-1.769
4100.000			14.148			-1.768
4200.000			14.141			-1.768
4300.000			14.136			-1.767
4400.000			14.129			-1.766
4502.000			14.116			-1.765
4601.000			14.111			-1.764
4700.000			14.107			-1.763
4801.000			14.102			-1.763
4900.000			14.096			-1.762
5000.000			14.090			-1.761
5101.000			14.086			-1.761
5201.000			14.078			-1.760
5301.000			14.072			-1.759
5401.000			14.066			-1.758
5500.000			14.062			-1.758
5600.000			14.058			-1.757
5701.000			14.053			-1.757
5800.000			14.049			-1.756
5900.000			14.044			-1.756
6002.000			14.036			-1.755
6101.000			14.032			-1.754
6200.000			14.027			-1.753
6301.000			14.023			-1.753
6400.000			14.018			-1.752
6500.000			14.014			-1.752
6601.000			14.011			-1.751
6701.000			14.004			-1.750
6801.000			14.001			-1.750
6901.000			13.996			-1.749
7000.000			13.991			-1.749
7100.000			13.989			-1.749
7201.000			13.985			-1.748
7300.000			13.981			-1.748
7400.000			13.975			-1.747
7502.000			13.972			-1.747
7601.000			13.969			-1.746
7701.000			13.965			-1.746
7800.000			13.962			-1.745
7900.000			13.958			-1.745
8001.000			13.954			-1.744
8100.000			13.948			-1.743
8200.000			13.945			-1.743
8302.000			13.943			-1.743
8401.000			13.940			-1.742
8500.000			13.936			-1.742
8601.000			13.934			-1.742
8700.000			13.931			-1.741
8800.000			13.928			-1.741
8901.000			13.921			-1.740
9000.000			13.919			-1.740
9101.000			13.917			-1.740
9202.000			13.913			-1.739
9300.000			13.911			-1.739
9400.000			13.908			-1.739
9501.000			13.906			-1.738
9600.000			13.899			-1.737
9700.000			13.897			-1.737
9802.000			13.895			-1.737
9901.000			13.891			-1.736
10001.000			13.888			-1.736
10101.000			13.886			-1.736
10200.000			13.884			-1.736
10300.000			13.879			-1.735
10401.000			13.875			-1.734
10500.000			13.874			-1.734
10602.000			13.871			-1.734
10701.000			13.869			-1.734
10801.000			13.867			-1.733
10901.000			13.864			-1.733
11000.000			13.859			-1.732
11100.000			13.857			-1.732
11201.000			13.854			-1.732
11300.000			13.852			-1.731
11401.000			13.850			-1.731
11502.000			13.848			-1.731
11601.000			13.846			-1.731
11700.000			13.844			-1.730
11801.000			13.839			-1.730
11900.000			13.838			-1.730
12000.000			13.835			-1.729
12101.000			13.832			-1.729
12201.000			13.830			-1.729
12301.000			13.828			-1.729
12401.000			13.826			-1.728
12500.000			13.822			-1.728
12600.000			13.819			-1.727
12701.000			13.818			-1.727
12800.000			13.815			-1.727
12900.000			13.813			-1.727
13002.000			13.812			-1.727
13101.000			13.810			-1.726
13200.000			13.806			-1.726
13301.000			13.804			-1.725
13400.000			13.803			-1.725
13500.000			13.801			-1.725
13601.000			13.798			-1.725
13700.000			13.796			-1.725
13802.000			13.795			-1.724
13901.000			13.792			-1.724
14000.000			13.789			-1.724
14101.000			13.787			-1.723
14200.000			13.786			-1.723
14300.000			13.784			-1.723
14401.000			13.782			-1.723
14500.000			13.779			-1.722
14601.000			13.777			-1.722
14702.000			13.774			-1.722
14801.000			13.773			-1.722
14900.000			13.772			-1.721
15001.000			13.770			-1.721
15100.000			13.768			-1.721
15200.000			13.766			-1.721
15301.000			13.764			-1.721
15401.000			13.759			-1.720
15501.000			13.758			-1.720
15602.000			13.757			-1.720
15700.000			13.755			-1.719
15800.000			13.755			-1.719
15901.000			13.753			-1.719
16000.000			13.751			-1.719
16100.000			13.748			-1.718
16201.000			13.746			-1.718
16301.000			13.744			-1.718
16401.000			13.743			-1.718
16501.000			13.742			-1.718
16600.000			13.739			-1.717
16700.000			13.738			-1.717
16801.000			13.736			-1.717
16900.000			13.735			-1.717
17000.000			13.732			-1.717
17102.000			13.731			-1.716
17201.000			13.729			-1.716
17301.000			13.727			-1.716
17400.000			13.725			-1.716
17500.000			13.725			-1.716
17601.000			13.722			-1.715
17700.000			13.720			-1.715
17800.000			13.718			-1.715
17902.000			13.718			-1.715
18001.000			13.717			-1.715
18100.000			13.715			-1.714
18201.000			13.714			-1.714
18300.000			13.710			-1.714
18400.000			13.709			-1.714
18501.000			13.708			-1.714
18600.000			13.706			-1.713
18701.000			13.704			-1.713
18802.000			13.704			-1.713
18900.000			13.703			-1.713
19000.000			13.699			-1.712
19101.000			13.696			-1.712
19200.000			13.695			-1.712
19300.000			13.695			-1.712
19401.000			13.694			-1.712
19501.000			13.693			-1.712
19601.000			13.691			-1.711
19701.000			13.688			-1.711
19800.000			13.686			-1.711
19900.000			13.685			-1.711
20001.000			13.684			-1.711
20100.000			13.683			-1.710
20200.000			13.681			-1.710
20302.000			13.681			-1.710
20401.000			13.678			-1.710
20501.000			13.677			-1.710
20600.000			13.675			-1.709
20700.000			13.674			-1.709
20801.000			13.673			-1.709
20900.000			13.672			-1.709
21000.000			13.670			-1.709
21102.000			13.669			-1.709
21201.000			13.666			-1.708
21300.000			13.665			-1.708
21401.000			13.663			-1.708
21500.000			13.662			-1.708
21600.000			13.661			-1.708
21701.000			13.660			-1.708
21800.000			13.659			-1.707
21901.000			13.656			-1.707
22002.000			13.655			-1.707
22100.000			13.654			-1.707
22200.000			13.654			-1.707
22301.000			13.652			-1.707
22400.000			13.651			-1.706
22500.000			13.650			-1.706
22601.000			13.647			-1.706
22701.000			13.647			-1.706
22801.000			13.645			-1.706
22901.000			13.644			-1.706
23000.000			13.644			-1.705
23100.000			13.643			-1.705
23201.000			13.641			-1.705
23300.000			13.640			-1.705
23400.000			13.636			-1.705
23502.000			13.636			-1.704
23601.000			13.635			-1.704
23701.000			13.632			-1.704
23800.000			13.631			-1.704
23900.000			13.631			-1.704
24001.000			13.630			-1.704
24100.000			13.628			-1.704
24200.000			13.627			-1.703
24302.000			13.626			-1.703
24401.000			13.624			-1.703
24500.000			13.622			-1.703
24601.000			13.622			-1.703
24700.000			13.622			-1.703
24800.000			13.619			-1.702
24901.000			13.619			-1.702
25000.000			13.618			-1.702
25101.000			13.617			-1.702
25202.000			13.615			-1.702
25300.000			13.614			-1.702
25400.000			13.613			-1.702
25501.000			13.611			-1.701
25600.000			13.611			-1.701
25700.000			13.609			-1.701
25802.000			13.607			-1.701
25901.000			13.607			-1.701
26000.000			13.606			-1.701
26101.000			13.605			-1.701
26200.000			13.602			-1.700
26300.000			13.602			-1.700
26401.000			13.600			-1.700
26500.000			13.600			-1.700
26602.000			13.600			-1.700
26701.000			13.598			-1.700
26801.000			13.597			-1.700
26901.000			13.596			-1.700
27000.000			13.594			-1.699
27100.000			13.593			-1.699
27201.000			13.592			-1.699
27300.000			13.592			-1.699
27400.000			13.590			-1.699
27502.000			13.588			-1.699
27601.000			13.587			-1.698
27700.000			13.587			-1.698
27801.000			13.586			-1.698
27900.000			13.584			-1.698
28000.000			13.583			-1.698
28101.000			13.582			-1.698
28200.000			13.581			-1.698
28301.000			13.580			-1.697
28402.000			13.580			-1.697
28500.000			13.579			-1.697
28600.000			13.577			-1.697
28701.000			13.575			-1.697
28800.000			13.575			-1.697
28900.000			13.574			-1.697
29001.000			13.573			-1.697
29101.000			13.572			-1.697
29201.000			13.571			-1.696
29301.000			13.569			-1.696
29400.000			13.569			-1.696
29500.000			13.568			-1.696
29601.000			13.566			-1.696
29700.000			13.566			-1.696
29800.000			13.565			-1.696
29902.000			13.564			-1.695
30001.000			13.563			-1.695
30101.000			13.561			-1.695
30200.000			13.561			-1.695
30300.000			13.561			-1.695
30401.000			13.560			-1.695
30500.000			13.559			-1.695
30600.000			13.556			-1.695
30702.000			13.555			-1.694
30801.000			13.555			-1.694
30900.000			13.554			-1.694
31001.000			13.553			-1.694
31100.000			13.552			-1.694
31200.000			13.551			-1.694
31301.000			13.549			-1.694
31400.000			13.549			-1.694
31501.000			13.548			-1.694
31602.000			13.547			-1.693
31700.000			13.546			-1.693
31800.000			13.545			-1.693
31901.000			13.544			-1.693
32000.000			13.544			-1.693
32100.000			13.542			-1.693
32202.000			13.542			-1.693
32301.000			13.541			-1.693
32400.000			13.540			-1.693
32501.000			13.538			-1.692
32600.000			13.537			-1.692
32700.000			13.537			-1.692
32801.000			13.536			-1.692
32900.000			13.535			-1.692
33002.000			13.534			-1.692
33101.000			13.534			-1.692
33200.000			13.534			-1.692
33301.000			13.533			-1.692
33400.000			13.532			-1.691
33500.000			13.530			-1.691
33601.000			13.529			-1.691
33700.000			13.528			-1.691
33801.000			13.527			-1.691
33902.000			13.526			-1.691
34000.000			13.526			-1.691
34100.000			13.526			-1.691
34201.000			13.524			-1.691
34300.000			13.523			-1.690
34400.000			13.522			-1.690
34501.000			13.520			-1.690
34601.000			13.520			-1.690
34701.000			13.519			-1.690
34801.000			13.519			-1.690
34900.000			13.517			-1.690
35000.000			13.517			-1.690
35101.000			13.517			-1.690
35200.000			13.515			-1.689
35301.000			13.514			-1.689
35402.000			13.513			-1.689
35500.000			13.513			-1.689
35600.000			13.512			-1.689
35701.000			13.511			-1.689
35800.000			13.510			-1.689
35900.000			13.509			-1.689
36001.000			13.509			-1.689
36101.000			13.509			-1.689
36202.000			13.507			-1.688
36301.000			13.507			-1.688
36400.000			13.505			-1.688
36501.000			13.504			-1.688
36600.000			13.504			-1.688
36700.000			13.503			-1.688
36801.000			13.503			-1.688
36901.000			13.502			-1.688
37001.000			13.500			-1.688
37101.000			13.499			-1.687
37200.000			13.498			-1.687
37300.000			13.497			-1.687
37401.000			13.497			-1.687
37500.000			13.497			-1.687
37600.000			13.496			-1.687
37702.000			13.495			-1.687
37801.000			13.493			-1.687
37900.000			13.492			-1.686
38001.000			13.491			-1.686
38100.000			13.491			-1.686
38200.000			13.491			-1.686
38301.000			13.490			-1.686
38400.000			13.489			-1.686
38501.000			13.489			-1.686
38602.000			13.487			-1.686
38701.000			13.486			-1.686
38800.000			13.486			-1.686
38901.000			13.484			-1.686
39000.000			13.484			-1.685
39100.000			13.483			-1.685
39201.000			13.483			-1.685
39301.000			13.483			-1.685
39402.000			13.482			-1.685
39501.000			13.481			-1.685
39600.000			13.480			-1.685
39701.000			13.479			-1.685
39800.000			13.479			-1.685
39900.000			13.478			-1.685
40001.000			13.477			-1.685
40100.000			13.476			-1.685
40201.000			13.475			-1.684
40302.000			13.474			-1.684
40400.000			13.473			-1.684
40500.000			13.473			-1.684
40601.000			13.472			-1.684
40700.000			13.470			-1.684
40800.000			13.470			-1.684
40902.000			13.470			-1.684
41001.000			13.468			-1.683
41101.000			13.467			-1.683
41201.000			13.468			-1.683
41300.000			13.467			-1.683
41400.000			13.467			-1.683
41501.000			13.466			-1.683
41600.000			13.464			-1.683
41700.000			13.464			-1.683
41802.000			13.464			-1.683
41901.000			13.463			-1.683
42000.000			13.462			-1.683
42101.000			13.461			-1.683
42200.000			13.462			-1.683
42300.000			13.460			-1.683
42401.000			13.460			-1.682
42501.000			13.459			-1.682
42602.000			13.458			-1.682
42701.000			13.457			-1.682
42800.000			13.457			-1.682
42901.000			13.455			-1.682
43000.000			13.454			-1.682
43100.000			13.454			-1.682
43201.000			13.453			-1.682
43301.000			13.453			-1.682
43401.000			13.453			-1.682
43501.000			13.452			-1.682
43600.000			13.450			-1.681
43700.000			13.450			-1.681
43801.000			13.449			-1.681
43900.000			13.449			-1.681
44000.000			13.449			-1.681
44102.000			13.448			-1.681
44201.000			13.447			-1.681
44300.000			13.446			-1.681
44401.000			13.445			-1.681
44500.000			13.445			-1.681
44600.000			13.444			-1.681
44701.000			13.444			-1.681
44800.000			13.444			-1.680
44901.000			13.444			-1.680
45002.000			13.442			-1.680
45100.000			13.441			-1.680
45200.000			13.440			-1.680
45301.000			13.439			-1.680
45400.000			13.438			-1.680
45500.000			13.437			-1.680
45601.000			13.437			-1.680
45701.000			13.438			-1.680
45802.000			13.436			-1.679
45901.000			13.436			-1.679
46000.000			13.435			-1.679
46101.000			13.435			-1.679
46200.000			13.434			-1.679
46300.000			13.432			-1.679
46401.000			13.431			-1.679
46501.000			13.431			-1.679
46601.000			13.430			-1.679
46701.000			13.429			-1.679
46800.000			13.429			-1.679
46900.000			13.429			-1.679
47001.000			13.428			-1.679
47100.000			13.427			-1.678
47200.000			13.427			-1.678
47302.000			13.426			-1.678
47401.000			13.425			-1.678
47500.000			13.424			-1.678
47601.000			13.424			-1.678
47700.000			13.423			-1.678
47800.000			13.423			-1.678
47901.000			13.423			-1.678
48000.000			13.422			-1.678
48101.000			13.421			-1.678
48202.000			13.421			-1.678
48300.000			13.421			-1.678
48400.000			13.420			-1.677
48501.000			13.418			-1.677
48600.000			13.418			-1.677
48700.000			13.417			-1.677
48801.000			13.417			-1.677
48901.000			13.416			-1.677
49002.000			13.416			-1.677
49100.000			13.416			-1.677
49200.000			13.415			-1.677
49301.000			13.414			-1.677
49400.000			13.413			-1.677
49500.000			13.413			-1.677
49601.000			13.412			-1.676
49701.000			13.412			-1.676
49801.000			13.411			-1.676
49901.000			13.410			-1.676
50000.000			13.411			-1.676
50100.000			13.410			-1.676
50201.000			13.409			-1.676
50300.000			13.407			-1.676
50400.000			13.407			-1.676
50502.000			13.407			-1.676
50601.000			13.406			-1.676
50700.000			13.405			-1.676
50801.000			13.405			-1.676
50900.000			13.405			-1.676
51000.000			13.404			-1.676
51101.000			13.403			-1.675
51200.000			13.403			-1.675
51301.000			13.402			-1.675
51401.000			13.402			-1.675
51500.000			13.402			-1.675
51600.000			13.400			-1.675
51701.000			13.400			-1.675
51800.000			13.399			-1.675
51900.000			13.398			-1.675
52002.000			13.398			-1.675
52101.000			13.397			-1.675
52200.000			13.396			-1.674
52300.000			13.396			-1.675
52400.000			13.396			-1.674
52501.000			13.395			-1.674
52600.000			13.394			-1.674
52700.000			13.394			-1.674
52802.000			13.393			-1.674
52901.000			13.392			-1.674
53000.000			13.392			-1.674
53101.000			13.391			-1.674
53200.000			13.391			-1.674
53300.000			13.389			-1.674
53401.000			13.389			-1.674
53500.000			13.389			-1.674
53601.000			13.389			-1.674
53702.000			13.388			-1.674
53800.000			13.387			-1.673
53900.000			13.387			-1.673
54001.000			13.386			-1.673
54100.000			13.386			-1.673
54200.000			13.385			-1.673
54301.000			13.385			-1.673
54401.000			13.385			-1.673
54501.000			13.383			-1.673
54601.000			13.382			-1.673
54700.000			13.382			-1.673
54800.000			13.382			-1.673
54901.000			13.381			-1.673
55000.000			13.380			-1.673
55100.000			13.380			-1.672
55202.000			13.380			-1.672
55301.000			13.380			-1.672
55400.000			13.379			-1.672
55500.000			13.378			-1.672
55600.000			13.377			-1.672
55701.000			13.377			-1.672
55800.000			13.377			-1.672
55900.000			13.376			-1.672
56002.000			13.375			-1.672
56101.000			13.374			-1.672
56200.000			13.374			-1.672
56301.000			13.372			-1.672
56400.000			13.372			-1.671
56500.000			13.373			-1.672
56601.000			13.372			-1.672
56700.000			13.371			-1.671
56801.000			13.371			-1.671
56902.000			13.372			-1.671
57000.000			13.371			-1.671
57100.000			13.369			-1.671
57201.000			13.368			-1.671
57300.000			13.368			-1.671
57400.000			13.367			-1.671
57501.000			13.368			-1.671
57601.000			13.366			-1.671
57701.000			13.366			-1.671
57801.000			13.366			-1.671
57900.000			13.364			-1.671
58000.000			13.364			-1.671
58101.000			13.363			-1.670
58200.000			13.363			-1.670
58300.000			13.363			-1.670
58402.000			13.362			-1.670
58501.000			13.362			-1.670
58600.000			13.361			-1.670
58700.000			13.361			-1.670
58800.000			13.360			-1.670
58901.000			13.360			-1.670
59000.000			13.360			-1.670
59100.000			13.359			-1.670
59201.000			13.358			-1.670
59301.000			13.358			-1.670
59401.000			13.357			-1.670
59501.000			13.357			-1.670
59600.000			13.355			-1.669
59700.000			13.356			-1.669
59801.000			13.355			-1.669
59900.000			13.354			-1.669
60000.000			13.354			-1.669
60102.000			13.354			-1.669
60201.000			13.354			-1.669
60300.000			13.351			-1.669
60401.000			13.352			-1.669
60500.000			13.352			-1.669
60600.000			13.351			-1.669
60701.000			13.349			-1.669
60800.000			13.350			-1.669
60901.000			13.350			-1.669
61002.000			13.349			-1.669
61100.000			13.349			-1.669
61200.000			13.349			-1.669
61301.000			13.348			-1.669
61400.000			13.347			-1.668
61500.000			13.346			-1.668
61602.000			13.346			-1.668
61701.000			13.345			-1.668
61802.000			13.344			-1.668
61900.000			13.345			-1.668
62000.000			13.344			-1.668
62101.000			13.342			-1.668
62200.000			13.343			-1.668
62300.000			13.343			-1.668
62402.000			13.342			-1.668
62501.000			13.342			-1.668
62600.000			13.341			-1.668
62701.000			13.341			-1.668
62800.000			13.341			-1.668
62900.000			13.339			-1.667
63001.000			13.338			-1.667
63100.000			13.338			-1.667
63201.000			13.338			-1.667
63302.000			13.337			-1.667
63401.000			13.337			-1.667
63500.000			13.337			-1.667
63601.000			13.336			-1.667
63700.000			13.336			-1.667
63800.000			13.336			-1.667
63901.000			13.335			-1.667
64001.000			13.335			-1.667
64101.000			13.335			-1.667
64201.000			13.334			-1.667
64300.000			13.334			-1.667
64400.000			13.333			-1.667
64501.000			13.331			-1.666
64600.000			13.331			-1.666
64700.000			13.331			-1.666
64802.000			13.330			-1.666
64901.000			13.330			-1.666
65000.000			13.329			-1.666
65100.000			13.330			-1.666
65200.000			13.330			-1.666
65301.000			13.330			-1.666
65400.000			13.327			-1.666
65500.000			13.327			-1.666
65602.000			13.327			-1.666
65701.000			13.327			-1.666
65800.000			13.326			-1.666
65901.000			13.326			-1.666
66000.000			13.324			-1.666
66100.000			13.324			-1.665
66201.000			13.325			-1.666
66300.000			13.325			-1.666
66401.000			13.324			-1.665
66502.000			13.323			-1.665
66600.000			13.323			-1.665
66700.000			13.322			-1.665
66801.000			13.321			-1.665
66900.000			13.320			-1.665
67000.000			13.321			-1.665
67101.000			13.319			-1.665
67201.000			13.317			-1.665
67301.000			13.317			-1.665
67401.000			13.318			-1.665
67500.000			13.318			-1.665
67600.000			13.317			-1.665
67701.000			13.316			-1.665
67800.000			13.317			-1.665
67900.000			13.317			-1.665
68002.000			13.316			-1.664
68101.000			13.315			-1.664
68200.000			13.314			-1.664
68300.000			13.315			-1.664
68400.000			13.313			-1.664
68501.000			13.313			-1.664
68600.000			13.313			-1.664
68700.000			13.312			-1.664
68802.000			13.313			-1.664
68901.000			13.313			-1.664
69000.000			13.311			-1.664
69101.000			13.310			-1.664
69200.000			13.310			-1.664
69300.000			13.310			-1.664
69401.000			13.309			-1.664
69500.000			13.308			-1.663
69601.000			13.308			-1.663
69702.000			13.308			-1.663
69800.000			13.307			-1.663
69900.000			13.306			-1.663
70001.000			13.307			-1.663
70100.000			13.307			-1.663
70200.000			13.306			-1.663
70301.000			13.306			-1.663
70401.000			13.304			-1.663
70501.000			13.304			-1.663
70601.000			13.304			-1.663
70700.000			13.303			-1.663
70800.000			13.303			-1.663
70901.000			13.303			-1.663
71000.000			13.303			-1.663
71101.000			13.302			-1.663
71202.000			13.302			-1.663
71300.000			13.300			-1.663
71400.000			13.300			-1.663
71500.000			13.301			-1.663
71600.000			13.300			-1.663
71701.000			13.299			-1.662
71800.000			13.298			-1.662
71901.000			13.299			-1.662
72002.000			13.298			-1.662
72100.000			13.297			-1.662
72200.000			13.297			-1.662
72301.000			13.297			-1.662
72400.000			13.296			-1.662
72500.000			13.297			-1.662
72601.000			13.296			-1.662
72701.000			13.295			-1.662
72801.000			13.294			-1.662
72902.000			13.294			-1.662
73000.000			13.293			-1.662
73100.000			13.292			-1.662
73201.000			13.293			-1.662
73300.000			13.293			-1.662
73400.000			13.292			-1.662
73501.000			13.292			-1.662
73601.000			13.292			-1.661
73701.000			13.291			-1.661
73801.000			13.291			-1.661
73900.000			13.290			-1.661
74000.000			13.289			-1.661
74101.000			13.289			-1.661
74200.000			13.288			-1.661
74300.000			13.289			-1.661
74402.000			13.288			-1.661
74501.000			13.287			-1.661
74600.000			13.287			-1.661
74700.000			13.288			-1.661
74800.000			13.286			-1.661
74901.000			13.286			-1.661
75000.000			13.287			-1.661
75100.000			13.287			-1.661
75202.000			13.286			-1.661
75301.000			13.286			-1.661
75400.000			13.285			-1.661
75501.000			13.283			-1.660
75600.000			13.283			-1.660
75700.000			13.284			-1.661
75801.000			13.282			-1.660
75900.000			13.281			-1.660
76000.000			13.281			-1.660
76102.000			13.280			-1.660
76201.000			13.281			-1.660
76300.000			13.281			-1.660
76401.000			13.281			-1.660
76500.000			13.281			-1.660
76600.000			13.280			-1.660
76701.000			13.279			-1.660
76800.000			13.279			-1.660
76901.000			13.279			-1.660
77002.000			13.277			-1.660
77100.000			13.276			-1.660
77200.000			13.276			-1.659
77301.000			13.277			-1.660
77400.000			13.277			-1.660
77500.000			13.277			-1.660
77601.000			13.276			-1.660
77701.000			13.275			-1.659
77802.000			13.276			-1.659
77900.000			13.275			-1.659
78000.000			13.274			-1.659
78101.000			13.274			-1.659
78200.000			13.273			-1.659
78300.000			13.273			-1.659
78401.000			13.273			-1.659
78501.000			13.273			-1.659
78601.000			13.272			-1.659
78701.000			13.272			-1.659
78800.000			13.272			-1.659
78900.000			13.271			-1.659
79001.000			13.270			-1.659
79100.000			13.268			-1.659
79200.000			13.269			-1.659
79301.000			13.269			-1.659
79401.000			13.268			-1.659
79501.000			13.268			-1.658
79601.000			13.268			-1.658
79700.000			13.267			-1.658
79800.000			13.267			-1.658
79901.000			13.266			-1.658
80000.000			13.266			-1.658
80100.000			13.266			-1.658
80202.000			13.266			-1.658
80301.000			13.265			-1.658
80400.000			13.264			-1.658
80501.000			13.265			-1.658
80600.000			13.263			-1.658
80700.000			13.263			-1.658
80801.000			13.263			-1.658
80900.000			13.262			-1.658
81002.000			13.262			-1.658
81101.000			13.260			-1.658
81200.000			13.260			-1.658
81301.000			13.259			-1.657
81400.000			13.260			-1.658
81500.000			13.260			-1.658
81601.000			13.260			-1.657
81700.000			13.258			-1.657
81801.000			13.258			-1.657
81902.000			13.259			-1.657
82000.000			13.258			-1.657
82100.000			13.256			-1.657
82201.000			13.256			-1.657
82300.000			13.257			-1.657
82400.000			13.256			-1.657
82501.000			13.256			-1.657
82601.000			13.255			-1.657
82701.000			13.254			-1.657
82801.000			13.255			-1.657
82900.000			13.255			-1.657
83000.000			13.253			-1.657
83101.000			13.253			-1.657
83200.000			13.253			-1.657
83300.000			13.253			-1.657
83402.000			13.253			-1.657
83501.000			13.253			-1.657
83600.000			13.252			-1.657
83701.000			13.252			-1.656
83800.000			13.252			-1.656
83900.000			13.251			-1.656
84001.000			13.250			-1.656
84100.000			13.250			-1.656
84202.000			13.250			-1.656
84301.000			13.249			-1.656
84400.000			13.249			-1.656
84501.000			13.248			-1.656
84600.000			13.247			-1.656
84700.000			13.248			-1.656
84801.000			13.249			-1.656
84900.000			13.247			-1.656
85001.000			13.247			-1.656
85102.000			13.248			-1.656
85200.000			13.247			-1.656
85300.000			13.246			-1.656
85401.000			13.246			-1.656
85500.000			13.246			-1.656
85600.000			13.246			-1.656
85701.000			13.245			-1.656
85801.000			13.245			-1.656
85901.000			13.244			-1.656
86001.000			13.243			-1.655
86100.000			13.242			-1.655
86200.000			13.242			-1.655
86301.000			13.242			-1.655
86400.000			13.241			-1.655
86500.000			13.242			-1.655
86602.000			13.242			-1.655
86701.000			13.241			-1.655
86801.000			13.240			-1.655
86901.000			13.241			-1.655
87000.000			13.241			-1.655
87100.000			13.239			-1.655
87201.000			13.238			-1.655
87300.000			13.238			-1.655
87400.000			13.238			-1.655
87502.000			13.238			-1.655
87601.000			13.237			-1.655
87701.000			13.237			-1.655
87800.000			13.236			-1.655
87900.000			13.236			-1.654
88001.000			13.236			-1.654
88100.000			13.236			-1.654
88200.000			13.234			-1.654
88302.000			13.235			-1.654
88401.000			13.235			-1.654
88500.000			13.234			-1.654
88601.000			13.234			-1.654
88700.000			13.232			-1.654
88800.000			13.233			-1.654
88901.000			13.233			-1.654
89000.000			13.232			-1.654
89101.000			13.231			-1.654
89202.000			13.231			-1.654
89300.000			13.232			-1.654
89400.000			13.233			-1.654
89501.000			13.232			-1.654
89600.000			13.230			-1.654
89700.000			13.230			-1.654
89801.000			13.231			-1.654
89901.000			13.230			-1.654
90001.000			13.229			-1.654
90101.000			13.228			-1.654
90200.000			13.228			-1.654
90300.000			13.228			-1.653
90401.000			13.227			-1.653
90500.000			13.227			-1.653
90600.000			13.227			-1.653
90702.000			13.227			-1.653
90801.000			13.226			-1.653
90901.000			13.226			-1.653
91000.000			13.225			-1.653
91100.000			13.226			-1.653
91201.000			13.225			-1.653
91300.000			13.224			-1.653
91400.000			13.225			-1.653
91502.000			13.223			-1.653
91601.000			13.223			-1.653
91700.000			13.222			-1.653
91801.000			13.221			-1.653
91900.000			13.221			-1.653
92000.000			13.221			-1.653
92101.000			13.221			-1.653
92200.000			13.221			-1.653
92301.000			13.221			-1.653
92402.000			13.221			-1.653
92500.000			13.221			-1.653
92600.000			13.221			-1.653
92701.000			13.220			-1.653
92800.000			13.220			-1.653
92900.000			13.219			-1.652
93001.000			13.219			-1.652
93101.000			13.219			-1.652
93201.000			13.218			-1.652
93301.000			13.217			-1.652
93400.000			13.217			-1.652
93500.000			13.217			-1.652
93601.000			13.216			-1.652
93700.000			13.216			-1.652
93800.000			13.216			-1.652
93902.000			13.215			-1.652
94001.000			13.216			-1.652
94101.000			13.215			-1.652
94200.000			13.214			-1.652
94300.000			13.215			-1.652
94401.000			13.215			-1.652
94500.000			13.214			-1.652
94600.000			13.214			-1.652
94702.000			13.214			-1.652
94801.000			13.213			-1.652
94900.000			13.213			-1.652
95001.000			13.212			-1.651
95100.000			13.212			-1.651
95200.000			13.211			-1.651
95301.000			13.210			-1.651
95400.000			13.210			-1.651
95501.000			13.210			-1.651
95602.000			13.210			-1.651
95700.000			13.210			-1.651
95800.000			13.209			-1.651
95901.000			13.209			-1.651
96000.000			13.209			-1.651
96100.000			13.208			-1.651
96201.000			13.209			-1.651
96301.000			13.208			-1.651
96401.000			13.208			-1.651
96501.000			13.208			-1.651
96600.000			13.207			-1.651
96700.000			13.206			-1.651
96801.000			13.206			-1.651
96900.000			13.205			-1.651
97000.000			13.205			-1.651
97102.000			13.205			-1.651
97201.000			13.205			-1.651
97301.000			13.205			-1.651
97400.000			13.205			-1.651
97500.000			13.204			-1.651
97601.000			13.203			-1.650
97700.000			13.202			-1.650
97800.000			13.203			-1.650
97902.000			13.203			-1.650
98001.000			13.202			-1.650
98100.000			13.201			-1.650
98201.000			13.202			-1.650
98300.000			13.203			-1.650
98400.000			13.201			-1.650
98501.000			13.200			-1.650
98600.000			13.201			-1.650
98701.000			13.201			-1.650
98802.000			13.200			-1.650
98900.000			13.199			-1.650
99000.000			13.199			-1.650
99101.000			13.199			-1.650
99200.000			13.199			-1.650
99300.000			13.199			-1.650
99401.000			13.198			-1.650
99501.000			13.197			-1.650
99601.000			13.197			-1.650
99701.000			13.197			-1.650
99800.000			13.197			-1.650
99900.000			13.195			-1.649
100001.000			13.196			-1.649
100100.000			13.195			-1.649
100200.000			13.196			-1.649
100302.000			13.196			-1.650
100401.000			13.195			-1.649
100501.000			13.194			-1.649
100600.000			13.195			-1.649
100700.000			13.195			-1.649
100801.000			13.193			-1.649
100900.000			13.193			-1.649
101000.000			13.193			-1.649
101101.000			13.193			-1.649
101201.000			13.192			-1.649
101301.000			13.191			-1.649
101401.000			13.191			-1.649
101500.000			13.192			-1.649
101600.000			13.191			-1.649
101701.000			13.191			-1.649
101800.000			13.190			-1.649
101900.000			13.189			-1.649
102002.000			13.190			-1.649
102101.000			13.190			-1.649
102200.000			13.190			-1.649
102301.000			13.189			-1.649
102400.000			13.189			-1.649
102500.000			13.188			-1.648
102601.000			13.188			-1.648
102700.000			13.188			-1.648
102801.000			13.188			-1.649
102902.000			13.187			-1.648
103001.000			13.187			-1.648
103100.000			13.186			-1.648
103201.000			13.186			-1.648
103300.000			13.186			-1.648
103400.000			13.186			-1.648
103500.000			13.186			-1.648
103600.000			13.185			-1.648
103702.000			13.185			-1.648
103801.000			13.185			-1.648
103900.000			13.185			-1.648
104001.000			13.184			-1.648
104100.000			13.183			-1.648
104200.000			13.183			-1.648
104301.000			13.183			-1.648
104400.000			13.183			-1.648
104501.000			13.183			-1.648
104602.000			13.182			-1.648
104700.000			13.183			-1.648
104800.000			13.182			-1.648
104901.000			13.182			-1.648
105000.000			13.181			-1.648
105100.000			13.180			-1.648
105201.000			13.181			-1.648
105301.000			13.180			-1.648
105401.000			13.180			-1.648
105501.000			13.179			-1.647
105600.000			13.179			-1.647
105700.000			13.179			-1.647
105801.000			13.178			-1.647
105900.000			13.177			-1.647
106000.000			13.178			-1.647
106102.000			13.177			-1.647
106201.000			13.177			-1.647
106301.000			13.177			-1.647
106401.000			13.177			-1.647
106500.000			13.177			-1.647
106600.000			13.177			-1.647
106700.000			13.176			-1.647
106800.000			13.176			-1.647
106901.000			13.175			-1.647
107001.000			13.174			-1.647
107101.000			13.174			-1.647
107201.000			13.174			-1.647
107300.000			13.174			-1.647
107400.000			13.174			-1.647
107501.000			13.174			-1.647
107600.000			13.174			-1.647
107700.000			13.173			-1.647
107802.000			13.173			-1.647
107901.000			13.172			-1.647
108000.000			13.173			-1.647
108101.000			13.171			-1.646
108200.000			13.172			-1.646
108300.000			13.172			-1.646
108401.000			13.172			-1.646
108500.000			13.172			-1.647
108600.000			13.172			-1.646
108702.000			13.171			-1.646
108801.000			13.170			-1.646
108900.000			13.170			-1.646
109001.000			13.170			-1.646
109100.000			13.171			-1.646
109200.000			13.170			-1.646
109301.000			13.170			-1.646
109400.000			13.170			-1.646
109501.000			13.169			-1.646
109602.000			13.169			-1.646
109700.000			13.167			-1.646
109800.000			13.167			-1.646
109900.000			13.167			-1.646
110000.000			13.167			-1.646
110101.000			13.167			-1.646
110200.000			13.168			-1.646
110300.000			13.166			-1.646
110402.000			13.166			-1.646
110501.000			13.166			-1.646
110600.000			13.165			-1.646
110701.000			13.164			-1.646
110800.000			13.164			-1.646
110900.000			13.164			-1.646
111001.000			13.164			-1.646
111100.000			13.164			-1.646
111201.000			13.164			-1.645
111302.000			13.164			-1.645
111400.000			13.163			-1.645
111500.000			13.163			-1.645
111601.000			13.163			-1.645
111700.000			13.162			-1.645
111800.000			13.162			-1.645
111901.000			13.161			-1.645
112001.000			13.161			-1.645
112101.000			13.161			-1.645
112201.000			13.161			-1.645
112300.000			13.160			-1.645
112400.000			13.160			-1.645
112501.000			13.159			-1.645
112600.000			13.160			-1.645
112700.000			13.160			-1.645
112802.000			13.159			-1.645
112901.000			13.159			-1.645
113000.000			13.159			-1.645
113100.000			13.159			-1.645
113200.000			13.158			-1.645
113301.000			13.157			-1.645
113400.000			13.157			-1.645
113500.000			13.157			-1.645
113602.000			13.156			-1.644
113701.000			13.156			-1.644
113800.000			13.155			-1.644
113901.000			13.156			-1.645
114000.000			13.156			-1.644
114100.000			13.155			-1.644
114201.000			13.155			-1.644
114300.000			13.155			-1.644
114401.000			13.154			-1.644
114502.000			13.154			-1.644
114601.000			13.154			-1.644
114700.000			13.154			-1.644
114801.000			13.154			-1.644
114900.000			13.153			-1.644
115000.000			13.152			-1.644
115101.000			13.153			-1.644
115200.000			13.152			-1.644
115301.000			13.152			-1.644
115402.000			13.152			-1.644
115500.000			13.151			-1.644
115600.000			13.151			-1.644
115701.000			13.150			-1.644
115800.000			13.150			-1.644
115900.000			13.150			-1.644
116001.000			13.150			-1.644
116101.000			13.149			-1.644
116202.000			13.149			-1.644
116300.000			13.148			-1.644
116400.000			13.148			-1.643
116501.000			13.148			-1.643
116600.000			13.148			-1.644
116700.000			13.149			-1.644
116801.000			13.147			-1.643
116901.000			13.146			-1.643
117001.000			13.146			-1.643
117101.000			13.146			-1.643
117200.000			13.147			-1.643
117300.000			13.147			-1.643
117401.000			13.146			-1.643
117500.000			13.145			-1.643
117600.000			13.145			-1.643
117701.000			13.144			-1.643
117801.000			13.145			-1.643
117901.000			13.145			-1.643
118001.000			13.145			-1.643
118100.000			13.144			-1.643
118200.000			13.143			-1.643
118301.000			13.144			-1.643
118400.000			13.143			-1.643
118500.000			13.143			-1.643
118602.000			13.142			-1.643
118701.000			13.142			-1.643
118800.000			13.142			-1.643
118901.000			13.142			-1.643
119000.000			13.141			-1.643
119100.000			13.142			-1.643
119201.000			13.140			-1.643
119300.000			13.140			-1.642
119402.000			13.139			-1.642
119501.000			13.140			-1.643
119600.000			13.140			-1.643
119701.000			13.140			-1.642
119800.000			13.140			-1.642
119900.000			13.140			-1.642
120001.000			13.139			-1.642
120100.000			13.139			-1.642
120200.000			13.138			-1.642
120302.000			13.138			-1.642
120401.000			13.138			-1.642
120500.000			13.138			-1.642
120601.000			13.138			-1.642
120700.000			13.138			-1.642
120800.000			13.137			-1.642
120901.000			13.136			-1.642
121000.000			13.135			-1.642
121101.000			13.135			-1.642
121202.000			13.135			-1.642
121300.000			13.135			-1.642
121400.000			13.135			-1.642
121501.000			13.135			-1.642
121600.000			13.135			-1.642
121700.000			13.134			-1.642
121801.000			13.133			-1.642
121901.000			13.134			-1.642
122001.000			13.134			-1.642
122101.000			13.134			-1.642
122200.000			13.133			-1.642
122300.000			13.133			-1.642
122401.000			13.132			-1.642
122500.000			13.132			-1.642
122600.000			13.132			-1.642
122702.000			13.132			-1.641
122801.000			13.133			-1.642
122901.000			13.132			-1.641
123000.000			13.131			-1.641
123100.000			13.131			-1.641
123201.000			13.131			-1.641
123300.000			13.131			-1.641
123400.000			13.130			-1.641
123502.000			13.129			-1.641
123601.000			13.129			-1.641
123700.000			13.129			-1.641
123801.000			13.130			-1.641
123900.000			13.129			-1.641
124000.000			13.128			-1.641
124101.000			13.128			-1.641
124200.000			13.127			-1.641
124301.000			13.127			-1.641
124402.000			13.126			-1.641
124500.000			13.126			-1.641
124600.000			13.126			-1.641
124701.000			13.127			-1.641
124800.000			13.126			-1.641
124900.000			13.125			-1.641
125001.000			13.125			-1.641
125101.000			13.125			-1.641
125201.000			13.125			-1.641
125301.000			13.125			-1.641
125400.000			13.124			-1.641
125500.000			13.124			-1.641
125601.000			13.124			-1.641
125700.000			13.124			-1.641
125800.000			13.124			-1.641
125902.000			13.124			-1.640
126001.000			13.124			-1.641
126101.000			13.124			-1.641
126200.000			13.123			-1.640
126300.000			13.123			-1.640
126401.000			13.122			-1.640
126500.000			13.122			-1.640
126600.000			13.122			-1.640
126702.000			13.122			-1.640
126801.000			13.121			-1.640
126901.000			13.121			-1.640
127001.000			13.121			-1.640
127100.000			13.121			-1.640
127200.000			13.121			-1.640
127301.000			13.121			-1.640
127400.000			13.120			-1.640
127500.000			13.120			-1.640
127602.000			13.120			-1.640
127701.000			13.119			-1.640
127800.000			13.118			-1.640
127901.000			13.118			-1.640
128000.000			13.118			-1.640
128100.000			13.118			-1.640
128201.000			13.117			-1.640
128300.000			13.118			-1.640
128401.000			13.118			-1.640
128502.000			13.119			-1.640
128600.000			13.118			-1.640
128700.000			13.117			-1.640
128801.000			13.116			-1.640
128900.000			13.116			-1.639
129000.000			13.116			-1.640
129100.000			13.115			-1.639
129200.000			13.115			-1.639
129302.000			13.116			-1.639
129401.000			13.115			-1.639
129500.000			13.115			-1.639
129601.000			13.115			-1.639
129700.000			13.114			-1.639
129800.000			13.115			-1.639
129901.000			13.115			-1.639
130000.000			13.115			-1.639
130101.000			13.114			-1.639
130202.000			13.113			-1.639
130300.000			13.113			-1.639
130400.000			13.114			-1.639
130501.000			13.113			-1.639
130600.000			13.112			-1.639
130700.000			13.112			-1.639
130801.000			13.112			-1.639
130901.000			13.112			-1.639
131001.000			13.112			-1.639
131101.000			13.112			-1.639
131200.000			13.112			-1.639
131300.000			13.111			-1.639
131401.000			13.111			-1.639
131500.000			13.110			-1.639
131600.000			13.110			-1.639
131702.000			13.111			-1.639
131801.000			13.110			-1.639
131901.000			13.109			-1.639
132001.000			13.110			-1.639
132100.000			13.109			-1.639
132200.000			13.109			-1.639
132300.000			13.109			-1.639
132400.000			13.109			-1.639
132501.000			13.108			-1.638
132601.000			13.107			-1.638
132701.000			13.107			-1.638
132802.000			13.107			-1.638
132900.000			13.107			-1.638
133000.000			13.108			-1.639
133101.000			13.107			-1.638
133200.000			13.106			-1.638
133300.000			13.107			-1.638
133401.000			13.107			-1.638
133501.000			13.107			-1.638
133601.000			13.106			-1.638
133701.000			13.106			-1.638
133800.000			13.105			-1.638
133900.000			13.104			-1.638
134001.000			13.104			-1.638
134100.000			13.103			-1.638
134200.000			13.104			-1.638
134301.000			13.104			-1.638
134401.000			13.104			-1.638
134501.000			13.103			-1.638
134601.000			13.104			-1.638
134700.000			13.103			-1.638
134800.000			13.103			-1.638
134901.000			13.102			-1.638
135000.000			13.101			-1.638
135100.000			13.102			-1.638
135201.000			13.102			-1.638
135301.000			13.102			-1.638
135402.000			13.101			-1.638
135500.000			13.101			-1.638
135600.000			13.102			-1.638
135701.000			13.100			-1.638
135800.000			13.100			-1.637
135900.000			13.100			-1.637
136001.000			13.099			-1.637
136101.000			13.099			-1.637
136201.000			13.098			-1.637
136302.000			13.099			-1.637
136400.000			13.099			-1.637
136500.000			13.099			-1.637
136601.000			13.099			-1.637
136700.000			13.099			-1.637
136800.000			13.099			-1.637
136901.000			13.098			-1.637
137000.000			13.098			-1.637
137101.000			13.097			-1.637
137202.000			13.098			-1.637
137300.000			13.096			-1.637
137400.000			13.096			-1.637
137501.000			13.096			-1.637
137600.000			13.096			-1.637
137700.000			13.095			-1.637
137801.000			13.096			-1.637
137900.000			13.095			-1.637
138001.000			13.095			-1.637
138102.000			13.094			-1.637
138201.000			13.094			-1.637
138300.000			13.094			-1.637
138401.000			13.094			-1.637
138500.000			13.094			-1.637
138600.000			13.094			-1.637
138700.000			13.093			-1.637
138800.000			13.093			-1.637
138901.000			13.093			-1.637
139001.000			13.093			-1.637
139101.000			13.093			-1.637
139201.000			13.093			-1.637
139300.000			13.092			-1.637
139400.000			13.091			-1.636
139501.000			13.090			-1.636
139600.000			13.091			-1.636
139700.000			13.091			-1.636
139801.000			13.090			-1.636
139901.000			13.091			-1.636
140001.000			13.091			-1.636
140101.000			13.091			-1.636
140200.000			13.090			-1.636
140300.000			13.089			-1.636
140401.000			13.089			-1.636
140500.000			13.089			-1.636
140600.000			13.089			-1.636
140701.000			13.089			-1.636
140801.000			13.088			-1.636
140901.000			13.088			-1.636
141002.000			13.089			-1.636
141100.000			13.087			-1.636
141200.000			13.087			-1.636
141301.000			13.087			-1.636
141400.000			13.086			-1.636
141500.000			13.087			-1.636
141601.000			13.088			-1.636
141701.000			13.087			-1.636
141802.000			13.086			-1.636
141901.000			13.087			-1.636
142000.000			13.087			-1.636
142101.000			13.085			-1.636
142200.000			13.085			-1.636
142300.000			13.086			-1.636
142401.000			13.085			-1.636
142500.000			13.084			-1.636
142600.000			13.083			-1.635
142702.000			13.082			-1.635
142801.000			13.084			-1.635
142900.000			13.084			-1.635
143001.000			13.083			-1.635
143100.000			13.081			-1.635
143200.000			13.082			-1.635
143301.000			13.084			-1.635
143400.000			13.083			-1.635
143500.000			13.083			-1.635
143602.000			13.082			-1.635
143701.000			13.081			-1.635
143800.000			13.081			-1.635
143901.000			13.081			-1.635
144000.000			13.082			-1.635
144100.000			13.082			-1.635
144201.000			13.081			-1.635
144300.000			13.082			-1.635
144400.000			13.080			-1.635
144502.000			13.080			-1.635
144601.000			13.080			-1.635
144700.000			13.079			-1.635
144801.000			13.079			-1.635
144900.000			13.079			-1.635
145000.000			13.078			-1.635
145100.000			13.078			-1.635
145200.000			13.079			-1.635
145301.000			13.079			-1.635
145401.000			13.078			-1.635
145501.000			13.079			-1.635
145601.000			13.077			-1.635
145700.000			13.077			-1.635
145800.000			13.077			-1.635
145901.000			13.077			-1.635
146000.000			13.076			-1.635
146100.000			13.076			-1.635
146201.000			13.077			-1.635
146301.000			13.077			-1.635
146401.000			13.076			-1.635
146502.000			13.075			-1.634
146600.000			13.075			-1.634
146700.000			13.075			-1.634
146801.000			13.075			-1.634
146900.000			13.075			-1.634
147000.000			13.075			-1.634
147101.000			13.075			-1.634
147201.000			13.073			-1.634
147301.000			13.073			-1.634
147402.000			13.073			-1.634
147500.000			13.074			-1.634
147600.000			13.073			-1.634
147701.000			13.072			-1.634
147800.000			13.072			-1.634
147900.000			13.073			-1.634
148001.000			13.071			-1.634
148100.000			13.071			-1.634
148202.000			13.072			-1.634
148301.000			13.071			-1.634
148400.000			13.071			-1.634
148501.000			13.071			-1.634
148600.000			13.071			-1.634
148700.000			13.071			-1.634
148801.000			13.071			-1.634
148900.000			13.070			-1.634
149000.000			13.070			-1.634
149102.000			13.069			-1.634
149201.000			13.069			-1.634
149300.000			13.070			-1.634
149401.000			13.069			-1.634
149500.000			13.069			-1.634
149600.000			13.070			-1.634
149701.000			13.070			-1.634
149800.000			13.069			-1.634
149900.000			13.069			-1.634
150002.000			13.069			-1.634
150101.000			13.069			-1.634
150201.000			13.069			-1.634
150301.000			13.069			-1.634
150400.000			13.069			-1.634
150500.000			13.068			-1.633
150601.000			13.067			-1.633
150700.000			13.068			-1.633
150800.000			13.066			-1.633
150901.000			13.066			-1.633
151001.000			13.066			-1.633
151101.000			13.066			-1.633
151201.000			13.067			-1.633
151300.000			13.066			-1.633
151400.000			13.066			-1.633
151500.000			13.067			-1.633
151600.000			13.066			-1.633
151701.000			13.065			-1.633
151800.000			13.065			-1.633
151901.000			13.065			-1.633
152002.000			13.064			-1.633
152100.000			13.065			-1.633
152200.000			13.065			-1.633
152301.000			13.064			-1.633
152400.000			13.065			-1.633
152500.000			13.064			-1.633
152601.000			13.063			-1.633
152700.000			13.063			-1.633
152801.000			13.063			-1.633
152902.000			13.063			-1.633
153000.000			13.062			-1.633
153100.000			13.062			-1.633
153201.000			13.060			-1.633
153300.000			13.061			-1.633
153400.000			13.061			-1.633
153501.000			13.060			-1.632
153600.000			13.059			-1.632
153701.000			13.060			-1.632
153802.000			13.060			-1.632
153900.000			13.060			-1.633
154000.000			13.060			-1.633
154101.000			13.060			-1.632
154200.000			13.059			-1.632
154300.000			13.059			-1.632
154401.000			13.059			-1.632
154500.000			13.059			-1.632
154602.000			13.059			-1.632
154701.000			13.058			-1.632
154800.000			13.058			-1.632
154901.000			13.057			-1.632
155000.000			13.057			-1.632
155100.000			13.057			-1.632
155201.000			13.057			-1.632
155300.000			13.057			-1.632
155400.000			13.056			-1.632
155502.000			13.056			-1.632
155601.000			13.056			-1.632
155701.000			13.055			-1.632
155801.000			13.055			-1.632
155900.000			13.054			-1.632
156000.000			13.055			-1.632
156101.000			13.054			-1.632
156200.000			13.055			-1.632
156300.000			13.055			-1.632
156402.000			13.055			-1.632
156501.000			13.054			-1.632
156601.000			13.053			-1.632
156701.000			13.053			-1.632
156800.000			13.054			-1.632
156900.000			13.055			-1.632
157001.000			13.053			-1.632
157100.000			13.053			-1.632
157200.000			13.053			-1.632
157302.000			13.052			-1.632
157401.000			13.052			-1.631
157501.000			13.052			-1.631
157601.000			13.051			-1.631
157700.000			13.051			-1.631
157800.000			13.051			-1.631
157900.000			13.051			-1.631
158000.000			13.050			-1.631
158101.000			13.050			-1.631
158200.000			13.050			-1.631
158301.000			13.050			-1.631
158402.000			13.049			-1.631
158500.000			13.048			-1.631
158600.000			13.049			-1.631
158701.000			13.048			-1.631
158800.000			13.048			-1.631
158900.000			13.048			-1.631
159001.000			13.049			-1.631
159100.000			13.049			-1.631
159201.000			13.048			-1.631
159302.000			13.049			-1.631
159400.000			13.049			-1.631
159500.000			13.048			-1.631
159601.000			13.047			-1.631
159700.000			13.047			-1.631
159800.000			13.047			-1.631
159901.000			13.048			-1.631
160000.000			13.048			-1.631
160101.000			13.046			-1.631
160202.000			13.047			-1.631
160301.000			13.046			-1.631
160400.000			13.046			-1.631
160501.000			13.047			-1.631
160600.000			13.046			-1.631
160700.000			13.045			-1.631
160801.000			13.045			-1.631
160900.000			13.047			-1.631
161002.000			13.046			-1.631
161101.000			13.045			-1.631
161200.000			13.044			-1.631
161301.000			13.044			-1.631
161400.000			13.044			-1.631
161500.000			13.044			-1.631
161601.000			13.044			-1.631
161700.000			13.044			-1.630
161800.000			13.043			-1.630
161902.000			13.043			-1.630
162001.000			13.044			-1.630
162100.000			13.044			-1.630
162201.000			13.043			-1.630
162300.000			13.042			-1.630
162400.000			13.043			-1.630
162501.000			13.042			-1.630
162600.000			13.042			-1.630
162700.000			13.042			-1.630
162802.000			13.041			-1.630
162901.000			13.041			-1.630
163000.000			13.041			-1.630
163101.000			13.040			-1.630
163200.000			13.040			-1.630
163300.000			13.041			-1.630
163401.000			13.041			-1.630
163500.000			13.040			-1.630
163600.000			13.041			-1.630
163702.000			13.040			-1.630
163801.000			13.039			-1.630
163900.000			13.039			-1.630
164001.000			13.039			-1.630
164100.000			13.038			-1.630
164200.000			13.038			-1.630
164300.000			13.038			-1.630
164400.000			13.039			-1.630
164501.000			13.038			-1.630
164601.000			13.038			-1.630
164701.000			13.039			-1.630
164801.000			13.038			-1.630
164900.000			13.037			-1.630
165000.000			13.037			-1.630
165101.000			13.037			-1.630
165200.000			13.037			-1.630
165300.000			13.037			-1.630
165401.000			13.037			-1.630
165501.000			13.037			-1.630
165601.000			13.037			-1.630
165701.000			13.036			-1.629
165800.000			13.036			-1.629
165900.000			13.034			-1.629
166001.000			13.035			-1.629
166100.000			13.035			-1.629
166200.000			13.035			-1.629
166301.000			13.034			-1.629
166401.000			13.034			-1.629
166501.000			13.034			-1.629
166602.000			13.035			-1.629
166700.000			13.035			-1.629
166800.000			13.036			-1.629
166901.000			13.034			-1.629
167000.000			13.034			-1.629
167100.000			13.034			-1.629
167201.000			13.034			-1.629
167301.000			13.032			-1.629
167402.000			13.032			-1.629
167501.000			13.033			-1.629
167600.000			13.033			-1.629
167701.000			13.032			-1.629
167800.000			13.032			-1.629
167900.000			13.032			-1.629
168001.000			13.033			-1.629
168100.000			13.032			-1.629
168201.000			13.032			-1.629
168302.000			13.032			-1.629
168401.000			13.032			-1.629
168500.000			13.031			-1.629
168601.000			13.030			-1.629
168700.000			13.030			-1.629
168800.000			13.030			-1.629
168901.000			13.030			-1.629
169000.000			13.030			-1.629
169100.000			13.030			-1.629
169202.000			13.030			-1.629
169301.000			13.029			-1.629
169400.000			13.029			-1.629
169501.000			13.029			-1.629
169600.000			13.027			-1.628
169700.000			13.027			-1.628
169801.000			13.028			-1.628
169900.000			13.028			-1.629
170000.000			13.028			-1.628
170102.000			13.028			-1.629
170201.000			13.028			-1.629
170300.000			13.027			-1.628
170401.000			13.027			-1.628
170500.000			13.026			-1.628
170600.000			13.027			-1.628
170700.000			13.027			-1.628
170800.000			13.026			-1.628
170901.000			13.027			-1.628
171001.000			13.026			-1.628
171101.000			13.027			-1.628
171201.000			13.026			-1.628
171300.000			13.026			-1.628
171400.000			13.026			-1.628
171501.000			13.026			-1.628
171600.000			13.025			-1.628
171700.000			13.025			-1.628
171801.000			13.023			-1.628
171901.000			13.025			-1.628
172001.000			13.026			-1.628
172101.000			13.025			-1.628
172200.000			13.025			-1.628
172300.000			13.024			-1.628
172401.000			13.024			-1.628
172500.000			13.023			-1.628
172600.000			13.023			-1.628
172701.000			13.024			-1.628
172801.000			13.023			-1.628
172901.000			13.022			-1.628
173001.000			13.022			-1.628
173100.000			13.021			-1.628
173200.000			13.021			-1.628
173301.000			13.021			-1.628
173400.000			13.022			-1.628
173500.000			13.021			-1.628
173602.000			13.021			-1.628
173701.000			13.021			-1.628
173802.000			13.021			-1.628
173900.000			13.020			-1.627
174000.000			13.020			-1.628
174101.000			13.020			-1.628
174200.000			13.020			-1.627
174300.000			13.020			-1.627
174401.000			13.020			-1.627
174501.000			13.019			-1.627
174601.000			13.019			-1.627
174702.000			13.019			-1.627
174800.000			13.019			-1.627
174900.000			13.018			-1.627
175001.000			13.018			-1.627
175100.000			13.019			-1.627
175200.000			13.017			-1.627
175301.000			13.019			-1.627
175400.000			13.018			-1.627
175501.000			13.018			-1.627
175602.000			13.018			-1.627
175700.000			13.018			-1.627
175800.000			13.017			-1.627
175901.000			13.016			-1.627
176000.000			13.017			-1.627
176100.000			13.017			-1.627
176201.000			13.017			-1.627
176300.000			13.016			-1.627
176401.000			13.016			-1.627
176502.000			13.016			-1.627
176600.000			13.016			-1.627
176700.000			13.015			-1.627
176801.000			13.014			-1.627
176900.000			13.014			-1.627
177000.000			13.015			-1.627
177100.000			13.015			-1.627
177200.000			13.014			-1.627
177302.000			13.014			-1.627
177401.000			13.014			-1.627
177500.000			13.013			-1.627
177601.000			13.013			-1.627
177700.000			13.013			-1.627
177800.000			13.014			-1.627
177901.000			13.012			-1.627
178000.000			13.012			-1.627
178100.000			13.013			-1.627
178202.000			13.013			-1.627
178301.000			13.013			-1.627
178401.000			13.013			-1.627
178501.000			13.014			-1.627
178600.000			13.013			-1.627
178700.000			13.012			-1.626
178801.000			13.012			-1.627
178900.000			13.012			-1.627
179000.000			13.012			-1.626
179102.000			13.011			-1.626
179201.000			13.011			-1.626
179301.000			13.011			-1.626
179401.000			13.010			-1.626
179500.000			13.010			-1.626
179600.000			13.010			-1.626
179701.000			13.009			-1.626
179800.000			13.010			-1.626
179900.000			13.010			-1.626
180002.000			13.009			-1.626
180101.000			13.009			-1.626
180202.000			13.009			-1.626
180300.000			13.008			-1.626
180400.000			13.008			-1.626
180501.000			13.008			-1.626
180600.000			13.010			-1.626
180700.000			13.009			-1.626
180801.000			13.009			-1.626
180900.000			13.008			-1.626
181001.000			13.008			-1.626
181102.000			13.008			-1.626
181200.000			13.008			-1.626
181300.000			13.008			-1.626
181401.000			13.007			-1.626
181500.000			13.008			-1.626
181600.000			13.007			-1.626
181701.000			13.006			-1.626
181800.000			13.007			-1.626
181901.000			13.008			-1.626
182002.000			13.007			-1.626
182100.000			13.006			-1.626
182200.000			13.005			-1.626
182301.000			13.005			-1.626
182400.000			13.005			-1.626
182500.000			13.004			-1.626
182601.000			13.004			-1.626
182700.000			13.003			-1.625
182801.000			13.004			-1.626
182902.000			13.004			-1.625
183000.000			13.003			-1.625
183100.000			13.003			-1.625
183201.000			13.004			-1.626
183300.000			13.003			-1.625
183400.000			13.003			-1.625
183500.000			13.004			-1.625
183600.000			13.003			-1.625
183702.000			13.003			-1.625
183801.000			13.004			-1.625
183900.000			13.002			-1.625
184001.000			13.003			-1.625
184100.000			13.003			-1.625
184200.000			13.003			-1.625
184301.000			13.003			-1.625
184400.000			13.002			-1.625
184500.000			13.001			-1.625
184602.000			13.001			-1.625
184701.000			13.001			-1.625
184800.000			13.001			-1.625
184901.000			13.000			-1.625
185000.000			13.000			-1.625
185100.000			13.000			-1.625
185201.000			12.999			-1.625
185300.000			12.999			-1.625
185400.000			12.999			-1.625
185502.000			12.999			-1.625
185601.000			12.999			-1.625
185701.000			12.999			-1.625
185801.000			12.999			-1.625
185900.000			12.999			-1.625
186000.000			12.998			-1.625
186101.000			12.999			-1.625
186200.000			12.999			-1.625
186300.000			12.997			-1.625
186401.000			12.996			-1.624
186501.000			12.997			-1.625
186602.000			12.997			-1.625
186701.000			12.997			-1.625
186800.000			12.996			-1.624
186901.000			12.996			-1.624
187000.000			12.997			-1.625
187100.000			12.997			-1.625
187201.000			12.997			-1.625
187300.000			12.996			-1.625
187400.000			12.995			-1.624
187502.000			12.995			-1.624
187601.000			12.995			-1.624
187701.000			12.995			-1.624
187801.000			12.996			-1.624
187900.000			12.995			-1.624
188000.000			12.994			-1.624
188101.000			12.995			-1.624
188200.000			12.995			-1.624
188300.000			12.995			-1.624
188401.000			12.994			-1.624
188501.000			12.994			-1.624
188601.000			12.994			-1.624
188702.000			12.993			-1.624
188800.000			12.994			-1.624
188900.000			12.993			-1.624
189001.000			12.992			-1.624
189100.000			12.993			-1.624
189200.000			12.992			-1.624
189301.000			12.992			-1.624
189400.000			12.992			-1.624
189501.000			12.992			-1.624
189602.000			12.992			-1.624
189701.000			12.992			-1.624
189800.000			12.991			-1.624
189900.000			12.991			-1.624
190000.000			12.991			-1.624
190101.000			12.990			-1.624
190200.000			12.990			-1.624
190300.000			12.990			-1.624
190401.000			12.991			-1.624
190501.000			12.991			-1.624
190601.000			12.990			-1.624
190702.000			12.990			-1.624
190800.000			12.990			-1.624
190900.000			12.989			-1.624
191001.000			12.989			-1.624
191100.000			12.989			-1.624
191200.000			12.988			-1.624
191301.000			12.989			-1.624
191400.000			12.989			-1.624
191501.000			12.988			-1.623
191602.000			12.989			-1.624
191701.000			12.989			-1.624
191800.000			12.989			-1.624
191901.000			12.989			-1.624
192000.000			12.988			-1.623
192100.000			12.988			-1.624
192201.000			12.988			-1.624
192300.000			12.988			-1.623
192400.000			12.987			-1.623
192502.000			12.988			-1.623
192601.000			12.988			-1.623
192701.000			12.987			-1.623
192801.000			12.986			-1.623
192900.000			12.986			-1.623
193000.000			12.986			-1.623
193100.000			12.985			-1.623
193200.000			12.985			-1.623
193301.000			12.986			-1.623
193400.000			12.986			-1.623
193501.000			12.986			-1.623
193602.000			12.986			-1.623
193701.000			12.986			-1.623
193800.000			12.985			-1.623
193901.000			12.985			-1.623
194000.000			12.985			-1.623
194100.000			12.985			-1.623
194201.000			12.985			-1.623
194300.000			12.985			-1.623
194400.000			12.985			-1.623
194502.000			12.984			-1.623
194601.000			12.983			-1.623
194701.000			12.984			-1.623
194801.000			12.985			-1.623
194900.000			12.984			-1.623
195000.000			12.984			-1.623
195101.000			12.983			-1.623
195200.000			12.984			-1.623
195300.000			12.984			-1.623
195401.000			12.983			-1.623
195501.000			12.982			-1.623
195601.000			12.983			-1.623
195701.000			12.981			-1.623
195800.000			12.981			-1.623
195900.000			12.981			-1.623
196001.000			12.981			-1.623
196100.000			12.981			-1.623
196200.000			12.982			-1.623
196300.000			12.981			-1.623
196400.000			12.981			-1.623
196502.000			12.980			-1.622
196601.000			12.980			-1.623
196700.000			12.980			-1.623
196801.000			12.981			-1.623
196900.000			12.980			-1.623
197000.000			12.980			-1.623
197101.000			12.979			-1.622
197200.000			12.979			-1.622
197300.000			12.979			-1.622
197402.000			12.980			-1.623
197501.000			12.980			-1.622
197601.000			12.979			-1.622
197701.000			12.978			-1.622
197800.000			12.978			-1.622
197900.000			12.979			-1.622
198001.000			12.979			-1.622
198100.000			12.978			-1.622
198200.000			12.977			-1.622
198301.000			12.978			-1.622
198401.000			12.978			-1.622
198501.000			12.977			-1.622
198602.000			12.977			-1.622
198700.000			12.977			-1.622
198800.000			12.978			-1.622
198901.000			12.978			-1.622
199000.000			12.977			-1.622
199100.000			12.976			-1.622
199201.000			12.976			-1.622
199300.000			12.976			-1.622
199400.000			12.976			-1.622
199502.000			12.977			-1.622
199601.000			12.976			-1.622
199701.000			12.976			-1.622
199800.000			12.976			-1.622
199900.000			12.976			-1.622
200001.000			12.975			-1.622
200100.000			12.975			-1.622
200200.000			12.975			-1.622
200301.000			12.975			-1.622
200401.000			12.975			-1.622
200501.000			12.974			-1.622
200602.000			12.974			-1.622
200700.000			12.974			-1.622
200800.000			12.973			-1.622
200901.000			12.972			-1.622
201000.000			12.974			-1.622
201100.000			12.974			-1.622
201201.000			12.973			-1.622
201301.000			12.973			-1.622
201401.000			12.973			-1.622
201502.000			12.973			-1.622
201600.000			12.973			-1.622
201700.000			12.972			-1.622
201801.000			12.971			-1.621
201900.000			12.972			-1.621
202000.000			12.972			-1.621
202101.000			12.971			-1.621
202200.000			12.972			-1.621
202301.000			12.971			-1.621
202402.000			12.970			-1.621
202500.000			12.970			-1.621
202600.000			12.971			-1.621
202700.000			12.969			-1.621
202800.000			12.970			-1.621
202901.000			12.970			-1.621
203000.000			12.969			-1.621
203100.000			12.970			-1.621
203202.000			12.969			-1.621
203301.000			12.969			-1.621
203401.000			12.969			-1.621
203501.000			12.967			-1.621
203600.000			12.968			-1.621
203700.000			12.968			-1.621
203801.000			12.969			-1.621
203900.000			12.969			-1.621
204000.000			12.968			-1.621
204101.000			12.968			-1.621
204201.000			12.967			-1.621
204301.000			12.968			-1.621
204401.000			12.967			-1.621
204500.000			12.967			-1.621
204600.000			12.968			-1.621
204701.000			12.967			-1.621
204800.000			12.966			-1.621
204900.000			12.967			-1.621
205001.000			12.966			-1.621
205101.000			12.966			-1.621
205201.000			12.966			-1.621
205302.000			12.967			-1.621
205400.000			12.967			-1.621
205500.000			12.967			-1.621
205601.000			12.966			-1.621
205700.000			12.965			-1.621
205800.000			12.966			-1.621
205900.000			12.966			-1.621
206000.000			12.965			-1.621
206102.000			12.964			-1.621
206201.000			12.965			-1.621
206300.000			12.965			-1.621
206401.000			12.964			-1.621
206500.000			12.964			-1.620
206600.000			12.963			-1.620
206701.000			12.963			-1.620
206800.000			12.963			-1.620
206900.000			12.964			-1.620
207002.000			12.964			-1.620
207101.000			12.962			-1.620
207201.000			12.963			-1.620
207301.000			12.963			-1.620
207400.000			12.963			-1.620
207500.000			12.962			-1.620
207601.000			12.962			-1.620
207700.000			12.962			-1.620
207800.000			12.962			-1.620
207901.000			12.961			-1.620
208001.000			12.961			-1.620
208101.000			12.961			-1.620
208201.000			12.960			-1.620
208300.000			12.961			-1.620
208400.000			12.961			-1.620
208501.000			12.960			-1.620
208600.000			12.961			-1.620
208700.000			12.960			-1.620
208801.000			12.960			-1.620
208901.000			12.961			-1.620
209002.000			12.960			-1.620
209101.000			12.960			-1.620
209200.000			12.959			-1.620
209301.000			12.959			-1.620
209400.000			12.960			-1.620
209500.000			12.960			-1.620
209601.000			12.959			-1.620
209700.000			12.959			-1.620
209800.000			12.959			-1.620
209902.000			12.958			-1.620
210001.000			12.959			-1.620
210100.000			12.959			-1.620
210201.000			12.958			-1.620
210300.000			12.957			-1.620
210400.000			12.957			-1.620
210501.000			12.957			-1.620
210600.000			12.957			-1.620
210700.000			12.958			-1.620
210802.000			12.957			-1.620
210901.000			12.957			-1.620
211000.000			12.957			-1.620
211101.000			12.957			-1.620
211200.000			12.956			-1.620
211300.000			12.956			-1.620
211401.000			12.955			-1.619
211500.000			12.956			-1.620
211600.000			12.957			-1.620
211702.000			12.956			-1.619
211801.000			12.955			-1.619
211901.000			12.956			-1.619
212001.000			12.956			-1.619
212100.000			12.954			-1.619
212200.000			12.955			-1.619
212300.000			12.955			-1.619
212400.000			12.954			-1.619
212501.000			12.954			-1.619
212601.000			12.954			-1.619
212701.000			12.954			-1.619
212802.000			12.954			-1.619
212900.000			12.953			-1.619
213000.000			12.954			-1.619
213101.000			12.954			-1.619
213200.000			12.953			-1.619
213300.000			12.952			-1.619
213401.000			12.952			-1.619
213501.000			12.952			-1.619
213601.000			12.952			-1.619
213702.000			12.953			-1.619
213800.000			12.953			-1.619
213900.000			12.953			-1.619
214001.000			12.953			-1.619
214100.000			12.952			-1.619
214200.000			12.952			-1.619
214301.000			12.953			-1.619
214400.000			12.952			-1.619
214501.000			12.950			-1.619
214602.000			12.951			-1.619
214700.000			12.952			-1.619
214800.000			12.952			-1.619
214901.000			12.952			-1.619
215000.000			12.951			-1.619
215100.000			12.950			-1.619
215201.000			12.950			-1.619
215300.000			12.950			-1.619
215402.000			12.950			-1.619
215501.000			12.951			-1.619
215600.000			12.951			-1.619
215701.000			12.951			-1.619
215800.000			12.949			-1.619
215900.000			12.950			-1.619
216001.000			12.950			-1.619
216100.000			12.950			-1.619
216200.000			12.950			-1.619
216302.000			12.949			-1.619
216401.000			12.949			-1.619
216501.000			12.950			-1.619
216601.000			12.949			-1.619
216700.000			12.949			-1.619
216800.000			12.948			-1.619
216901.000			12.948			-1.618
217000.000			12.949			-1.619
217100.000			12.948			-1.619
217201.000			12.949			-1.619
217301.000			12.948			-1.619
217401.000			12.947			-1.618
217501.000			12.947			-1.618
217600.000			12.948			-1.619
217700.000			12.948			-1.618
217801.000			12.947			-1.618
217900.000			12.948			-1.619
218000.000			12.948			-1.618
218101.000			12.948			-1.618
218201.000			12.948			-1.618
218301.000			12.946			-1.618
218402.000			12.946			-1.618
218500.000			12.946			-1.618
218600.000			12.945			-1.618
218700.000			12.946			-1.618
218800.000			12.947			-1.618
218901.000			12.946			-1.618
219000.000			12.945			-1.618
219100.000			12.944			-1.618
219202.000			12.945			-1.618
219301.000			12.945			-1.618
219400.000			12.945			-1.618
219501.000			12.944			-1.618
219600.000			12.945			-1.618
219700.000			12.945			-1.618
219801.000			12.945			-1.618
219900.000			12.945			-1.618
220000.000			12.944			-1.618
220102.000			12.944			-1.618
220201.000			12.944			-1.618
220301.000			12.942			-1.618
220401.000			12.942			-1.618
220500.000			12.943			-1.618
220600.000			12.943			-1.618
220701.000			12.944			-1.618
220800.000			12.943			-1.618
220900.000			12.943			-1.618
221002.000			12.942			-1.618
221101.000			12.943			-1.618
221201.000			12.943			-1.618
221301.000			12.942			-1.618
221400.000			12.942			-1.618
221500.000			12.942			-1.618
221601.000			12.942			-1.618
221700.000			12.942			-1.618
221800.000			12.942			-1.618
221902.000			12.942			-1.618
222001.000			12.941			-1.618
222102.000			12.940			-1.618
222200.000			12.939			-1.617
222300.000			12.941			-1.618
222401.000			12.941			-1.618
222500.000			12.940			-1.618
222600.000			12.940			-1.618
222701.000			12.940			-1.618
222801.000			12.939			-1.617
222901.000			12.939			-1.617
223002.000			12.940			-1.617
223100.000			12.939			-1.617
223200.000			12.939			-1.617
223301.000			12.939			-1.617
223400.000			12.938			-1.617
223500.000			12.938			-1.617
223601.000			12.938			-1.617
223700.000			12.938			-1.617
223801.000			12.938			-1.617
223902.000			12.939			-1.617
224000.000			12.938			-1.617
224100.000			12.937			-1.617
224201.000			12.937			-1.617
224300.000			12.938			-1.617
224400.000			12.938			-1.617
224501.000			12.938			-1.617
224600.000			12.937			-1.617
224701.000			12.936			-1.617
224802.000			12.937			-1.617
224901.000			12.938			-1.617
225000.000			12.937			-1.617
225100.000			12.936			-1.617
225200.000			12.935			-1.617
225301.000			12.935			-1.617
225400.000			12.936			-1.617
225500.000			12.936			-1.617
225601.000			12.935			-1.617
225701.000			12.935			-1.617
225801.000			12.935			-1.617
225901.000			12.935			-1.617
226000.000			12.935			-1.617
226100.000			12.935			-1.617
226201.000			12.935			-1.617
226300.000			12.934			-1.617
226400.000			12.934			-1.617
226501.000			12.934			-1.617
226601.000			12.934			-1.617
226701.000			12.935			-1.617
226801.000			12.934			-1.617
226900.000			12.933			-1.617
227000.000			12.933			-1.617
227101.000			12.934			-1.617
227200.000			12.933			-1.617
227300.000			12.933			-1.617
227401.000			12.933			-1.617
227501.000			12.933			-1.617
227601.000			12.932			-1.617
227702.000			12.932			-1.617
227800.000			12.932			-1.617
227900.000			12.931			-1.616
228001.000			12.932			-1.616
228100.000			12.932			-1.617
228200.000			12.931			-1.616
228300.000			12.931			-1.616
228400.000			12.931			-1.616
228502.000			12.931			-1.616
228601.000			12.931			-1.616
228700.000			12.932			-1.616
228801.000			12.931			-1.616
228900.000			12.931			-1.616
229000.000			12.931			-1.616
229101.000			12.930			-1.616
229200.000			12.931			-1.616
229300.000			12.931			-1.616
229402.000			12.930			-1.616
229501.000			12.931			-1.616
229600.000			12.931			-1.616
229701.000			12.930			-1.616
229800.000			12.929			-1.616
229900.000			12.929			-1.616
230001.000			12.929			-1.616
230100.000			12.929			-1.616
230200.000			12.929			-1.616
230302.000			12.928			-1.616
230401.000			12.928			-1.616
230501.000			12.929			-1.616
230601.000			12.928			-1.616
230700.000			12.928			-1.616
230800.000			12.928			-1.616
230901.000			12.928			-1.616
231000.000			12.927			-1.616
231100.000			12.927			-1.616
231201.000			12.927			-1.616
231301.000			12.926			-1.616
231402.000			12.926			-1.616
231500.000			12.927			-1.616
231600.000			12.927			-1.616
231701.000			12.927			-1.616
231800.000			12.926			-1.616
231900.000			12.926			-1.616
232001.000			12.926			-1.616
232100.000			12.926			-1.616
232201.000			12.927			-1.616
232302.000			12.927			-1.616
232400.000			12.925			-1.616
232500.000			12.925			-1.616
232601.000			12.926			-1.616
232700.000			12.925			-1.616
232800.000			12.924			-1.616
232901.000			12.924			-1.615
233000.000			12.925			-1.616
233101.000			12.925			-1.616
233202.000			12.925			-1.616
233301.000			12.925			-1.616
233400.000			12.925			-1.616
233501.000			12.924			-1.616
233600.000			12.925			-1.616
233700.000			12.925			-1.616
233801.000			12.924			-1.615
233900.000			12.923			-1.615
234001.000			12.923			-1.615
234102.000			12.923			-1.615
234201.000			12.923			-1.615
234300.000			12.924			-1.615
234401.000			12.925			-1.616
234500.000			12.924			-1.615
234600.000			12.921			-1.615
234700.000			12.922			-1.615
234800.000			12.923			-1.615
234901.000			12.922			-1.615
235001.000			12.922			-1.615
235101.000			12.923			-1.615
235201.000			12.922			-1.615
235300.000			12.921			-1.615
235400.000			12.921			-1.615
235501.000			12.921			-1.615
235600.000			12.920			-1.615
235700.000			12.920			-1.615
235801.000			12.921			-1.615
235901.000			12.922			-1.615
236001.000			12.920			-1.615
236101.000			12.920			-1.615
236200.000			12.920			-1.615
236300.000			12.921			-1.615
236401.000			12.921			-1.615
236500.000			12.921			-1.615
236600.000			12.920			-1.615
236701.000			12.919			-1.615
236801.000			12.921			-1.615
236901.000			12.920			-1.615
237002.000			12.919			-1.615
237100.000			12.919			-1.615
237200.000			12.919			-1.615
237301.000			12.919			-1.615
237400.000			12.918			-1.615
237500.000			12.918			-1.615
237601.000			12.918			-1.615
237700.000			12.919			-1.615
237802.000			12.918			-1.615
237901.000			12.918			-1.615
238000.000			12.918			-1.615
238101.000			12.917			-1.615
238200.000			12.918			-1.615
238300.000			12.918			-1.615
238401.000			12.918			-1.615
238500.000			12.917			-1.615
238600.000			12.916			-1.615
238702.000			12.917			-1.615
238801.000			12.916			-1.615
238901.000			12.916			-1.614
239001.000			12.918			-1.615
239100.000			12.917			-1.615
239200.000			12.916			-1.614
239301.000			12.916			-1.614
239400.000			12.915			-1.614
239500.000			12.915			-1.614
239601.000			12.916			-1.614
239701.000			12.916			-1.614
239801.000			12.915			-1.614
239901.000			12.915			-1.614
240000.000			12.915			-1.614
240100.000			12.914			-1.614
240201.000			12.916			-1.614
240300.000			12.915			-1.614
240400.000			12.915			-1.614
240501.000			12.914			-1.614
240601.000			12.914			-1.614
240701.000			12.913			-1.614
240801.000			12.913			-1.614
240900.000			12.913			-1.614
241000.000			12.913			-1.614
241100.000			12.913			-1.614
241200.000			12.913			-1.614
241301.000			12.913			-1.614
241400.000			12.913			-1.614
241501.000			12.913			-1.614
241602.000			12.912			-1.614
241700.000			12.912			-1.614
241800.000			12.913			-1.614
241901.000			12.912			-1.614
242000.000			12.912			-1.614
242100.000			12.912			-1.614
242201.000			12.912			-1.614
242300.000			12.912			-1.614
242401.000			12.911			-1.614
242502.000			12.912			-1.614
242600.000			12.911			-1.614
242700.000			12.911			-1.614
242801.000			12.910			-1.614
242900.000			12.910			-1.614
243000.000			12.910			-1.614
243101.000			12.910			-1.614
243200.000			12.911			-1.614
243301.000			12.909			-1.614
243402.000			12.910			-1.614
243501.000			12.909			-1.614
243600.000			12.909			-1.614
243701.000			12.909			-1.614
243800.000			12.909			-1.614
243900.000			12.909			-1.614
244001.000			12.909			-1.614
244100.000			12.909			-1.614
244202.000			12.909			-1.614
244301.000			12.908			-1.614
244401.000			12.908			-1.614
244501.000			12.909			-1.614
244600.000			12.909			-1.614
244700.000			12.908			-1.613
244801.000			12.909			-1.614
244900.000			12.908			-1.614
245000.000			12.908			-1.613
245101.000			12.908			-1.613
245201.000			12.907			-1.613
245301.000			12.908			-1.613
245401.000			12.908			-1.613
245500.000			12.907			-1.613
245600.000			12.907			-1.613
245701.000			12.907			-1.613
245800.000			12.907			-1.613
245900.000			12.907			-1.613
246001.000			12.907			-1.613
246101.000			12.907			-1.613
246201.000			12.906			-1.613
246302.000			12.905			-1.613
246400.000			12.907			-1.613
246500.000			12.907			-1.613
246601.000			12.905			-1.613
246700.000			12.905			-1.613
246800.000			12.906			-1.613
246901.000			12.905			-1.613
247001.000			12.905			-1.613
247101.000			12.905			-1.613
247202.000			12.906			-1.613
247300.000			12.905			-1.613
247400.000			12.904			-1.613
247500.000			12.904			-1.613
247600.000			12.904			-1.613
247701.000			12.904			-1.613
247800.000			12.904			-1.613
247900.000			12.903			-1.613
248002.000			12.904			-1.613
248101.000			12.904			-1.613
248200.000			12.904			-1.613
248301.000			12.903			-1.613
248400.000			12.904			-1.613
248500.000			12.903			-1.613
248601.000			12.902			-1.613
248700.000			12.903			-1.613
248800.000			12.903			-1.613
248902.000			12.902			-1.613
249001.000			12.902			-1.613
249101.000			12.902			-1.613
249201.000			12.902			-1.613
249300.000			12.902			-1.613
249400.000			12.903			-1.613
249501.000			12.903			-1.613
249600.000			12.902			-1.613
249700.000			12.901			-1.613
249801.000			12.901			-1.613
249901.000			12.900			-1.613
250001.000			12.900			-1.613
250101.000			12.901			-1.613
250200.000			12.901			-1.613
250300.000			12.901			-1.613
250401.000			12.901			-1.613
250500.000			12.900			-1.613
250600.000			12.901			-1.613
250700.000			12.901			-1.613
250801.000			12.900			-1.613
250902.000			12.901			-1.613
251000.000			12.900			-1.613
251100.000			12.899			-1.612
251201.000			12.899			-1.612
251300.000			12.900			-1.613
251400.000			12.900			-1.612
251501.000			12.899			-1.612
251600.000			12.898			-1.612
251701.000			12.899			-1.612
251802.000			12.899			-1.612
251901.000			12.898			-1.612
252000.000			12.898			-1.612
252101.000			12.899			-1.612
252200.000			12.899			-1.612
252300.000			12.898			-1.612
252401.000			12.899			-1.612
252500.000			12.898			-1.612
252600.000			12.899			-1.612
252702.000			12.898			-1.612
252801.000			12.898			-1.612
252900.000			12.898			-1.612
253001.000			12.899			-1.612
253100.000			12.898			-1.612
253200.000			12.898			-1.612
253301.000			12.897			-1.612
253400.000			12.898			-1.612
253500.000			12.897			-1.612
253602.000			12.897			-1.612
253701.000			12.897			-1.612
253802.000			12.896			-1.612
253900.000			12.896			-1.612
254000.000			12.896			-1.612
254101.000			12.895			-1.612
254200.000			12.896			-1.612
254300.000			12.895			-1.612
254401.000			12.896			-1.612
254500.000			12.896			-1.612
254600.000			12.895			-1.612
254702.000			12.896			-1.612
254801.000			12.895			-1.612
254900.000			12.894			-1.612
255001.000			12.894			-1.612
255100.000			12.894			-1.612
255200.000			12.894			-1.612
255301.000			12.894			-1.612
255400.000			12.894			-1.612
255500.000			12.894			-1.612
255602.000			12.894			-1.612
255701.000			12.894			-1.612
255801.000			12.893			-1.612
255901.000			12.894			-1.612
256000.000			12.893			-1.612
256100.000			12.893			-1.612
256201.000			12.894			-1.612
256300.000			12.893			-1.612
256400.000			12.892			-1.612
256501.000			12.892			-1.612
256601.000			12.892			-1.612
256701.000			12.892			-1.612
256801.000			12.893			-1.612
256900.000			12.892			-1.611
257000.000			12.891			-1.611
257100.000			12.891			-1.611
257200.000			12.891			-1.611
257301.000			12.891			-1.611
257400.000			12.892			-1.611
257500.000			12.892			-1.612
257602.000			12.891			-1.611
257701.000			12.891			-1.611
257800.000			12.892			-1.611
257901.000			12.891			-1.611
258000.000			12.891			-1.611
258100.000			12.891			-1.611
258201.000			12.891			-1.611
258300.000			12.890			-1.611
258400.000			12.890			-1.611
258502.000			12.889			-1.611
258601.000			12.889			-1.611
258701.000			12.890			-1.611
258801.000			12.890			-1.611
258900.000			12.890			-1.611
259000.000			12.889			-1.611
259101.000			12.889			-1.611
259200.000			12.890			-1.611
259300.000			12.889			-1.611
259401.000			12.889			-1.611
259501.000			12.888			-1.611
259601.000			12.888			-1.611
259702.000			12.889			-1.611
259800.000			12.889			-1.611
259900.000			12.888			-1.611
260001.000			12.888			-1.611
260100.000			12.887			-1.611
260200.000			12.887			-1.611
260300.000			12.887			-1.611
260400.000			12.887			-1.611
260502.000			12.887			-1.611
260601.000			12.887			-1.611
260700.000			12.887			-1.611
260801.000			12.887			-1.611
260900.000			12.885			-1.611
261000.000			12.887			-1.611
261101.000			12.888			-1.611
261200.000			12.888			-1.611
261300.000			12.887			-1.611
261402.000			12.886			-1.611
261501.000			12.888			-1.611
261601.000			12.887			-1.611
261701.000			12.886			-1.611
261800.000			12.885			-1.611
261900.000			12.884			-1.611
262001.000			12.885			-1.611
262100.000			12.886			-1.611
262200.000			12.886			-1.611
262301.000			12.886			-1.611
262401.000			12.886			-1.611
262501.000			12.885			-1.611
262602.000			12.884			-1.610
262700.000			12.884			-1.611
262800.000			12.886			-1.611
262901.000			12.885			-1.611
263000.000			12.885			-1.611
263100.000			12.884			-1.610
263201.000			12.884			-1.610
263301.000			12.884			-1.610
263402.000			12.883			-1.610
263501.000			12.885			-1.611
263600.000			12.883			-1.610
263701.000			12.883			-1.610
263800.000			12.883			-1.610
263900.000			12.883			-1.610
264001.000			12.883			-1.610
264100.000			12.883			-1.610
264200.000			12.882			-1.610
264302.000			12.882			-1.610
264401.000			12.881			-1.610
264501.000			12.882			-1.610
264601.000			12.883			-1.610
264700.000			12.882			-1.610
264800.000			12.882			-1.610
264901.000			12.883			-1.610
265000.000			12.882			-1.610
265100.000			12.882			-1.610
265202.000			12.882			-1.610
265301.000			12.881			-1.610
265401.000			12.880			-1.610
265501.000			12.880			-1.610
265600.000			12.881			-1.610
265700.000			12.880			-1.610
265801.000			12.881			-1.610
265900.000			12.881			-1.610
266000.000			12.880			-1.610
266101.000			12.880			-1.610
266201.000			12.880			-1.610
266301.000			12.880			-1.610
266401.000			12.880			-1.610
266500.000			12.881			-1.610
266600.000			12.881			-1.610
266700.000			12.880			-1.610
266800.000			12.880			-1.610
266901.000			12.880			-1.610
267000.000			12.880			-1.610
267100.000			12.880			-1.610
267202.000			12.878			-1.610
267301.000			12.879			-1.610
267400.000			12.880			-1.610
267501.000			12.880			-1.610
267600.000			12.879			-1.610
267700.000			12.879			-1.610
267801.000			12.879			-1.610
267900.000			12.879			-1.610
268000.000			12.878			-1.610
268101.000			12.879			-1.610
268201.000			12.878			-1.610
268301.000			12.878			-1.610
268401.000			12.878			-1.610
268500.000			12.878			-1.610
268600.000			12.878			-1.610
268701.000			12.878			-1.610
268800.000			12.878			-1.610
268900.000			12.878			-1.610
269001.000			12.878			-1.610
269101.000			12.877			-1.610
269201.000			12.877			-1.610
269302.000			12.878			-1.610
269400.000			12.877			-1.610
269500.000			12.877			-1.610
269601.000			12.876			-1.610
269700.000			12.877			-1.610
269800.000			12.877			-1.610
269900.000			12.877			-1.610
270000.000			12.876			-1.609
270102.000			12.875			-1.609
270201.000			12.875			-1.609
270301.000			12.875			-1.609
270401.000			12.875			-1.609
270500.000			12.875			-1.609
270600.000			12.876			-1.609
270701.000			12.875			-1.609
270800.000			12.875			-1.609
270900.000			12.875			-1.609
271001.000			12.875			-1.609
271101.000			12.876			-1.610
271201.000			12.876			-1.609
271301.000			12.875			-1.609
271400.000			12.875			-1.609
271500.000			12.873			-1.609
271601.000			12.874			-1.609
271700.000			12.874			-1.609
271800.000			12.875			-1.609
271901.000			12.874			-1.609
272001.000			12.874			-1.609
272101.000			12.873			-1.609
272202.000			12.874			-1.609
272300.000			12.873			-1.609
272400.000			12.872			-1.609
272501.000			12.873			-1.609
272600.000			12.872			-1.609
272700.000			12.872			-1.609
272801.000			12.872			-1.609
272901.000			12.872			-1.609
273002.000			12.872			-1.609
273101.000			12.872			-1.609
273200.000			12.873			-1.609
273301.000			12.872			-1.609
273400.000			12.871			-1.609
273500.000			12.871			-1.609
273601.000			12.872			-1.609
273700.000			12.871			-1.609
273800.000			12.871			-1.609
273902.000			12.872			-1.609
274001.000			12.872			-1.609
274100.000			12.871			-1.609
274201.000			12.870			-1.609
274300.000			12.871			-1.609
274400.000			12.870			-1.609
274501.000			12.871			-1.609
274600.000			12.871			-1.609
274700.000			12.871			-1.609
274802.000			12.870			-1.609
274901.000			12.870			-1.609
275000.000			12.870			-1.609
275101.000			12.870			-1.609
275200.000			12.870			-1.609
275300.000			12.869			-1.609
275401.000			12.869			-1.609
275500.000			12.869			-1.609
275600.000			12.869			-1.609
275702.000			12.869			-1.609
275801.000			12.870			-1.609
275901.000			12.870			-1.609
276001.000			12.869			-1.609
276100.000			12.868			-1.609
276200.000			12.868			-1.608
276300.000			12.868			-1.608
276400.000			12.869			-1.609
276501.000			12.869			-1.609
276600.000			12.869			-1.609
276701.000			12.868			-1.609
276802.000			12.867			-1.608
276901.000			12.867			-1.608
277000.000			12.866			-1.608
277101.000			12.867			-1.608
277200.000			12.868			-1.608
277300.000			12.867			-1.608
277401.000			12.868			-1.608
277500.000			12.867			-1.608
277600.000			12.867			-1.608
277702.000			12.867			-1.608
277801.000			12.867			-1.608
277901.000			12.866			-1.608
278001.000			12.866			-1.608
278100.000			12.867			-1.608
278200.000			12.866			-1.608
278301.000			12.866			-1.608
278400.000			12.866			-1.608
278500.000			12.866			-1.608
278601.000			12.867			-1.608
278701.000			12.865			-1.608
278801.000			12.865			-1.608
278902.000			12.865			-1.608
279000.000			12.865			-1.608
279100.000			12.865			-1.608
279201.000			12.865			-1.608
279300.000			12.864			-1.608
279400.000			12.865			-1.608
279500.000			12.865			-1.608
279600.000			12.865			-1.608
279702.000			12.864			-1.608
279801.000			12.864			-1.608
279901.000			12.864			-1.608
280001.000			12.863			-1.608
280100.000			12.864			-1.608
280200.000			12.864			-1.608
280301.000			12.863			-1.608
280400.000			12.863			-1.608
280500.000			12.863			-1.608
280602.000			12.863			-1.608
280701.000			12.863			-1.608
280801.000			12.863			-1.608
280901.000			12.863			-1.608
281000.000			12.862			-1.608
281100.000			12.862			-1.608
281201.000			12.862			-1.608
281300.000			12.861			-1.608
281400.000			12.861			-1.608
281501.000			12.862			-1.608
281601.000			12.861			-1.608
281701.000			12.861			-1.608
281801.000			12.860			-1.607
281900.000			12.861			-1.608
282000.000			12.862			-1.608
282101.000			12.861			-1.608
282200.000			12.860			-1.608
282300.000			12.861			-1.608
282401.000			12.860			-1.608
282501.000			12.860			-1.608
282602.000			12.860			-1.608
282700.000			12.861			-1.608
282800.000			12.862			-1.608
282901.000			12.860			-1.608
283000.000			12.860			-1.608
283100.000			12.859			-1.607
283201.000			12.860			-1.608
283300.000			12.860			-1.608
283401.000			12.859			-1.607
283502.000			12.858			-1.607
283601.000			12.858			-1.607
283700.000			12.859			-1.607
283801.000			12.858			-1.607
283900.000			12.857			-1.607
284000.000			12.858			-1.607
284101.000			12.858			-1.607
284200.000			12.858			-1.607
284300.000			12.858			-1.607
284402.000			12.858			-1.607
284501.000			12.857			-1.607
284600.000			12.857			-1.607
284701.000			12.857			-1.607
284800.000			12.857			-1.607
284900.000			12.858			-1.607
285001.000			12.858			-1.607
285100.000			12.857			-1.607
285200.000			12.857			-1.607
285302.000			12.857			-1.607
285401.000			12.856			-1.607
285501.000			12.856			-1.607
285601.000			12.857			-1.607
285700.000			12.856			-1.607
285800.000			12.856			-1.607
285900.000			12.856			-1.607
286000.000			12.856			-1.607
286101.000			12.856			-1.607
286200.000			12.856			-1.607
286301.000			12.855			-1.607
286402.000			12.855			-1.607
286501.000			12.855			-1.607
286600.000			12.856			-1.607
286701.000			12.854			-1.607
286800.000			12.855			-1.607
286900.000			12.855			-1.607
287001.000			12.854			-1.607
287100.000			12.854			-1.607
287200.000			12.855			-1.607
287302.000			12.855			-1.607
287401.000			12.855			-1.607
287500.000			12.855			-1.607
287601.000			12.854			-1.607
287700.000			12.853			-1.607
287800.000			12.853			-1.607
287901.000			12.854			-1.607
288000.000			12.854			-1.607
288100.000			12.853			-1.607
288202.000			12.852			-1.607
288301.000			12.853			-1.607
288401.000			12.853			-1.607
288501.000			12.852			-1.607
288600.000			12.853			-1.607
288700.000			12.854			-1.607
288801.000			12.853			-1.607
288900.000			12.852			-1.607
289000.000			12.852			-1.607
289100.000			12.852			-1.607
289201.000			12.852			-1.606
289302.000			12.852			-1.606
289400.000			12.852			-1.606
289500.000			12.851			-1.606
289601.000			12.851			-1.606
289700.000			12.852			-1.606
289800.000			12.851			-1.606
289901.000			12.851			-1.606
290000.000			12.850			-1.606
290100.000			12.849			-1.606
290202.000			12.850			-1.606
290301.000			12.851			-1.606
290400.000			12.851			-1.606
290501.000			12.850			-1.606
290600.000			12.850			-1.606
290700.000			12.850			-1.606
290801.000			12.849			-1.606
290900.000			12.850			-1.606
291000.000			12.850			-1.606
291102.000			12.850			-1.606
291201.000			12.850			-1.606
291300.000			12.850			-1.606
291401.000			12.849			-1.606
291500.000			12.849			-1.606
291600.000			12.849			-1.606
291701.000			12.850			-1.606
291800.000			12.849			-1.606
291900.000			12.848			-1.606
292001.000			12.849			-1.606
292101.000			12.849			-1.606
292202.000			12.848			-1.606
292300.000			12.849			-1.606
292400.000			12.849			-1.606
292501.000			12.848			-1.606
292600.000			12.848			-1.606
292700.000			12.848			-1.606
292801.000			12.849			-1.606
292900.000			12.849			-1.606
293001.000			12.847			-1.606
293102.000			12.847			-1.606
293201.000			12.849			-1.606
293300.000			12.848			-1.606
293401.000			12.847			-1.606
293500.000			12.847			-1.606
293600.000			12.848			-1.606
293701.000			12.847			-1.606
293800.000			12.846			-1.606
293900.000			12.847			-1.606
294002.000			12.847			-1.606
294101.000			12.847			-1.606
294200.000			12.846			-1.606
294301.000			12.845			-1.606
294400.000			12.846			-1.606
294500.000			12.847			-1.606
294601.000			12.845			-1.606
294700.000			12.846			-1.606
294800.000			12.846			-1.606
294901.000			12.846			-1.606
295001.000			12.845			-1.606
295101.000			12.845			-1.606
295201.000			12.845			-1.606
295300.000			12.844			-1.606
295400.000			12.845			-1.606
295500.000			12.844			-1.606
295600.000			12.844			-1.605
295701.000			12.844			-1.606
295800.000			12.844			-1.606
295901.000			12.844			-1.605
296002.000			12.843			-1.605
296101.000			12.844			-1.605
296200.000			12.844			-1.606
296301.000			12.844			-1.606
296400.000			12.844			-1.605
296500.000			12.844			-1.605
296601.000			12.843			-1.605
296700.000			12.844			-1.605
296800.000			12.844			-1.605
296902.000			12.843			-1.605
297001.000			12.843			-1.605
297100.000			12.843			-1.605
297201.000			12.843			-1.605
297300.000			12.844			-1.605
297400.000			12.844			-1.605
297501.000			12.844			-1.606
297600.000			12.843			-1.605
297700.000			12.843			-1.605
297802.000			12.842			-1.605
297901.000			12.842			-1.605
298001.000			12.841			-1.605
298101.000			12.841			-1.605
298200.000			12.842			-1.605
298300.000			12.842			-1.605
298401.000			12.841			-1.605
298500.000			12.841			-1.605
298600.000			12.841			-1.605
298700.000			12.841			-1.605
298801.000			12.842			-1.605
298902.000			12.841			-1.605
299000.000			12.841			-1.605
299100.000			12.842			-1.605
299201.000			12.842			-1.605
299300.000			12.841			-1.605
299400.000			12.840			-1.605
299501.000			12.841			-1.605
299600.000			12.840			-1.605
299701.000			12.841			-1.605
299802.000			12.840			-1.605
299901.000			12.839			-1.605
