# Acquired on 29/01/2024 17:24:01 
# SPIDER: Creep_-9mm_HM077x145x38AA-1
# CREEP MEASUREMENT

# time [ms]		force [N]		stiffness [N/mm]
0.000			49.320			-5.480
103.000			50.280			-5.587
204.000			50.422			-5.602
305.000			50.194			-5.577
404.000			50.042			-5.560
504.000			49.935			-5.548
604.000			49.764			-5.529
704.000			49.693			-5.521
804.000			49.628			-5.514
905.000			49.571			-5.508
1004.000			49.517			-5.502
1104.000			49.467			-5.496
1205.000			49.420			-5.491
1303.000			49.337			-5.482
1404.000			49.298			-5.478
1505.000			49.260			-5.473
1604.000			49.225			-5.469
1705.000			49.191			-5.466
1804.000			49.159			-5.462
1904.000			49.129			-5.459
2004.000			49.101			-5.456
2104.000			49.044			-5.449
2204.000			49.018			-5.446
2305.000			48.993			-5.444
2404.000			48.968			-5.441
2503.000			48.943			-5.438
2605.000			48.920			-5.436
2704.000			48.898			-5.433
2804.000			48.856			-5.428
2905.000			48.835			-5.426
3004.000			48.814			-5.424
3104.000			48.795			-5.422
3204.000			48.776			-5.420
3304.000			48.757			-5.417
3404.000			48.739			-5.415
3505.000			48.706			-5.412
3604.000			48.689			-5.410
3704.000			48.673			-5.408
3805.000			48.656			-5.406
3903.000			48.640			-5.404
4004.000			48.625			-5.403
4105.000			48.609			-5.401
4204.000			48.579			-5.398
4304.000			48.565			-5.396
4405.000			48.550			-5.394
4504.000			48.537			-5.393
4603.000			48.523			-5.391
4705.000			48.510			-5.390
4804.000			48.498			-5.389
4905.000			48.471			-5.386
5004.000			48.459			-5.384
5104.000			48.446			-5.383
5205.000			48.433			-5.381
5303.000			48.422			-5.380
5404.000			48.410			-5.379
5505.000			48.398			-5.378
5604.000			48.388			-5.376
5704.000			48.366			-5.374
5804.000			48.355			-5.373
5904.000			48.344			-5.372
6004.000			48.332			-5.370
6105.000			48.323			-5.369
6204.000			48.314			-5.368
6304.000			48.305			-5.367
6405.000			48.283			-5.365
6503.000			48.273			-5.364
6604.000			48.264			-5.363
6705.000			48.254			-5.362
6804.000			48.244			-5.360
6904.000			48.235			-5.359
7005.000			48.225			-5.358
7104.000			48.205			-5.356
7203.000			48.196			-5.355
7305.000			48.187			-5.354
7404.000			48.179			-5.353
7504.000			48.170			-5.352
7605.000			48.161			-5.351
7703.000			48.152			-5.350
7804.000			48.137			-5.349
7905.000			48.129			-5.348
8004.000			48.121			-5.347
8105.000			48.114			-5.346
8204.000			48.105			-5.345
8304.000			48.097			-5.344
8404.000			48.089			-5.343
8504.000			48.080			-5.342
8604.000			48.067			-5.341
8705.000			48.058			-5.340
8804.000			48.050			-5.339
8904.000			48.042			-5.338
9005.000			48.035			-5.337
9103.000			48.029			-5.337
9204.000			48.022			-5.336
9305.000			48.007			-5.334
9404.000			48.000			-5.333
9504.000			47.993			-5.333
9604.000			47.986			-5.332
9704.000			47.980			-5.331
9803.000			47.973			-5.330
9905.000			47.967			-5.330
10004.000			47.953			-5.328
10104.000			47.947			-5.327
10205.000			47.940			-5.327
10304.000			47.933			-5.326
10404.000			47.926			-5.325
10504.000			47.920			-5.324
10604.000			47.914			-5.324
10704.000			47.903			-5.323
10805.000			47.897			-5.322
10904.000			47.890			-5.321
11004.000			47.884			-5.320
11105.000			47.877			-5.320
11203.000			47.871			-5.319
11305.000			47.866			-5.318
11404.000			47.860			-5.318
11504.000			47.848			-5.316
11605.000			47.842			-5.316
11704.000			47.836			-5.315
11804.000			47.831			-5.315
11904.000			47.825			-5.314
12004.000			47.821			-5.313
12104.000			47.816			-5.313
12205.000			47.804			-5.312
12304.000			47.799			-5.311
12404.000			47.793			-5.310
12505.000			47.787			-5.310
12603.000			47.782			-5.309
12704.000			47.777			-5.309
12805.000			47.772			-5.308
12904.000			47.761			-5.307
13004.000			47.757			-5.306
13104.000			47.753			-5.306
13204.000			47.748			-5.305
13303.000			47.740			-5.304
13405.000			47.734			-5.304
13504.000			47.730			-5.303
13604.000			47.720			-5.302
13705.000			47.715			-5.302
13803.000			47.711			-5.301
13904.000			47.705			-5.301
14005.000			47.700			-5.300
14104.000			47.696			-5.300
14204.000			47.691			-5.299
14305.000			47.685			-5.298
14404.000			47.676			-5.297
14503.000			47.671			-5.297
14604.000			47.666			-5.296
14703.000			47.662			-5.296
14805.000			47.658			-5.295
14904.000			47.653			-5.295
15004.000			47.648			-5.294
15105.000			47.639			-5.293
15204.000			47.636			-5.293
15304.000			47.631			-5.292
15404.000			47.626			-5.292
15504.000			47.622			-5.291
15604.000			47.617			-5.291
15705.000			47.613			-5.290
15804.000			47.604			-5.289
15903.000			47.600			-5.289
16005.000			47.596			-5.288
16104.000			47.591			-5.288
16204.000			47.586			-5.287
16305.000			47.582			-5.287
16404.000			47.577			-5.286
16504.000			47.571			-5.286
16604.000			47.567			-5.285
16704.000			47.563			-5.285
16803.000			47.558			-5.284
16905.000			47.553			-5.284
17004.000			47.550			-5.283
17104.000			47.546			-5.283
17205.000			47.543			-5.283
17304.000			47.534			-5.282
17404.000			47.530			-5.281
17504.000			47.526			-5.281
17604.000			47.523			-5.280
17705.000			47.520			-5.280
17804.000			47.514			-5.279
17904.000			47.509			-5.279
18004.000			47.502			-5.278
18104.000			47.500			-5.278
18203.000			47.495			-5.277
18305.000			47.492			-5.277
18404.000			47.488			-5.276
18504.000			47.484			-5.276
18605.000			47.480			-5.276
18704.000			47.473			-5.275
18804.000			47.469			-5.274
18904.000			47.465			-5.274
19004.000			47.462			-5.274
19104.000			47.458			-5.273
19205.000			47.455			-5.273
19304.000			47.452			-5.272
19404.000			47.444			-5.272
19505.000			47.440			-5.271
19603.000			47.437			-5.271
19704.000			47.434			-5.270
19805.000			47.431			-5.270
19904.000			47.426			-5.270
20004.000			47.423			-5.269
20105.000			47.420			-5.269
20204.000			47.413			-5.268
20303.000			47.409			-5.268
20405.000			47.406			-5.267
20504.000			47.402			-5.267
20604.000			47.398			-5.266
20705.000			47.395			-5.266
20804.000			47.392			-5.266
20905.000			47.385			-5.265
21003.000			47.382			-5.265
21104.000			47.378			-5.264
21205.000			47.374			-5.264
21304.000			47.370			-5.263
21404.000			47.369			-5.263
21504.000			47.366			-5.263
21604.000			47.359			-5.262
21703.000			47.357			-5.262
21805.000			47.353			-5.261
21904.000			47.351			-5.261
22004.000			47.346			-5.261
22105.000			47.343			-5.260
22203.000			47.341			-5.260
22304.000			47.333			-5.259
22405.000			47.330			-5.259
22504.000			47.327			-5.259
22604.000			47.325			-5.258
22705.000			47.322			-5.258
22804.000			47.318			-5.258
22903.000			47.316			-5.257
23005.000			47.310			-5.257
23104.000			47.307			-5.256
23204.000			47.304			-5.256
23305.000			47.301			-5.256
23404.000			47.298			-5.255
23504.000			47.294			-5.255
23604.000			47.291			-5.255
23704.000			47.290			-5.254
23804.000			47.283			-5.254
23905.000			47.279			-5.253
24004.000			47.277			-5.253
24105.000			47.275			-5.253
24204.000			47.272			-5.252
24303.000			47.267			-5.252
24405.000			47.264			-5.252
24504.000			47.259			-5.251
24604.000			47.257			-5.251
24705.000			47.253			-5.250
24804.000			47.252			-5.250
24904.000			47.249			-5.250
25004.000			47.246			-5.250
25104.000			47.242			-5.249
25204.000			47.236			-5.248
25305.000			47.233			-5.248
25404.000			47.231			-5.248
25504.000			47.228			-5.248
25605.000			47.225			-5.247
25703.000			47.224			-5.247
25804.000			47.221			-5.247
25905.000			47.216			-5.246
26004.000			47.212			-5.246
26104.000			47.209			-5.245
26205.000			47.207			-5.245
26304.000			47.205			-5.245
26403.000			47.202			-5.245
26505.000			47.199			-5.244
26604.000			47.195			-5.244
26704.000			47.190			-5.243
26805.000			47.189			-5.243
26904.000			47.185			-5.243
27004.000			47.181			-5.242
27104.000			47.180			-5.242
27204.000			47.178			-5.242
27305.000			47.175			-5.242
27404.000			47.169			-5.241
27504.000			47.166			-5.241
27605.000			47.164			-5.240
27704.000			47.162			-5.240
27803.000			47.160			-5.240
27905.000			47.157			-5.240
28004.000			47.154			-5.239
28104.000			47.151			-5.239
28205.000			47.148			-5.239
28304.000			47.145			-5.238
28404.000			47.142			-5.238
28504.000			47.138			-5.238
28604.000			47.135			-5.237
28704.000			47.134			-5.237
28805.000			47.129			-5.237
28904.000			47.127			-5.236
29004.000			47.124			-5.236
29105.000			47.121			-5.236
29203.000			47.119			-5.235
29304.000			47.117			-5.235
29405.000			47.114			-5.235
29504.000			47.112			-5.235
29604.000			47.106			-5.234
29704.000			47.104			-5.234
29804.000			47.102			-5.234
29904.000			47.101			-5.233
30005.000			47.098			-5.233
30104.000			47.095			-5.233
30204.000			47.093			-5.233
30305.000			47.090			-5.232
30403.000			47.086			-5.232
30505.000			47.083			-5.231
30604.000			47.081			-5.231
30704.000			47.078			-5.231
30805.000			47.076			-5.231
30904.000			47.074			-5.230
31004.000			47.070			-5.230
31104.000			47.068			-5.230
31204.000			47.066			-5.230
31304.000			47.063			-5.229
31405.000			47.061			-5.229
31504.000			47.059			-5.229
31604.000			47.057			-5.229
31705.000			47.052			-5.228
31803.000			47.049			-5.228
31904.000			47.047			-5.227
32005.000			47.045			-5.227
32104.000			47.043			-5.227
32204.000			47.041			-5.227
32304.000			47.038			-5.226
32404.000			47.036			-5.226
32504.000			47.031			-5.226
32605.000			47.028			-5.225
32704.000			47.027			-5.225
32804.000			47.025			-5.225
32905.000			47.023			-5.225
33003.000			47.021			-5.225
33104.000			47.019			-5.224
33205.000			47.013			-5.224
33304.000			47.012			-5.224
33404.000			47.010			-5.223
33505.000			47.008			-5.223
33604.000			47.005			-5.223
33703.000			47.003			-5.223
33804.000			47.000			-5.222
33904.000			46.996			-5.222
34005.000			46.994			-5.222
34104.000			46.991			-5.221
34204.000			46.989			-5.221
34305.000			46.987			-5.221
34403.000			46.986			-5.221
34504.000			46.984			-5.220
34605.000			46.980			-5.220
34704.000			46.978			-5.220
34804.000			46.976			-5.220
34905.000			46.973			-5.219
35004.000			46.971			-5.219
35103.000			46.969			-5.219
35205.000			46.968			-5.219
35304.000			46.963			-5.218
35404.000			46.962			-5.218
35505.000			46.962			-5.218
35604.000			46.958			-5.218
35704.000			46.955			-5.217
35804.000			46.952			-5.217
35904.000			46.951			-5.217
36004.000			46.948			-5.216
36105.000			46.945			-5.216
36204.000			46.943			-5.216
36304.000			46.941			-5.216
36405.000			46.939			-5.215
36503.000			46.938			-5.215
36604.000			46.936			-5.215
36705.000			46.933			-5.215
36804.000			46.930			-5.214
36905.000			46.927			-5.214
37004.000			46.925			-5.214
37104.000			46.924			-5.214
37204.000			46.922			-5.214
37304.000			46.919			-5.213
37404.000			46.918			-5.213
37505.000			46.913			-5.213
37604.000			46.911			-5.212
37704.000			46.910			-5.212
37805.000			46.909			-5.212
37903.000			46.907			-5.212
38004.000			46.905			-5.212
38105.000			46.902			-5.211
38204.000			46.898			-5.211
38304.000			46.896			-5.211
38405.000			46.894			-5.210
38504.000			46.893			-5.210
38603.000			46.891			-5.210
38705.000			46.889			-5.210
38804.000			46.886			-5.210
38904.000			46.885			-5.209
39005.000			46.881			-5.209
39104.000			46.880			-5.209
39204.000			46.878			-5.209
39304.000			46.876			-5.208
39404.000			46.875			-5.208
39504.000			46.874			-5.208
39605.000			46.872			-5.208
39704.000			46.868			-5.208
39804.000			46.865			-5.207
39905.000			46.863			-5.207
40003.000			46.861			-5.207
40105.000			46.859			-5.207
40204.000			46.858			-5.206
40304.000			46.857			-5.206
40405.000			46.852			-5.206
40504.000			46.851			-5.206
40604.000			46.849			-5.205
40704.000			46.847			-5.205
40804.000			46.845			-5.205
40904.000			46.843			-5.205
41005.000			46.842			-5.205
41104.000			46.839			-5.204
41204.000			46.836			-5.204
41305.000			46.834			-5.204
41403.000			46.834			-5.204
41504.000			46.832			-5.204
41605.000			46.829			-5.203
41704.000			46.828			-5.203
41804.000			46.825			-5.203
41905.000			46.823			-5.203
42004.000			46.821			-5.202
42103.000			46.819			-5.202
42205.000			46.817			-5.202
42304.000			46.816			-5.202
42404.000			46.814			-5.202
42505.000			46.812			-5.201
42604.000			46.809			-5.201
42704.000			46.807			-5.201
42804.000			46.804			-5.200
42904.000			46.803			-5.200
43004.000			46.803			-5.200
43105.000			46.800			-5.200
43204.000			46.798			-5.200
43305.000			46.794			-5.199
43404.000			46.793			-5.199
43503.000			46.792			-5.199
43605.000			46.791			-5.199
43704.000			46.787			-5.199
43804.000			46.786			-5.198
43905.000			46.784			-5.198
44004.000			46.781			-5.198
44104.000			46.780			-5.198
44204.000			46.779			-5.198
44304.000			46.777			-5.197
44404.000			46.776			-5.197
44505.000			46.773			-5.197
44604.000			46.770			-5.197
44704.000			46.770			-5.197
44805.000			46.768			-5.196
44903.000			46.765			-5.196
45004.000			46.763			-5.196
45105.000			46.761			-5.196
45204.000			46.760			-5.196
45304.000			46.758			-5.195
45405.000			46.756			-5.195
45504.000			46.753			-5.195
45603.000			46.752			-5.195
45705.000			46.749			-5.194
45804.000			46.749			-5.194
45904.000			46.747			-5.194
46005.000			46.745			-5.194
46104.000			46.744			-5.194
46204.000			46.740			-5.193
46304.000			46.740			-5.193
46404.000			46.738			-5.193
46505.000			46.735			-5.193
46604.000			46.734			-5.193
46704.000			46.732			-5.192
46805.000			46.731			-5.192
46904.000			46.727			-5.192
47003.000			46.725			-5.192
47105.000			46.723			-5.191
47204.000			46.722			-5.191
47304.000			46.721			-5.191
47405.000			46.721			-5.191
47504.000			46.719			-5.191
47604.000			46.717			-5.191
47704.000			46.713			-5.190
47804.000			46.713			-5.190
47904.000			46.711			-5.190
48005.000			46.710			-5.190
48104.000			46.708			-5.190
48204.000			46.706			-5.190
48305.000			46.705			-5.189
48403.000			46.702			-5.189
48504.000			46.699			-5.189
48605.000			46.699			-5.189
48704.000			46.698			-5.189
48804.000			46.696			-5.188
48905.000			46.694			-5.188
49004.000			46.691			-5.188
49103.000			46.689			-5.188
49205.000			46.688			-5.188
49304.000			46.687			-5.187
49404.000			46.684			-5.187
49505.000			46.683			-5.187
49604.000			46.682			-5.187
49705.000			46.680			-5.187
49803.000			46.677			-5.186
49904.000			46.675			-5.186
50005.000			46.674			-5.186
50104.000			46.673			-5.186
50204.000			46.673			-5.186
50305.000			46.673			-5.186
50404.000			46.671			-5.186
50503.000			46.670			-5.186
50605.000			46.666			-5.185
50704.000			46.664			-5.185
50804.000			46.662			-5.185
50905.000			46.660			-5.184
51004.000			46.659			-5.184
51104.000			46.658			-5.184
51204.000			46.657			-5.184
51304.000			46.652			-5.184
51404.000			46.651			-5.183
51505.000			46.649			-5.183
51604.000			46.648			-5.183
51704.000			46.647			-5.183
51805.000			46.646			-5.183
51903.000			46.643			-5.183
52004.000			46.642			-5.182
52105.000			46.641			-5.182
52204.000			46.639			-5.182
52304.000			46.637			-5.182
52405.000			46.636			-5.182
52504.000			46.635			-5.182
52603.000			46.632			-5.181
52705.000			46.629			-5.181
52804.000			46.627			-5.181
52905.000			46.627			-5.181
53004.000			46.626			-5.181
53104.000			46.624			-5.180
53205.000			46.622			-5.180
53303.000			46.621			-5.180
53404.000			46.618			-5.180
53505.000			46.616			-5.180
53604.000			46.615			-5.179
53704.000			46.613			-5.179
53805.000			46.612			-5.179
53904.000			46.612			-5.179
54003.000			46.611			-5.179
54105.000			46.609			-5.179
54204.000			46.606			-5.178
54304.000			46.605			-5.178
54405.000			46.604			-5.178
54504.000			46.602			-5.178
54604.000			46.601			-5.178
54704.000			46.600			-5.178
54804.000			46.598			-5.178
54904.000			46.596			-5.177
55005.000			46.593			-5.177
55104.000			46.591			-5.177
55204.000			46.591			-5.177
55305.000			46.590			-5.177
55403.000			46.589			-5.177
55504.000			46.588			-5.176
55605.000			46.585			-5.176
55704.000			46.582			-5.176
55804.000			46.582			-5.176
55905.000			46.581			-5.176
56004.000			46.579			-5.175
56103.000			46.577			-5.175
56204.000			46.576			-5.175
56304.000			46.575			-5.175
56405.000			46.573			-5.175
56504.000			46.571			-5.175
56604.000			46.570			-5.174
56705.000			46.568			-5.174
56803.000			46.568			-5.174
56904.000			46.566			-5.174
57005.000			46.564			-5.174
57104.000			46.563			-5.174
57204.000			46.561			-5.173
57305.000			46.559			-5.173
57404.000			46.558			-5.173
57503.000			46.556			-5.173
57605.000			46.556			-5.173
57704.000			46.554			-5.173
57804.000			46.550			-5.172
57905.000			46.549			-5.172
58004.000			46.549			-5.172
58104.000			46.547			-5.172
58204.000			46.546			-5.172
58304.000			46.545			-5.172
58404.000			46.543			-5.171
58505.000			46.541			-5.171
58604.000			46.539			-5.171
58704.000			46.539			-5.171
58805.000			46.538			-5.171
58903.000			46.536			-5.171
59004.000			46.535			-5.171
59105.000			46.533			-5.170
59204.000			46.530			-5.170
59305.000			46.529			-5.170
59404.000			46.528			-5.170
59504.000			46.527			-5.170
59604.000			46.525			-5.169
59704.000			46.525			-5.169
59804.000			46.524			-5.169
59905.000			46.522			-5.169
60004.000			46.520			-5.169
60104.000			46.518			-5.169
60205.000			46.517			-5.169
60303.000			46.516			-5.168
60404.000			46.515			-5.168
60505.000			46.515			-5.168
60604.000			46.513			-5.168
60704.000			46.510			-5.168
60805.000			46.509			-5.168
60904.000			46.507			-5.167
61003.000			46.507			-5.167
61105.000			46.506			-5.167
61204.000			46.504			-5.167
61304.000			46.502			-5.167
61405.000			46.499			-5.167
61504.000			46.497			-5.166
61604.000			46.497			-5.166
61704.000			46.496			-5.166
61804.000			46.494			-5.166
61904.000			46.493			-5.166
62005.000			46.492			-5.166
62104.000			46.489			-5.165
62204.000			46.488			-5.165
62305.000			46.487			-5.165
62403.000			46.486			-5.165
62505.000			46.485			-5.165
62604.000			46.484			-5.165
62704.000			46.483			-5.165
62805.000			46.481			-5.165
62904.000			46.479			-5.164
63004.000			46.478			-5.164
63104.000			46.477			-5.164
63204.000			46.476			-5.164
63304.000			46.474			-5.164
63405.000			46.472			-5.164
63504.000			46.471			-5.163
63604.000			46.469			-5.163
63705.000			46.467			-5.163
63803.000			46.466			-5.163
63904.000			46.466			-5.163
64005.000			46.466			-5.163
64104.000			46.464			-5.163
64204.000			46.462			-5.162
64305.000			46.461			-5.162
64404.000			46.460			-5.162
64503.000			46.457			-5.162
64605.000			46.456			-5.162
64704.000			46.456			-5.162
64804.000			46.454			-5.162
64905.000			46.454			-5.162
65004.000			46.453			-5.161
65104.000			46.452			-5.161
65204.000			46.450			-5.161
65304.000			46.448			-5.161
65404.000			46.447			-5.161
65505.000			46.444			-5.160
65604.000			46.443			-5.160
65705.000			46.442			-5.160
65804.000			46.440			-5.160
65903.000			46.439			-5.160
66005.000			46.438			-5.160
66104.000			46.437			-5.160
66204.000			46.434			-5.159
66305.000			46.435			-5.159
66404.000			46.435			-5.159
66504.000			46.431			-5.159
66604.000			46.430			-5.159
66704.000			46.429			-5.159
66804.000			46.428			-5.159
66905.000			46.426			-5.158
67004.000			46.424			-5.158
67104.000			46.425			-5.158
67205.000			46.423			-5.158
67303.000			46.421			-5.158
67404.000			46.419			-5.158
67505.000			46.418			-5.158
67604.000			46.418			-5.158
67704.000			46.417			-5.157
67805.000			46.416			-5.157
67904.000			46.412			-5.157
68003.000			46.411			-5.157
68105.000			46.411			-5.157
68204.000			46.411			-5.157
68304.000			46.410			-5.157
68405.000			46.409			-5.157
68504.000			46.407			-5.156
68604.000			46.404			-5.156
68704.000			46.403			-5.156
68804.000			46.404			-5.156
68905.000			46.402			-5.156
69004.000			46.400			-5.156
69104.000			46.398			-5.155
69205.000			46.397			-5.155
69304.000			46.397			-5.155
69403.000			46.395			-5.155
69505.000			46.394			-5.155
69604.000			46.394			-5.155
69704.000			46.392			-5.155
69805.000			46.391			-5.155
69904.000			46.388			-5.154
70004.000			46.388			-5.154
70104.000			46.386			-5.154
70204.000			46.385			-5.154
70304.000			46.383			-5.154
70405.000			46.383			-5.154
70504.000			46.381			-5.153
70604.000			46.379			-5.153
70705.000			46.379			-5.153
70803.000			46.378			-5.153
70904.000			46.377			-5.153
71005.000			46.374			-5.153
71104.000			46.373			-5.153
71204.000			46.372			-5.152
71305.000			46.372			-5.152
71404.000			46.371			-5.152
71503.000			46.368			-5.152
71605.000			46.367			-5.152
71704.000			46.366			-5.152
71804.000			46.365			-5.152
71905.000			46.364			-5.152
72004.000			46.362			-5.151
72105.000			46.361			-5.151
72203.000			46.361			-5.151
72304.000			46.359			-5.151
72405.000			46.358			-5.151
72504.000			46.357			-5.151
72604.000			46.356			-5.151
72705.000			46.355			-5.151
72804.000			46.355			-5.151
72903.000			46.355			-5.151
73005.000			46.351			-5.150
73104.000			46.348			-5.150
73204.000			46.348			-5.150
73305.000			46.348			-5.150
73404.000			46.348			-5.150
73504.000			46.346			-5.150
73604.000			46.346			-5.150
73704.000			46.343			-5.149
73804.000			46.342			-5.149
73905.000			46.340			-5.149
74004.000			46.339			-5.149
74104.000			46.338			-5.149
74205.000			46.338			-5.149
74303.000			46.337			-5.149
74404.000			46.335			-5.148
74505.000			46.334			-5.148
74604.000			46.333			-5.148
74704.000			46.331			-5.148
74805.000			46.330			-5.148
74904.000			46.329			-5.148
75003.000			46.327			-5.147
75105.000			46.327			-5.147
75204.000			46.325			-5.147
75305.000			46.325			-5.147
75404.000			46.324			-5.147
75504.000			46.322			-5.147
75605.000			46.321			-5.147
75703.000			46.322			-5.147
75804.000			46.321			-5.147
75905.000			46.318			-5.146
76004.000			46.316			-5.146
76104.000			46.315			-5.146
76205.000			46.315			-5.146
76304.000			46.314			-5.146
76403.000			46.313			-5.146
76505.000			46.312			-5.146
76604.000			46.309			-5.145
76704.000			46.308			-5.145
76805.000			46.307			-5.145
76904.000			46.306			-5.145
77004.000			46.304			-5.145
77104.000			46.304			-5.145
77204.000			46.304			-5.145
77304.000			46.301			-5.145
77405.000			46.300			-5.144
77504.000			46.299			-5.144
77604.000			46.297			-5.144
77705.000			46.297			-5.144
77803.000			46.297			-5.144
77904.000			46.295			-5.144
78005.000			46.293			-5.144
78104.000			46.292			-5.144
78204.000			46.290			-5.143
78305.000			46.289			-5.143
78404.000			46.288			-5.143
78503.000			46.287			-5.143
78604.000			46.288			-5.143
78704.000			46.288			-5.143
78805.000			46.284			-5.143
78904.000			46.283			-5.143
79004.000			46.283			-5.143
79105.000			46.282			-5.142
79203.000			46.281			-5.142
79304.000			46.280			-5.142
79404.000			46.279			-5.142
79504.000			46.277			-5.142
79604.000			46.276			-5.142
79705.000			46.275			-5.142
79804.000			46.275			-5.142
79904.000			46.274			-5.142
80005.000			46.273			-5.141
80103.000			46.271			-5.141
80204.000			46.268			-5.141
80305.000			46.267			-5.141
80404.000			46.266			-5.141
80504.000			46.266			-5.141
80605.000			46.265			-5.141
80704.000			46.263			-5.140
80803.000			46.261			-5.140
80905.000			46.262			-5.140
81004.000			46.260			-5.140
81104.000			46.258			-5.140
81205.000			46.259			-5.140
81304.000			46.258			-5.140
81404.000			46.258			-5.140
81504.000			46.256			-5.140
81604.000			46.254			-5.139
81705.000			46.252			-5.139
81804.000			46.252			-5.139
81904.000			46.252			-5.139
82005.000			46.251			-5.139
82104.000			46.249			-5.139
82203.000			46.247			-5.139
82305.000			46.246			-5.138
82404.000			46.246			-5.138
82504.000			46.244			-5.138
82605.000			46.241			-5.138
82704.000			46.241			-5.138
82804.000			46.241			-5.138
82904.000			46.241			-5.138
83004.000			46.240			-5.138
83104.000			46.239			-5.138
83205.000			46.238			-5.138
83304.000			46.236			-5.137
83403.000			46.236			-5.137
83505.000			46.235			-5.137
83604.000			46.233			-5.137
83704.000			46.232			-5.137
83805.000			46.231			-5.137
83904.000			46.230			-5.137
84004.000			46.228			-5.136
84104.000			46.228			-5.136
84204.000			46.227			-5.136
84303.000			46.226			-5.136
84405.000			46.225			-5.136
84504.000			46.224			-5.136
84604.000			46.223			-5.136
84705.000			46.222			-5.136
84803.000			46.221			-5.136
84905.000			46.220			-5.136
85003.000			46.218			-5.135
85104.000			46.217			-5.135
85205.000			46.216			-5.135
85304.000			46.214			-5.135
85404.000			46.214			-5.135
85504.000			46.214			-5.135
85604.000			46.212			-5.135
85703.000			46.211			-5.135
85805.000			46.210			-5.134
85904.000			46.211			-5.135
86004.000			46.210			-5.134
86105.000			46.208			-5.134
86203.000			46.207			-5.134
86304.000			46.206			-5.134
86405.000			46.204			-5.134
86504.000			46.203			-5.134
86604.000			46.203			-5.134
86705.000			46.202			-5.134
86804.000			46.201			-5.133
86903.000			46.199			-5.133
87005.000			46.198			-5.133
87104.000			46.198			-5.133
87204.000			46.197			-5.133
87305.000			46.195			-5.133
87404.000			46.194			-5.133
87504.000			46.193			-5.133
87604.000			46.192			-5.132
87704.000			46.192			-5.132
87803.000			46.190			-5.132
87905.000			46.189			-5.132
88004.000			46.187			-5.132
88105.000			46.187			-5.132
88204.000			46.186			-5.132
88304.000			46.185			-5.132
88405.000			46.184			-5.132
88503.000			46.184			-5.132
88604.000			46.183			-5.131
88705.000			46.182			-5.131
88804.000			46.182			-5.131
88904.000			46.180			-5.131
89005.000			46.179			-5.131
89104.000			46.177			-5.131
89203.000			46.176			-5.131
89305.000			46.175			-5.131
89404.000			46.176			-5.131
89504.000			46.174			-5.130
89605.000			46.172			-5.130
89704.000			46.171			-5.130
89804.000			46.171			-5.130
89904.000			46.170			-5.130
90004.000			46.170			-5.130
90104.000			46.169			-5.130
90205.000			46.168			-5.130
90304.000			46.166			-5.130
90404.000			46.165			-5.129
90505.000			46.164			-5.129
90603.000			46.163			-5.129
90704.000			46.162			-5.129
90805.000			46.160			-5.129
90904.000			46.160			-5.129
91004.000			46.159			-5.129
91105.000			46.159			-5.129
91204.000			46.158			-5.129
91303.000			46.157			-5.129
91404.000			46.156			-5.128
91504.000			46.155			-5.128
91605.000			46.153			-5.128
91704.000			46.153			-5.128
91804.000			46.150			-5.128
91905.000			46.148			-5.128
92003.000			46.148			-5.128
92104.000			46.148			-5.128
92205.000			46.147			-5.127
92304.000			46.146			-5.127
92404.000			46.145			-5.127
92505.000			46.143			-5.127
92604.000			46.144			-5.127
92703.000			46.143			-5.127
92805.000			46.142			-5.127
92904.000			46.141			-5.127
93004.000			46.140			-5.127
93105.000			46.140			-5.127
93204.000			46.138			-5.126
93304.000			46.137			-5.126
93404.000			46.137			-5.126
93504.000			46.136			-5.126
93604.000			46.134			-5.126
93705.000			46.134			-5.126
93804.000			46.133			-5.126
93904.000			46.129			-5.125
94005.000			46.129			-5.125
94103.000			46.128			-5.125
94204.000			46.127			-5.125
94305.000			46.127			-5.125
94404.000			46.125			-5.125
94505.000			46.125			-5.125
94604.000			46.125			-5.125
94704.000			46.123			-5.125
94804.000			46.122			-5.125
94904.000			46.121			-5.125
95004.000			46.121			-5.125
95105.000			46.120			-5.124
95204.000			46.119			-5.124
95304.000			46.118			-5.124
95405.000			46.116			-5.124
95503.000			46.115			-5.124
95604.000			46.115			-5.124
95705.000			46.114			-5.124
95804.000			46.113			-5.124
95904.000			46.112			-5.124
96005.000			46.111			-5.123
96104.000			46.110			-5.123
96203.000			46.109			-5.123
96305.000			46.108			-5.123
96404.000			46.109			-5.123
96504.000			46.107			-5.123
96605.000			46.107			-5.123
96704.000			46.107			-5.123
96804.000			46.104			-5.123
96904.000			46.103			-5.123
97004.000			46.103			-5.123
97104.000			46.102			-5.122
97205.000			46.101			-5.122
97304.000			46.100			-5.122
97404.000			46.099			-5.122
97505.000			46.097			-5.122
97603.000			46.095			-5.122
97705.000			46.096			-5.122
97804.000			46.095			-5.122
97904.000			46.094			-5.122
98005.000			46.094			-5.122
98104.000			46.093			-5.121
98204.000			46.093			-5.121
98304.000			46.091			-5.121
98404.000			46.088			-5.121
98504.000			46.087			-5.121
98605.000			46.088			-5.121
98704.000			46.089			-5.121
98804.000			46.087			-5.121
98905.000			46.085			-5.121
99003.000			46.084			-5.120
99104.000			46.082			-5.120
99204.000			46.082			-5.120
99304.000			46.083			-5.120
99404.000			46.081			-5.120
99505.000			46.080			-5.120
99604.000			46.079			-5.120
99704.000			46.077			-5.120
99805.000			46.075			-5.119
99903.000			46.074			-5.119
100004.000			46.074			-5.119
100105.000			46.073			-5.119
100204.000			46.072			-5.119
100304.000			46.072			-5.119
100405.000			46.071			-5.119
100504.000			46.071			-5.119
100603.000			46.070			-5.119
100705.000			46.068			-5.119
100804.000			46.067			-5.119
100905.000			46.067			-5.119
101004.000			46.066			-5.118
101104.000			46.066			-5.118
101205.000			46.062			-5.118
101303.000			46.062			-5.118
101404.000			46.062			-5.118
101505.000			46.060			-5.118
101604.000			46.060			-5.118
101704.000			46.059			-5.118
101805.000			46.059			-5.118
101904.000			46.058			-5.118
102003.000			46.057			-5.117
102105.000			46.056			-5.117
102204.000			46.056			-5.117
102304.000			46.056			-5.117
102405.000			46.054			-5.117
102504.000			46.053			-5.117
102604.000			46.052			-5.117
102704.000			46.051			-5.117
102804.000			46.050			-5.117
102904.000			46.050			-5.117
103005.000			46.049			-5.117
103104.000			46.048			-5.116
103204.000			46.047			-5.116
103305.000			46.045			-5.116
103403.000			46.043			-5.116
103504.000			46.043			-5.116
103605.000			46.043			-5.116
103704.000			46.042			-5.116
103804.000			46.042			-5.116
103905.000			46.041			-5.116
104004.000			46.040			-5.116
104103.000			46.038			-5.115
104204.000			46.038			-5.115
104304.000			46.038			-5.115
104405.000			46.036			-5.115
104504.000			46.035			-5.115
104604.000			46.036			-5.115
104705.000			46.034			-5.115
104803.000			46.033			-5.115
104904.000			46.033			-5.115
105005.000			46.031			-5.115
105104.000			46.031			-5.115
105204.000			46.031			-5.115
105305.000			46.030			-5.114
105404.000			46.028			-5.114
105503.000			46.026			-5.114
105605.000			46.025			-5.114
105704.000			46.024			-5.114
105804.000			46.024			-5.114
105905.000			46.023			-5.114
106004.000			46.022			-5.114
106104.000			46.021			-5.113
106204.000			46.022			-5.114
106304.000			46.020			-5.113
106404.000			46.020			-5.113
106505.000			46.018			-5.113
106604.000			46.017			-5.113
106704.000			46.017			-5.113
106805.000			46.017			-5.113
106903.000			46.014			-5.113
107004.000			46.014			-5.113
107105.000			46.013			-5.113
107204.000			46.012			-5.112
107305.000			46.010			-5.112
107404.000			46.010			-5.112
107504.000			46.009			-5.112
107604.000			46.009			-5.112
107704.000			46.007			-5.112
107804.000			46.008			-5.112
107905.000			46.007			-5.112
108004.000			46.006			-5.112
108104.000			46.006			-5.112
108205.000			46.005			-5.112
108303.000			46.004			-5.112
108404.000			46.002			-5.111
108505.000			46.002			-5.111
108604.000			46.002			-5.111
108704.000			46.000			-5.111
108805.000			46.000			-5.111
108904.000			46.000			-5.111
109003.000			45.999			-5.111
109105.000			45.998			-5.111
109204.000			45.998			-5.111
109304.000			45.996			-5.111
109405.000			45.995			-5.111
109504.000			45.994			-5.110
109604.000			45.994			-5.110
109704.000			45.994			-5.110
109804.000			45.990			-5.110
109903.000			45.991			-5.110
110005.000			45.990			-5.110
110104.000			45.989			-5.110
110204.000			45.988			-5.110
110305.000			45.989			-5.110
110404.000			45.988			-5.110
110505.000			45.986			-5.110
110603.000			45.985			-5.109
110704.000			45.985			-5.109
110805.000			45.985			-5.109
110904.000			45.984			-5.109
111004.000			45.983			-5.109
111105.000			45.982			-5.109
111204.000			45.981			-5.109
111303.000			45.981			-5.109
111405.000			45.980			-5.109
111504.000			45.978			-5.109
111604.000			45.977			-5.109
111705.000			45.977			-5.109
111804.000			45.975			-5.108
111904.000			45.975			-5.108
112004.000			45.974			-5.108
112104.000			45.974			-5.108
112203.000			45.973			-5.108
112305.000			45.972			-5.108
112404.000			45.972			-5.108
112504.000			45.971			-5.108
112605.000			45.970			-5.108
112704.000			45.969			-5.108
112804.000			45.967			-5.107
112904.000			45.966			-5.107
113004.000			45.966			-5.107
113104.000			45.966			-5.107
113205.000			45.965			-5.107
113304.000			45.963			-5.107
113404.000			45.961			-5.107
113505.000			45.961			-5.107
113603.000			45.960			-5.107
113705.000			45.960			-5.107
113804.000			45.960			-5.107
113904.000			45.960			-5.107
114005.000			45.959			-5.107
114104.000			45.957			-5.106
114204.000			45.958			-5.106
114304.000			45.957			-5.106
114404.000			45.956			-5.106
114503.000			45.954			-5.106
114605.000			45.952			-5.106
114704.000			45.952			-5.106
114804.000			45.951			-5.106
114905.000			45.951			-5.106
115004.000			45.950			-5.106
115104.000			45.949			-5.105
115204.000			45.948			-5.105
115304.000			45.948			-5.105
115404.000			45.948			-5.105
115505.000			45.947			-5.105
115604.000			45.944			-5.105
115704.000			45.944			-5.105
115805.000			45.943			-5.105
115904.000			45.943			-5.105
116004.000			45.943			-5.105
116104.000			45.942			-5.105
116204.000			45.941			-5.105
116304.000			45.940			-5.104
116405.000			45.940			-5.104
116504.000			45.939			-5.104
116604.000			45.938			-5.104
116705.000			45.936			-5.104
116803.000			45.936			-5.104
116905.000			45.936			-5.104
117004.000			45.936			-5.104
117104.000			45.933			-5.104
117205.000			45.933			-5.104
117304.000			45.932			-5.104
117404.000			45.930			-5.103
117504.000			45.931			-5.103
117604.000			45.930			-5.103
117703.000			45.930			-5.103
117805.000			45.929			-5.103
117904.000			45.928			-5.103
118004.000			45.927			-5.103
118105.000			45.926			-5.103
118204.000			45.926			-5.103
118304.000			45.925			-5.103
118404.000			45.924			-5.103
118504.000			45.923			-5.103
118604.000			45.922			-5.102
118705.000			45.921			-5.102
118804.000			45.921			-5.102
118904.000			45.919			-5.102
119005.000			45.919			-5.102
119103.000			45.918			-5.102
119204.000			45.917			-5.102
119305.000			45.917			-5.102
119404.000			45.917			-5.102
119504.000			45.916			-5.102
119605.000			45.915			-5.102
119704.000			45.915			-5.102
119803.000			45.913			-5.101
119905.000			45.912			-5.101
120003.000			45.911			-5.101
120105.000			45.911			-5.101
120204.000			45.910			-5.101
120304.000			45.908			-5.101
120405.000			45.907			-5.101
120504.000			45.908			-5.101
120604.000			45.909			-5.101
120704.000			45.906			-5.101
120804.000			45.904			-5.100
120904.000			45.904			-5.100
121005.000			45.904			-5.100
121104.000			45.904			-5.100
121204.000			45.903			-5.100
121305.000			45.902			-5.100
121403.000			45.900			-5.100
121504.000			45.898			-5.100
121605.000			45.898			-5.100
121704.000			45.898			-5.100
121804.000			45.898			-5.100
121905.000			45.898			-5.100
122004.000			45.898			-5.100
122103.000			45.897			-5.100
122205.000			45.896			-5.100
122304.000			45.894			-5.099
122404.000			45.893			-5.099
122505.000			45.893			-5.099
122604.000			45.893			-5.099
122704.000			45.893			-5.099
122805.000			45.891			-5.099
122904.000			45.891			-5.099
123003.000			45.890			-5.099
123105.000			45.889			-5.099
123204.000			45.888			-5.099
123305.000			45.888			-5.099
123404.000			45.886			-5.098
123504.000			45.885			-5.098
123605.000			45.885			-5.098
123703.000			45.886			-5.098
123804.000			45.884			-5.098
123905.000			45.884			-5.098
124004.000			45.883			-5.098
124104.000			45.882			-5.098
124205.000			45.881			-5.098
124304.000			45.881			-5.098
124404.000			45.880			-5.098
124505.000			45.878			-5.098
124603.000			45.877			-5.097
124704.000			45.876			-5.097
124805.000			45.876			-5.097
124904.000			45.877			-5.097
125004.000			45.875			-5.097
125105.000			45.874			-5.097
125204.000			45.873			-5.097
125303.000			45.873			-5.097
125405.000			45.872			-5.097
125504.000			45.872			-5.097
125604.000			45.871			-5.097
125705.000			45.870			-5.097
125804.000			45.870			-5.097
125904.000			45.869			-5.097
126005.000			45.868			-5.096
126104.000			45.867			-5.096
126203.000			45.866			-5.096
126305.000			45.866			-5.096
126404.000			45.866			-5.096
126505.000			45.865			-5.096
126604.000			45.864			-5.096
126704.000			45.863			-5.096
126805.000			45.863			-5.096
126903.000			45.862			-5.096
127004.000			45.862			-5.096
127104.000			45.861			-5.096
127204.000			45.860			-5.096
127304.000			45.859			-5.095
127405.000			45.858			-5.095
127504.000			45.858			-5.095
127604.000			45.858			-5.095
127705.000			45.857			-5.095
127803.000			45.855			-5.095
127904.000			45.855			-5.095
128005.000			45.855			-5.095
128104.000			45.854			-5.095
128204.000			45.852			-5.095
128305.000			45.852			-5.095
128404.000			45.852			-5.095
128503.000			45.852			-5.095
128605.000			45.850			-5.094
128703.000			45.850			-5.094
128804.000			45.849			-5.094
128905.000			45.847			-5.094
129004.000			45.847			-5.094
129104.000			45.847			-5.094
129205.000			45.846			-5.094
129304.000			45.843			-5.094
129403.000			45.843			-5.094
129505.000			45.842			-5.094
129604.000			45.842			-5.094
129705.000			45.843			-5.094
129804.000			45.843			-5.094
129904.000			45.843			-5.094
130005.000			45.840			-5.093
130103.000			45.839			-5.093
130204.000			45.837			-5.093
130305.000			45.836			-5.093
130404.000			45.837			-5.093
130504.000			45.837			-5.093
130605.000			45.837			-5.093
130704.000			45.836			-5.093
130804.000			45.835			-5.093
130905.000			45.834			-5.093
131003.000			45.833			-5.093
131104.000			45.832			-5.092
131205.000			45.831			-5.092
131304.000			45.831			-5.092
131404.000			45.831			-5.092
131505.000			45.829			-5.092
131604.000			45.829			-5.092
131703.000			45.829			-5.092
131805.000			45.829			-5.092
131904.000			45.827			-5.092
132004.000			45.826			-5.092
132105.000			45.825			-5.092
132204.000			45.825			-5.092
132304.000			45.823			-5.091
132405.000			45.824			-5.092
132504.000			45.823			-5.091
132603.000			45.823			-5.091
132705.000			45.823			-5.091
132804.000			45.822			-5.091
132905.000			45.821			-5.091
133004.000			45.820			-5.091
133104.000			45.820			-5.091
133205.000			45.820			-5.091
133304.000			45.819			-5.091
133404.000			45.816			-5.091
133504.000			45.816			-5.091
133604.000			45.816			-5.091
133703.000			45.814			-5.090
133805.000			45.813			-5.090
133904.000			45.813			-5.090
134004.000			45.814			-5.090
134105.000			45.813			-5.090
134204.000			45.811			-5.090
134304.000			45.810			-5.090
134404.000			45.810			-5.090
134504.000			45.809			-5.090
134604.000			45.808			-5.090
134705.000			45.807			-5.090
134804.000			45.807			-5.090
134904.000			45.806			-5.090
135005.000			45.806			-5.090
135104.000			45.805			-5.089
135204.000			45.804			-5.089
135304.000			45.804			-5.089
135404.000			45.805			-5.089
135504.000			45.804			-5.089
135605.000			45.803			-5.089
135704.000			45.802			-5.089
135804.000			45.800			-5.089
135905.000			45.800			-5.089
136004.000			45.799			-5.089
136105.000			45.798			-5.089
136203.000			45.799			-5.089
136304.000			45.798			-5.089
136405.000			45.797			-5.089
136504.000			45.798			-5.089
136604.000			45.797			-5.089
136705.000			45.796			-5.088
136804.000			45.793			-5.088
136904.000			45.793			-5.088
137005.000			45.793			-5.088
137104.000			45.792			-5.088
137204.000			45.791			-5.088
137304.000			45.792			-5.088
137404.000			45.792			-5.088
137504.000			45.791			-5.088
137605.000			45.788			-5.088
137704.000			45.787			-5.087
137804.000			45.788			-5.088
137905.000			45.787			-5.087
138004.000			45.785			-5.087
138104.000			45.784			-5.087
138204.000			45.784			-5.087
138304.000			45.784			-5.087
138403.000			45.785			-5.087
138505.000			45.784			-5.087
138604.000			45.784			-5.087
138704.000			45.781			-5.087
138805.000			45.779			-5.087
138904.000			45.778			-5.086
139004.000			45.777			-5.086
139104.000			45.777			-5.086
139204.000			45.778			-5.086
139303.000			45.778			-5.086
139404.000			45.777			-5.086
139504.000			45.777			-5.086
139605.000			45.774			-5.086
139704.000			45.774			-5.086
139804.000			45.773			-5.086
139905.000			45.773			-5.086
140004.000			45.773			-5.086
140104.000			45.773			-5.086
140204.000			45.771			-5.086
140304.000			45.771			-5.086
140404.000			45.770			-5.086
140505.000			45.769			-5.085
140604.000			45.769			-5.085
140704.000			45.770			-5.086
140805.000			45.769			-5.085
140904.000			45.767			-5.085
141004.000			45.766			-5.085
141104.000			45.765			-5.085
141204.000			45.764			-5.085
141304.000			45.764			-5.085
141405.000			45.764			-5.085
141504.000			45.763			-5.085
141604.000			45.762			-5.085
141705.000			45.761			-5.085
141804.000			45.762			-5.085
141904.000			45.760			-5.084
142004.000			45.759			-5.084
142104.000			45.760			-5.084
142204.000			45.759			-5.084
142305.000			45.759			-5.084
142404.000			45.757			-5.084
142505.000			45.756			-5.084
142604.000			45.756			-5.084
142704.000			45.755			-5.084
142805.000			45.754			-5.084
142903.000			45.754			-5.084
143004.000			45.754			-5.084
143104.000			45.753			-5.084
143204.000			45.753			-5.084
143304.000			45.753			-5.084
143405.000			45.753			-5.084
143504.000			45.752			-5.084
143604.000			45.750			-5.083
143705.000			45.750			-5.083
143803.000			45.748			-5.083
143904.000			45.748			-5.083
144004.000			45.748			-5.083
144104.000			45.747			-5.083
144204.000			45.746			-5.083
144305.000			45.745			-5.083
144404.000			45.745			-5.083
144504.000			45.743			-5.083
144605.000			45.742			-5.082
144703.000			45.742			-5.082
144804.000			45.742			-5.082
144904.000			45.740			-5.082
145004.000			45.740			-5.082
145104.000			45.742			-5.082
145205.000			45.740			-5.082
145304.000			45.737			-5.082
145404.000			45.737			-5.082
145505.000			45.737			-5.082
145603.000			45.737			-5.082
145705.000			45.737			-5.082
145803.000			45.735			-5.082
145904.000			45.734			-5.082
146005.000			45.734			-5.082
146104.000			45.734			-5.082
146204.000			45.734			-5.082
146305.000			45.732			-5.081
146404.000			45.732			-5.081
146503.000			45.732			-5.081
146605.000			45.731			-5.081
146703.000			45.729			-5.081
146804.000			45.729			-5.081
146905.000			45.729			-5.081
147004.000			45.728			-5.081
147104.000			45.726			-5.081
147205.000			45.726			-5.081
147304.000			45.726			-5.081
147403.000			45.725			-5.081
147505.000			45.724			-5.080
147603.000			45.724			-5.080
147704.000			45.723			-5.080
147805.000			45.723			-5.080
147904.000			45.723			-5.080
148004.000			45.722			-5.080
148105.000			45.721			-5.080
148204.000			45.720			-5.080
148303.000			45.720			-5.080
148405.000			45.720			-5.080
148503.000			45.719			-5.080
148604.000			45.719			-5.080
148705.000			45.719			-5.080
148804.000			45.718			-5.080
148905.000			45.716			-5.080
149004.000			45.715			-5.079
149104.000			45.714			-5.079
149205.000			45.713			-5.079
149304.000			45.715			-5.079
149403.000			45.715			-5.079
149505.000			45.714			-5.079
149604.000			45.712			-5.079
149704.000			45.711			-5.079
149805.000			45.711			-5.079
149904.000			45.710			-5.079
150004.000			45.709			-5.079
150105.000			45.709			-5.079
150204.000			45.707			-5.079
150303.000			45.707			-5.079
150405.000			45.706			-5.078
150504.000			45.706			-5.078
150604.000			45.706			-5.078
150705.000			45.706			-5.078
150804.000			45.705			-5.078
150904.000			45.704			-5.078
151005.000			45.702			-5.078
151104.000			45.701			-5.078
151203.000			45.702			-5.078
151305.000			45.701			-5.078
151404.000			45.702			-5.078
151504.000			45.700			-5.078
151605.000			45.700			-5.078
151704.000			45.700			-5.078
151804.000			45.699			-5.078
151905.000			45.698			-5.078
152004.000			45.698			-5.078
152103.000			45.696			-5.077
152204.000			45.695			-5.077
152303.000			45.697			-5.077
152405.000			45.695			-5.077
152504.000			45.694			-5.077
152604.000			45.694			-5.077
152705.000			45.693			-5.077
152804.000			45.693			-5.077
152904.000			45.692			-5.077
153004.000			45.692			-5.077
153104.000			45.691			-5.077
153203.000			45.690			-5.077
153305.000			45.689			-5.077
153404.000			45.689			-5.077
153504.000			45.689			-5.077
153605.000			45.688			-5.076
153704.000			45.687			-5.076
153804.000			45.686			-5.076
153905.000			45.686			-5.076
154004.000			45.685			-5.076
154103.000			45.685			-5.076
154205.000			45.685			-5.076
154304.000			45.685			-5.076
154404.000			45.685			-5.076
154505.000			45.684			-5.076
154604.000			45.683			-5.076
154704.000			45.682			-5.076
154805.000			45.680			-5.076
154904.000			45.679			-5.075
155003.000			45.678			-5.075
155105.000			45.679			-5.075
155204.000			45.679			-5.075
155305.000			45.678			-5.075
155404.000			45.676			-5.075
155504.000			45.677			-5.075
155605.000			45.676			-5.075
155704.000			45.676			-5.075
155804.000			45.675			-5.075
155904.000			45.675			-5.075
156004.000			45.674			-5.075
156103.000			45.673			-5.075
156205.000			45.672			-5.075
156304.000			45.672			-5.075
156404.000			45.670			-5.074
156505.000			45.669			-5.074
156604.000			45.670			-5.074
156704.000			45.671			-5.075
156804.000			45.669			-5.074
156904.000			45.669			-5.074
157003.000			45.668			-5.074
157105.000			45.667			-5.074
157204.000			45.666			-5.074
157304.000			45.666			-5.074
157405.000			45.665			-5.074
157504.000			45.665			-5.074
157604.000			45.665			-5.074
157705.000			45.663			-5.074
157804.000			45.662			-5.074
157903.000			45.662			-5.074
158005.000			45.662			-5.074
158104.000			45.662			-5.074
158204.000			45.662			-5.074
158305.000			45.661			-5.073
158404.000			45.660			-5.073
158505.000			45.659			-5.073
158604.000			45.659			-5.073
158704.000			45.658			-5.073
158804.000			45.658			-5.073
158904.000			45.658			-5.073
159003.000			45.656			-5.073
159105.000			45.656			-5.073
159204.000			45.656			-5.073
159304.000			45.653			-5.073
159405.000			45.653			-5.073
159504.000			45.653			-5.073
159604.000			45.653			-5.073
159704.000			45.652			-5.072
159804.000			45.651			-5.072
159903.000			45.651			-5.072
160005.000			45.651			-5.072
160104.000			45.650			-5.072
160204.000			45.649			-5.072
160305.000			45.649			-5.072
160404.000			45.648			-5.072
160504.000			45.646			-5.072
160604.000			45.646			-5.072
160704.000			45.646			-5.072
160803.000			45.645			-5.072
160905.000			45.645			-5.072
161004.000			45.645			-5.072
161104.000			45.644			-5.072
161205.000			45.642			-5.071
161304.000			45.642			-5.071
161404.000			45.641			-5.071
161504.000			45.641			-5.071
161604.000			45.641			-5.071
161703.000			45.640			-5.071
161804.000			45.640			-5.071
161904.000			45.639			-5.071
162005.000			45.639			-5.071
162104.000			45.638			-5.071
162204.000			45.637			-5.071
162305.000			45.636			-5.071
162403.000			45.635			-5.071
162504.000			45.635			-5.071
162605.000			45.634			-5.070
162704.000			45.635			-5.071
162804.000			45.634			-5.070
162905.000			45.634			-5.070
163004.000			45.634			-5.070
163104.000			45.633			-5.070
163205.000			45.634			-5.070
163303.000			45.631			-5.070
163404.000			45.632			-5.070
163505.000			45.629			-5.070
163604.000			45.629			-5.070
163704.000			45.630			-5.070
163805.000			45.629			-5.070
163904.000			45.628			-5.070
164004.000			45.627			-5.070
164105.000			45.626			-5.070
164203.000			45.627			-5.070
164304.000			45.626			-5.070
164404.000			45.625			-5.069
164504.000			45.624			-5.069
164604.000			45.624			-5.069
164705.000			45.625			-5.069
164804.000			45.624			-5.069
164905.000			45.623			-5.069
165004.000			45.622			-5.069
165103.000			45.621			-5.069
165205.000			45.621			-5.069
165303.000			45.621			-5.069
165404.000			45.619			-5.069
165505.000			45.619			-5.069
165604.000			45.618			-5.069
165704.000			45.617			-5.069
165805.000			45.616			-5.068
165904.000			45.616			-5.068
166004.000			45.615			-5.068
166105.000			45.615			-5.068
166203.000			45.615			-5.068
166304.000			45.615			-5.068
166405.000			45.615			-5.068
166504.000			45.614			-5.068
166604.000			45.613			-5.068
166705.000			45.611			-5.068
166804.000			45.611			-5.068
166904.000			45.610			-5.068
167005.000			45.609			-5.068
167103.000			45.609			-5.068
167204.000			45.609			-5.068
167305.000			45.609			-5.068
167404.000			45.609			-5.068
167504.000			45.609			-5.068
167605.000			45.609			-5.068
167704.000			45.608			-5.068
167804.000			45.607			-5.067
167905.000			45.605			-5.067
168003.000			45.605			-5.067
168105.000			45.605			-5.067
168204.000			45.605			-5.067
168304.000			45.605			-5.067
168405.000			45.604			-5.067
168504.000			45.603			-5.067
168604.000			45.602			-5.067
168705.000			45.601			-5.067
168804.000			45.601			-5.067
168903.000			45.601			-5.067
169005.000			45.599			-5.067
169104.000			45.600			-5.067
169204.000			45.599			-5.067
169305.000			45.598			-5.066
169404.000			45.599			-5.067
169504.000			45.599			-5.067
169605.000			45.598			-5.066
169704.000			45.596			-5.066
169804.000			45.596			-5.066
169905.000			45.595			-5.066
170003.000			45.594			-5.066
170104.000			45.593			-5.066
170205.000			45.594			-5.066
170304.000			45.592			-5.066
170404.000			45.591			-5.066
170505.000			45.591			-5.066
170604.000			45.590			-5.066
170704.000			45.590			-5.066
170805.000			45.589			-5.065
170903.000			45.589			-5.065
171004.000			45.588			-5.065
171105.000			45.588			-5.065
171204.000			45.587			-5.065
171305.000			45.587			-5.065
171404.000			45.586			-5.065
171504.000			45.586			-5.065
171605.000			45.586			-5.065
171704.000			45.584			-5.065
171803.000			45.583			-5.065
171905.000			45.583			-5.065
172004.000			45.583			-5.065
172104.000			45.583			-5.065
172205.000			45.583			-5.065
172304.000			45.583			-5.065
172404.000			45.583			-5.065
172505.000			45.582			-5.065
172604.000			45.581			-5.065
172703.000			45.579			-5.064
172805.000			45.579			-5.064
172903.000			45.578			-5.064
173004.000			45.578			-5.064
173105.000			45.577			-5.064
173204.000			45.576			-5.064
173304.000			45.575			-5.064
173405.000			45.575			-5.064
173504.000			45.575			-5.064
173604.000			45.575			-5.064
173705.000			45.574			-5.064
173803.000			45.573			-5.064
173904.000			45.573			-5.064
174005.000			45.573			-5.064
174104.000			45.572			-5.064
174204.000			45.571			-5.063
174305.000			45.571			-5.063
174404.000			45.570			-5.063
174505.000			45.570			-5.063
174604.000			45.570			-5.063
174703.000			45.570			-5.063
174805.000			45.570			-5.063
174904.000			45.569			-5.063
175004.000			45.567			-5.063
175105.000			45.566			-5.063
175204.000			45.566			-5.063
175304.000			45.565			-5.063
175405.000			45.564			-5.063
175504.000			45.563			-5.063
175603.000			45.563			-5.063
175705.000			45.563			-5.063
175804.000			45.564			-5.063
175904.000			45.563			-5.063
176005.000			45.563			-5.063
176104.000			45.562			-5.062
176204.000			45.561			-5.062
176305.000			45.561			-5.062
176404.000			45.560			-5.062
176503.000			45.558			-5.062
176605.000			45.559			-5.062
176703.000			45.559			-5.062
176804.000			45.559			-5.062
176905.000			45.559			-5.062
177004.000			45.556			-5.062
177104.000			45.555			-5.062
177205.000			45.555			-5.062
177304.000			45.555			-5.062
177404.000			45.556			-5.062
177505.000			45.554			-5.062
177603.000			45.555			-5.062
177705.000			45.553			-5.061
177804.000			45.552			-5.061
177904.000			45.553			-5.061
178005.000			45.552			-5.061
178104.000			45.551			-5.061
178204.000			45.551			-5.061
178305.000			45.551			-5.061
178404.000			45.550			-5.061
178503.000			45.548			-5.061
178605.000			45.547			-5.061
178703.000			45.547			-5.061
178804.000			45.547			-5.061
178905.000			45.547			-5.061
179004.000			45.546			-5.061
179104.000			45.546			-5.061
179205.000			45.545			-5.061
179304.000			45.545			-5.061
179403.000			45.544			-5.060
179505.000			45.543			-5.060
179603.000			45.542			-5.060
179704.000			45.543			-5.060
179805.000			45.543			-5.060
179904.000			45.542			-5.060
180004.000			45.542			-5.060
180105.000			45.540			-5.060
180204.000			45.539			-5.060
180304.000			45.539			-5.060
180405.000			45.540			-5.060
180503.000			45.540			-5.060
180604.000			45.539			-5.060
180705.000			45.537			-5.060
180804.000			45.536			-5.060
180905.000			45.536			-5.060
181004.000			45.536			-5.060
181104.000			45.537			-5.060
181205.000			45.537			-5.060
181304.000			45.536			-5.060
181403.000			45.535			-5.059
181505.000			45.534			-5.059
181604.000			45.533			-5.059
181704.000			45.534			-5.059
181805.000			45.532			-5.059
181904.000			45.530			-5.059
182004.000			45.530			-5.059
182105.000			45.530			-5.059
182204.000			45.529			-5.059
182303.000			45.529			-5.059
182405.000			45.529			-5.059
182504.000			45.529			-5.059
182604.000			45.530			-5.059
182705.000			45.529			-5.059
182804.000			45.526			-5.058
182904.000			45.525			-5.058
183005.000			45.526			-5.058
183104.000			45.527			-5.059
183203.000			45.527			-5.059
183305.000			45.524			-5.058
183404.000			45.524			-5.058
183504.000			45.524			-5.058
183605.000			45.524			-5.058
183704.000			45.523			-5.058
183804.000			45.522			-5.058
183905.000			45.521			-5.058
184004.000			45.521			-5.058
184103.000			45.520			-5.058
184204.000			45.519			-5.058
184304.000			45.518			-5.058
184405.000			45.519			-5.058
184504.000			45.519			-5.058
184604.000			45.518			-5.058
184705.000			45.517			-5.057
184804.000			45.517			-5.057
184904.000			45.515			-5.057
185004.000			45.515			-5.057
185104.000			45.514			-5.057
185203.000			45.515			-5.057
185305.000			45.515			-5.057
185404.000			45.514			-5.057
185504.000			45.512			-5.057
185605.000			45.512			-5.057
185704.000			45.512			-5.057
185804.000			45.512			-5.057
185904.000			45.513			-5.057
186004.000			45.511			-5.057
186103.000			45.510			-5.057
186205.000			45.509			-5.057
186304.000			45.509			-5.057
186404.000			45.509			-5.057
186505.000			45.508			-5.056
186604.000			45.508			-5.056
186704.000			45.507			-5.056
186804.000			45.506			-5.056
186904.000			45.505			-5.056
187003.000			45.504			-5.056
187105.000			45.504			-5.056
187204.000			45.504			-5.056
187305.000			45.504			-5.056
187404.000			45.504			-5.056
187504.000			45.503			-5.056
187605.000			45.503			-5.056
187704.000			45.503			-5.056
187804.000			45.501			-5.056
187904.000			45.500			-5.056
188004.000			45.499			-5.055
188104.000			45.499			-5.055
188205.000			45.499			-5.055
188304.000			45.499			-5.055
188404.000			45.499			-5.055
188505.000			45.498			-5.055
188604.000			45.497			-5.055
188704.000			45.496			-5.055
188804.000			45.496			-5.055
188904.000			45.497			-5.055
189003.000			45.497			-5.055
189105.000			45.496			-5.055
189204.000			45.495			-5.055
189304.000			45.495			-5.055
189405.000			45.493			-5.055
189504.000			45.492			-5.055
189604.000			45.492			-5.055
189705.000			45.491			-5.055
189804.000			45.491			-5.055
189903.000			45.491			-5.055
190005.000			45.490			-5.054
190104.000			45.490			-5.054
190204.000			45.488			-5.054
190305.000			45.488			-5.054
190404.000			45.489			-5.054
190505.000			45.488			-5.054
190604.000			45.488			-5.054
190704.000			45.488			-5.054
190804.000			45.487			-5.054
190904.000			45.487			-5.054
191003.000			45.486			-5.054
191105.000			45.485			-5.054
191204.000			45.484			-5.054
191304.000			45.484			-5.054
191405.000			45.485			-5.054
191504.000			45.482			-5.054
191604.000			45.482			-5.054
191704.000			45.482			-5.054
191804.000			45.482			-5.054
191903.000			45.482			-5.054
192005.000			45.480			-5.053
192104.000			45.479			-5.053
192204.000			45.479			-5.053
192305.000			45.478			-5.053
192404.000			45.477			-5.053
192504.000			45.478			-5.053
192605.000			45.477			-5.053
192704.000			45.476			-5.053
192803.000			45.477			-5.053
192905.000			45.476			-5.053
193004.000			45.476			-5.053
193104.000			45.475			-5.053
193205.000			45.474			-5.053
193304.000			45.475			-5.053
193404.000			45.474			-5.053
193505.000			45.474			-5.053
193604.000			45.473			-5.053
193703.000			45.471			-5.052
193804.000			45.471			-5.052
193903.000			45.471			-5.052
194005.000			45.471			-5.052
194104.000			45.471			-5.052
194204.000			45.471			-5.052
194305.000			45.470			-5.052
194404.000			45.468			-5.052
194504.000			45.468			-5.052
194604.000			45.468			-5.052
194704.000			45.468			-5.052
194803.000			45.466			-5.052
194905.000			45.465			-5.052
195004.000			45.466			-5.052
195104.000			45.465			-5.052
195205.000			45.464			-5.052
195304.000			45.464			-5.052
195404.000			45.464			-5.052
195505.000			45.465			-5.052
195604.000			45.465			-5.052
195703.000			45.464			-5.052
195805.000			45.462			-5.051
195904.000			45.461			-5.051
196004.000			45.461			-5.051
196105.000			45.461			-5.051
196204.000			45.459			-5.051
196304.000			45.459			-5.051
196405.000			45.458			-5.051
196504.000			45.458			-5.051
196603.000			45.458			-5.051
196705.000			45.458			-5.051
196804.000			45.457			-5.051
196905.000			45.457			-5.051
197004.000			45.458			-5.051
197104.000			45.458			-5.051
197205.000			45.456			-5.051
197304.000			45.454			-5.050
197404.000			45.454			-5.050
197504.000			45.453			-5.050
197604.000			45.453			-5.050
197703.000			45.454			-5.050
197805.000			45.453			-5.050
197904.000			45.453			-5.050
198004.000			45.451			-5.050
198105.000			45.451			-5.050
198204.000			45.452			-5.050
198304.000			45.451			-5.050
198405.000			45.450			-5.050
198504.000			45.449			-5.050
198603.000			45.449			-5.050
198705.000			45.448			-5.050
198804.000			45.449			-5.050
198904.000			45.447			-5.050
199005.000			45.447			-5.050
199104.000			45.446			-5.050
199204.000			45.446			-5.050
199305.000			45.446			-5.050
199404.000			45.447			-5.050
199504.000			45.445			-5.049
199605.000			45.444			-5.049
199703.000			45.443			-5.049
199804.000			45.442			-5.049
199905.000			45.443			-5.049
200004.000			45.443			-5.049
200105.000			45.442			-5.049
200204.000			45.440			-5.049
200304.000			45.441			-5.049
200405.000			45.440			-5.049
200504.000			45.439			-5.049
200603.000			45.438			-5.049
200705.000			45.438			-5.049
200804.000			45.438			-5.049
200904.000			45.438			-5.049
201005.000			45.437			-5.049
201104.000			45.436			-5.048
201204.000			45.436			-5.048
201304.000			45.436			-5.048
201404.000			45.436			-5.048
201503.000			45.435			-5.048
201605.000			45.435			-5.048
201704.000			45.434			-5.048
201804.000			45.434			-5.048
201905.000			45.434			-5.048
202004.000			45.433			-5.048
202104.000			45.433			-5.048
202204.000			45.432			-5.048
202304.000			45.432			-5.048
202404.000			45.431			-5.048
202505.000			45.431			-5.048
202604.000			45.430			-5.048
202704.000			45.430			-5.048
202805.000			45.430			-5.048
202904.000			45.431			-5.048
203004.000			45.430			-5.048
203104.000			45.427			-5.047
203204.000			45.427			-5.047
203305.000			45.428			-5.048
203404.000			45.427			-5.047
203504.000			45.426			-5.047
203605.000			45.427			-5.047
203704.000			45.426			-5.047
203803.000			45.424			-5.047
203905.000			45.424			-5.047
204003.000			45.425			-5.047
204104.000			45.425			-5.047
204205.000			45.424			-5.047
204304.000			45.423			-5.047
204404.000			45.422			-5.047
204505.000			45.421			-5.047
204604.000			45.422			-5.047
204703.000			45.421			-5.047
204805.000			45.421			-5.047
204904.000			45.420			-5.047
205004.000			45.420			-5.047
205105.000			45.420			-5.047
205204.000			45.418			-5.046
205304.000			45.417			-5.046
205405.000			45.418			-5.046
205504.000			45.417			-5.046
205603.000			45.416			-5.046
205705.000			45.415			-5.046
205804.000			45.415			-5.046
205904.000			45.415			-5.046
206005.000			45.414			-5.046
206104.000			45.413			-5.046
206204.000			45.413			-5.046
206305.000			45.414			-5.046
206404.000			45.413			-5.046
206503.000			45.413			-5.046
206604.000			45.413			-5.046
206704.000			45.412			-5.046
206805.000			45.411			-5.046
206904.000			45.411			-5.046
207004.000			45.411			-5.046
207105.000			45.410			-5.046
207203.000			45.409			-5.045
207304.000			45.409			-5.045
207404.000			45.409			-5.045
207504.000			45.408			-5.045
207604.000			45.408			-5.045
207705.000			45.408			-5.045
207804.000			45.408			-5.045
207904.000			45.407			-5.045
208005.000			45.407			-5.045
208103.000			45.405			-5.045
208204.000			45.405			-5.045
208305.000			45.405			-5.045
208404.000			45.404			-5.045
208504.000			45.402			-5.045
208605.000			45.402			-5.045
208704.000			45.404			-5.045
208804.000			45.402			-5.045
208905.000			45.401			-5.045
209003.000			45.401			-5.045
209104.000			45.400			-5.044
209205.000			45.400			-5.044
209304.000			45.400			-5.044
209404.000			45.399			-5.044
209505.000			45.397			-5.044
209604.000			45.398			-5.044
209705.000			45.399			-5.044
209804.000			45.399			-5.044
209903.000			45.398			-5.044
210005.000			45.397			-5.044
210103.000			45.395			-5.044
210204.000			45.396			-5.044
210305.000			45.395			-5.044
210404.000			45.394			-5.044
210504.000			45.396			-5.044
210605.000			45.395			-5.044
210704.000			45.395			-5.044
210803.000			45.394			-5.044
210905.000			45.393			-5.044
211004.000			45.391			-5.043
211104.000			45.391			-5.043
211205.000			45.391			-5.043
211304.000			45.391			-5.043
211404.000			45.390			-5.043
211505.000			45.389			-5.043
211604.000			45.389			-5.043
211703.000			45.388			-5.043
211805.000			45.388			-5.043
211904.000			45.387			-5.043
212004.000			45.386			-5.043
212105.000			45.385			-5.043
212204.000			45.386			-5.043
212304.000			45.386			-5.043
212405.000			45.386			-5.043
212504.000			45.386			-5.043
212603.000			45.384			-5.043
212705.000			45.383			-5.043
212804.000			45.383			-5.043
212905.000			45.383			-5.043
213004.000			45.383			-5.043
213104.000			45.384			-5.043
213205.000			45.381			-5.042
213304.000			45.381			-5.042
213404.000			45.381			-5.042
213504.000			45.380			-5.042
213604.000			45.381			-5.042
213704.000			45.381			-5.042
213805.000			45.381			-5.042
213904.000			45.378			-5.042
214004.000			45.378			-5.042
214105.000			45.379			-5.042
214204.000			45.378			-5.042
214304.000			45.377			-5.042
214404.000			45.377			-5.042
214504.000			45.376			-5.042
214604.000			45.375			-5.042
214705.000			45.374			-5.042
214804.000			45.374			-5.042
214904.000			45.374			-5.042
215005.000			45.374			-5.042
215104.000			45.374			-5.042
215204.000			45.373			-5.041
215304.000			45.372			-5.041
215404.000			45.372			-5.041
215504.000			45.372			-5.041
215605.000			45.372			-5.041
215704.000			45.371			-5.041
215804.000			45.370			-5.041
215905.000			45.370			-5.041
216004.000			45.370			-5.041
216105.000			45.369			-5.041
216203.000			45.368			-5.041
216304.000			45.368			-5.041
216405.000			45.368			-5.041
216504.000			45.368			-5.041
216604.000			45.367			-5.041
216705.000			45.366			-5.041
216804.000			45.367			-5.041
216904.000			45.366			-5.041
217005.000			45.366			-5.041
217103.000			45.365			-5.041
217204.000			45.366			-5.041
217305.000			45.366			-5.041
217404.000			45.365			-5.041
217504.000			45.363			-5.040
217605.000			45.363			-5.040
217704.000			45.362			-5.040
217804.000			45.363			-5.040
217905.000			45.363			-5.040
218003.000			45.362			-5.040
218104.000			45.361			-5.040
218205.000			45.360			-5.040
218304.000			45.359			-5.040
218404.000			45.358			-5.040
218505.000			45.358			-5.040
218604.000			45.358			-5.040
218704.000			45.358			-5.040
218805.000			45.358			-5.040
218903.000			45.357			-5.040
219004.000			45.356			-5.040
219105.000			45.357			-5.040
219204.000			45.357			-5.040
219305.000			45.355			-5.039
219404.000			45.354			-5.039
219504.000			45.353			-5.039
219605.000			45.354			-5.039
219704.000			45.354			-5.039
219803.000			45.353			-5.039
219905.000			45.352			-5.039
220004.000			45.351			-5.039
220104.000			45.352			-5.039
220205.000			45.351			-5.039
220304.000			45.351			-5.039
220404.000			45.350			-5.039
220504.000			45.350			-5.039
220604.000			45.349			-5.039
220703.000			45.348			-5.039
220805.000			45.349			-5.039
220904.000			45.347			-5.039
221004.000			45.347			-5.039
221105.000			45.347			-5.039
221204.000			45.347			-5.039
221304.000			45.347			-5.039
221404.000			45.346			-5.038
221504.000			45.346			-5.038
221604.000			45.346			-5.038
221705.000			45.346			-5.038
221804.000			45.344			-5.038
221904.000			45.343			-5.038
222005.000			45.343			-5.038
222104.000			45.342			-5.038
222204.000			45.342			-5.038
222304.000			45.342			-5.038
222404.000			45.342			-5.038
222505.000			45.341			-5.038
222604.000			45.341			-5.038
222704.000			45.341			-5.038
222805.000			45.339			-5.038
222904.000			45.339			-5.038
223004.000			45.340			-5.038
223105.000			45.339			-5.038
223203.000			45.338			-5.038
223304.000			45.338			-5.038
223405.000			45.337			-5.037
223504.000			45.337			-5.037
223604.000			45.335			-5.037
223705.000			45.335			-5.037
223804.000			45.336			-5.037
223903.000			45.336			-5.037
224005.000			45.335			-5.037
224103.000			45.334			-5.037
224204.000			45.334			-5.037
224305.000			45.334			-5.037
224404.000			45.334			-5.037
224504.000			45.334			-5.037
224605.000			45.333			-5.037
224704.000			45.332			-5.037
224803.000			45.331			-5.037
224905.000			45.332			-5.037
225004.000			45.331			-5.037
225104.000			45.331			-5.037
225205.000			45.331			-5.037
225304.000			45.330			-5.037
225404.000			45.328			-5.036
225505.000			45.328			-5.036
225604.000			45.328			-5.036
225703.000			45.327			-5.036
225804.000			45.327			-5.036
225904.000			45.327			-5.036
226005.000			45.328			-5.036
226104.000			45.327			-5.036
226204.000			45.325			-5.036
226305.000			45.325			-5.036
226404.000			45.324			-5.036
226504.000			45.324			-5.036
226604.000			45.324			-5.036
226704.000			45.324			-5.036
226804.000			45.323			-5.036
226905.000			45.323			-5.036
227004.000			45.322			-5.036
227104.000			45.322			-5.036
227205.000			45.320			-5.036
227304.000			45.320			-5.036
227404.000			45.320			-5.036
227504.000			45.320			-5.036
227604.000			45.319			-5.035
227704.000			45.319			-5.035
227805.000			45.319			-5.035
227904.000			45.320			-5.036
228004.000			45.318			-5.035
228105.000			45.318			-5.035
228204.000			45.317			-5.035
228304.000			45.316			-5.035
228404.000			45.316			-5.035
228504.000			45.316			-5.035
228604.000			45.316			-5.035
228705.000			45.316			-5.035
228804.000			45.315			-5.035
228905.000			45.314			-5.035
229004.000			45.313			-5.035
229104.000			45.312			-5.035
229205.000			45.312			-5.035
229303.000			45.313			-5.035
229404.000			45.312			-5.035
229505.000			45.311			-5.035
229604.000			45.310			-5.034
229704.000			45.311			-5.035
229805.000			45.311			-5.035
229904.000			45.311			-5.035
230004.000			45.310			-5.034
230105.000			45.310			-5.034
230203.000			45.309			-5.034
230304.000			45.309			-5.034
230405.000			45.309			-5.034
230504.000			45.308			-5.034
230604.000			45.307			-5.034
230705.000			45.306			-5.034
230804.000			45.306			-5.034
230903.000			45.306			-5.034
231005.000			45.306			-5.034
231104.000			45.306			-5.034
231204.000			45.305			-5.034
231305.000			45.304			-5.034
231404.000			45.304			-5.034
231504.000			45.304			-5.034
231605.000			45.303			-5.034
231704.000			45.302			-5.034
231803.000			45.302			-5.034
231905.000			45.302			-5.034
232004.000			45.301			-5.033
232105.000			45.301			-5.033
232204.000			45.301			-5.033
232304.000			45.301			-5.033
232405.000			45.301			-5.033
232503.000			45.300			-5.033
232604.000			45.299			-5.033
232704.000			45.297			-5.033
232804.000			45.297			-5.033
232904.000			45.298			-5.033
233005.000			45.297			-5.033
233104.000			45.296			-5.033
233204.000			45.297			-5.033
233305.000			45.297			-5.033
233403.000			45.296			-5.033
233504.000			45.295			-5.033
233604.000			45.295			-5.033
233704.000			45.295			-5.033
233804.000			45.294			-5.033
233905.000			45.294			-5.033
234004.000			45.294			-5.033
234104.000			45.294			-5.033
234205.000			45.293			-5.033
234303.000			45.292			-5.032
234404.000			45.292			-5.032
234504.000			45.292			-5.032
234604.000			45.291			-5.032
234704.000			45.290			-5.032
234805.000			45.290			-5.032
234904.000			45.289			-5.032
235004.000			45.289			-5.032
235105.000			45.289			-5.032
235204.000			45.288			-5.032
235305.000			45.287			-5.032
235403.000			45.288			-5.032
235504.000			45.287			-5.032
235605.000			45.286			-5.032
235704.000			45.286			-5.032
235804.000			45.286			-5.032
235905.000			45.286			-5.032
236004.000			45.285			-5.032
236104.000			45.285			-5.032
236205.000			45.284			-5.032
236303.000			45.282			-5.031
236404.000			45.282			-5.031
236505.000			45.282			-5.031
236604.000			45.282			-5.031
236704.000			45.281			-5.031
236805.000			45.281			-5.031
236904.000			45.281			-5.031
237004.000			45.280			-5.031
237105.000			45.280			-5.031
237203.000			45.279			-5.031
237304.000			45.279			-5.031
237405.000			45.279			-5.031
237504.000			45.279			-5.031
237604.000			45.279			-5.031
237705.000			45.278			-5.031
237804.000			45.277			-5.031
237904.000			45.277			-5.031
238005.000			45.276			-5.031
238103.000			45.276			-5.031
238204.000			45.276			-5.031
238305.000			45.276			-5.031
238404.000			45.275			-5.031
238505.000			45.275			-5.031
238604.000			45.275			-5.031
238704.000			45.276			-5.031
238805.000			45.275			-5.031
238904.000			45.273			-5.030
239004.000			45.273			-5.030
239105.000			45.272			-5.030
239203.000			45.271			-5.030
239304.000			45.271			-5.030
239405.000			45.272			-5.030
239504.000			45.271			-5.030
239604.000			45.270			-5.030
239705.000			45.271			-5.030
239804.000			45.270			-5.030
239903.000			45.267			-5.030
240005.000			45.268			-5.030
240103.000			45.267			-5.030
240204.000			45.267			-5.030
240305.000			45.266			-5.030
240404.000			45.266			-5.030
240504.000			45.269			-5.030
240605.000			45.265			-5.029
240704.000			45.264			-5.029
240803.000			45.265			-5.029
240905.000			45.265			-5.029
241003.000			45.265			-5.029
241104.000			45.264			-5.029
241205.000			45.263			-5.029
241304.000			45.263			-5.029
241404.000			45.264			-5.029
241505.000			45.263			-5.029
241604.000			45.262			-5.029
241703.000			45.262			-5.029
241804.000			45.262			-5.029
241903.000			45.262			-5.029
242005.000			45.261			-5.029
242104.000			45.261			-5.029
242204.000			45.260			-5.029
242305.000			45.259			-5.029
242404.000			45.259			-5.029
242504.000			45.259			-5.029
242604.000			45.258			-5.029
242704.000			45.258			-5.029
242803.000			45.258			-5.029
242905.000			45.258			-5.029
243004.000			45.256			-5.028
243104.000			45.256			-5.028
243205.000			45.256			-5.028
243304.000			45.255			-5.028
243404.000			45.256			-5.028
243504.000			45.256			-5.028
243604.000			45.254			-5.028
243704.000			45.253			-5.028
243805.000			45.252			-5.028
243904.000			45.253			-5.028
244004.000			45.253			-5.028
244105.000			45.253			-5.028
244204.000			45.253			-5.028
244304.000			45.252			-5.028
244404.000			45.251			-5.028
244504.000			45.249			-5.028
244604.000			45.250			-5.028
244705.000			45.250			-5.028
244804.000			45.249			-5.028
244905.000			45.248			-5.028
245004.000			45.248			-5.028
245104.000			45.248			-5.028
245205.000			45.248			-5.028
245303.000			45.248			-5.028
245404.000			45.246			-5.027
245505.000			45.246			-5.027
245604.000			45.246			-5.027
245704.000			45.247			-5.027
245805.000			45.247			-5.027
245904.000			45.246			-5.027
246004.000			45.244			-5.027
246105.000			45.243			-5.027
246203.000			45.244			-5.027
246304.000			45.243			-5.027
246405.000			45.243			-5.027
246504.000			45.242			-5.027
246604.000			45.242			-5.027
246705.000			45.241			-5.027
246804.000			45.242			-5.027
246904.000			45.241			-5.027
247005.000			45.240			-5.027
247103.000			45.239			-5.027
247204.000			45.239			-5.027
247305.000			45.240			-5.027
247404.000			45.239			-5.027
247504.000			45.239			-5.027
247605.000			45.239			-5.027
247704.000			45.240			-5.027
247804.000			45.240			-5.027
247905.000			45.239			-5.027
248003.000			45.238			-5.026
248105.000			45.236			-5.026
248203.000			45.235			-5.026
248304.000			45.236			-5.026
248405.000			45.236			-5.026
248504.000			45.235			-5.026
248604.000			45.236			-5.026
248705.000			45.236			-5.026
248804.000			45.234			-5.026
248903.000			45.234			-5.026
249005.000			45.234			-5.026
249103.000			45.233			-5.026
249204.000			45.232			-5.026
249305.000			45.233			-5.026
249404.000			45.232			-5.026
249504.000			45.232			-5.026
249605.000			45.231			-5.026
249704.000			45.231			-5.026
249803.000			45.229			-5.025
249905.000			45.230			-5.026
250003.000			45.230			-5.026
250104.000			45.230			-5.026
250205.000			45.229			-5.025
250304.000			45.229			-5.025
250404.000			45.228			-5.025
250505.000			45.227			-5.025
250604.000			45.226			-5.025
250703.000			45.227			-5.025
250805.000			45.226			-5.025
250904.000			45.227			-5.025
251004.000			45.226			-5.025
251105.000			45.226			-5.025
251204.000			45.225			-5.025
251305.000			45.224			-5.025
251404.000			45.224			-5.025
251504.000			45.224			-5.025
251604.000			45.224			-5.025
251704.000			45.224			-5.025
251804.000			45.223			-5.025
251905.000			45.222			-5.025
252004.000			45.222			-5.025
252104.000			45.221			-5.025
252205.000			45.222			-5.025
252304.000			45.220			-5.024
252404.000			45.220			-5.024
252504.000			45.220			-5.024
252604.000			45.220			-5.024
252704.000			45.220			-5.024
252805.000			45.219			-5.024
252904.000			45.218			-5.024
253004.000			45.217			-5.024
253105.000			45.217			-5.024
253204.000			45.216			-5.024
253304.000			45.216			-5.024
253404.000			45.217			-5.024
253504.000			45.216			-5.024
253604.000			45.216			-5.024
253705.000			45.215			-5.024
253804.000			45.214			-5.024
253904.000			45.215			-5.024
254005.000			45.215			-5.024
254104.000			45.214			-5.024
254204.000			45.214			-5.024
254304.000			45.214			-5.024
254404.000			45.213			-5.024
254505.000			45.212			-5.024
254604.000			45.211			-5.023
254704.000			45.211			-5.023
254805.000			45.211			-5.023
254904.000			45.211			-5.023
255003.000			45.212			-5.024
255105.000			45.211			-5.023
255204.000			45.209			-5.023
255304.000			45.209			-5.023
255405.000			45.209			-5.023
255504.000			45.209			-5.023
255604.000			45.208			-5.023
255705.000			45.208			-5.023
255804.000			45.209			-5.023
255903.000			45.207			-5.023
256005.000			45.207			-5.023
256104.000			45.207			-5.023
256204.000			45.207			-5.023
256305.000			45.206			-5.023
256404.000			45.206			-5.023
256504.000			45.204			-5.023
256605.000			45.203			-5.023
256704.000			45.204			-5.023
256803.000			45.203			-5.023
256905.000			45.203			-5.023
257004.000			45.204			-5.023
257104.000			45.203			-5.023
257205.000			45.203			-5.023
257304.000			45.202			-5.022
257404.000			45.202			-5.022
257505.000			45.202			-5.022
257604.000			45.201			-5.022
257703.000			45.200			-5.022
257804.000			45.202			-5.022
257904.000			45.201			-5.022
258005.000			45.200			-5.022
258104.000			45.200			-5.022
258204.000			45.199			-5.022
258305.000			45.199			-5.022
258404.000			45.198			-5.022
258504.000			45.199			-5.022
258604.000			45.198			-5.022
258704.000			45.197			-5.022
258803.000			45.197			-5.022
258905.000			45.196			-5.022
259004.000			45.195			-5.022
259104.000			45.196			-5.022
259205.000			45.195			-5.022
259304.000			45.195			-5.022
259404.000			45.196			-5.022
259504.000			45.194			-5.022
259604.000			45.193			-5.021
259703.000			45.194			-5.022
259805.000			45.194			-5.022
259904.000			45.192			-5.021
260004.000			45.193			-5.021
260105.000			45.193			-5.021
260204.000			45.193			-5.021
260304.000			45.192			-5.021
260404.000			45.191			-5.021
260504.000			45.191			-5.021
260603.000			45.190			-5.021
260705.000			45.189			-5.021
260804.000			45.189			-5.021
260905.000			45.186			-5.021
261004.000			45.187			-5.021
261104.000			45.187			-5.021
261205.000			45.186			-5.021
261304.000			45.186			-5.021
261404.000			45.187			-5.021
261504.000			45.187			-5.021
261604.000			45.187			-5.021
261704.000			45.186			-5.021
261805.000			45.186			-5.021
261904.000			45.186			-5.021
262004.000			45.186			-5.021
262105.000			45.184			-5.020
262204.000			45.183			-5.020
262304.000			45.183			-5.020
262404.000			45.183			-5.020
262504.000			45.183			-5.020
262604.000			45.183			-5.020
262705.000			45.183			-5.020
262804.000			45.181			-5.020
262904.000			45.181			-5.020
263005.000			45.181			-5.020
263104.000			45.181			-5.020
263204.000			45.180			-5.020
263304.000			45.179			-5.020
263404.000			45.180			-5.020
263504.000			45.179			-5.020
263605.000			45.179			-5.020
263704.000			45.180			-5.020
263804.000			45.178			-5.020
263905.000			45.178			-5.020
264004.000			45.178			-5.020
264105.000			45.176			-5.020
264203.000			45.176			-5.020
264304.000			45.176			-5.020
264405.000			45.176			-5.020
264504.000			45.176			-5.020
264604.000			45.175			-5.019
264705.000			45.175			-5.019
264804.000			45.174			-5.019
264904.000			45.174			-5.019
265005.000			45.174			-5.019
265103.000			45.173			-5.019
265204.000			45.172			-5.019
265305.000			45.173			-5.019
265404.000			45.173			-5.019
265504.000			45.173			-5.019
265605.000			45.172			-5.019
265704.000			45.172			-5.019
265804.000			45.172			-5.019
265905.000			45.170			-5.019
266003.000			45.170			-5.019
266104.000			45.169			-5.019
266205.000			45.169			-5.019
266304.000			45.169			-5.019
266404.000			45.169			-5.019
266505.000			45.168			-5.019
266604.000			45.169			-5.019
266704.000			45.167			-5.019
266805.000			45.167			-5.019
266903.000			45.167			-5.019
267004.000			45.167			-5.019
267104.000			45.166			-5.018
267204.000			45.165			-5.018
267305.000			45.165			-5.018
267404.000			45.165			-5.018
267504.000			45.166			-5.018
267605.000			45.164			-5.018
267704.000			45.163			-5.018
267803.000			45.162			-5.018
267905.000			45.162			-5.018
268003.000			45.162			-5.018
268104.000			45.162			-5.018
268205.000			45.161			-5.018
268304.000			45.162			-5.018
268404.000			45.162			-5.018
268505.000			45.161			-5.018
268604.000			45.161			-5.018
268704.000			45.161			-5.018
268805.000			45.160			-5.018
268903.000			45.160			-5.018
269004.000			45.160			-5.018
269105.000			45.160			-5.018
269204.000			45.160			-5.018
269304.000			45.160			-5.018
269405.000			45.159			-5.018
269504.000			45.157			-5.017
269604.000			45.158			-5.018
269705.000			45.158			-5.018
269803.000			45.157			-5.017
269904.000			45.156			-5.017
270005.000			45.156			-5.017
270104.000			45.156			-5.017
270204.000			45.156			-5.017
270305.000			45.155			-5.017
270404.000			45.154			-5.017
270505.000			45.154			-5.017
270604.000			45.153			-5.017
270703.000			45.153			-5.017
270805.000			45.153			-5.017
270904.000			45.153			-5.017
271004.000			45.153			-5.017
271105.000			45.152			-5.017
271204.000			45.152			-5.017
271304.000			45.151			-5.017
271404.000			45.149			-5.017
271504.000			45.149			-5.017
271603.000			45.151			-5.017
271705.000			45.149			-5.017
271804.000			45.149			-5.017
271904.000			45.150			-5.017
272005.000			45.149			-5.017
272104.000			45.149			-5.017
272204.000			45.149			-5.017
272304.000			45.149			-5.017
272404.000			45.147			-5.016
272503.000			45.147			-5.016
272605.000			45.146			-5.016
272704.000			45.145			-5.016
272804.000			45.146			-5.016
272905.000			45.146			-5.016
273004.000			45.145			-5.016
273104.000			45.144			-5.016
273204.000			45.144			-5.016
273304.000			45.144			-5.016
273403.000			45.144			-5.016
273505.000			45.143			-5.016
273604.000			45.143			-5.016
273705.000			45.143			-5.016
273804.000			45.142			-5.016
273904.000			45.141			-5.016
274005.000			45.141			-5.016
274103.000			45.141			-5.016
274204.000			45.141			-5.016
274305.000			45.140			-5.016
274404.000			45.140			-5.016
274504.000			45.140			-5.016
274605.000			45.139			-5.015
274704.000			45.139			-5.015
274804.000			45.138			-5.015
274905.000			45.139			-5.015
275003.000			45.140			-5.016
275104.000			45.138			-5.015
275205.000			45.138			-5.015
275304.000			45.137			-5.015
275404.000			45.137			-5.015
275505.000			45.136			-5.015
275604.000			45.136			-5.015
275704.000			45.135			-5.015
275805.000			45.136			-5.015
275903.000			45.137			-5.015
276004.000			45.135			-5.015
276105.000			45.134			-5.015
276204.000			45.133			-5.015
276304.000			45.132			-5.015
276405.000			45.133			-5.015
276504.000			45.134			-5.015
276604.000			45.133			-5.015
276705.000			45.132			-5.015
276803.000			45.132			-5.015
276905.000			45.132			-5.015
277004.000			45.132			-5.015
277104.000			45.131			-5.015
277205.000			45.131			-5.015
277304.000			45.130			-5.014
277404.000			45.130			-5.014
277505.000			45.130			-5.014
277604.000			45.129			-5.014
277703.000			45.130			-5.014
277805.000			45.129			-5.014
277904.000			45.130			-5.014
278004.000			45.129			-5.014
278105.000			45.128			-5.014
278204.000			45.128			-5.014
278304.000			45.126			-5.014
278405.000			45.126			-5.014
278504.000			45.126			-5.014
278603.000			45.126			-5.014
278705.000			45.126			-5.014
278804.000			45.125			-5.014
278904.000			45.124			-5.014
279005.000			45.125			-5.014
279104.000			45.126			-5.014
279204.000			45.125			-5.014
279305.000			45.123			-5.014
279404.000			45.123			-5.014
279503.000			45.123			-5.014
279605.000			45.122			-5.014
279704.000			45.122			-5.014
279804.000			45.122			-5.014
279905.000			45.121			-5.013
280004.000			45.121			-5.013
280105.000			45.121			-5.013
280204.000			45.121			-5.013
280304.000			45.121			-5.013
280404.000			45.120			-5.013
280504.000			45.119			-5.013
280604.000			45.121			-5.013
280705.000			45.120			-5.013
280804.000			45.119			-5.013
280904.000			45.117			-5.013
281005.000			45.117			-5.013
281104.000			45.117			-5.013
281204.000			45.116			-5.013
281304.000			45.115			-5.013
281404.000			45.115			-5.013
281504.000			45.116			-5.013
281605.000			45.116			-5.013
281704.000			45.115			-5.013
281804.000			45.115			-5.013
281905.000			45.114			-5.013
282003.000			45.114			-5.013
282104.000			45.114			-5.013
282204.000			45.115			-5.013
282304.000			45.114			-5.013
282404.000			45.113			-5.013
282505.000			45.113			-5.013
282604.000			45.111			-5.012
282704.000			45.111			-5.012
282805.000			45.111			-5.012
282903.000			45.111			-5.012
283004.000			45.110			-5.012
283105.000			45.110			-5.012
283204.000			45.109			-5.012
283305.000			45.109			-5.012
283404.000			45.110			-5.012
283504.000			45.108			-5.012
283605.000			45.109			-5.012
283704.000			45.110			-5.012
283803.000			45.109			-5.012
283905.000			45.108			-5.012
284004.000			45.106			-5.012
284104.000			45.106			-5.012
284205.000			45.106			-5.012
284304.000			45.106			-5.012
284404.000			45.106			-5.012
284504.000			45.106			-5.012
284604.000			45.105			-5.012
284703.000			45.104			-5.012
284805.000			45.103			-5.011
284904.000			45.104			-5.012
285004.000			45.104			-5.012
285105.000			45.103			-5.011
285204.000			45.102			-5.011
285304.000			45.102			-5.011
285404.000			45.103			-5.011
285504.000			45.102			-5.011
285604.000			45.101			-5.011
285705.000			45.100			-5.011
285804.000			45.100			-5.011
285904.000			45.102			-5.011
286005.000			45.101			-5.011
286104.000			45.101			-5.011
286204.000			45.099			-5.011
286304.000			45.100			-5.011
286404.000			45.101			-5.011
286505.000			45.099			-5.011
286604.000			45.099			-5.011
286704.000			45.099			-5.011
286805.000			45.098			-5.011
286904.000			45.097			-5.011
287004.000			45.097			-5.011
287105.000			45.098			-5.011
287203.000			45.096			-5.011
287304.000			45.096			-5.011
287404.000			45.097			-5.011
287504.000			45.096			-5.011
287604.000			45.096			-5.011
287705.000			45.096			-5.011
287804.000			45.094			-5.010
287904.000			45.094			-5.010
288005.000			45.094			-5.010
288103.000			45.093			-5.010
288204.000			45.093			-5.010
288304.000			45.092			-5.010
288404.000			45.093			-5.010
288504.000			45.092			-5.010
288605.000			45.091			-5.010
288704.000			45.091			-5.010
288804.000			45.092			-5.010
288905.000			45.091			-5.010
289003.000			45.091			-5.010
289104.000			45.090			-5.010
289204.000			45.091			-5.010
289304.000			45.090			-5.010
289404.000			45.088			-5.010
289505.000			45.088			-5.010
289604.000			45.088			-5.010
289705.000			45.088			-5.010
289804.000			45.088			-5.010
289904.000			45.088			-5.010
290005.000			45.088			-5.010
290103.000			45.087			-5.010
290204.000			45.087			-5.010
290305.000			45.086			-5.010
290404.000			45.086			-5.010
290504.000			45.084			-5.009
290605.000			45.085			-5.009
290704.000			45.085			-5.009
290804.000			45.085			-5.009
290905.000			45.085			-5.009
291003.000			45.084			-5.009
291104.000			45.084			-5.009
291205.000			45.083			-5.009
291304.000			45.083			-5.009
291404.000			45.084			-5.009
291505.000			45.082			-5.009
291604.000			45.082			-5.009
291704.000			45.082			-5.009
291805.000			45.082			-5.009
291903.000			45.081			-5.009
292004.000			45.081			-5.009
292105.000			45.080			-5.009
292204.000			45.080			-5.009
292304.000			45.080			-5.009
292405.000			45.079			-5.009
292504.000			45.078			-5.009
292604.000			45.079			-5.009
292705.000			45.079			-5.009
292803.000			45.077			-5.009
292905.000			45.076			-5.008
293004.000			45.077			-5.009
293104.000			45.076			-5.008
293205.000			45.075			-5.008
293304.000			45.075			-5.008
293404.000			45.075			-5.008
293505.000			45.076			-5.008
293604.000			45.076			-5.008
293703.000			45.074			-5.008
293805.000			45.072			-5.008
293904.000			45.074			-5.008
294004.000			45.075			-5.008
294105.000			45.074			-5.008
294204.000			45.073			-5.008
294304.000			45.073			-5.008
294405.000			45.073			-5.008
294504.000			45.072			-5.008
294603.000			45.071			-5.008
294705.000			45.071			-5.008
294804.000			45.071			-5.008
294904.000			45.071			-5.008
295005.000			45.071			-5.008
295104.000			45.071			-5.008
295204.000			45.071			-5.008
295305.000			45.070			-5.008
295404.000			45.069			-5.008
295503.000			45.068			-5.008
295605.000			45.068			-5.008
295703.000			45.068			-5.008
295804.000			45.068			-5.008
295905.000			45.068			-5.008
296004.000			45.067			-5.007
296105.000			45.069			-5.008
296204.000			45.068			-5.008
296304.000			45.067			-5.007
296405.000			45.067			-5.007
296504.000			45.067			-5.007
296603.000			45.065			-5.007
296705.000			45.065			-5.007
296804.000			45.065			-5.007
296904.000			45.065			-5.007
297005.000			45.064			-5.007
297104.000			45.063			-5.007
297204.000			45.063			-5.007
297305.000			45.063			-5.007
297404.000			45.063			-5.007
297503.000			45.062			-5.007
297605.000			45.062			-5.007
297704.000			45.061			-5.007
297804.000			45.061			-5.007
297905.000			45.060			-5.007
298004.000			45.060			-5.007
298104.000			45.060			-5.007
298205.000			45.061			-5.007
298304.000			45.061			-5.007
298403.000			45.060			-5.007
298505.000			45.059			-5.007
298604.000			45.060			-5.007
298704.000			45.060			-5.007
298805.000			45.058			-5.006
298904.000			45.058			-5.006
299004.000			45.058			-5.006
299105.000			45.058			-5.006
299204.000			45.056			-5.006
299303.000			45.055			-5.006
299404.000			45.055			-5.006
299503.000			45.055			-5.006
299605.000			45.055			-5.006
299704.000			45.054			-5.006
299804.000			45.056			-5.006
299905.000			45.054			-5.006
