# Acquired on 10/01/2024 16:21:38 
# SPIDER: Creep_-7mm_07714532C-2
# CREEP MEASUREMENT

# time [ms]		force [N]		stiffness [N/mm]
1.000			13.265			-1.895
101.000			14.966			-2.138
200.000			15.139			-2.163
301.000			15.106			-2.158
400.000			15.051			-2.150
500.000			15.009			-2.144
601.000			14.971			-2.139
701.000			14.938			-2.134
801.000			14.886			-2.127
901.000			14.865			-2.124
1000.000			14.844			-2.121
1100.000			14.824			-2.118
1201.000			14.807			-2.115
1300.000			14.791			-2.113
1401.000			14.775			-2.111
1502.000			14.747			-2.107
1600.000			14.733			-2.105
1700.000			14.720			-2.103
1801.000			14.709			-2.101
1900.000			14.698			-2.100
2000.000			14.686			-2.098
2101.000			14.677			-2.097
2201.000			14.667			-2.095
2301.000			14.648			-2.093
2401.000			14.639			-2.091
2500.000			14.630			-2.090
2600.000			14.622			-2.089
2701.000			14.613			-2.088
2800.000			14.605			-2.086
2902.000			14.598			-2.085
3001.000			14.584			-2.083
3101.000			14.576			-2.082
3201.000			14.569			-2.081
3300.000			14.564			-2.081
3400.000			14.557			-2.080
3501.000			14.551			-2.079
3600.000			14.545			-2.078
3701.000			14.532			-2.076
3802.000			14.527			-2.075
3900.000			14.521			-2.074
4000.000			14.515			-2.074
4101.000			14.510			-2.073
4200.000			14.505			-2.072
4300.000			14.499			-2.071
4401.000			14.489			-2.070
4501.000			14.484			-2.069
4601.000			14.480			-2.069
4701.000			14.475			-2.068
4800.000			14.470			-2.067
4900.000			14.465			-2.066
5001.000			14.462			-2.066
5100.000			14.458			-2.065
5200.000			14.448			-2.064
5302.000			14.443			-2.063
5401.000			14.439			-2.063
5500.000			14.435			-2.062
5601.000			14.431			-2.062
5700.000			14.426			-2.061
5800.000			14.424			-2.061
5901.000			14.416			-2.059
6001.000			14.412			-2.059
6102.000			14.409			-2.058
6200.000			14.406			-2.058
6300.000			14.401			-2.057
6401.000			14.397			-2.057
6500.000			14.394			-2.056
6600.000			14.386			-2.055
6701.000			14.384			-2.055
6801.000			14.380			-2.054
6901.000			14.377			-2.054
7001.000			14.375			-2.054
7100.000			14.371			-2.053
7200.000			14.368			-2.053
7301.000			14.361			-2.052
7400.000			14.358			-2.051
7501.000			14.354			-2.051
7602.000			14.351			-2.050
7700.000			14.349			-2.050
7800.000			14.347			-2.050
7901.000			14.343			-2.049
8000.000			14.341			-2.049
8100.000			14.336			-2.048
8201.000			14.332			-2.047
8301.000			14.329			-2.047
8401.000			14.327			-2.047
8501.000			14.324			-2.046
8600.000			14.321			-2.046
8700.000			14.319			-2.046
8801.000			14.313			-2.045
8900.000			14.311			-2.044
9001.000			14.308			-2.044
9102.000			14.305			-2.044
9200.000			14.303			-2.043
9300.000			14.302			-2.043
9400.000			14.299			-2.043
9500.000			14.294			-2.042
9601.000			14.292			-2.042
9700.000			14.289			-2.041
9801.000			14.286			-2.041
9902.000			14.284			-2.041
10000.000			14.282			-2.040
10100.000			14.279			-2.040
10201.000			14.277			-2.040
10300.000			14.273			-2.039
10400.000			14.271			-2.039
10501.000			14.268			-2.038
10601.000			14.266			-2.038
10701.000			14.265			-2.038
10801.000			14.263			-2.038
10900.000			14.261			-2.037
11000.000			14.257			-2.037
11101.000			14.254			-2.036
11200.000			14.252			-2.036
11301.000			14.250			-2.036
11402.000			14.248			-2.035
11500.000			14.246			-2.035
11600.000			14.245			-2.035
11701.000			14.240			-2.034
11800.000			14.238			-2.034
11900.000			14.236			-2.034
12001.000			14.234			-2.033
12101.000			14.232			-2.033
12201.000			14.231			-2.033
12301.000			14.230			-2.033
12400.000			14.225			-2.032
12500.000			14.224			-2.032
12600.000			14.222			-2.032
12700.000			14.220			-2.031
12801.000			14.217			-2.031
12901.000			14.216			-2.031
13001.000			14.215			-2.031
13101.000			14.212			-2.030
13200.000			14.209			-2.030
13300.000			14.208			-2.030
13401.000			14.205			-2.029
13500.000			14.204			-2.029
13600.000			14.202			-2.029
13702.000			14.200			-2.029
13801.000			14.197			-2.028
13900.000			14.195			-2.028
14001.000			14.194			-2.028
14100.000			14.193			-2.028
14200.000			14.190			-2.027
14301.000			14.189			-2.027
14401.000			14.187			-2.027
14501.000			14.185			-2.026
14601.000			14.182			-2.026
14700.000			14.180			-2.026
14800.000			14.178			-2.025
14901.000			14.177			-2.025
15000.000			14.176			-2.025
15100.000			14.175			-2.025
15202.000			14.173			-2.025
15301.000			14.168			-2.024
15400.000			14.167			-2.024
15501.000			14.167			-2.024
15600.000			14.166			-2.024
15700.000			14.164			-2.023
15800.000			14.162			-2.023
15900.000			14.161			-2.023
16002.000			14.159			-2.023
16101.000			14.156			-2.022
16201.000			14.154			-2.022
16301.000			14.153			-2.022
16400.000			14.153			-2.022
16500.000			14.151			-2.022
16601.000			14.149			-2.021
16700.000			14.148			-2.021
16801.000			14.146			-2.021
16902.000			14.145			-2.021
17001.000			14.144			-2.021
17100.000			14.141			-2.020
17201.000			14.140			-2.020
17300.000			14.139			-2.020
17400.000			14.137			-2.020
17501.000			14.135			-2.019
17601.000			14.133			-2.019
17701.000			14.132			-2.019
17801.000			14.130			-2.019
17900.000			14.129			-2.018
18000.000			14.128			-2.018
18101.000			14.126			-2.018
18200.000			14.125			-2.018
18300.000			14.123			-2.018
18402.000			14.122			-2.017
18501.000			14.120			-2.017
18600.000			14.119			-2.017
18701.000			14.118			-2.017
18800.000			14.117			-2.017
18900.000			14.116			-2.017
19000.000			14.112			-2.016
19100.000			14.112			-2.016
19202.000			14.111			-2.016
19301.000			14.109			-2.016
19400.000			14.107			-2.015
19501.000			14.107			-2.015
19600.000			14.105			-2.015
19700.000			14.102			-2.015
19801.000			14.101			-2.014
19900.000			14.100			-2.014
20001.000			14.099			-2.014
20102.000			14.099			-2.014
20200.000			14.098			-2.014
20300.000			14.097			-2.014
20401.000			14.093			-2.013
20500.000			14.093			-2.013
20600.000			14.092			-2.013
20701.000			14.091			-2.013
20801.000			14.090			-2.013
20901.000			14.088			-2.013
21001.000			14.087			-2.012
21100.000			14.087			-2.012
21200.000			14.084			-2.012
21301.000			14.082			-2.012
21400.000			14.082			-2.012
21501.000			14.080			-2.011
21602.000			14.078			-2.011
21700.000			14.077			-2.011
21800.000			14.077			-2.011
21901.000			14.075			-2.011
22000.000			14.076			-2.011
22100.000			14.074			-2.011
22200.000			14.072			-2.010
22301.000			14.071			-2.010
22402.000			14.070			-2.010
22500.000			14.069			-2.010
22600.000			14.065			-2.009
22701.000			14.065			-2.009
22800.000			14.064			-2.009
22900.000			14.064			-2.009
23001.000			14.063			-2.009
23101.000			14.061			-2.009
23201.000			14.060			-2.009
23301.000			14.058			-2.008
23400.000			14.058			-2.008
23500.000			14.056			-2.008
23601.000			14.055			-2.008
23700.000			14.055			-2.008
23800.000			14.054			-2.008
23902.000			14.053			-2.008
24001.000			14.052			-2.007
24100.000			14.050			-2.007
24201.000			14.048			-2.007
24300.000			14.048			-2.007
24400.000			14.047			-2.007
24501.000			14.046			-2.007
24601.000			14.046			-2.007
24701.000			14.044			-2.006
24801.000			14.042			-2.006
24900.000			14.042			-2.006
25000.000			14.040			-2.006
25101.000			14.040			-2.006
25200.000			14.039			-2.006
25300.000			14.037			-2.005
25402.000			14.035			-2.005
25501.000			14.034			-2.005
25601.000			14.033			-2.005
25700.000			14.031			-2.004
25800.000			14.032			-2.005
25901.000			14.032			-2.005
26000.000			14.031			-2.004
26100.000			14.029			-2.004
26202.000			14.027			-2.004
26301.000			14.026			-2.004
26400.000			14.027			-2.004
26501.000			14.025			-2.004
26600.000			14.023			-2.003
26700.000			14.022			-2.003
26801.000			14.021			-2.003
26901.000			14.021			-2.003
27001.000			14.020			-2.003
27101.000			14.018			-2.003
27200.000			14.017			-2.002
27300.000			14.017			-2.002
27401.000			14.015			-2.002
27500.000			14.014			-2.002
27600.000			14.013			-2.002
27702.000			14.011			-2.002
27801.000			14.011			-2.002
27900.000			14.010			-2.001
28001.000			14.010			-2.001
28100.000			14.009			-2.001
28200.000			14.008			-2.001
28301.000			14.007			-2.001
28401.000			14.005			-2.001
28502.000			14.004			-2.001
28601.000			14.004			-2.001
28700.000			14.003			-2.000
28801.000			14.002			-2.000
28900.000			14.000			-2.000
29000.000			14.001			-2.000
29101.000			13.999			-2.000
29201.000			13.998			-2.000
29301.000			13.997			-2.000
29402.000			13.996			-1.999
29500.000			13.995			-1.999
29600.000			13.995			-1.999
29701.000			13.994			-1.999
29800.000			13.993			-1.999
29900.000			13.992			-1.999
30001.000			13.991			-1.999
30101.000			13.991			-1.999
30201.000			13.991			-1.999
30301.000			13.990			-1.999
30400.000			13.989			-1.998
30500.000			13.987			-1.998
30601.000			13.986			-1.998
30700.000			13.986			-1.998
30800.000			13.984			-1.998
30902.000			13.983			-1.998
31001.000			13.982			-1.997
31100.000			13.982			-1.997
31201.000			13.981			-1.997
31300.000			13.979			-1.997
31400.000			13.979			-1.997
31501.000			13.978			-1.997
31600.000			13.977			-1.997
31702.000			13.977			-1.997
31801.000			13.975			-1.996
31900.000			13.975			-1.996
32001.000			13.974			-1.996
32100.000			13.974			-1.996
32200.000			13.973			-1.996
32301.000			13.971			-1.996
32400.000			13.971			-1.996
32500.000			13.969			-1.996
32602.000			13.969			-1.996
32701.000			13.969			-1.996
32800.000			13.968			-1.995
32901.000			13.966			-1.995
33000.000			13.966			-1.995
33100.000			13.965			-1.995
33201.000			13.966			-1.995
33300.000			13.965			-1.995
33401.000			13.964			-1.995
33502.000			13.962			-1.995
33600.000			13.960			-1.994
33700.000			13.959			-1.994
33801.000			13.958			-1.994
33900.000			13.958			-1.994
34000.000			13.956			-1.994
34101.000			13.957			-1.994
34201.000			13.956			-1.994
34301.000			13.955			-1.994
34401.000			13.954			-1.993
34500.000			13.954			-1.993
34600.000			13.953			-1.993
34701.000			13.952			-1.993
34800.000			13.950			-1.993
34900.000			13.950			-1.993
35002.000			13.949			-1.993
35101.000			13.948			-1.993
35201.000			13.947			-1.992
35300.000			13.947			-1.992
35400.000			13.946			-1.992
35501.000			13.945			-1.992
35600.000			13.945			-1.992
35700.000			13.944			-1.992
35802.000			13.944			-1.992
35901.000			13.943			-1.992
36000.000			13.942			-1.992
36101.000			13.942			-1.992
36200.000			13.941			-1.992
36300.000			13.940			-1.991
36401.000			13.939			-1.991
36500.000			13.938			-1.991
36601.000			13.937			-1.991
36702.000			13.937			-1.991
36800.000			13.937			-1.991
36900.000			13.936			-1.991
37001.000			13.935			-1.991
37100.000			13.933			-1.990
37200.000			13.933			-1.990
37301.000			13.932			-1.990
37401.000			13.932			-1.990
37501.000			13.931			-1.990
37601.000			13.931			-1.990
37700.000			13.930			-1.990
37800.000			13.930			-1.990
37901.000			13.928			-1.990
38000.000			13.927			-1.990
38100.000			13.927			-1.990
38202.000			13.926			-1.989
38301.000			13.925			-1.989
38401.000			13.924			-1.989
38500.000			13.923			-1.989
38600.000			13.923			-1.989
38701.000			13.923			-1.989
38800.000			13.922			-1.989
38900.000			13.921			-1.989
39002.000			13.920			-1.989
39101.000			13.919			-1.988
39200.000			13.920			-1.989
39301.000			13.918			-1.988
39400.000			13.918			-1.988
39500.000			13.918			-1.988
39601.000			13.917			-1.988
39700.000			13.916			-1.988
39801.000			13.915			-1.988
39902.000			13.915			-1.988
40000.000			13.914			-1.988
40100.000			13.914			-1.988
40201.000			13.913			-1.988
40300.000			13.913			-1.988
40400.000			13.912			-1.987
40501.000			13.911			-1.987
40601.000			13.910			-1.987
40701.000			13.910			-1.987
40801.000			13.908			-1.987
40900.000			13.906			-1.987
41000.000			13.905			-1.986
41101.000			13.906			-1.987
41200.000			13.906			-1.987
41300.000			13.905			-1.986
41402.000			13.905			-1.986
41501.000			13.903			-1.986
41601.000			13.902			-1.986
41700.000			13.902			-1.986
41800.000			13.901			-1.986
41901.000			13.900			-1.986
42000.000			13.901			-1.986
42100.000			13.900			-1.986
42202.000			13.899			-1.986
42301.000			13.898			-1.985
42400.000			13.897			-1.985
42501.000			13.896			-1.985
42600.000			13.896			-1.985
42700.000			13.896			-1.985
42801.000			13.895			-1.985
42900.000			13.895			-1.985
43001.000			13.892			-1.985
43102.000			13.892			-1.985
43200.000			13.892			-1.985
43300.000			13.891			-1.984
43401.000			13.892			-1.985
43500.000			13.891			-1.984
43600.000			13.890			-1.984
43701.000			13.888			-1.984
43801.000			13.889			-1.984
43901.000			13.888			-1.984
44001.000			13.887			-1.984
44100.000			13.887			-1.984
44200.000			13.887			-1.984
44301.000			13.886			-1.984
44400.000			13.886			-1.984
44500.000			13.885			-1.984
44602.000			13.884			-1.983
44701.000			13.884			-1.983
44801.000			13.884			-1.983
44900.000			13.883			-1.983
45000.000			13.882			-1.983
45101.000			13.881			-1.983
45200.000			13.880			-1.983
45300.000			13.880			-1.983
45402.000			13.879			-1.983
45501.000			13.878			-1.983
45600.000			13.878			-1.983
45701.000			13.878			-1.983
45800.000			13.876			-1.982
45900.000			13.876			-1.982
46001.000			13.876			-1.982
46100.000			13.875			-1.982
46201.000			13.875			-1.982
46302.000			13.874			-1.982
46401.000			13.873			-1.982
46500.000			13.873			-1.982
46601.000			13.871			-1.982
46700.000			13.872			-1.982
46800.000			13.872			-1.982
46901.000			13.871			-1.982
47000.000			13.871			-1.982
47101.000			13.870			-1.981
47202.000			13.869			-1.981
47300.000			13.868			-1.981
47400.000			13.868			-1.981
47501.000			13.866			-1.981
47600.000			13.865			-1.981
47700.000			13.865			-1.981
47800.000			13.866			-1.981
47901.000			13.866			-1.981
48002.000			13.864			-1.981
48100.000			13.863			-1.980
48200.000			13.863			-1.980
48301.000			13.862			-1.980
48400.000			13.861			-1.980
48500.000			13.862			-1.980
48601.000			13.862			-1.980
48701.000			13.861			-1.980
48801.000			13.860			-1.980
48901.000			13.859			-1.980
49000.000			13.859			-1.980
49100.000			13.858			-1.980
49201.000			13.858			-1.980
49300.000			13.858			-1.980
49400.000			13.856			-1.979
49502.000			13.855			-1.979
49601.000			13.855			-1.979
49700.000			13.854			-1.979
49801.000			13.853			-1.979
49900.000			13.853			-1.979
50000.000			13.854			-1.979
50101.000			13.852			-1.979
50200.000			13.853			-1.979
50301.000			13.852			-1.979
50402.000			13.852			-1.979
50500.000			13.851			-1.979
50600.000			13.851			-1.979
50701.000			13.850			-1.979
50800.000			13.848			-1.978
50900.000			13.848			-1.978
51000.000			13.847			-1.978
51101.000			13.848			-1.978
51202.000			13.847			-1.978
51300.000			13.846			-1.978
51400.000			13.846			-1.978
51501.000			13.845			-1.978
51600.000			13.845			-1.978
51700.000			13.844			-1.978
51801.000			13.845			-1.978
51901.000			13.844			-1.978
52001.000			13.844			-1.978
52101.000			13.843			-1.978
52200.000			13.841			-1.977
52300.000			13.841			-1.977
52401.000			13.840			-1.977
52500.000			13.840			-1.977
52600.000			13.839			-1.977
52702.000			13.839			-1.977
52801.000			13.838			-1.977
52900.000			13.838			-1.977
53001.000			13.837			-1.977
53100.000			13.837			-1.977
53200.000			13.836			-1.977
53301.000			13.835			-1.976
53400.000			13.835			-1.976
53501.000			13.835			-1.976
53602.000			13.835			-1.976
53700.000			13.834			-1.976
53800.000			13.832			-1.976
53901.000			13.833			-1.976
54000.000			13.832			-1.976
54100.000			13.831			-1.976
54200.000			13.832			-1.976
54301.000			13.832			-1.976
54402.000			13.831			-1.976
54500.000			13.830			-1.976
54600.000			13.830			-1.976
54701.000			13.828			-1.975
54800.000			13.828			-1.975
54900.000			13.828			-1.975
55001.000			13.827			-1.975
55101.000			13.827			-1.975
55201.000			13.827			-1.975
55301.000			13.826			-1.975
55400.000			13.826			-1.975
55500.000			13.826			-1.975
55601.000			13.824			-1.975
55700.000			13.823			-1.975
55800.000			13.824			-1.975
55902.000			13.823			-1.975
56001.000			13.823			-1.975
56100.000			13.823			-1.975
56201.000			13.822			-1.975
56300.000			13.821			-1.974
56400.000			13.820			-1.974
56501.000			13.820			-1.974
56600.000			13.820			-1.974
56701.000			13.819			-1.974
56802.000			13.819			-1.974
56900.000			13.819			-1.974
57000.000			13.817			-1.974
57101.000			13.818			-1.974
57200.000			13.817			-1.974
57300.000			13.817			-1.974
57400.000			13.816			-1.974
57501.000			13.815			-1.974
57602.000			13.815			-1.974
57700.000			13.815			-1.974
57800.000			13.814			-1.973
57901.000			13.814			-1.973
58000.000			13.813			-1.973
58100.000			13.813			-1.973
58201.000			13.812			-1.973
58301.000			13.812			-1.973
58401.000			13.813			-1.973
58501.000			13.811			-1.973
58600.000			13.811			-1.973
58700.000			13.810			-1.973
58801.000			13.810			-1.973
58900.000			13.810			-1.973
59000.000			13.809			-1.973
59102.000			13.808			-1.973
59201.000			13.807			-1.972
59300.000			13.806			-1.972
59401.000			13.806			-1.972
59500.000			13.806			-1.972
59600.000			13.806			-1.972
59701.000			13.806			-1.972
59800.000			13.805			-1.972
59901.000			13.804			-1.972
60002.000			13.804			-1.972
60100.000			13.803			-1.972
60200.000			13.803			-1.972
60301.000			13.802			-1.972
60400.000			13.802			-1.972
60500.000			13.802			-1.972
60600.000			13.801			-1.972
60701.000			13.800			-1.971
60802.000			13.800			-1.971
60900.000			13.799			-1.971
61000.000			13.799			-1.971
61101.000			13.799			-1.971
61200.000			13.800			-1.971
61300.000			13.799			-1.971
61401.000			13.797			-1.971
61501.000			13.797			-1.971
61601.000			13.797			-1.971
61701.000			13.796			-1.971
61800.000			13.795			-1.971
61900.000			13.795			-1.971
62001.000			13.795			-1.971
62100.000			13.794			-1.971
62200.000			13.794			-1.971
62302.000			13.794			-1.971
62401.000			13.793			-1.970
62500.000			13.792			-1.970
62601.000			13.793			-1.970
62700.000			13.792			-1.970
62800.000			13.791			-1.970
62901.000			13.792			-1.970
63000.000			13.791			-1.970
63101.000			13.791			-1.970
63202.000			13.790			-1.970
63301.000			13.789			-1.970
63400.000			13.789			-1.970
63501.000			13.788			-1.970
63600.000			13.788			-1.970
63700.000			13.787			-1.970
63800.000			13.787			-1.970
63900.000			13.787			-1.970
64002.000			13.787			-1.970
64101.000			13.786			-1.969
64200.000			13.786			-1.969
64301.000			13.785			-1.969
64400.000			13.784			-1.969
64500.000			13.785			-1.969
64601.000			13.784			-1.969
64700.000			13.783			-1.969
64801.000			13.783			-1.969
64902.000			13.783			-1.969
65000.000			13.783			-1.969
65100.000			13.782			-1.969
65201.000			13.781			-1.969
65300.000			13.780			-1.969
65400.000			13.780			-1.969
65501.000			13.780			-1.969
65601.000			13.780			-1.969
65701.000			13.779			-1.968
65801.000			13.778			-1.968
65900.000			13.779			-1.968
66000.000			13.778			-1.968
66101.000			13.778			-1.968
66200.000			13.778			-1.968
66300.000			13.778			-1.968
66401.000			13.777			-1.968
66501.000			13.775			-1.968
66601.000			13.775			-1.968
66701.000			13.775			-1.968
66800.000			13.775			-1.968
66900.000			13.774			-1.968
67000.000			13.774			-1.968
67100.000			13.774			-1.968
67201.000			13.772			-1.967
67301.000			13.772			-1.967
67401.000			13.772			-1.967
67501.000			13.771			-1.967
67600.000			13.771			-1.967
67700.000			13.770			-1.967
67801.000			13.770			-1.967
67900.000			13.770			-1.967
68000.000			13.770			-1.967
68102.000			13.769			-1.967
68201.000			13.769			-1.967
68301.000			13.769			-1.967
68401.000			13.767			-1.967
68500.000			13.766			-1.967
68600.000			13.767			-1.967
68701.000			13.767			-1.967
68800.000			13.767			-1.967
68900.000			13.767			-1.967
69002.000			13.765			-1.966
69101.000			13.765			-1.966
69200.000			13.764			-1.966
69301.000			13.764			-1.966
69400.000			13.763			-1.966
69500.000			13.763			-1.966
69601.000			13.762			-1.966
69700.000			13.763			-1.966
69801.000			13.762			-1.966
69902.000			13.762			-1.966
70001.000			13.761			-1.966
70100.000			13.762			-1.966
70200.000			13.761			-1.966
70300.000			13.759			-1.966
70401.000			13.760			-1.966
70500.000			13.760			-1.966
70600.000			13.759			-1.966
70702.000			13.758			-1.965
70801.000			13.759			-1.966
70900.000			13.758			-1.965
71001.000			13.757			-1.965
71100.000			13.757			-1.965
71200.000			13.756			-1.965
71301.000			13.757			-1.965
71400.000			13.755			-1.965
71501.000			13.755			-1.965
71602.000			13.755			-1.965
71700.000			13.755			-1.965
71800.000			13.755			-1.965
71901.000			13.754			-1.965
72000.000			13.754			-1.965
72100.000			13.753			-1.965
72201.000			13.752			-1.965
72301.000			13.752			-1.965
72401.000			13.752			-1.965
72501.000			13.752			-1.965
72600.000			13.752			-1.965
72700.000			13.751			-1.964
72801.000			13.750			-1.964
72900.000			13.750			-1.964
73000.000			13.750			-1.964
73102.000			13.749			-1.964
73201.000			13.749			-1.964
73300.000			13.749			-1.964
73400.000			13.748			-1.964
73500.000			13.748			-1.964
73601.000			13.748			-1.964
73700.000			13.747			-1.964
73800.000			13.746			-1.964
73902.000			13.746			-1.964
74001.000			13.746			-1.964
74100.000			13.746			-1.964
74201.000			13.745			-1.964
74300.000			13.744			-1.963
74400.000			13.744			-1.963
74501.000			13.744			-1.963
74600.000			13.744			-1.963
74701.000			13.743			-1.963
74802.000			13.744			-1.963
74900.000			13.744			-1.963
75000.000			13.742			-1.963
75101.000			13.741			-1.963
75200.000			13.742			-1.963
75300.000			13.742			-1.963
75401.000			13.741			-1.963
75501.000			13.741			-1.963
75601.000			13.741			-1.963
75701.000			13.740			-1.963
75800.000			13.738			-1.963
75900.000			13.738			-1.963
76001.000			13.738			-1.963
76100.000			13.738			-1.963
76200.000			13.738			-1.963
76301.000			13.737			-1.962
76401.000			13.737			-1.962
76502.000			13.736			-1.962
76600.000			13.737			-1.962
76700.000			13.737			-1.962
76801.000			13.736			-1.962
76900.000			13.736			-1.962
77000.000			13.736			-1.962
77101.000			13.734			-1.962
77201.000			13.734			-1.962
77301.000			13.735			-1.962
77401.000			13.733			-1.962
77500.000			13.733			-1.962
77600.000			13.733			-1.962
77701.000			13.734			-1.962
77800.000			13.731			-1.962
77900.000			13.732			-1.962
78002.000			13.732			-1.962
78101.000			13.731			-1.962
78200.000			13.730			-1.961
78301.000			13.730			-1.961
78400.000			13.731			-1.962
78500.000			13.728			-1.961
78601.000			13.728			-1.961
78700.000			13.728			-1.961
78801.000			13.728			-1.961
78902.000			13.727			-1.961
79001.000			13.727			-1.961
79100.000			13.727			-1.961
79201.000			13.727			-1.961
79300.000			13.726			-1.961
79400.000			13.725			-1.961
79501.000			13.725			-1.961
79601.000			13.726			-1.961
79702.000			13.725			-1.961
79801.000			13.726			-1.961
79900.000			13.725			-1.961
80001.000			13.723			-1.960
80100.000			13.723			-1.960
80200.000			13.724			-1.961
80301.000			13.723			-1.960
80400.000			13.722			-1.960
80501.000			13.723			-1.960
80602.000			13.723			-1.960
80700.000			13.722			-1.960
80800.000			13.722			-1.960
80901.000			13.722			-1.960
81000.000			13.720			-1.960
81100.000			13.720			-1.960
81201.000			13.720			-1.960
81301.000			13.720			-1.960
81401.000			13.720			-1.960
81501.000			13.720			-1.960
81600.000			13.719			-1.960
81700.000			13.720			-1.960
81801.000			13.720			-1.960
81900.000			13.719			-1.960
82000.000			13.719			-1.960
82102.000			13.719			-1.960
82201.000			13.719			-1.960
82300.000			13.718			-1.960
82401.000			13.718			-1.960
82500.000			13.718			-1.960
82600.000			13.718			-1.960
82701.000			13.716			-1.959
82800.000			13.716			-1.959
82902.000			13.717			-1.960
83001.000			13.716			-1.959
83100.000			13.715			-1.959
83201.000			13.716			-1.959
83300.000			13.717			-1.960
83400.000			13.716			-1.959
83501.000			13.714			-1.959
83600.000			13.714			-1.959
83701.000			13.714			-1.959
83802.000			13.714			-1.959
83900.000			13.715			-1.959
84000.000			13.714			-1.959
84101.000			13.714			-1.959
84200.000			13.714			-1.959
84300.000			13.713			-1.959
84401.000			13.712			-1.959
84501.000			13.712			-1.959
84601.000			13.712			-1.959
84701.000			13.712			-1.959
84800.000			13.712			-1.959
84900.000			13.711			-1.959
85001.000			13.709			-1.958
85100.000			13.709			-1.958
85200.000			13.710			-1.959
85301.000			13.710			-1.959
85401.000			13.710			-1.959
85501.000			13.710			-1.959
85601.000			13.709			-1.958
85700.000			13.709			-1.958
85800.000			13.708			-1.958
85901.000			13.707			-1.958
86000.000			13.708			-1.958
86100.000			13.709			-1.958
86202.000			13.708			-1.958
86301.000			13.707			-1.958
86401.000			13.706			-1.958
86500.000			13.706			-1.958
86600.000			13.706			-1.958
86701.000			13.705			-1.958
86800.000			13.705			-1.958
86900.000			13.705			-1.958
87002.000			13.704			-1.958
87101.000			13.704			-1.958
87200.000			13.704			-1.958
87301.000			13.703			-1.958
87400.000			13.703			-1.958
87500.000			13.703			-1.958
87601.000			13.703			-1.958
87700.000			13.703			-1.958
87801.000			13.702			-1.957
87902.000			13.701			-1.957
88000.000			13.701			-1.957
88100.000			13.701			-1.957
88201.000			13.700			-1.957
88300.000			13.700			-1.957
88400.000			13.700			-1.957
88501.000			13.699			-1.957
88601.000			13.699			-1.957
88701.000			13.700			-1.957
88801.000			13.699			-1.957
88900.000			13.698			-1.957
89000.000			13.698			-1.957
89101.000			13.697			-1.957
89200.000			13.696			-1.957
89300.000			13.696			-1.957
89400.000			13.697			-1.957
89501.000			13.696			-1.957
89602.000			13.696			-1.957
89700.000			13.694			-1.956
89800.000			13.693			-1.956
89901.000			13.694			-1.956
90000.000			13.693			-1.956
90100.000			13.694			-1.956
90201.000			13.693			-1.956
90301.000			13.693			-1.956
90401.000			13.692			-1.956
90501.000			13.692			-1.956
90600.000			13.691			-1.956
90700.000			13.691			-1.956
90801.000			13.691			-1.956
90900.000			13.690			-1.956
91000.000			13.689			-1.956
91102.000			13.689			-1.956
91201.000			13.689			-1.956
91301.000			13.688			-1.955
91401.000			13.687			-1.955
91500.000			13.687			-1.955
91600.000			13.688			-1.955
91701.000			13.687			-1.955
91800.000			13.686			-1.955
91900.000			13.686			-1.955
92002.000			13.686			-1.955
92101.000			13.686			-1.955
92200.000			13.685			-1.955
92301.000			13.685			-1.955
92400.000			13.684			-1.955
92500.000			13.684			-1.955
92600.000			13.683			-1.955
92700.000			13.684			-1.955
92802.000			13.683			-1.955
92901.000			13.683			-1.955
93001.000			13.682			-1.955
93101.000			13.684			-1.955
93200.000			13.683			-1.955
93300.000			13.682			-1.955
93401.000			13.681			-1.954
93500.000			13.681			-1.954
93600.000			13.681			-1.954
93702.000			13.680			-1.954
93801.000			13.680			-1.954
93900.000			13.680			-1.954
94001.000			13.680			-1.954
94100.000			13.679			-1.954
94200.000			13.679			-1.954
94301.000			13.680			-1.954
94400.000			13.679			-1.954
94501.000			13.678			-1.954
94602.000			13.678			-1.954
94700.000			13.678			-1.954
94800.000			13.677			-1.954
94901.000			13.676			-1.954
95000.000			13.676			-1.954
95100.000			13.676			-1.954
95201.000			13.676			-1.954
95301.000			13.675			-1.954
95401.000			13.674			-1.953
95501.000			13.674			-1.953
95600.000			13.676			-1.954
95700.000			13.676			-1.954
95800.000			13.674			-1.953
95900.000			13.673			-1.953
96001.000			13.674			-1.953
96100.000			13.675			-1.954
96201.000			13.674			-1.953
96302.000			13.673			-1.953
96400.000			13.672			-1.953
96500.000			13.672			-1.953
96601.000			13.672			-1.953
96700.000			13.672			-1.953
96800.000			13.671			-1.953
96901.000			13.669			-1.953
97001.000			13.670			-1.953
97101.000			13.671			-1.953
97201.000			13.670			-1.953
97300.000			13.669			-1.953
97400.000			13.668			-1.953
97501.000			13.669			-1.953
97600.000			13.669			-1.953
97700.000			13.669			-1.953
97801.000			13.668			-1.953
97901.000			13.668			-1.953
98001.000			13.667			-1.952
98101.000			13.667			-1.952
98200.000			13.667			-1.952
98300.000			13.666			-1.952
98401.000			13.665			-1.952
98500.000			13.666			-1.952
98600.000			13.666			-1.952
98702.000			13.666			-1.952
98801.000			13.664			-1.952
98900.000			13.665			-1.952
99000.000			13.665			-1.952
99100.000			13.665			-1.952
99201.000			13.664			-1.952
99300.000			13.664			-1.952
99400.000			13.664			-1.952
99502.000			13.663			-1.952
99601.000			13.662			-1.952
99701.000			13.662			-1.952
99801.000			13.663			-1.952
99900.000			13.663			-1.952
100000.000			13.662			-1.952
100101.000			13.662			-1.952
100200.000			13.661			-1.952
100300.000			13.660			-1.951
100402.000			13.660			-1.951
100501.000			13.661			-1.952
100600.000			13.661			-1.952
100701.000			13.660			-1.951
100800.000			13.660			-1.951
100900.000			13.659			-1.951
101001.000			13.659			-1.951
101100.000			13.659			-1.951
101201.000			13.659			-1.951
101302.000			13.658			-1.951
101400.000			13.658			-1.951
101500.000			13.657			-1.951
101601.000			13.656			-1.951
101700.000			13.657			-1.951
101800.000			13.656			-1.951
101901.000			13.656			-1.951
102000.000			13.657			-1.951
102102.000			13.656			-1.951
102201.000			13.655			-1.951
102300.000			13.655			-1.951
102401.000			13.656			-1.951
102500.000			13.655			-1.951
102600.000			13.655			-1.951
102701.000			13.655			-1.951
102800.000			13.654			-1.951
102901.000			13.654			-1.951
103002.000			13.653			-1.950
103100.000			13.654			-1.951
103200.000			13.653			-1.950
103301.000			13.652			-1.950
103400.000			13.653			-1.950
103500.000			13.653			-1.950
103601.000			13.653			-1.950
103701.000			13.652			-1.950
103801.000			13.652			-1.950
103901.000			13.651			-1.950
104000.000			13.651			-1.950
104100.000			13.652			-1.950
104201.000			13.650			-1.950
104300.000			13.650			-1.950
104400.000			13.651			-1.950
104502.000			13.650			-1.950
104601.000			13.649			-1.950
104700.000			13.649			-1.950
104801.000			13.649			-1.950
104900.000			13.648			-1.950
105000.000			13.648			-1.950
105101.000			13.648			-1.950
105200.000			13.649			-1.950
105300.000			13.648			-1.950
105402.000			13.648			-1.950
105501.000			13.647			-1.950
105601.000			13.646			-1.949
105700.000			13.645			-1.949
105800.000			13.646			-1.949
105901.000			13.646			-1.949
106000.000			13.645			-1.949
106100.000			13.645			-1.949
106202.000			13.645			-1.949
106301.000			13.645			-1.949
106401.000			13.645			-1.949
106501.000			13.645			-1.949
106600.000			13.644			-1.949
106700.000			13.643			-1.949
106801.000			13.643			-1.949
106900.000			13.643			-1.949
107000.000			13.644			-1.949
107102.000			13.643			-1.949
107201.000			13.643			-1.949
107300.000			13.643			-1.949
107401.000			13.642			-1.949
107500.000			13.641			-1.949
107600.000			13.641			-1.949
107701.000			13.641			-1.949
107800.000			13.641			-1.949
107901.000			13.642			-1.949
108002.000			13.641			-1.949
108101.000			13.640			-1.949
108200.000			13.640			-1.949
108301.000			13.640			-1.949
108400.000			13.640			-1.949
108500.000			13.640			-1.949
108600.000			13.640			-1.949
108700.000			13.639			-1.948
108802.000			13.639			-1.948
108901.000			13.639			-1.948
109000.000			13.639			-1.948
109101.000			13.637			-1.948
109200.000			13.637			-1.948
109300.000			13.637			-1.948
109401.000			13.637			-1.948
109500.000			13.636			-1.948
109601.000			13.637			-1.948
109702.000			13.637			-1.948
109800.000			13.637			-1.948
109900.000			13.637			-1.948
110001.000			13.636			-1.948
110100.000			13.636			-1.948
110200.000			13.635			-1.948
110301.000			13.636			-1.948
110401.000			13.635			-1.948
110501.000			13.635			-1.948
110602.000			13.636			-1.948
110700.000			13.635			-1.948
110800.000			13.634			-1.948
110901.000			13.633			-1.948
111000.000			13.633			-1.948
111100.000			13.633			-1.948
111201.000			13.633			-1.948
111301.000			13.633			-1.948
111401.000			13.632			-1.947
111501.000			13.632			-1.947
111600.000			13.632			-1.947
111700.000			13.631			-1.947
111800.000			13.632			-1.947
111900.000			13.633			-1.948
112001.000			13.632			-1.947
112101.000			13.631			-1.947
112201.000			13.631			-1.947
112301.000			13.631			-1.947
112400.000			13.630			-1.947
112500.000			13.630			-1.947
112601.000			13.629			-1.947
112700.000			13.628			-1.947
112800.000			13.628			-1.947
112902.000			13.628			-1.947
113001.000			13.627			-1.947
113100.000			13.627			-1.947
113201.000			13.628			-1.947
113300.000			13.627			-1.947
113400.000			13.627			-1.947
113501.000			13.628			-1.947
113600.000			13.628			-1.947
113701.000			13.627			-1.947
113802.000			13.626			-1.947
113900.000			13.626			-1.947
114000.000			13.625			-1.946
114101.000			13.627			-1.947
114200.000			13.626			-1.947
114300.000			13.624			-1.946
114401.000			13.624			-1.946
114501.000			13.625			-1.946
114601.000			13.625			-1.946
114702.000			13.624			-1.946
114800.000			13.625			-1.946
114900.000			13.625			-1.946
115000.000			13.623			-1.946
115100.000			13.623			-1.946
115201.000			13.622			-1.946
115300.000			13.623			-1.946
115401.000			13.624			-1.946
115502.000			13.622			-1.946
115600.000			13.621			-1.946
115700.000			13.622			-1.946
115801.000			13.621			-1.946
115900.000			13.621			-1.946
116000.000			13.622			-1.946
116101.000			13.620			-1.946
116201.000			13.620			-1.946
116301.000			13.620			-1.946
116401.000			13.620			-1.946
116500.000			13.619			-1.946
116600.000			13.618			-1.945
116701.000			13.619			-1.946
116800.000			13.619			-1.946
116900.000			13.619			-1.946
117002.000			13.619			-1.946
117101.000			13.618			-1.945
117200.000			13.618			-1.945
117301.000			13.618			-1.945
117400.000			13.616			-1.945
117500.000			13.617			-1.945
117601.000			13.617			-1.945
117700.000			13.616			-1.945
117800.000			13.617			-1.945
117902.000			13.616			-1.945
118001.000			13.616			-1.945
118100.000			13.615			-1.945
118200.000			13.615			-1.945
118300.000			13.616			-1.945
118401.000			13.616			-1.945
118500.000			13.615			-1.945
118600.000			13.615			-1.945
118702.000			13.615			-1.945
118801.000			13.613			-1.945
118901.000			13.613			-1.945
119001.000			13.614			-1.945
119100.000			13.613			-1.945
119200.000			13.614			-1.945
119301.000			13.614			-1.945
119400.000			13.612			-1.945
119500.000			13.612			-1.945
119602.000			13.612			-1.945
119701.000			13.611			-1.944
119800.000			13.611			-1.944
119901.000			13.611			-1.944
120000.000			13.611			-1.944
120100.000			13.611			-1.944
120201.000			13.611			-1.944
120300.000			13.611			-1.944
120401.000			13.611			-1.944
120502.000			13.610			-1.944
120600.000			13.610			-1.944
120700.000			13.610			-1.944
120801.000			13.610			-1.944
120900.000			13.610			-1.944
121000.000			13.610			-1.944
121101.000			13.610			-1.944
121201.000			13.609			-1.944
121302.000			13.609			-1.944
121401.000			13.609			-1.944
121500.000			13.608			-1.944
121601.000			13.608			-1.944
121700.000			13.608			-1.944
121800.000			13.607			-1.944
121901.000			13.608			-1.944
122000.000			13.607			-1.944
122101.000			13.606			-1.944
122202.000			13.606			-1.944
122300.000			13.605			-1.944
122400.000			13.606			-1.944
122501.000			13.606			-1.944
122600.000			13.604			-1.943
122700.000			13.605			-1.944
122801.000			13.606			-1.944
122901.000			13.606			-1.944
123001.000			13.605			-1.944
123101.000			13.604			-1.943
123200.000			13.605			-1.944
123300.000			13.604			-1.943
123401.000			13.603			-1.943
123500.000			13.604			-1.943
123600.000			13.603			-1.943
123702.000			13.603			-1.943
123801.000			13.603			-1.943
123900.000			13.603			-1.943
124001.000			13.602			-1.943
124100.000			13.603			-1.943
124200.000			13.603			-1.943
124301.000			13.603			-1.943
124400.000			13.602			-1.943
124502.000			13.602			-1.943
124601.000			13.603			-1.943
124701.000			13.603			-1.943
124801.000			13.602			-1.943
124900.000			13.602			-1.943
125000.000			13.601			-1.943
125101.000			13.602			-1.943
125200.000			13.603			-1.943
125300.000			13.601			-1.943
125402.000			13.600			-1.943
125501.000			13.601			-1.943
125600.000			13.600			-1.943
125701.000			13.599			-1.943
125800.000			13.600			-1.943
125900.000			13.600			-1.943
126001.000			13.600			-1.943
126100.000			13.599			-1.943
126201.000			13.598			-1.943
126302.000			13.598			-1.943
126400.000			13.598			-1.943
126500.000			13.599			-1.943
126601.000			13.599			-1.943
126700.000			13.598			-1.943
126800.000			13.597			-1.942
126901.000			13.596			-1.942
127000.000			13.598			-1.943
127101.000			13.598			-1.943
127202.000			13.597			-1.942
127300.000			13.596			-1.942
127400.000			13.596			-1.942
127501.000			13.597			-1.942
127600.000			13.596			-1.942
127700.000			13.596			-1.942
127800.000			13.595			-1.942
127900.000			13.595			-1.942
128002.000			13.596			-1.942
128101.000			13.595			-1.942
128200.000			13.595			-1.942
128301.000			13.593			-1.942
128400.000			13.594			-1.942
128500.000			13.595			-1.942
128601.000			13.594			-1.942
128700.000			13.594			-1.942
128801.000			13.593			-1.942
128902.000			13.593			-1.942
129001.000			13.593			-1.942
129100.000			13.592			-1.942
129201.000			13.593			-1.942
129300.000			13.592			-1.942
129400.000			13.592			-1.942
129501.000			13.592			-1.942
129600.000			13.591			-1.942
129701.000			13.591			-1.942
129802.000			13.591			-1.942
129900.000			13.591			-1.942
130000.000			13.590			-1.941
130101.000			13.589			-1.941
130200.000			13.589			-1.941
130300.000			13.590			-1.941
130401.000			13.590			-1.941
130501.000			13.590			-1.941
130601.000			13.589			-1.941
130702.000			13.590			-1.941
130800.000			13.590			-1.941
130900.000			13.590			-1.941
131000.000			13.589			-1.941
131100.000			13.589			-1.941
131201.000			13.587			-1.941
131300.000			13.588			-1.941
131401.000			13.588			-1.941
131502.000			13.587			-1.941
131601.000			13.587			-1.941
131700.000			13.587			-1.941
131801.000			13.587			-1.941
131900.000			13.586			-1.941
132000.000			13.585			-1.941
132101.000			13.585			-1.941
132200.000			13.586			-1.941
132300.000			13.587			-1.941
132402.000			13.585			-1.941
132501.000			13.585			-1.941
132600.000			13.585			-1.941
132701.000			13.585			-1.941
132800.000			13.585			-1.941
132900.000			13.585			-1.941
133001.000			13.584			-1.941
133100.000			13.584			-1.941
133200.000			13.584			-1.941
133302.000			13.583			-1.940
133401.000			13.583			-1.940
133500.000			13.584			-1.941
133601.000			13.584			-1.941
133700.000			13.583			-1.940
133800.000			13.583			-1.940
133901.000			13.583			-1.940
134000.000			13.583			-1.940
134100.000			13.581			-1.940
134202.000			13.581			-1.940
134301.000			13.581			-1.940
134402.000			13.581			-1.940
134500.000			13.581			-1.940
134600.000			13.580			-1.940
134701.000			13.580			-1.940
134800.000			13.581			-1.940
134900.000			13.580			-1.940
135001.000			13.580			-1.940
135101.000			13.580			-1.940
135201.000			13.578			-1.940
135302.000			13.578			-1.940
135400.000			13.579			-1.940
135500.000			13.579			-1.940
135601.000			13.579			-1.940
135700.000			13.578			-1.940
135800.000			13.578			-1.940
135901.000			13.577			-1.940
136000.000			13.577			-1.940
136101.000			13.578			-1.940
136202.000			13.578			-1.940
136300.000			13.577			-1.940
136400.000			13.577			-1.940
136501.000			13.576			-1.939
136600.000			13.576			-1.939
136700.000			13.576			-1.939
136801.000			13.577			-1.940
136900.000			13.577			-1.940
137001.000			13.577			-1.940
137102.000			13.576			-1.939
137201.000			13.575			-1.939
137300.000			13.575			-1.939
137400.000			13.576			-1.939
137500.000			13.575			-1.939
137601.000			13.574			-1.939
137700.000			13.574			-1.939
137800.000			13.574			-1.939
137901.000			13.573			-1.939
138001.000			13.574			-1.939
138101.000			13.573			-1.939
138201.000			13.573			-1.939
138300.000			13.572			-1.939
138400.000			13.571			-1.939
138501.000			13.572			-1.939
138600.000			13.573			-1.939
138700.000			13.573			-1.939
138801.000			13.572			-1.939
138901.000			13.573			-1.939
139001.000			13.572			-1.939
139102.000			13.571			-1.939
139200.000			13.572			-1.939
139300.000			13.571			-1.939
139401.000			13.570			-1.939
139500.000			13.570			-1.939
139600.000			13.570			-1.939
139701.000			13.571			-1.939
139800.000			13.569			-1.938
139901.000			13.570			-1.939
140002.000			13.569			-1.938
140100.000			13.569			-1.938
140200.000			13.570			-1.939
140301.000			13.568			-1.938
140400.000			13.569			-1.938
140500.000			13.569			-1.938
140600.000			13.568			-1.938
140700.000			13.568			-1.938
140802.000			13.568			-1.938
140901.000			13.568			-1.938
141001.000			13.567			-1.938
141101.000			13.568			-1.938
141200.000			13.567			-1.938
141300.000			13.567			-1.938
141401.000			13.567			-1.938
141500.000			13.566			-1.938
141600.000			13.566			-1.938
141702.000			13.567			-1.938
141801.000			13.567			-1.938
141901.000			13.567			-1.938
142001.000			13.566			-1.938
142100.000			13.566			-1.938
142200.000			13.566			-1.938
142301.000			13.565			-1.938
142400.000			13.564			-1.938
142500.000			13.565			-1.938
142601.000			13.565			-1.938
142701.000			13.564			-1.938
142801.000			13.564			-1.938
142901.000			13.564			-1.938
143000.000			13.564			-1.938
143100.000			13.564			-1.938
143201.000			13.563			-1.938
143300.000			13.564			-1.938
143400.000			13.565			-1.938
143501.000			13.564			-1.938
143601.000			13.563			-1.938
143702.000			13.561			-1.937
143801.000			13.561			-1.937
143900.000			13.562			-1.937
144001.000			13.562			-1.937
144100.000			13.562			-1.937
144200.000			13.561			-1.937
144301.000			13.562			-1.937
144400.000			13.562			-1.937
144501.000			13.561			-1.937
144602.000			13.562			-1.937
144701.000			13.561			-1.937
144800.000			13.561			-1.937
144901.000			13.562			-1.937
145000.000			13.561			-1.937
145100.000			13.560			-1.937
145201.000			13.560			-1.937
145300.000			13.559			-1.937
145401.000			13.559			-1.937
145502.000			13.558			-1.937
145601.000			13.559			-1.937
145700.000			13.559			-1.937
145801.000			13.559			-1.937
145900.000			13.558			-1.937
146000.000			13.558			-1.937
146101.000			13.558			-1.937
146200.000			13.558			-1.937
146300.000			13.557			-1.937
146402.000			13.557			-1.937
146501.000			13.558			-1.937
146600.000			13.558			-1.937
146701.000			13.556			-1.937
146800.000			13.556			-1.937
146900.000			13.556			-1.937
147000.000			13.556			-1.937
147100.000			13.555			-1.936
147201.000			13.555			-1.936
147300.000			13.555			-1.936
147401.000			13.555			-1.936
147502.000			13.554			-1.936
147600.000			13.554			-1.936
147700.000			13.555			-1.936
147801.000			13.554			-1.936
147900.000			13.554			-1.936
148000.000			13.555			-1.936
148101.000			13.554			-1.936
148200.000			13.553			-1.936
148301.000			13.553			-1.936
148402.000			13.553			-1.936
148500.000			13.553			-1.936
148600.000			13.553			-1.936
148701.000			13.553			-1.936
148800.000			13.552			-1.936
148900.000			13.551			-1.936
149001.000			13.552			-1.936
149100.000			13.552			-1.936
149200.000			13.551			-1.936
149302.000			13.551			-1.936
149401.000			13.551			-1.936
149500.000			13.550			-1.936
149601.000			13.550			-1.936
149700.000			13.550			-1.936
149800.000			13.549			-1.936
149901.000			13.550			-1.936
150000.000			13.549			-1.936
150100.000			13.549			-1.936
150202.000			13.549			-1.936
150301.000			13.549			-1.936
150402.000			13.548			-1.935
150500.000			13.548			-1.935
150600.000			13.548			-1.935
150701.000			13.547			-1.935
150800.000			13.547			-1.935
150900.000			13.548			-1.935
151001.000			13.548			-1.935
151101.000			13.548			-1.935
151201.000			13.547			-1.935
151302.000			13.546			-1.935
151400.000			13.547			-1.935
151500.000			13.546			-1.935
151601.000			13.546			-1.935
151700.000			13.547			-1.935
151800.000			13.546			-1.935
151901.000			13.546			-1.935
152001.000			13.546			-1.935
152101.000			13.546			-1.935
152202.000			13.545			-1.935
152300.000			13.545			-1.935
152400.000			13.546			-1.935
152501.000			13.546			-1.935
152600.000			13.544			-1.935
152700.000			13.544			-1.935
152801.000			13.544			-1.935
152901.000			13.545			-1.935
153001.000			13.544			-1.935
153102.000			13.543			-1.935
153200.000			13.544			-1.935
153300.000			13.544			-1.935
153400.000			13.543			-1.935
153500.000			13.543			-1.935
153601.000			13.543			-1.935
153700.000			13.543			-1.935
153801.000			13.543			-1.935
153902.000			13.543			-1.935
154001.000			13.541			-1.934
154100.000			13.542			-1.935
154201.000			13.541			-1.934
154300.000			13.542			-1.935
154400.000			13.542			-1.935
154501.000			13.542			-1.935
154600.000			13.541			-1.934
154700.000			13.540			-1.934
154802.000			13.541			-1.934
154901.000			13.541			-1.934
155000.000			13.541			-1.934
155101.000			13.540			-1.934
155200.000			13.538			-1.934
155300.000			13.539			-1.934
155401.000			13.539			-1.934
155500.000			13.538			-1.934
155600.000			13.540			-1.934
155702.000			13.539			-1.934
155801.000			13.538			-1.934
155900.000			13.537			-1.934
156001.000			13.538			-1.934
156100.000			13.539			-1.934
156200.000			13.538			-1.934
156301.000			13.538			-1.934
156400.000			13.539			-1.934
156500.000			13.538			-1.934
156602.000			13.537			-1.934
156701.000			13.538			-1.934
156802.000			13.537			-1.934
156900.000			13.536			-1.934
157000.000			13.535			-1.934
157101.000			13.535			-1.934
157200.000			13.536			-1.934
157300.000			13.538			-1.934
157401.000			13.536			-1.934
157500.000			13.536			-1.934
157601.000			13.536			-1.934
157702.000			13.536			-1.934
157800.000			13.536			-1.934
157900.000			13.536			-1.934
158001.000			13.535			-1.934
158100.000			13.535			-1.934
158200.000			13.535			-1.934
158301.000			13.534			-1.933
158400.000			13.534			-1.933
158501.000			13.535			-1.934
158602.000			13.534			-1.933
158701.000			13.535			-1.934
158800.000			13.535			-1.934
158901.000			13.533			-1.933
159000.000			13.533			-1.933
159100.000			13.534			-1.933
159201.000			13.533			-1.933
159300.000			13.532			-1.933
159400.000			13.532			-1.933
159502.000			13.533			-1.933
159601.000			13.532			-1.933
159700.000			13.532			-1.933
159800.000			13.533			-1.933
159900.000			13.533			-1.933
160001.000			13.532			-1.933
160100.000			13.532			-1.933
160200.000			13.532			-1.933
160301.000			13.532			-1.933
160401.000			13.532			-1.933
160501.000			13.531			-1.933
160601.000			13.531			-1.933
160700.000			13.530			-1.933
160800.000			13.530			-1.933
160901.000			13.530			-1.933
161000.000			13.531			-1.933
161100.000			13.531			-1.933
161201.000			13.530			-1.933
161301.000			13.529			-1.933
161401.000			13.529			-1.933
161501.000			13.529			-1.933
161600.000			13.530			-1.933
161700.000			13.529			-1.933
161801.000			13.529			-1.933
161900.000			13.529			-1.933
162000.000			13.528			-1.933
162101.000			13.528			-1.933
162201.000			13.528			-1.933
162301.000			13.528			-1.933
162402.000			13.528			-1.933
162500.000			13.528			-1.933
162600.000			13.528			-1.933
162701.000			13.527			-1.932
162800.000			13.527			-1.932
162900.000			13.527			-1.932
163000.000			13.526			-1.932
163100.000			13.526			-1.932
163202.000			13.526			-1.932
163301.000			13.526			-1.932
163400.000			13.525			-1.932
163501.000			13.525			-1.932
163600.000			13.526			-1.932
163700.000			13.525			-1.932
163801.000			13.525			-1.932
163900.000			13.526			-1.932
164000.000			13.526			-1.932
164102.000			13.524			-1.932
164201.000			13.524			-1.932
164300.000			13.524			-1.932
164401.000			13.524			-1.932
164500.000			13.523			-1.932
164600.000			13.523			-1.932
164701.000			13.524			-1.932
164800.000			13.524			-1.932
164900.000			13.524			-1.932
165002.000			13.523			-1.932
165101.000			13.523			-1.932
165200.000			13.523			-1.932
165301.000			13.523			-1.932
165400.000			13.523			-1.932
165500.000			13.522			-1.932
165601.000			13.522			-1.932
165700.000			13.521			-1.932
165800.000			13.521			-1.932
165902.000			13.521			-1.932
166001.000			13.521			-1.932
166100.000			13.522			-1.932
166200.000			13.522			-1.932
166300.000			13.521			-1.932
166401.000			13.521			-1.932
166500.000			13.521			-1.932
166600.000			13.521			-1.932
166701.000			13.519			-1.931
166801.000			13.519			-1.931
166901.000			13.520			-1.931
167002.000			13.520			-1.931
167100.000			13.519			-1.931
167200.000			13.518			-1.931
167301.000			13.518			-1.931
167400.000			13.519			-1.931
167500.000			13.519			-1.931
167601.000			13.519			-1.931
167701.000			13.519			-1.931
167801.000			13.519			-1.931
167902.000			13.518			-1.931
168000.000			13.518			-1.931
168100.000			13.518			-1.931
168201.000			13.517			-1.931
168300.000			13.517			-1.931
168400.000			13.516			-1.931
168501.000			13.517			-1.931
168600.000			13.517			-1.931
168701.000			13.517			-1.931
168802.000			13.516			-1.931
168901.000			13.516			-1.931
169000.000			13.517			-1.931
169101.000			13.517			-1.931
169200.000			13.516			-1.931
169300.000			13.516			-1.931
169400.000			13.516			-1.931
169500.000			13.516			-1.931
169602.000			13.515			-1.931
169701.000			13.515			-1.931
169801.000			13.515			-1.931
169901.000			13.515			-1.931
170000.000			13.514			-1.931
170100.000			13.514			-1.931
170201.000			13.513			-1.930
170300.000			13.514			-1.931
170400.000			13.515			-1.931
170501.000			13.515			-1.931
170601.000			13.514			-1.931
170701.000			13.514			-1.931
170801.000			13.513			-1.930
170900.000			13.513			-1.930
171000.000			13.513			-1.930
171101.000			13.512			-1.930
171200.000			13.512			-1.930
171300.000			13.512			-1.930
171401.000			13.512			-1.930
171501.000			13.512			-1.930
171601.000			13.512			-1.930
171701.000			13.512			-1.930
171800.000			13.511			-1.930
171900.000			13.510			-1.930
172001.000			13.510			-1.930
172100.000			13.512			-1.930
172200.000			13.511			-1.930
172302.000			13.509			-1.930
172401.000			13.510			-1.930
172502.000			13.511			-1.930
172600.000			13.510			-1.930
172700.000			13.509			-1.930
172801.000			13.508			-1.930
172900.000			13.507			-1.930
173000.000			13.508			-1.930
173101.000			13.508			-1.930
173200.000			13.508			-1.930
173301.000			13.508			-1.930
173402.000			13.507			-1.930
173500.000			13.508			-1.930
173600.000			13.508			-1.930
173701.000			13.507			-1.930
173800.000			13.507			-1.930
173900.000			13.508			-1.930
174001.000			13.507			-1.930
174100.000			13.507			-1.930
174201.000			13.507			-1.930
174302.000			13.506			-1.929
174401.000			13.506			-1.929
174500.000			13.506			-1.929
174601.000			13.505			-1.929
174700.000			13.506			-1.929
174800.000			13.505			-1.929
174901.000			13.505			-1.929
175000.000			13.507			-1.930
175101.000			13.506			-1.929
175202.000			13.505			-1.929
175301.000			13.505			-1.929
175400.000			13.505			-1.929
175501.000			13.504			-1.929
175600.000			13.504			-1.929
175700.000			13.504			-1.929
175800.000			13.504			-1.929
175900.000			13.504			-1.929
176001.000			13.503			-1.929
176101.000			13.503			-1.929
176201.000			13.502			-1.929
176301.000			13.503			-1.929
176400.000			13.503			-1.929
176500.000			13.502			-1.929
176601.000			13.502			-1.929
176700.000			13.502			-1.929
176800.000			13.502			-1.929
176901.000			13.501			-1.929
177001.000			13.501			-1.929
177101.000			13.501			-1.929
177201.000			13.501			-1.929
177300.000			13.501			-1.929
177400.000			13.499			-1.928
177501.000			13.500			-1.929
177600.000			13.500			-1.929
177700.000			13.500			-1.929
177801.000			13.499			-1.928
177901.000			13.499			-1.928
178001.000			13.500			-1.929
178102.000			13.500			-1.929
178200.000			13.499			-1.928
178300.000			13.500			-1.929
178401.000			13.499			-1.928
178500.000			13.498			-1.928
178600.000			13.499			-1.928
178701.000			13.499			-1.928
178800.000			13.499			-1.928
178900.000			13.499			-1.928
179002.000			13.498			-1.928
179101.000			13.497			-1.928
179201.000			13.496			-1.928
179300.000			13.497			-1.928
179400.000			13.497			-1.928
179501.000			13.496			-1.928
179600.000			13.496			-1.928
179700.000			13.496			-1.928
179801.000			13.496			-1.928
179901.000			13.497			-1.928
180001.000			13.497			-1.928
180102.000			13.496			-1.928
180200.000			13.496			-1.928
180300.000			13.495			-1.928
180401.000			13.496			-1.928
180500.000			13.495			-1.928
180600.000			13.495			-1.928
180701.000			13.495			-1.928
180800.000			13.495			-1.928
180901.000			13.495			-1.928
181002.000			13.495			-1.928
181101.000			13.494			-1.928
181200.000			13.494			-1.928
181301.000			13.495			-1.928
181400.000			13.494			-1.928
181500.000			13.493			-1.928
181601.000			13.493			-1.928
181700.000			13.494			-1.928
181800.000			13.493			-1.928
181902.000			13.493			-1.928
182001.000			13.492			-1.927
182100.000			13.493			-1.928
182200.000			13.492			-1.927
182300.000			13.491			-1.927
182401.000			13.491			-1.927
182500.000			13.493			-1.928
182600.000			13.492			-1.927
182701.000			13.492			-1.927
182801.000			13.492			-1.927
182901.000			13.491			-1.927
183001.000			13.491			-1.927
183100.000			13.491			-1.927
183200.000			13.490			-1.927
183301.000			13.490			-1.927
183400.000			13.491			-1.927
183500.000			13.491			-1.927
183601.000			13.490			-1.927
183701.000			13.490			-1.927
183801.000			13.490			-1.927
183902.000			13.490			-1.927
184000.000			13.491			-1.927
184100.000			13.490			-1.927
184201.000			13.488			-1.927
184300.000			13.488			-1.927
184400.000			13.489			-1.927
184501.000			13.490			-1.927
184600.000			13.491			-1.927
184701.000			13.490			-1.927
184802.000			13.488			-1.927
184900.000			13.488			-1.927
185000.000			13.488			-1.927
185101.000			13.488			-1.927
185200.000			13.488			-1.927
185300.000			13.488			-1.927
185400.000			13.488			-1.927
185500.000			13.488			-1.927
185602.000			13.488			-1.927
185701.000			13.488			-1.927
185801.000			13.486			-1.927
185901.000			13.487			-1.927
186000.000			13.488			-1.927
186100.000			13.486			-1.927
186201.000			13.486			-1.927
186300.000			13.486			-1.927
186400.000			13.485			-1.926
186501.000			13.486			-1.927
186601.000			13.486			-1.927
186701.000			13.486			-1.927
186802.000			13.487			-1.927
186900.000			13.486			-1.927
187000.000			13.485			-1.926
187101.000			13.486			-1.927
187200.000			13.485			-1.926
187300.000			13.486			-1.927
187401.000			13.486			-1.927
187500.000			13.485			-1.926
187601.000			13.484			-1.926
187702.000			13.486			-1.927
187801.000			13.485			-1.926
187900.000			13.484			-1.926
188001.000			13.484			-1.926
188100.000			13.484			-1.926
188200.000			13.483			-1.926
188301.000			13.483			-1.926
188400.000			13.483			-1.926
188500.000			13.484			-1.926
188602.000			13.484			-1.926
188701.000			13.483			-1.926
188801.000			13.482			-1.926
188900.000			13.482			-1.926
189000.000			13.482			-1.926
189101.000			13.481			-1.926
189200.000			13.482			-1.926
189300.000			13.482			-1.926
189401.000			13.481			-1.926
189500.000			13.481			-1.926
189601.000			13.481			-1.926
189702.000			13.482			-1.926
189800.000			13.482			-1.926
189900.000			13.481			-1.926
190001.000			13.480			-1.926
190100.000			13.481			-1.926
190200.000			13.481			-1.926
190301.000			13.481			-1.926
190400.000			13.480			-1.926
190501.000			13.479			-1.926
190602.000			13.480			-1.926
190701.000			13.480			-1.926
190800.000			13.480			-1.926
190901.000			13.479			-1.926
191000.000			13.480			-1.926
191100.000			13.480			-1.926
191201.000			13.479			-1.926
191300.000			13.480			-1.926
191400.000			13.479			-1.926
191502.000			13.479			-1.926
191601.000			13.478			-1.925
191700.000			13.478			-1.925
191800.000			13.478			-1.925
191900.000			13.478			-1.925
192001.000			13.478			-1.925
192100.000			13.478			-1.925
192200.000			13.478			-1.925
192301.000			13.478			-1.925
192401.000			13.478			-1.925
192501.000			13.477			-1.925
192602.000			13.477			-1.925
192700.000			13.477			-1.925
192800.000			13.476			-1.925
192901.000			13.476			-1.925
193000.000			13.477			-1.925
193100.000			13.476			-1.925
193201.000			13.478			-1.925
193300.000			13.476			-1.925
193401.000			13.476			-1.925
193502.000			13.476			-1.925
193601.000			13.475			-1.925
193700.000			13.476			-1.925
193801.000			13.476			-1.925
193900.000			13.476			-1.925
194000.000			13.476			-1.925
194101.000			13.475			-1.925
194200.000			13.475			-1.925
194300.000			13.475			-1.925
194402.000			13.476			-1.925
194501.000			13.474			-1.925
194600.000			13.474			-1.925
194701.000			13.474			-1.925
194800.000			13.473			-1.925
194900.000			13.474			-1.925
195000.000			13.474			-1.925
195100.000			13.474			-1.925
195201.000			13.473			-1.925
195301.000			13.474			-1.925
195401.000			13.474			-1.925
195502.000			13.473			-1.925
195600.000			13.472			-1.925
195700.000			13.473			-1.925
195801.000			13.473			-1.925
195900.000			13.472			-1.925
196000.000			13.472			-1.925
196101.000			13.472			-1.925
196200.000			13.472			-1.925
196301.000			13.472			-1.925
196402.000			13.472			-1.925
196500.000			13.472			-1.925
196600.000			13.473			-1.925
196701.000			13.472			-1.925
196800.000			13.471			-1.924
196900.000			13.471			-1.924
197001.000			13.470			-1.924
197100.000			13.470			-1.924
197201.000			13.471			-1.924
197302.000			13.471			-1.924
197401.000			13.471			-1.924
197500.000			13.470			-1.924
197601.000			13.470			-1.924
197700.000			13.470			-1.924
197800.000			13.470			-1.924
197901.000			13.469			-1.924
198000.000			13.469			-1.924
198100.000			13.470			-1.924
198202.000			13.469			-1.924
198301.000			13.468			-1.924
198402.000			13.468			-1.924
198500.000			13.469			-1.924
198600.000			13.469			-1.924
198701.000			13.469			-1.924
198800.000			13.469			-1.924
198900.000			13.469			-1.924
199001.000			13.468			-1.924
199100.000			13.469			-1.924
199201.000			13.469			-1.924
199302.000			13.468			-1.924
199401.000			13.468			-1.924
199500.000			13.468			-1.924
199601.000			13.468			-1.924
199700.000			13.468			-1.924
199800.000			13.467			-1.924
199901.000			13.466			-1.924
200000.000			13.467			-1.924
200100.000			13.467			-1.924
200202.000			13.467			-1.924
200301.000			13.467			-1.924
200400.000			13.467			-1.924
200501.000			13.467			-1.924
200600.000			13.467			-1.924
200700.000			13.466			-1.924
200801.000			13.466			-1.924
200900.000			13.466			-1.924
201000.000			13.466			-1.924
201102.000			13.466			-1.924
201201.000			13.465			-1.924
201300.000			13.465			-1.924
201400.000			13.465			-1.924
201500.000			13.465			-1.924
201601.000			13.465			-1.924
201700.000			13.466			-1.924
201800.000			13.466			-1.924
201901.000			13.465			-1.924
202001.000			13.466			-1.924
202101.000			13.465			-1.924
202201.000			13.464			-1.923
202300.000			13.463			-1.923
202400.000			13.463			-1.923
202501.000			13.465			-1.924
202600.000			13.464			-1.923
202700.000			13.463			-1.923
202801.000			13.464			-1.923
202901.000			13.463			-1.923
203001.000			13.463			-1.923
203101.000			13.463			-1.923
203200.000			13.463			-1.923
203300.000			13.463			-1.923
203401.000			13.463			-1.923
203500.000			13.463			-1.923
203600.000			13.462			-1.923
203701.000			13.462			-1.923
203801.000			13.462			-1.923
203901.000			13.462			-1.923
204001.000			13.462			-1.923
204100.000			13.463			-1.923
204200.000			13.462			-1.923
204301.000			13.462			-1.923
204400.000			13.462			-1.923
204500.000			13.462			-1.923
204600.000			13.461			-1.923
204701.000			13.461			-1.923
204802.000			13.461			-1.923
204900.000			13.461			-1.923
205000.000			13.461			-1.923
205101.000			13.460			-1.923
205200.000			13.460			-1.923
205300.000			13.459			-1.923
205401.000			13.460			-1.923
205500.000			13.460			-1.923
205601.000			13.459			-1.923
205702.000			13.459			-1.923
205800.000			13.459			-1.923
205900.000			13.459			-1.923
206001.000			13.458			-1.923
206100.000			13.459			-1.923
206200.000			13.458			-1.923
206301.000			13.459			-1.923
206400.000			13.458			-1.923
206501.000			13.459			-1.923
206602.000			13.458			-1.923
206700.000			13.457			-1.922
206800.000			13.458			-1.923
206901.000			13.458			-1.923
207000.000			13.458			-1.923
207100.000			13.457			-1.922
207201.000			13.457			-1.922
207300.000			13.457			-1.922
207401.000			13.457			-1.922
207502.000			13.456			-1.922
207601.000			13.457			-1.922
207700.000			13.457			-1.922
207800.000			13.456			-1.922
207900.000			13.456			-1.922
208001.000			13.456			-1.922
208100.000			13.456			-1.922
208200.000			13.456			-1.922
208302.000			13.455			-1.922
208401.000			13.455			-1.922
208501.000			13.455			-1.922
208601.000			13.454			-1.922
208700.000			13.453			-1.922
208800.000			13.454			-1.922
208901.000			13.454			-1.922
209000.000			13.454			-1.922
209100.000			13.454			-1.922
209201.000			13.454			-1.922
209301.000			13.454			-1.922
209401.000			13.454			-1.922
209501.000			13.454			-1.922
209600.000			13.454			-1.922
209700.000			13.453			-1.922
209801.000			13.452			-1.922
209900.000			13.452			-1.922
210000.000			13.453			-1.922
210101.000			13.452			-1.922
210201.000			13.452			-1.922
210301.000			13.452			-1.922
210401.000			13.452			-1.922
210500.000			13.453			-1.922
210600.000			13.451			-1.922
210701.000			13.451			-1.922
210800.000			13.451			-1.922
210900.000			13.451			-1.922
211000.000			13.452			-1.922
211101.000			13.451			-1.922
211202.000			13.451			-1.922
211300.000			13.450			-1.921
211400.000			13.449			-1.921
211501.000			13.449			-1.921
211600.000			13.450			-1.921
211700.000			13.450			-1.921
211801.000			13.450			-1.921
211901.000			13.450			-1.921
212001.000			13.450			-1.921
212102.000			13.449			-1.921
212200.000			13.449			-1.921
212300.000			13.449			-1.921
212401.000			13.449			-1.921
212500.000			13.449			-1.921
212600.000			13.449			-1.921
212701.000			13.448			-1.921
212801.000			13.449			-1.921
212901.000			13.448			-1.921
213002.000			13.448			-1.921
213100.000			13.448			-1.921
213200.000			13.448			-1.921
213301.000			13.448			-1.921
213400.000			13.447			-1.921
213500.000			13.446			-1.921
213601.000			13.447			-1.921
213700.000			13.448			-1.921
213801.000			13.448			-1.921
213902.000			13.447			-1.921
214000.000			13.447			-1.921
214100.000			13.447			-1.921
214200.000			13.447			-1.921
214300.000			13.447			-1.921
214401.000			13.446			-1.921
214500.000			13.446			-1.921
214600.000			13.446			-1.921
214702.000			13.445			-1.921
214801.000			13.445			-1.921
214900.000			13.445			-1.921
215001.000			13.445			-1.921
215100.000			13.446			-1.921
215200.000			13.446			-1.921
215301.000			13.445			-1.921
215400.000			13.445			-1.921
215500.000			13.445			-1.921
215602.000			13.444			-1.921
215701.000			13.445			-1.921
215800.000			13.444			-1.921
215901.000			13.444			-1.921
216000.000			13.443			-1.920
216100.000			13.444			-1.921
216201.000			13.444			-1.921
216300.000			13.444			-1.921
216400.000			13.442			-1.920
216502.000			13.443			-1.920
216601.000			13.443			-1.920
216700.000			13.444			-1.921
216801.000			13.444			-1.921
216900.000			13.444			-1.921
217000.000			13.443			-1.920
217101.000			13.442			-1.920
217200.000			13.443			-1.920
217300.000			13.443			-1.920
217402.000			13.442			-1.920
217501.000			13.442			-1.920
217602.000			13.441			-1.920
217700.000			13.441			-1.920
217800.000			13.443			-1.920
217901.000			13.442			-1.920
218000.000			13.441			-1.920
218100.000			13.440			-1.920
218201.000			13.441			-1.920
218301.000			13.441			-1.920
218401.000			13.441			-1.920
218502.000			13.442			-1.920
218600.000			13.441			-1.920
218700.000			13.440			-1.920
218801.000			13.441			-1.920
218900.000			13.441			-1.920
219000.000			13.440			-1.920
219101.000			13.440			-1.920
219201.000			13.439			-1.920
219301.000			13.439			-1.920
219402.000			13.439			-1.920
219500.000			13.439			-1.920
219600.000			13.439			-1.920
219701.000			13.440			-1.920
219800.000			13.439			-1.920
219900.000			13.439			-1.920
220001.000			13.439			-1.920
220100.000			13.440			-1.920
220201.000			13.439			-1.920
220302.000			13.439			-1.920
220400.000			13.439			-1.920
220500.000			13.438			-1.920
220600.000			13.438			-1.920
220700.000			13.437			-1.920
220801.000			13.437			-1.920
220900.000			13.436			-1.919
221000.000			13.437			-1.920
221102.000			13.437			-1.920
221201.000			13.437			-1.920
221300.000			13.436			-1.919
221401.000			13.437			-1.920
221500.000			13.437			-1.920
221600.000			13.436			-1.919
221701.000			13.436			-1.919
221800.000			13.437			-1.920
221900.000			13.436			-1.919
222002.000			13.437			-1.920
222101.000			13.436			-1.919
222200.000			13.436			-1.919
222301.000			13.435			-1.919
222400.000			13.435			-1.919
222500.000			13.436			-1.919
222601.000			13.436			-1.919
222700.000			13.436			-1.919
222800.000			13.436			-1.919
222902.000			13.435			-1.919
223001.000			13.435			-1.919
223100.000			13.435			-1.919
223201.000			13.435			-1.919
223300.000			13.434			-1.919
223400.000			13.435			-1.919
223501.000			13.435			-1.919
223600.000			13.434			-1.919
223700.000			13.433			-1.919
223802.000			13.434			-1.919
223901.000			13.434			-1.919
224002.000			13.434			-1.919
224100.000			13.435			-1.919
224200.000			13.434			-1.919
224301.000			13.433			-1.919
224400.000			13.433			-1.919
224500.000			13.433			-1.919
224601.000			13.433			-1.919
224701.000			13.434			-1.919
224801.000			13.433			-1.919
224902.000			13.432			-1.919
225000.000			13.432			-1.919
225100.000			13.432			-1.919
225201.000			13.432			-1.919
225300.000			13.432			-1.919
225400.000			13.433			-1.919
225501.000			13.432			-1.919
225601.000			13.432			-1.919
225701.000			13.433			-1.919
225802.000			13.434			-1.919
225900.000			13.433			-1.919
226000.000			13.433			-1.919
226101.000			13.433			-1.919
226200.000			13.433			-1.919
226300.000			13.432			-1.919
226401.000			13.433			-1.919
226501.000			13.432			-1.919
226601.000			13.432			-1.919
226702.000			13.432			-1.919
226800.000			13.432			-1.919
226900.000			13.432			-1.919
227000.000			13.431			-1.919
227100.000			13.431			-1.919
227201.000			13.431			-1.919
227300.000			13.431			-1.919
227401.000			13.431			-1.919
227502.000			13.429			-1.918
227601.000			13.429			-1.918
227700.000			13.430			-1.919
227801.000			13.430			-1.919
227900.000			13.429			-1.918
228000.000			13.429			-1.918
228101.000			13.430			-1.919
228200.000			13.430			-1.919
228300.000			13.429			-1.918
228402.000			13.430			-1.919
228501.000			13.429			-1.918
228600.000			13.429			-1.918
228701.000			13.429			-1.918
228800.000			13.428			-1.918
228900.000			13.429			-1.918
229001.000			13.428			-1.918
229100.000			13.427			-1.918
229200.000			13.427			-1.918
229302.000			13.427			-1.918
229401.000			13.427			-1.918
229500.000			13.427			-1.918
229601.000			13.427			-1.918
229700.000			13.428			-1.918
229800.000			13.427			-1.918
229901.000			13.428			-1.918
230000.000			13.427			-1.918
230100.000			13.427			-1.918
230202.000			13.426			-1.918
230301.000			13.427			-1.918
230402.000			13.427			-1.918
230500.000			13.427			-1.918
230600.000			13.427			-1.918
230701.000			13.428			-1.918
230800.000			13.427			-1.918
230900.000			13.427			-1.918
231001.000			13.426			-1.918
231101.000			13.426			-1.918
231201.000			13.426			-1.918
231301.000			13.426			-1.918
231400.000			13.427			-1.918
231500.000			13.426			-1.918
231601.000			13.425			-1.918
231700.000			13.426			-1.918
231800.000			13.426			-1.918
231901.000			13.425			-1.918
232001.000			13.425			-1.918
232101.000			13.426			-1.918
232202.000			13.426			-1.918
232300.000			13.426			-1.918
232400.000			13.426			-1.918
232501.000			13.426			-1.918
232600.000			13.425			-1.918
232700.000			13.426			-1.918
232801.000			13.426			-1.918
232901.000			13.425			-1.918
233001.000			13.426			-1.918
233102.000			13.426			-1.918
233200.000			13.426			-1.918
233300.000			13.425			-1.918
233400.000			13.425			-1.918
233500.000			13.424			-1.918
233601.000			13.424			-1.918
233700.000			13.424			-1.918
233801.000			13.423			-1.918
233902.000			13.423			-1.918
234001.000			13.424			-1.918
234100.000			13.423			-1.918
234201.000			13.423			-1.918
234300.000			13.422			-1.917
234400.000			13.423			-1.918
234501.000			13.423			-1.918
234600.000			13.422			-1.917
234701.000			13.422			-1.917
234802.000			13.421			-1.917
234901.000			13.422			-1.917
235000.000			13.422			-1.917
235101.000			13.421			-1.917
235200.000			13.421			-1.917
235300.000			13.421			-1.917
235401.000			13.420			-1.917
235500.000			13.422			-1.917
235601.000			13.420			-1.917
235702.000			13.420			-1.917
235801.000			13.420			-1.917
235900.000			13.419			-1.917
236001.000			13.418			-1.917
236100.000			13.419			-1.917
236200.000			13.419			-1.917
236301.000			13.418			-1.917
236400.000			13.419			-1.917
236502.000			13.419			-1.917
236601.000			13.418			-1.917
236701.000			13.418			-1.917
236801.000			13.417			-1.917
236900.000			13.418			-1.917
237000.000			13.418			-1.917
237101.000			13.418			-1.917
237200.000			13.417			-1.917
237300.000			13.417			-1.917
237401.000			13.417			-1.917
237501.000			13.417			-1.917
237601.000			13.417			-1.917
237701.000			13.417			-1.917
237800.000			13.416			-1.917
237900.000			13.417			-1.917
238001.000			13.417			-1.917
238100.000			13.416			-1.917
238200.000			13.416			-1.917
238301.000			13.415			-1.916
238401.000			13.415			-1.916
238501.000			13.416			-1.917
238601.000			13.416			-1.917
238700.000			13.416			-1.917
238800.000			13.415			-1.916
238901.000			13.414			-1.916
239000.000			13.414			-1.916
239100.000			13.414			-1.916
239201.000			13.414			-1.916
239301.000			13.414			-1.916
239401.000			13.414			-1.916
239502.000			13.415			-1.916
239600.000			13.415			-1.916
239700.000			13.415			-1.916
239800.000			13.414			-1.916
239900.000			13.414			-1.916
240001.000			13.413			-1.916
240100.000			13.413			-1.916
240201.000			13.413			-1.916
240302.000			13.414			-1.916
240401.000			13.414			-1.916
240500.000			13.413			-1.916
240601.000			13.413			-1.916
240700.000			13.412			-1.916
240800.000			13.412			-1.916
240901.000			13.412			-1.916
241000.000			13.412			-1.916
241101.000			13.411			-1.916
241202.000			13.411			-1.916
241300.000			13.410			-1.916
241400.000			13.411			-1.916
241501.000			13.412			-1.916
241600.000			13.412			-1.916
241700.000			13.412			-1.916
241801.000			13.412			-1.916
241900.000			13.411			-1.916
242001.000			13.411			-1.916
242102.000			13.411			-1.916
242200.000			13.411			-1.916
242300.000			13.411			-1.916
242401.000			13.411			-1.916
242500.000			13.410			-1.916
242600.000			13.410			-1.916
242701.000			13.411			-1.916
242800.000			13.410			-1.916
242902.000			13.410			-1.916
243001.000			13.410			-1.916
243101.000			13.410			-1.916
243201.000			13.410			-1.916
243300.000			13.410			-1.916
243400.000			13.409			-1.916
243501.000			13.409			-1.916
243600.000			13.410			-1.916
243700.000			13.410			-1.916
243802.000			13.410			-1.916
243901.000			13.409			-1.916
244001.000			13.408			-1.915
244101.000			13.409			-1.916
244200.000			13.408			-1.915
244300.000			13.407			-1.915
244401.000			13.408			-1.915
244500.000			13.408			-1.915
244600.000			13.408			-1.915
244702.000			13.407			-1.915
244801.000			13.406			-1.915
244901.000			13.407			-1.915
245001.000			13.407			-1.915
245100.000			13.408			-1.915
245200.000			13.407			-1.915
245301.000			13.407			-1.915
245400.000			13.407			-1.915
245500.000			13.406			-1.915
245601.000			13.407			-1.915
245701.000			13.407			-1.915
245801.000			13.405			-1.915
245901.000			13.406			-1.915
246000.000			13.406			-1.915
246100.000			13.405			-1.915
246200.000			13.406			-1.915
246300.000			13.406			-1.915
246401.000			13.405			-1.915
246500.000			13.405			-1.915
246601.000			13.405			-1.915
246702.000			13.405			-1.915
246800.000			13.404			-1.915
246900.000			13.405			-1.915
247001.000			13.405			-1.915
247100.000			13.406			-1.915
247200.000			13.406			-1.915
247301.000			13.404			-1.915
247400.000			13.404			-1.915
247501.000			13.404			-1.915
247602.000			13.405			-1.915
247701.000			13.404			-1.915
247800.000			13.405			-1.915
247901.000			13.405			-1.915
248000.000			13.404			-1.915
248100.000			13.404			-1.915
248201.000			13.403			-1.915
248300.000			13.403			-1.915
248401.000			13.403			-1.915
248502.000			13.403			-1.915
248601.000			13.403			-1.915
248700.000			13.402			-1.915
248801.000			13.402			-1.915
248900.000			13.403			-1.915
249000.000			13.402			-1.915
249101.000			13.402			-1.915
249200.000			13.402			-1.915
249302.000			13.402			-1.915
249401.000			13.402			-1.915
249501.000			13.401			-1.914
249601.000			13.402			-1.915
249700.000			13.402			-1.915
249800.000			13.402			-1.915
249901.000			13.402			-1.915
250000.000			13.402			-1.915
250100.000			13.402			-1.915
250202.000			13.402			-1.915
250301.000			13.402			-1.915
250401.000			13.401			-1.914
250501.000			13.402			-1.915
250600.000			13.403			-1.915
250700.000			13.401			-1.914
250801.000			13.401			-1.914
250900.000			13.400			-1.914
251000.000			13.401			-1.914
251102.000			13.401			-1.914
251201.000			13.402			-1.915
251301.000			13.401			-1.914
251401.000			13.402			-1.915
251500.000			13.402			-1.915
251600.000			13.400			-1.914
251701.000			13.400			-1.914
251800.000			13.401			-1.914
251900.000			13.401			-1.914
252002.000			13.400			-1.914
252101.000			13.399			-1.914
252201.000			13.400			-1.914
252301.000			13.399			-1.914
252400.000			13.400			-1.914
252500.000			13.400			-1.914
252600.000			13.400			-1.914
252700.000			13.400			-1.914
252801.000			13.400			-1.914
252901.000			13.400			-1.914
253001.000			13.400			-1.914
253102.000			13.399			-1.914
253200.000			13.399			-1.914
253300.000			13.399			-1.914
253401.000			13.398			-1.914
253500.000			13.398			-1.914
253600.000			13.398			-1.914
253701.000			13.398			-1.914
253800.000			13.398			-1.914
253901.000			13.398			-1.914
254002.000			13.398			-1.914
254101.000			13.398			-1.914
254200.000			13.398			-1.914
254301.000			13.397			-1.914
254400.000			13.397			-1.914
254500.000			13.397			-1.914
254601.000			13.398			-1.914
254700.000			13.398			-1.914
254800.000			13.396			-1.914
254902.000			13.395			-1.914
255001.000			13.395			-1.914
255100.000			13.396			-1.914
255201.000			13.396			-1.914
255300.000			13.396			-1.914
255400.000			13.395			-1.914
255501.000			13.395			-1.914
255600.000			13.396			-1.914
255700.000			13.395			-1.914
255802.000			13.395			-1.914
255901.000			13.396			-1.914
256002.000			13.395			-1.914
256100.000			13.394			-1.913
256200.000			13.394			-1.913
256301.000			13.394			-1.913
256400.000			13.393			-1.913
256500.000			13.393			-1.913
256601.000			13.393			-1.913
256700.000			13.394			-1.913
256801.000			13.394			-1.913
256902.000			13.393			-1.913
257001.000			13.393			-1.913
257100.000			13.392			-1.913
257201.000			13.392			-1.913
257300.000			13.393			-1.913
257400.000			13.394			-1.913
257501.000			13.394			-1.913
257600.000			13.394			-1.913
257701.000			13.392			-1.913
257802.000			13.393			-1.913
257901.000			13.393			-1.913
258000.000			13.393			-1.913
258101.000			13.392			-1.913
258200.000			13.392			-1.913
258300.000			13.392			-1.913
258401.000			13.392			-1.913
258500.000			13.392			-1.913
258600.000			13.391			-1.913
258702.000			13.391			-1.913
258801.000			13.391			-1.913
258900.000			13.392			-1.913
259000.000			13.392			-1.913
259100.000			13.391			-1.913
259201.000			13.391			-1.913
259300.000			13.391			-1.913
259400.000			13.391			-1.913
259501.000			13.390			-1.913
259601.000			13.390			-1.913
259701.000			13.391			-1.913
259802.000			13.391			-1.913
259900.000			13.391			-1.913
260000.000			13.390			-1.913
260101.000			13.389			-1.913
260200.000			13.389			-1.913
260300.000			13.389			-1.913
260401.000			13.389			-1.913
260500.000			13.389			-1.913
260601.000			13.390			-1.913
260702.000			13.389			-1.913
260800.000			13.389			-1.913
260900.000			13.389			-1.913
261001.000			13.390			-1.913
261100.000			13.389			-1.913
261200.000			13.388			-1.913
261301.000			13.389			-1.913
261400.000			13.389			-1.913
261501.000			13.389			-1.913
261602.000			13.388			-1.913
261701.000			13.387			-1.912
261800.000			13.388			-1.913
261901.000			13.388			-1.913
262000.000			13.388			-1.913
262100.000			13.388			-1.913
262200.000			13.388			-1.913
262300.000			13.389			-1.913
262401.000			13.388			-1.913
262501.000			13.388			-1.913
262601.000			13.388			-1.913
262701.000			13.387			-1.912
262800.000			13.387			-1.912
262900.000			13.387			-1.912
263001.000			13.387			-1.912
263100.000			13.386			-1.912
263200.000			13.386			-1.912
263301.000			13.386			-1.912
263401.000			13.387			-1.912
263501.000			13.386			-1.912
263602.000			13.386			-1.912
263700.000			13.386			-1.912
263800.000			13.386			-1.912
263901.000			13.385			-1.912
264000.000			13.385			-1.912
264100.000			13.386			-1.912
264201.000			13.386			-1.912
264301.000			13.386			-1.912
264401.000			13.384			-1.912
264502.000			13.384			-1.912
264600.000			13.385			-1.912
264700.000			13.385			-1.912
264801.000			13.386			-1.912
264900.000			13.385			-1.912
265000.000			13.385			-1.912
265101.000			13.385			-1.912
265200.000			13.385			-1.912
265302.000			13.384			-1.912
265401.000			13.384			-1.912
265501.000			13.384			-1.912
265601.000			13.384			-1.912
265700.000			13.383			-1.912
265800.000			13.384			-1.912
265901.000			13.384			-1.912
266000.000			13.384			-1.912
266100.000			13.385			-1.912
266201.000			13.385			-1.912
266301.000			13.384			-1.912
266401.000			13.385			-1.912
266501.000			13.385			-1.912
266600.000			13.385			-1.912
266700.000			13.383			-1.912
266801.000			13.383			-1.912
266900.000			13.384			-1.912
267000.000			13.384			-1.912
267101.000			13.382			-1.912
267201.000			13.382			-1.912
267301.000			13.383			-1.912
267401.000			13.383			-1.912
267500.000			13.383			-1.912
267600.000			13.382			-1.912
267701.000			13.381			-1.912
267800.000			13.382			-1.912
267900.000			13.382			-1.912
268001.000			13.383			-1.912
268101.000			13.383			-1.912
268201.000			13.384			-1.912
268302.000			13.383			-1.912
268400.000			13.383			-1.912
268500.000			13.382			-1.912
268600.000			13.382			-1.912
268700.000			13.381			-1.912
268801.000			13.381			-1.912
268900.000			13.383			-1.912
269000.000			13.382			-1.912
269102.000			13.382			-1.912
269201.000			13.382			-1.912
269300.000			13.381			-1.912
269401.000			13.381			-1.912
269500.000			13.381			-1.912
269600.000			13.381			-1.912
269701.000			13.382			-1.912
269800.000			13.382			-1.912
269900.000			13.382			-1.912
270002.000			13.381			-1.912
270101.000			13.381			-1.912
270201.000			13.381			-1.912
270301.000			13.381			-1.912
270400.000			13.381			-1.912
270500.000			13.380			-1.911
270601.000			13.381			-1.912
270700.000			13.382			-1.912
270800.000			13.382			-1.912
270902.000			13.382			-1.912
271001.000			13.381			-1.912
271101.000			13.382			-1.912
271201.000			13.380			-1.911
271300.000			13.381			-1.912
271400.000			13.381			-1.912
271501.000			13.381			-1.912
271600.000			13.381			-1.912
271700.000			13.380			-1.911
271802.000			13.380			-1.911
271901.000			13.381			-1.912
272002.000			13.380			-1.911
272100.000			13.380			-1.911
272200.000			13.379			-1.911
272301.000			13.380			-1.911
272400.000			13.381			-1.912
272500.000			13.380			-1.911
272601.000			13.379			-1.911
272700.000			13.379			-1.911
272801.000			13.380			-1.911
272902.000			13.381			-1.912
273000.000			13.380			-1.911
273100.000			13.379			-1.911
273201.000			13.379			-1.911
273300.000			13.380			-1.911
273400.000			13.379			-1.911
273501.000			13.379			-1.911
273600.000			13.378			-1.911
273701.000			13.378			-1.911
273802.000			13.378			-1.911
273901.000			13.378			-1.911
274000.000			13.378			-1.911
274101.000			13.378			-1.911
274200.000			13.379			-1.911
274300.000			13.379			-1.911
274401.000			13.378			-1.911
274500.000			13.378			-1.911
274600.000			13.379			-1.911
274702.000			13.379			-1.911
274801.000			13.378			-1.911
274900.000			13.378			-1.911
275000.000			13.379			-1.911
275100.000			13.378			-1.911
275201.000			13.377			-1.911
275300.000			13.377			-1.911
275400.000			13.377			-1.911
275501.000			13.378			-1.911
275600.000			13.377			-1.911
275701.000			13.377			-1.911
275802.000			13.377			-1.911
275900.000			13.377			-1.911
276000.000			13.377			-1.911
276101.000			13.375			-1.911
276200.000			13.376			-1.911
276300.000			13.377			-1.911
276401.000			13.376			-1.911
276500.000			13.376			-1.911
276601.000			13.376			-1.911
276702.000			13.376			-1.911
276801.000			13.376			-1.911
276900.000			13.375			-1.911
277001.000			13.374			-1.911
277100.000			13.375			-1.911
277200.000			13.375			-1.911
277301.000			13.374			-1.911
277400.000			13.374			-1.911
277500.000			13.374			-1.911
277602.000			13.374			-1.911
277701.000			13.374			-1.911
277800.000			13.374			-1.911
277901.000			13.373			-1.910
278000.000			13.373			-1.910
278100.000			13.374			-1.911
278200.000			13.374			-1.911
278300.000			13.374			-1.911
278401.000			13.375			-1.911
278501.000			13.374			-1.911
278601.000			13.373			-1.910
278702.000			13.373			-1.910
278800.000			13.373			-1.910
278900.000			13.372			-1.910
279001.000			13.371			-1.910
279100.000			13.372			-1.910
279200.000			13.372			-1.910
279301.000			13.371			-1.910
279400.000			13.371			-1.910
279501.000			13.370			-1.910
279602.000			13.371			-1.910
279701.000			13.370			-1.910
279800.000			13.369			-1.910
279901.000			13.370			-1.910
280000.000			13.370			-1.910
280100.000			13.370			-1.910
280201.000			13.369			-1.910
280300.000			13.369			-1.910
280401.000			13.369			-1.910
280502.000			13.370			-1.910
280601.000			13.369			-1.910
280700.000			13.368			-1.910
280801.000			13.369			-1.910
280900.000			13.369			-1.910
281000.000			13.369			-1.910
281101.000			13.368			-1.910
281200.000			13.368			-1.910
281302.000			13.368			-1.910
281401.000			13.368			-1.910
281501.000			13.368			-1.910
281601.000			13.367			-1.910
281700.000			13.368			-1.910
281800.000			13.367			-1.910
281901.000			13.367			-1.910
282000.000			13.367			-1.910
282100.000			13.367			-1.910
282201.000			13.367			-1.910
282301.000			13.367			-1.910
282401.000			13.367			-1.910
282501.000			13.368			-1.910
282600.000			13.367			-1.910
282700.000			13.367			-1.910
282801.000			13.367			-1.910
282900.000			13.367			-1.910
283000.000			13.368			-1.910
283101.000			13.368			-1.910
283201.000			13.367			-1.910
283301.000			13.368			-1.910
283402.000			13.368			-1.910
283500.000			13.367			-1.910
283600.000			13.367			-1.910
283701.000			13.368			-1.910
283800.000			13.369			-1.910
283900.000			13.369			-1.910
284001.000			13.368			-1.910
284100.000			13.368			-1.910
284201.000			13.367			-1.910
284302.000			13.367			-1.910
284400.000			13.367			-1.910
284500.000			13.367			-1.910
284600.000			13.366			-1.909
284700.000			13.366			-1.909
284801.000			13.365			-1.909
284900.000			13.365			-1.909
285000.000			13.365			-1.909
285102.000			13.364			-1.909
285201.000			13.365			-1.909
285301.000			13.365			-1.909
285401.000			13.365			-1.909
285500.000			13.364			-1.909
285600.000			13.364			-1.909
285701.000			13.364			-1.909
285800.000			13.363			-1.909
285900.000			13.364			-1.909
286001.000			13.364			-1.909
286101.000			13.363			-1.909
286201.000			13.363			-1.909
286301.000			13.363			-1.909
286400.000			13.363			-1.909
286500.000			13.363			-1.909
286601.000			13.363			-1.909
286700.000			13.364			-1.909
286800.000			13.363			-1.909
286901.000			13.363			-1.909
287001.000			13.363			-1.909
287101.000			13.362			-1.909
287202.000			13.363			-1.909
287300.000			13.363			-1.909
287400.000			13.363			-1.909
287501.000			13.363			-1.909
287600.000			13.362			-1.909
287700.000			13.361			-1.909
287800.000			13.361			-1.909
287900.000			13.362			-1.909
288002.000			13.362			-1.909
288101.000			13.361			-1.909
288200.000			13.361			-1.909
288301.000			13.361			-1.909
288400.000			13.362			-1.909
288500.000			13.361			-1.909
288601.000			13.362			-1.909
288700.000			13.362			-1.909
288800.000			13.361			-1.909
288902.000			13.361			-1.909
289001.000			13.361			-1.909
289101.000			13.360			-1.909
289201.000			13.361			-1.909
289300.000			13.360			-1.909
289400.000			13.359			-1.908
289501.000			13.358			-1.908
289600.000			13.361			-1.909
289700.000			13.361			-1.909
289801.000			13.359			-1.908
289901.000			13.359			-1.908
290001.000			13.359			-1.908
290101.000			13.359			-1.908
290200.000			13.358			-1.908
290300.000			13.360			-1.909
290401.000			13.360			-1.909
290500.000			13.359			-1.908
290600.000			13.360			-1.909
290701.000			13.359			-1.908
290801.000			13.358			-1.908
290902.000			13.358			-1.908
291001.000			13.358			-1.908
291100.000			13.360			-1.909
291201.000			13.360			-1.909
291300.000			13.361			-1.909
291400.000			13.360			-1.909
291501.000			13.359			-1.908
291600.000			13.358			-1.908
291700.000			13.359			-1.908
291802.000			13.360			-1.909
291901.000			13.360			-1.909
292000.000			13.359			-1.908
292101.000			13.359			-1.908
292200.000			13.359			-1.908
292300.000			13.359			-1.908
292401.000			13.360			-1.909
292500.000			13.359			-1.908
292600.000			13.358			-1.908
292702.000			13.358			-1.908
292801.000			13.358			-1.908
292901.000			13.358			-1.908
293001.000			13.358			-1.908
293100.000			13.358			-1.908
293200.000			13.357			-1.908
293301.000			13.358			-1.908
293400.000			13.359			-1.908
293500.000			13.357			-1.908
293601.000			13.357			-1.908
293701.000			13.357			-1.908
293801.000			13.357			-1.908
293901.000			13.356			-1.908
294000.000			13.356			-1.908
294100.000			13.356			-1.908
294200.000			13.356			-1.908
294300.000			13.356			-1.908
294401.000			13.356			-1.908
294500.000			13.356			-1.908
294600.000			13.355			-1.908
294702.000			13.356			-1.908
294801.000			13.356			-1.908
294900.000			13.356			-1.908
295001.000			13.355			-1.908
295100.000			13.355			-1.908
295200.000			13.355			-1.908
295301.000			13.355			-1.908
295400.000			13.355			-1.908
295500.000			13.355			-1.908
295602.000			13.354			-1.908
295701.000			13.354			-1.908
295800.000			13.354			-1.908
295901.000			13.355			-1.908
296000.000			13.355			-1.908
296100.000			13.353			-1.908
296201.000			13.354			-1.908
296300.000			13.354			-1.908
296400.000			13.353			-1.908
296502.000			13.354			-1.908
296601.000			13.354			-1.908
296701.000			13.354			-1.908
296801.000			13.353			-1.908
296900.000			13.353			-1.908
297000.000			13.353			-1.908
297101.000			13.353			-1.908
297200.000			13.352			-1.907
297300.000			13.353			-1.908
297400.000			13.353			-1.908
297501.000			13.353			-1.908
297602.000			13.352			-1.907
297700.000			13.352			-1.907
297800.000			13.352			-1.907
297901.000			13.350			-1.907
298000.000			13.351			-1.907
298100.000			13.352			-1.907
298201.000			13.351			-1.907
298300.000			13.351			-1.907
298401.000			13.351			-1.907
298502.000			13.351			-1.907
298601.000			13.352			-1.907
298700.000			13.352			-1.907
298801.000			13.350			-1.907
298900.000			13.350			-1.907
299000.000			13.351			-1.907
299101.000			13.350			-1.907
299200.000			13.351			-1.907
299300.000			13.351			-1.907
299402.000			13.351			-1.907
299501.000			13.351			-1.907
299600.000			13.351			-1.907
299701.000			13.351			-1.907
299800.000			13.351			-1.907
299900.000			13.351			-1.907
