# Acquired on 09/01/2024 15:26:42 
# SPIDER: Creep_-8mm_07714532C-2
# CREEP MEASUREMENT

# time [ms]		force [N]		stiffness [N/mm]
1.000			18.112			-2.264
100.000			18.963			-2.370
201.000			19.268			-2.409
300.000			19.243			-2.405
400.000			19.166			-2.396
501.000			19.108			-2.389
601.000			19.017			-2.377
701.000			18.982			-2.373
801.000			18.949			-2.369
900.000			18.920			-2.365
1000.000			18.894			-2.362
1101.000			18.868			-2.359
1200.000			18.845			-2.356
1300.000			18.825			-2.353
1402.000			18.786			-2.348
1501.000			18.768			-2.346
1600.000			18.752			-2.344
1701.000			18.736			-2.342
1800.000			18.720			-2.340
1900.000			18.706			-2.338
2001.000			18.692			-2.336
2100.000			18.666			-2.333
2201.000			18.654			-2.332
2302.000			18.641			-2.330
2400.000			18.629			-2.329
2500.000			18.617			-2.327
2600.000			18.607			-2.326
2700.000			18.597			-2.325
2801.000			18.577			-2.322
2900.000			18.567			-2.321
3001.000			18.558			-2.320
3102.000			18.550			-2.319
3200.000			18.541			-2.318
3300.000			18.532			-2.317
3401.000			18.524			-2.315
3500.000			18.507			-2.313
3600.000			18.500			-2.312
3701.000			18.492			-2.312
3801.000			18.484			-2.311
3901.000			18.477			-2.310
4001.000			18.472			-2.309
4100.000			18.465			-2.308
4200.000			18.457			-2.307
4301.000			18.443			-2.305
4400.000			18.436			-2.304
4501.000			18.430			-2.304
4602.000			18.425			-2.303
4700.000			18.419			-2.302
4800.000			18.414			-2.302
4901.000			18.408			-2.301
5000.000			18.395			-2.299
5100.000			18.390			-2.299
5201.000			18.383			-2.298
5301.000			18.378			-2.297
5401.000			18.374			-2.297
5501.000			18.369			-2.296
5600.000			18.364			-2.295
5700.000			18.353			-2.294
5800.000			18.347			-2.293
5900.000			18.344			-2.293
6001.000			18.340			-2.292
6101.000			18.334			-2.292
6201.000			18.329			-2.291
6301.000			18.325			-2.291
6400.000			18.316			-2.289
6500.000			18.311			-2.289
6601.000			18.308			-2.288
6700.000			18.304			-2.288
6800.000			18.299			-2.287
6902.000			18.295			-2.287
7001.000			18.290			-2.286
7100.000			18.285			-2.286
7201.000			18.278			-2.285
7300.000			18.275			-2.284
7400.000			18.270			-2.284
7501.000			18.266			-2.283
7601.000			18.263			-2.283
7701.000			18.259			-2.282
7802.000			18.254			-2.282
7900.000			18.247			-2.281
8000.000			18.244			-2.280
8101.000			18.241			-2.280
8200.000			18.238			-2.280
8300.000			18.234			-2.279
8402.000			18.229			-2.279
8501.000			18.225			-2.278
8600.000			18.219			-2.277
8701.000			18.216			-2.277
8800.000			18.214			-2.277
8900.000			18.210			-2.276
9000.000			18.206			-2.276
9100.000			18.203			-2.275
9202.000			18.201			-2.275
9301.000			18.194			-2.274
9400.000			18.191			-2.274
9501.000			18.188			-2.274
9600.000			18.185			-2.273
9700.000			18.181			-2.273
9801.000			18.178			-2.272
9900.000			18.176			-2.272
10001.000			18.173			-2.272
10102.000			18.168			-2.271
10200.000			18.164			-2.271
10300.000			18.161			-2.270
10401.000			18.159			-2.270
10500.000			18.156			-2.269
10600.000			18.153			-2.269
10701.000			18.151			-2.269
10801.000			18.146			-2.268
10901.000			18.142			-2.268
11001.000			18.139			-2.267
11100.000			18.136			-2.267
11200.000			18.134			-2.267
11301.000			18.132			-2.266
11400.000			18.129			-2.266
11501.000			18.124			-2.266
11602.000			18.121			-2.265
11700.000			18.120			-2.265
11800.000			18.117			-2.265
11901.000			18.114			-2.264
12000.000			18.112			-2.264
12100.000			18.109			-2.264
12200.000			18.105			-2.263
12301.000			18.102			-2.263
12402.000			18.100			-2.263
12500.000			18.098			-2.262
12600.000			18.094			-2.262
12701.000			18.092			-2.262
12800.000			18.091			-2.261
12900.000			18.088			-2.261
13001.000			18.084			-2.260
13101.000			18.082			-2.260
13201.000			18.079			-2.260
13301.000			18.077			-2.260
13400.000			18.075			-2.259
13500.000			18.073			-2.259
13601.000			18.071			-2.259
13700.000			18.065			-2.258
13800.000			18.065			-2.258
13902.000			18.063			-2.258
14001.000			18.060			-2.257
14100.000			18.057			-2.257
14201.000			18.055			-2.257
14300.000			18.053			-2.257
14400.000			18.049			-2.256
14501.000			18.047			-2.256
14600.000			18.045			-2.256
14701.000			18.043			-2.255
14802.000			18.041			-2.255
14900.000			18.038			-2.255
15000.000			18.037			-2.255
15101.000			18.032			-2.254
15200.000			18.031			-2.254
15300.000			18.029			-2.254
15400.000			18.028			-2.254
15501.000			18.026			-2.253
15602.000			18.024			-2.253
15700.000			18.021			-2.253
15800.000			18.020			-2.253
15901.000			18.017			-2.252
16000.000			18.014			-2.252
16100.000			18.013			-2.252
16201.000			18.011			-2.251
16301.000			18.009			-2.251
16401.000			18.007			-2.251
16501.000			18.006			-2.251
16600.000			18.001			-2.250
16700.000			18.000			-2.250
16801.000			17.998			-2.250
16900.000			17.995			-2.249
17000.000			17.994			-2.249
17102.000			17.994			-2.249
17201.000			17.991			-2.249
17300.000			17.989			-2.249
17401.000			17.986			-2.248
17500.000			17.984			-2.248
17600.000			17.983			-2.248
17701.000			17.980			-2.247
17800.000			17.978			-2.247
17901.000			17.977			-2.247
18002.000			17.974			-2.247
18100.000			17.972			-2.247
18200.000			17.971			-2.246
18301.000			17.969			-2.246
18400.000			17.968			-2.246
18500.000			17.966			-2.246
18600.000			17.964			-2.245
18700.000			17.963			-2.245
18802.000			17.960			-2.245
18901.000			17.958			-2.245
19000.000			17.956			-2.245
19101.000			17.955			-2.244
19200.000			17.953			-2.244
19300.000			17.952			-2.244
19401.000			17.951			-2.244
19500.000			17.947			-2.243
19601.000			17.946			-2.243
19702.000			17.944			-2.243
19800.000			17.942			-2.243
19900.000			17.941			-2.243
20001.000			17.940			-2.242
20100.000			17.939			-2.242
20200.000			17.937			-2.242
20301.000			17.935			-2.242
20401.000			17.933			-2.242
20501.000			17.931			-2.241
20601.000			17.930			-2.241
20700.000			17.928			-2.241
20800.000			17.927			-2.241
20901.000			17.923			-2.240
21000.000			17.922			-2.240
21100.000			17.921			-2.240
21202.000			17.920			-2.240
21301.000			17.919			-2.240
21400.000			17.918			-2.240
21501.000			17.916			-2.240
21600.000			17.914			-2.239
21700.000			17.910			-2.239
21800.000			17.910			-2.239
21900.000			17.909			-2.239
22002.000			17.908			-2.239
22101.000			17.907			-2.238
22201.000			17.905			-2.238
22301.000			17.903			-2.238
22400.000			17.901			-2.238
22500.000			17.899			-2.237
22601.000			17.897			-2.237
22700.000			17.896			-2.237
22801.000			17.895			-2.237
22902.000			17.893			-2.237
23001.000			17.892			-2.237
23100.000			17.890			-2.236
23201.000			17.889			-2.236
23300.000			17.888			-2.236
23400.000			17.886			-2.236
23501.000			17.884			-2.236
23600.000			17.883			-2.235
23701.000			17.882			-2.235
23802.000			17.879			-2.235
23900.000			17.878			-2.235
24000.000			17.877			-2.235
24101.000			17.876			-2.234
24200.000			17.875			-2.234
24300.000			17.874			-2.234
24401.000			17.872			-2.234
24501.000			17.872			-2.234
24601.000			17.868			-2.234
24701.000			17.868			-2.234
24800.000			17.867			-2.233
24900.000			17.865			-2.233
25000.000			17.864			-2.233
25100.000			17.863			-2.233
25201.000			17.862			-2.233
25301.000			17.860			-2.232
25401.000			17.858			-2.232
25501.000			17.857			-2.232
25600.000			17.854			-2.232
25700.000			17.854			-2.232
25801.000			17.853			-2.232
25900.000			17.851			-2.231
26000.000			17.849			-2.231
26101.000			17.848			-2.231
26201.000			17.847			-2.231
26301.000			17.846			-2.231
26401.000			17.844			-2.231
26500.000			17.843			-2.230
26600.000			17.844			-2.230
26701.000			17.841			-2.230
26800.000			17.840			-2.230
26900.000			17.839			-2.230
27002.000			17.838			-2.230
27101.000			17.836			-2.230
27200.000			17.835			-2.229
27301.000			17.833			-2.229
27400.000			17.832			-2.229
27500.000			17.830			-2.229
27601.000			17.830			-2.229
27700.000			17.828			-2.229
27801.000			17.827			-2.228
27902.000			17.826			-2.228
28000.000			17.825			-2.228
28100.000			17.823			-2.228
28200.000			17.822			-2.228
28300.000			17.821			-2.228
28401.000			17.819			-2.227
28500.000			17.818			-2.227
28601.000			17.818			-2.227
28702.000			17.817			-2.227
28801.000			17.815			-2.227
28900.000			17.814			-2.227
29001.000			17.813			-2.227
29100.000			17.812			-2.227
29200.000			17.811			-2.226
29301.000			17.809			-2.226
29401.000			17.808			-2.226
29501.000			17.808			-2.226
29602.000			17.805			-2.226
29700.000			17.805			-2.226
29800.000			17.804			-2.225
29901.000			17.803			-2.225
30000.000			17.801			-2.225
30100.000			17.800			-2.225
30201.000			17.799			-2.225
30301.000			17.798			-2.225
30401.000			17.797			-2.225
30501.000			17.795			-2.224
30600.000			17.795			-2.224
30700.000			17.794			-2.224
30801.000			17.793			-2.224
30900.000			17.791			-2.224
31000.000			17.790			-2.224
31102.000			17.789			-2.224
31201.000			17.789			-2.224
31300.000			17.787			-2.223
31400.000			17.785			-2.223
31500.000			17.784			-2.223
31601.000			17.783			-2.223
31700.000			17.783			-2.223
31800.000			17.780			-2.222
31902.000			17.779			-2.222
32001.000			17.778			-2.222
32100.000			17.777			-2.222
32201.000			17.777			-2.222
32300.000			17.776			-2.222
32400.000			17.775			-2.222
32501.000			17.773			-2.222
32600.000			17.773			-2.222
32701.000			17.772			-2.221
32802.000			17.770			-2.221
32900.000			17.770			-2.221
33000.000			17.768			-2.221
33101.000			17.767			-2.221
33200.000			17.765			-2.221
33300.000			17.765			-2.221
33401.000			17.764			-2.220
33501.000			17.763			-2.220
33601.000			17.762			-2.220
33701.000			17.762			-2.220
33800.000			17.761			-2.220
33900.000			17.759			-2.220
34001.000			17.759			-2.220
34100.000			17.758			-2.220
34200.000			17.756			-2.220
34302.000			17.755			-2.219
34401.000			17.756			-2.219
34502.000			17.754			-2.219
34600.000			17.752			-2.219
34700.000			17.750			-2.219
34801.000			17.750			-2.219
34900.000			17.750			-2.219
35000.000			17.749			-2.219
35101.000			17.748			-2.218
35201.000			17.747			-2.218
35301.000			17.745			-2.218
35401.000			17.745			-2.218
35500.000			17.743			-2.218
35600.000			17.743			-2.218
35701.000			17.742			-2.218
35800.000			17.741			-2.218
35900.000			17.739			-2.217
36002.000			17.739			-2.217
36101.000			17.737			-2.217
36200.000			17.737			-2.217
36301.000			17.737			-2.217
36400.000			17.735			-2.217
36500.000			17.734			-2.217
36601.000			17.733			-2.217
36700.000			17.732			-2.217
36801.000			17.732			-2.217
36902.000			17.730			-2.216
37000.000			17.729			-2.216
37100.000			17.728			-2.216
37201.000			17.727			-2.216
37300.000			17.727			-2.216
37400.000			17.725			-2.216
37501.000			17.724			-2.215
37601.000			17.722			-2.215
37702.000			17.722			-2.215
37800.000			17.721			-2.215
37900.000			17.720			-2.215
38001.000			17.719			-2.215
38100.000			17.719			-2.215
38200.000			17.718			-2.215
38301.000			17.716			-2.215
38401.000			17.716			-2.214
38501.000			17.715			-2.214
38601.000			17.714			-2.214
38700.000			17.713			-2.214
38800.000			17.712			-2.214
38901.000			17.711			-2.214
39000.000			17.710			-2.214
39100.000			17.710			-2.214
39202.000			17.709			-2.214
39301.000			17.708			-2.214
39401.000			17.708			-2.213
39501.000			17.706			-2.213
39600.000			17.705			-2.213
39700.000			17.705			-2.213
39801.000			17.703			-2.213
39900.000			17.702			-2.213
40000.000			17.702			-2.213
40102.000			17.701			-2.213
40201.000			17.701			-2.213
40300.000			17.700			-2.212
40401.000			17.698			-2.212
40500.000			17.697			-2.212
40600.000			17.698			-2.212
40701.000			17.696			-2.212
40800.000			17.696			-2.212
40902.000			17.696			-2.212
41001.000			17.695			-2.212
41100.000			17.693			-2.212
41201.000			17.692			-2.211
41300.000			17.691			-2.211
41400.000			17.689			-2.211
41501.000			17.689			-2.211
41600.000			17.689			-2.211
41701.000			17.688			-2.211
41802.000			17.687			-2.211
41900.000			17.685			-2.211
42000.000			17.685			-2.211
42101.000			17.685			-2.211
42200.000			17.684			-2.210
42300.000			17.683			-2.210
42401.000			17.683			-2.210
42501.000			17.682			-2.210
42601.000			17.680			-2.210
42701.000			17.680			-2.210
42800.000			17.678			-2.210
42900.000			17.677			-2.210
43001.000			17.676			-2.210
43100.000			17.676			-2.209
43200.000			17.676			-2.209
43301.000			17.675			-2.209
43401.000			17.673			-2.209
43501.000			17.673			-2.209
43601.000			17.674			-2.209
43700.000			17.671			-2.209
43800.000			17.670			-2.209
43901.000			17.669			-2.209
44000.000			17.669			-2.209
44100.000			17.668			-2.209
44202.000			17.667			-2.208
44301.000			17.666			-2.208
44401.000			17.665			-2.208
44500.000			17.664			-2.208
44600.000			17.664			-2.208
44701.000			17.664			-2.208
44800.000			17.662			-2.208
44900.000			17.661			-2.208
45002.000			17.661			-2.208
45101.000			17.660			-2.207
45200.000			17.659			-2.207
45301.000			17.658			-2.207
45400.000			17.658			-2.207
45500.000			17.658			-2.207
45601.000			17.657			-2.207
45700.000			17.656			-2.207
45801.000			17.654			-2.207
45902.000			17.654			-2.207
46000.000			17.652			-2.206
46100.000			17.652			-2.206
46201.000			17.652			-2.206
46300.000			17.650			-2.206
46400.000			17.651			-2.206
46501.000			17.650			-2.206
46601.000			17.649			-2.206
46701.000			17.648			-2.206
46801.000			17.647			-2.206
46900.000			17.647			-2.206
47000.000			17.645			-2.206
47101.000			17.645			-2.206
47200.000			17.645			-2.206
47300.000			17.644			-2.206
47400.000			17.643			-2.205
47501.000			17.643			-2.205
47602.000			17.642			-2.205
47700.000			17.640			-2.205
47800.000			17.639			-2.205
47901.000			17.638			-2.205
48000.000			17.638			-2.205
48100.000			17.638			-2.205
48201.000			17.637			-2.205
48301.000			17.637			-2.205
48401.000			17.636			-2.204
48501.000			17.636			-2.204
48600.000			17.634			-2.204
48700.000			17.633			-2.204
48801.000			17.631			-2.204
48900.000			17.631			-2.204
49000.000			17.630			-2.204
49102.000			17.630			-2.204
49201.000			17.630			-2.204
49300.000			17.630			-2.204
49401.000			17.628			-2.204
49500.000			17.628			-2.203
49600.000			17.626			-2.203
49701.000			17.626			-2.203
49800.000			17.626			-2.203
49901.000			17.625			-2.203
50002.000			17.625			-2.203
50101.000			17.624			-2.203
50200.000			17.623			-2.203
50301.000			17.622			-2.203
50400.000			17.622			-2.203
50500.000			17.621			-2.203
50600.000			17.620			-2.203
50701.000			17.619			-2.202
50802.000			17.619			-2.202
50901.000			17.618			-2.202
51000.000			17.617			-2.202
51101.000			17.617			-2.202
51200.000			17.616			-2.202
51300.000			17.615			-2.202
51401.000			17.614			-2.202
51501.000			17.614			-2.202
51601.000			17.614			-2.202
51701.000			17.613			-2.202
51800.000			17.612			-2.202
51900.000			17.612			-2.201
52001.000			17.609			-2.201
52100.000			17.609			-2.201
52200.000			17.607			-2.201
52302.000			17.607			-2.201
52401.000			17.607			-2.201
52500.000			17.607			-2.201
52601.000			17.606			-2.201
52700.000			17.606			-2.201
52800.000			17.605			-2.201
52901.000			17.605			-2.201
53000.000			17.604			-2.200
53101.000			17.603			-2.200
53202.000			17.603			-2.200
53300.000			17.602			-2.200
53400.000			17.601			-2.200
53501.000			17.601			-2.200
53600.000			17.600			-2.200
53700.000			17.598			-2.200
53800.000			17.598			-2.200
53901.000			17.599			-2.200
54002.000			17.597			-2.200
54100.000			17.596			-2.200
54200.000			17.596			-2.199
54301.000			17.594			-2.199
54400.000			17.595			-2.199
54500.000			17.594			-2.199
54601.000			17.593			-2.199
54701.000			17.593			-2.199
54801.000			17.592			-2.199
54901.000			17.592			-2.199
55000.000			17.590			-2.199
55100.000			17.590			-2.199
55201.000			17.590			-2.199
55300.000			17.589			-2.199
55400.000			17.588			-2.199
55502.000			17.588			-2.198
55601.000			17.587			-2.198
55700.000			17.586			-2.198
55801.000			17.586			-2.198
55900.000			17.585			-2.198
56000.000			17.584			-2.198
56101.000			17.584			-2.198
56200.000			17.584			-2.198
56300.000			17.583			-2.198
56402.000			17.582			-2.198
56501.000			17.581			-2.198
56600.000			17.581			-2.198
56701.000			17.581			-2.198
56800.000			17.581			-2.198
56900.000			17.579			-2.197
57000.000			17.578			-2.197
57100.000			17.578			-2.197
57202.000			17.576			-2.197
57301.000			17.577			-2.197
57400.000			17.576			-2.197
57501.000			17.576			-2.197
57600.000			17.576			-2.197
57700.000			17.576			-2.197
57801.000			17.574			-2.197
57900.000			17.573			-2.197
58001.000			17.572			-2.197
58102.000			17.573			-2.197
58200.000			17.572			-2.196
58300.000			17.571			-2.196
58401.000			17.571			-2.196
58500.000			17.570			-2.196
58600.000			17.569			-2.196
58701.000			17.567			-2.196
58801.000			17.568			-2.196
58901.000			17.568			-2.196
59002.000			17.566			-2.196
59100.000			17.566			-2.196
59200.000			17.565			-2.196
59301.000			17.564			-2.195
59400.000			17.564			-2.196
59500.000			17.564			-2.195
59601.000			17.563			-2.195
59701.000			17.563			-2.195
59801.000			17.562			-2.195
59901.000			17.562			-2.195
60000.000			17.561			-2.195
60100.000			17.560			-2.195
60200.000			17.560			-2.195
60300.000			17.558			-2.195
60401.000			17.558			-2.195
60501.000			17.558			-2.195
60601.000			17.558			-2.195
60701.000			17.557			-2.195
60800.000			17.557			-2.195
60900.000			17.556			-2.194
61001.000			17.555			-2.194
61100.000			17.554			-2.194
61200.000			17.554			-2.194
61302.000			17.554			-2.194
61401.000			17.553			-2.194
61500.000			17.552			-2.194
61601.000			17.552			-2.194
61700.000			17.551			-2.194
61800.000			17.551			-2.194
61901.000			17.551			-2.194
62000.000			17.550			-2.194
62101.000			17.550			-2.194
62202.000			17.549			-2.194
62300.000			17.547			-2.193
62400.000			17.547			-2.193
62501.000			17.547			-2.193
62600.000			17.546			-2.193
62700.000			17.545			-2.193
62801.000			17.545			-2.193
62901.000			17.545			-2.193
63001.000			17.544			-2.193
63102.000			17.543			-2.193
63200.000			17.543			-2.193
63300.000			17.542			-2.193
63400.000			17.540			-2.193
63500.000			17.541			-2.193
63601.000			17.542			-2.193
63700.000			17.539			-2.192
63801.000			17.539			-2.192
63902.000			17.538			-2.192
64000.000			17.537			-2.192
64100.000			17.537			-2.192
64201.000			17.537			-2.192
64300.000			17.536			-2.192
64400.000			17.537			-2.192
64501.000			17.536			-2.192
64601.000			17.535			-2.192
64701.000			17.535			-2.192
64801.000			17.534			-2.192
64900.000			17.533			-2.192
65000.000			17.532			-2.191
65101.000			17.532			-2.191
65200.000			17.532			-2.192
65300.000			17.531			-2.191
65402.000			17.530			-2.191
65501.000			17.529			-2.191
65600.000			17.528			-2.191
65701.000			17.528			-2.191
65800.000			17.528			-2.191
65900.000			17.529			-2.191
66001.000			17.527			-2.191
66100.000			17.527			-2.191
66201.000			17.527			-2.191
66302.000			17.526			-2.191
66400.000			17.525			-2.191
66500.000			17.526			-2.191
66600.000			17.524			-2.191
66700.000			17.523			-2.190
66801.000			17.523			-2.190
66900.000			17.522			-2.190
67001.000			17.522			-2.190
67102.000			17.521			-2.190
67201.000			17.521			-2.190
67300.000			17.520			-2.190
67401.000			17.520			-2.190
67500.000			17.519			-2.190
67600.000			17.518			-2.190
67701.000			17.518			-2.190
67800.000			17.518			-2.190
67901.000			17.517			-2.190
68002.000			17.517			-2.190
68100.000			17.516			-2.189
68200.000			17.515			-2.189
68301.000			17.515			-2.189
68400.000			17.515			-2.189
68500.000			17.514			-2.189
68601.000			17.513			-2.189
68701.000			17.512			-2.189
68801.000			17.513			-2.189
68901.000			17.513			-2.189
69000.000			17.512			-2.189
69100.000			17.511			-2.189
69201.000			17.510			-2.189
69300.000			17.510			-2.189
69400.000			17.510			-2.189
69502.000			17.510			-2.189
69601.000			17.509			-2.189
69700.000			17.508			-2.188
69800.000			17.507			-2.188
69900.000			17.507			-2.188
70001.000			17.507			-2.188
70100.000			17.505			-2.188
70200.000			17.505			-2.188
70302.000			17.504			-2.188
70401.000			17.504			-2.188
70501.000			17.503			-2.188
70601.000			17.503			-2.188
70700.000			17.503			-2.188
70800.000			17.502			-2.188
70901.000			17.503			-2.188
71000.000			17.501			-2.188
71101.000			17.499			-2.187
71202.000			17.499			-2.187
71301.000			17.500			-2.187
71400.000			17.499			-2.187
71501.000			17.499			-2.187
71600.000			17.499			-2.187
71700.000			17.497			-2.187
71801.000			17.497			-2.187
71900.000			17.497			-2.187
72001.000			17.496			-2.187
72102.000			17.496			-2.187
72200.000			17.495			-2.187
72300.000			17.494			-2.187
72401.000			17.495			-2.187
72500.000			17.495			-2.187
72600.000			17.495			-2.187
72701.000			17.494			-2.187
72801.000			17.493			-2.187
72902.000			17.493			-2.187
73001.000			17.492			-2.187
73100.000			17.490			-2.186
73201.000			17.490			-2.186
73300.000			17.490			-2.186
73400.000			17.491			-2.186
73501.000			17.490			-2.186
73600.000			17.489			-2.186
73701.000			17.488			-2.186
73802.000			17.487			-2.186
73900.000			17.487			-2.186
74000.000			17.487			-2.186
74101.000			17.486			-2.186
74200.000			17.486			-2.186
74300.000			17.486			-2.186
74401.000			17.485			-2.186
74501.000			17.485			-2.186
74601.000			17.483			-2.185
74701.000			17.483			-2.185
74800.000			17.483			-2.185
74900.000			17.483			-2.185
75001.000			17.483			-2.185
75100.000			17.482			-2.185
75200.000			17.481			-2.185
75301.000			17.480			-2.185
75401.000			17.480			-2.185
75501.000			17.480			-2.185
75601.000			17.479			-2.185
75700.000			17.478			-2.185
75800.000			17.478			-2.185
75901.000			17.478			-2.185
76000.000			17.477			-2.185
76100.000			17.476			-2.185
76202.000			17.475			-2.184
76301.000			17.475			-2.184
76401.000			17.475			-2.184
76500.000			17.475			-2.184
76600.000			17.475			-2.184
76701.000			17.475			-2.184
76800.000			17.473			-2.184
76900.000			17.474			-2.184
77001.000			17.473			-2.184
77101.000			17.472			-2.184
77201.000			17.471			-2.184
77301.000			17.471			-2.184
77400.000			17.472			-2.184
77500.000			17.470			-2.184
77601.000			17.469			-2.184
77700.000			17.470			-2.184
77800.000			17.470			-2.184
77902.000			17.468			-2.183
78001.000			17.467			-2.183
78100.000			17.467			-2.183
78201.000			17.466			-2.183
78300.000			17.466			-2.183
78400.000			17.467			-2.183
78501.000			17.466			-2.183
78600.000			17.464			-2.183
78700.000			17.463			-2.183
78802.000			17.463			-2.183
78901.000			17.463			-2.183
79000.000			17.462			-2.183
79101.000			17.462			-2.183
79200.000			17.462			-2.183
79300.000			17.463			-2.183
79400.000			17.461			-2.183
79500.000			17.460			-2.183
79602.000			17.460			-2.183
79701.000			17.460			-2.183
79800.000			17.460			-2.182
79901.000			17.460			-2.182
80000.000			17.458			-2.182
80100.000			17.458			-2.182
80201.000			17.458			-2.182
80300.000			17.459			-2.182
80401.000			17.456			-2.182
80502.000			17.456			-2.182
80601.000			17.456			-2.182
80700.000			17.455			-2.182
80801.000			17.455			-2.182
80900.000			17.455			-2.182
81000.000			17.454			-2.182
81101.000			17.454			-2.182
81201.000			17.454			-2.182
81301.000			17.453			-2.182
81402.000			17.452			-2.182
81500.000			17.451			-2.181
81600.000			17.452			-2.181
81701.000			17.451			-2.181
81800.000			17.451			-2.181
81900.000			17.450			-2.181
82001.000			17.449			-2.181
82101.000			17.449			-2.181
82201.000			17.448			-2.181
82301.000			17.448			-2.181
82400.000			17.447			-2.181
82500.000			17.447			-2.181
82600.000			17.446			-2.181
82700.000			17.446			-2.181
82801.000			17.446			-2.181
82901.000			17.445			-2.181
83001.000			17.445			-2.181
83101.000			17.445			-2.181
83200.000			17.445			-2.181
83300.000			17.445			-2.181
83401.000			17.442			-2.180
83500.000			17.442			-2.180
83600.000			17.442			-2.180
83702.000			17.441			-2.180
83801.000			17.441			-2.180
83900.000			17.442			-2.180
84001.000			17.441			-2.180
84100.000			17.440			-2.180
84200.000			17.439			-2.180
84301.000			17.439			-2.180
84400.000			17.439			-2.180
84501.000			17.439			-2.180
84602.000			17.439			-2.180
84700.000			17.438			-2.180
84800.000			17.437			-2.180
84901.000			17.437			-2.180
85000.000			17.437			-2.180
85100.000			17.437			-2.180
85201.000			17.437			-2.180
85301.000			17.436			-2.179
85401.000			17.435			-2.179
85502.000			17.434			-2.179
85600.000			17.436			-2.179
85700.000			17.435			-2.179
85800.000			17.434			-2.179
85900.000			17.433			-2.179
86001.000			17.433			-2.179
86100.000			17.432			-2.179
86201.000			17.432			-2.179
86302.000			17.432			-2.179
86400.000			17.431			-2.179
86500.000			17.430			-2.179
86601.000			17.430			-2.179
86700.000			17.430			-2.179
86800.000			17.431			-2.179
86901.000			17.428			-2.179
87001.000			17.428			-2.178
87101.000			17.427			-2.178
87201.000			17.427			-2.178
87300.000			17.427			-2.178
87400.000			17.428			-2.178
87501.000			17.427			-2.178
87600.000			17.427			-2.178
87700.000			17.426			-2.178
87801.000			17.425			-2.178
87901.000			17.425			-2.178
88001.000			17.425			-2.178
88101.000			17.425			-2.178
88200.000			17.424			-2.178
88300.000			17.424			-2.178
88401.000			17.424			-2.178
88500.000			17.423			-2.178
88600.000			17.423			-2.178
88702.000			17.422			-2.178
88801.000			17.422			-2.178
88900.000			17.422			-2.178
89000.000			17.421			-2.178
89100.000			17.420			-2.177
89201.000			17.420			-2.177
89300.000			17.420			-2.177
89400.000			17.419			-2.177
89502.000			17.419			-2.177
89601.000			17.418			-2.177
89701.000			17.418			-2.177
89801.000			17.417			-2.177
89900.000			17.416			-2.177
90000.000			17.416			-2.177
90101.000			17.416			-2.177
90200.000			17.416			-2.177
90300.000			17.415			-2.177
90402.000			17.416			-2.177
90501.000			17.415			-2.177
90600.000			17.414			-2.177
90701.000			17.414			-2.177
90800.000			17.413			-2.177
90900.000			17.413			-2.177
91001.000			17.413			-2.177
91100.000			17.412			-2.177
91201.000			17.412			-2.176
91302.000			17.411			-2.176
91400.000			17.411			-2.176
91500.000			17.410			-2.176
91601.000			17.409			-2.176
91700.000			17.410			-2.176
91800.000			17.409			-2.176
91901.000			17.408			-2.176
92001.000			17.409			-2.176
92102.000			17.408			-2.176
92200.000			17.407			-2.176
92300.000			17.408			-2.176
92401.000			17.409			-2.176
92500.000			17.408			-2.176
92600.000			17.407			-2.176
92701.000			17.406			-2.176
92801.000			17.405			-2.176
92901.000			17.405			-2.176
93001.000			17.404			-2.175
93100.000			17.404			-2.175
93200.000			17.405			-2.176
93301.000			17.404			-2.175
93400.000			17.403			-2.175
93500.000			17.403			-2.175
93602.000			17.403			-2.175
93701.000			17.401			-2.175
93800.000			17.401			-2.175
93901.000			17.400			-2.175
94000.000			17.400			-2.175
94100.000			17.400			-2.175
94201.000			17.400			-2.175
94300.000			17.399			-2.175
94401.000			17.400			-2.175
94502.000			17.400			-2.175
94600.000			17.399			-2.175
94700.000			17.398			-2.175
94801.000			17.398			-2.175
94900.000			17.397			-2.175
95000.000			17.396			-2.174
95101.000			17.396			-2.175
95201.000			17.397			-2.175
95302.000			17.396			-2.175
95401.000			17.396			-2.174
95500.000			17.395			-2.174
95601.000			17.395			-2.174
95700.000			17.394			-2.174
95800.000			17.394			-2.174
95901.000			17.394			-2.174
96000.000			17.393			-2.174
96101.000			17.392			-2.174
96202.000			17.392			-2.174
96300.000			17.391			-2.174
96400.000			17.391			-2.174
96501.000			17.391			-2.174
96600.000			17.390			-2.174
96700.000			17.389			-2.174
96801.000			17.390			-2.174
96901.000			17.389			-2.174
97001.000			17.389			-2.174
97102.000			17.390			-2.174
97200.000			17.388			-2.174
97300.000			17.388			-2.173
97401.000			17.388			-2.174
97500.000			17.388			-2.174
97600.000			17.388			-2.173
97701.000			17.386			-2.173
97801.000			17.386			-2.173
97901.000			17.386			-2.173
98001.000			17.386			-2.173
98100.000			17.385			-2.173
98200.000			17.384			-2.173
98301.000			17.384			-2.173
98400.000			17.384			-2.173
98500.000			17.384			-2.173
98600.000			17.383			-2.173
98701.000			17.384			-2.173
98802.000			17.383			-2.173
98900.000			17.383			-2.173
99000.000			17.382			-2.173
99101.000			17.381			-2.173
99200.000			17.380			-2.173
99300.000			17.381			-2.173
99401.000			17.379			-2.172
99501.000			17.380			-2.172
99601.000			17.380			-2.172
99702.000			17.379			-2.172
99800.000			17.379			-2.172
99900.000			17.378			-2.172
100001.000			17.378			-2.172
100100.000			17.378			-2.172
100200.000			17.378			-2.172
100301.000			17.378			-2.172
100401.000			17.377			-2.172
100501.000			17.376			-2.172
100601.000			17.376			-2.172
100700.000			17.375			-2.172
100800.000			17.375			-2.172
100901.000			17.376			-2.172
101000.000			17.375			-2.172
101100.000			17.374			-2.172
101201.000			17.373			-2.172
101301.000			17.374			-2.172
101401.000			17.374			-2.172
101501.000			17.372			-2.172
101600.000			17.371			-2.171
101700.000			17.371			-2.171
101800.000			17.372			-2.171
101900.000			17.371			-2.171
102001.000			17.371			-2.171
102101.000			17.370			-2.171
102201.000			17.370			-2.171
102301.000			17.370			-2.171
102400.000			17.370			-2.171
102500.000			17.370			-2.171
102601.000			17.369			-2.171
102700.000			17.368			-2.171
102800.000			17.368			-2.171
102902.000			17.369			-2.171
103001.000			17.367			-2.171
103101.000			17.366			-2.171
103201.000			17.366			-2.171
103300.000			17.367			-2.171
103400.000			17.365			-2.171
103501.000			17.365			-2.171
103600.000			17.364			-2.171
103700.000			17.364			-2.171
103802.000			17.365			-2.171
103901.000			17.365			-2.171
104001.000			17.364			-2.170
104101.000			17.364			-2.170
104200.000			17.364			-2.170
104300.000			17.363			-2.170
104401.000			17.363			-2.170
104500.000			17.362			-2.170
104600.000			17.362			-2.170
104702.000			17.363			-2.170
104801.000			17.362			-2.170
104900.000			17.361			-2.170
105000.000			17.360			-2.170
105100.000			17.361			-2.170
105201.000			17.359			-2.170
105300.000			17.359			-2.170
105400.000			17.358			-2.170
105502.000			17.358			-2.170
105601.000			17.359			-2.170
105701.000			17.358			-2.170
105801.000			17.358			-2.170
105900.000			17.358			-2.170
106000.000			17.356			-2.170
106101.000			17.356			-2.169
106200.000			17.357			-2.170
106300.000			17.357			-2.170
106402.000			17.356			-2.170
106501.000			17.356			-2.170
106600.000			17.355			-2.169
106701.000			17.355			-2.169
106800.000			17.354			-2.169
106900.000			17.354			-2.169
107001.000			17.354			-2.169
107100.000			17.354			-2.169
107200.000			17.353			-2.169
107302.000			17.353			-2.169
107401.000			17.352			-2.169
107500.000			17.353			-2.169
107601.000			17.353			-2.169
107700.000			17.351			-2.169
107800.000			17.350			-2.169
107901.000			17.350			-2.169
108000.000			17.351			-2.169
108102.000			17.350			-2.169
108201.000			17.350			-2.169
108300.000			17.348			-2.169
108401.000			17.348			-2.169
108500.000			17.349			-2.169
108600.000			17.348			-2.169
108701.000			17.349			-2.169
108800.000			17.348			-2.168
108900.000			17.347			-2.168
109002.000			17.346			-2.168
109101.000			17.346			-2.168
109200.000			17.346			-2.168
109301.000			17.346			-2.168
109400.000			17.346			-2.168
109500.000			17.345			-2.168
109601.000			17.344			-2.168
109700.000			17.345			-2.168
109801.000			17.345			-2.168
109902.000			17.345			-2.168
110000.000			17.344			-2.168
110100.000			17.343			-2.168
110201.000			17.342			-2.168
110300.000			17.342			-2.168
110400.000			17.342			-2.168
110501.000			17.342			-2.168
110601.000			17.343			-2.168
110701.000			17.343			-2.168
110801.000			17.342			-2.168
110900.000			17.340			-2.168
111000.000			17.339			-2.167
111101.000			17.340			-2.167
111200.000			17.339			-2.167
111300.000			17.339			-2.167
111400.000			17.339			-2.167
111501.000			17.339			-2.167
111602.000			17.338			-2.167
111700.000			17.338			-2.167
111800.000			17.337			-2.167
111901.000			17.338			-2.167
112000.000			17.338			-2.167
112100.000			17.337			-2.167
112201.000			17.337			-2.167
112301.000			17.336			-2.167
112401.000			17.336			-2.167
112501.000			17.335			-2.167
112600.000			17.334			-2.167
112700.000			17.334			-2.167
112801.000			17.335			-2.167
112900.000			17.335			-2.167
113000.000			17.334			-2.167
113102.000			17.333			-2.167
113201.000			17.333			-2.167
113301.000			17.333			-2.167
113401.000			17.333			-2.167
113500.000			17.332			-2.166
113600.000			17.331			-2.166
113701.000			17.331			-2.166
113800.000			17.331			-2.166
113900.000			17.330			-2.166
114002.000			17.330			-2.166
114101.000			17.330			-2.166
114200.000			17.330			-2.166
114301.000			17.330			-2.166
114400.000			17.330			-2.166
114500.000			17.329			-2.166
114600.000			17.329			-2.166
114700.000			17.330			-2.166
114802.000			17.329			-2.166
114901.000			17.328			-2.166
115001.000			17.327			-2.166
115101.000			17.327			-2.166
115200.000			17.327			-2.166
115300.000			17.327			-2.166
115401.000			17.326			-2.166
115500.000			17.325			-2.166
115600.000			17.325			-2.166
115702.000			17.325			-2.166
115801.000			17.325			-2.166
115901.000			17.324			-2.165
116001.000			17.323			-2.165
116100.000			17.324			-2.165
116200.000			17.324			-2.165
116301.000			17.323			-2.165
116400.000			17.323			-2.165
116500.000			17.323			-2.165
116602.000			17.322			-2.165
116701.000			17.323			-2.165
116800.000			17.321			-2.165
116901.000			17.322			-2.165
117000.000			17.320			-2.165
117100.000			17.320			-2.165
117201.000			17.320			-2.165
117300.000			17.321			-2.165
117401.000			17.320			-2.165
117502.000			17.320			-2.165
117601.000			17.320			-2.165
117700.000			17.320			-2.165
117800.000			17.319			-2.165
117900.000			17.319			-2.165
118001.000			17.318			-2.165
118100.000			17.317			-2.165
118200.000			17.317			-2.165
118302.000			17.316			-2.165
118401.000			17.316			-2.165
118500.000			17.318			-2.165
118601.000			17.318			-2.165
118700.000			17.317			-2.165
118800.000			17.316			-2.164
118901.000			17.316			-2.164
119000.000			17.315			-2.164
119101.000			17.315			-2.164
119202.000			17.314			-2.164
119301.000			17.313			-2.164
119400.000			17.314			-2.164
119501.000			17.314			-2.164
119600.000			17.313			-2.164
119700.000			17.313			-2.164
119801.000			17.313			-2.164
119900.000			17.313			-2.164
120001.000			17.312			-2.164
120102.000			17.312			-2.164
120200.000			17.312			-2.164
120300.000			17.311			-2.164
120401.000			17.311			-2.164
120500.000			17.311			-2.164
120600.000			17.310			-2.164
120701.000			17.310			-2.164
120801.000			17.310			-2.164
120902.000			17.310			-2.164
121001.000			17.309			-2.164
121100.000			17.309			-2.164
121201.000			17.309			-2.164
121300.000			17.309			-2.164
121400.000			17.309			-2.164
121501.000			17.308			-2.164
121600.000			17.308			-2.163
121701.000			17.308			-2.163
121802.000			17.307			-2.163
121900.000			17.306			-2.163
122000.000			17.306			-2.163
122101.000			17.306			-2.163
122200.000			17.305			-2.163
122300.000			17.304			-2.163
122401.000			17.304			-2.163
122501.000			17.305			-2.163
122601.000			17.304			-2.163
122701.000			17.305			-2.163
122800.000			17.305			-2.163
122900.000			17.305			-2.163
123001.000			17.303			-2.163
123100.000			17.302			-2.163
123200.000			17.302			-2.163
123302.000			17.302			-2.163
123401.000			17.302			-2.163
123500.000			17.301			-2.163
123601.000			17.300			-2.163
123700.000			17.301			-2.163
123800.000			17.300			-2.163
123901.000			17.300			-2.163
124000.000			17.300			-2.162
124102.000			17.300			-2.163
124201.000			17.301			-2.163
124300.000			17.300			-2.162
124401.000			17.299			-2.162
124500.000			17.299			-2.162
124600.000			17.299			-2.162
124701.000			17.297			-2.162
124800.000			17.297			-2.162
124900.000			17.296			-2.162
125002.000			17.297			-2.162
125101.000			17.297			-2.162
125200.000			17.297			-2.162
125301.000			17.297			-2.162
125400.000			17.296			-2.162
125500.000			17.296			-2.162
125601.000			17.295			-2.162
125700.000			17.295			-2.162
125800.000			17.295			-2.162
125902.000			17.295			-2.162
126001.000			17.293			-2.162
126100.000			17.293			-2.162
126201.000			17.293			-2.162
126300.000			17.293			-2.162
126400.000			17.292			-2.162
126501.000			17.293			-2.162
126600.000			17.293			-2.162
126701.000			17.293			-2.162
126802.000			17.292			-2.161
126901.000			17.291			-2.161
127000.000			17.291			-2.161
127101.000			17.291			-2.161
127200.000			17.290			-2.161
127300.000			17.289			-2.161
127400.000			17.288			-2.161
127500.000			17.289			-2.161
127602.000			17.290			-2.161
127701.000			17.289			-2.161
127800.000			17.289			-2.161
127901.000			17.289			-2.161
128000.000			17.289			-2.161
128100.000			17.287			-2.161
128201.000			17.287			-2.161
128300.000			17.287			-2.161
128400.000			17.287			-2.161
128502.000			17.287			-2.161
128601.000			17.287			-2.161
128700.000			17.287			-2.161
128801.000			17.286			-2.161
128900.000			17.286			-2.161
129000.000			17.285			-2.161
129101.000			17.286			-2.161
129200.000			17.286			-2.161
129300.000			17.285			-2.161
129402.000			17.284			-2.160
129501.000			17.283			-2.160
129600.000			17.284			-2.160
129701.000			17.284			-2.160
129800.000			17.283			-2.160
129900.000			17.283			-2.160
130001.000			17.283			-2.160
130100.000			17.283			-2.160
130200.000			17.282			-2.160
130302.000			17.282			-2.160
130401.000			17.282			-2.160
130500.000			17.282			-2.160
130600.000			17.281			-2.160
130700.000			17.280			-2.160
130801.000			17.280			-2.160
130900.000			17.281			-2.160
131000.000			17.281			-2.160
131102.000			17.280			-2.160
131201.000			17.278			-2.160
131300.000			17.278			-2.160
131401.000			17.279			-2.160
131500.000			17.278			-2.160
131600.000			17.278			-2.160
131701.000			17.279			-2.160
131800.000			17.279			-2.160
131900.000			17.277			-2.160
132002.000			17.277			-2.160
132101.000			17.277			-2.160
132201.000			17.276			-2.160
132301.000			17.276			-2.160
132400.000			17.276			-2.160
132500.000			17.276			-2.160
132601.000			17.275			-2.159
132700.000			17.276			-2.160
132800.000			17.276			-2.159
132902.000			17.276			-2.160
133001.000			17.275			-2.159
133101.000			17.274			-2.159
133201.000			17.274			-2.159
133300.000			17.275			-2.159
133400.000			17.274			-2.159
133501.000			17.274			-2.159
133600.000			17.273			-2.159
133700.000			17.273			-2.159
133800.000			17.272			-2.159
133901.000			17.272			-2.159
134002.000			17.271			-2.159
134100.000			17.271			-2.159
134200.000			17.271			-2.159
134301.000			17.271			-2.159
134400.000			17.270			-2.159
134500.000			17.269			-2.159
134601.000			17.270			-2.159
134700.000			17.270			-2.159
134801.000			17.271			-2.159
134902.000			17.270			-2.159
135001.000			17.268			-2.159
135100.000			17.268			-2.158
135201.000			17.269			-2.159
135300.000			17.269			-2.159
135400.000			17.267			-2.158
135501.000			17.268			-2.158
135600.000			17.267			-2.158
135700.000			17.268			-2.159
135802.000			17.268			-2.158
135901.000			17.267			-2.158
136000.000			17.267			-2.158
136101.000			17.266			-2.158
136200.000			17.266			-2.158
136300.000			17.266			-2.158
136401.000			17.266			-2.158
136500.000			17.266			-2.158
136600.000			17.266			-2.158
136702.000			17.266			-2.158
136801.000			17.266			-2.158
136902.000			17.266			-2.158
137000.000			17.265			-2.158
137100.000			17.264			-2.158
137201.000			17.263			-2.158
137300.000			17.263			-2.158
137400.000			17.264			-2.158
137501.000			17.263			-2.158
137600.000			17.264			-2.158
137701.000			17.263			-2.158
137802.000			17.262			-2.158
137900.000			17.262			-2.158
138000.000			17.262			-2.158
138101.000			17.261			-2.158
138200.000			17.261			-2.158
138300.000			17.262			-2.158
138401.000			17.261			-2.158
138500.000			17.262			-2.158
138601.000			17.262			-2.158
138702.000			17.260			-2.158
138801.000			17.259			-2.157
138900.000			17.259			-2.157
139001.000			17.259			-2.157
139100.000			17.259			-2.157
139200.000			17.259			-2.157
139301.000			17.258			-2.157
139400.000			17.258			-2.157
139500.000			17.259			-2.157
139602.000			17.259			-2.157
139701.000			17.258			-2.157
139800.000			17.258			-2.157
139901.000			17.259			-2.157
140000.000			17.260			-2.157
140100.000			17.258			-2.157
140200.000			17.256			-2.157
140300.000			17.257			-2.157
140401.000			17.257			-2.157
140501.000			17.257			-2.157
140601.000			17.255			-2.157
140702.000			17.256			-2.157
140800.000			17.256			-2.157
140900.000			17.255			-2.157
141001.000			17.255			-2.157
141100.000			17.254			-2.157
141200.000			17.253			-2.157
141301.000			17.255			-2.157
141400.000			17.254			-2.157
141501.000			17.254			-2.157
141602.000			17.253			-2.157
141700.000			17.252			-2.156
141800.000			17.252			-2.156
141901.000			17.252			-2.157
142000.000			17.252			-2.157
142100.000			17.252			-2.156
142201.000			17.251			-2.156
142300.000			17.251			-2.156
142401.000			17.250			-2.156
142502.000			17.250			-2.156
142600.000			17.250			-2.156
142700.000			17.251			-2.156
142801.000			17.249			-2.156
142900.000			17.249			-2.156
143000.000			17.249			-2.156
143101.000			17.247			-2.156
143200.000			17.248			-2.156
143302.000			17.249			-2.156
143401.000			17.248			-2.156
143501.000			17.248			-2.156
143601.000			17.247			-2.156
143700.000			17.247			-2.156
143800.000			17.247			-2.156
143901.000			17.246			-2.156
144000.000			17.247			-2.156
144100.000			17.247			-2.156
144201.000			17.247			-2.156
144301.000			17.245			-2.156
144401.000			17.246			-2.156
144501.000			17.246			-2.156
144600.000			17.245			-2.156
144700.000			17.245			-2.156
144801.000			17.244			-2.156
144900.000			17.245			-2.156
145000.000			17.245			-2.156
145101.000			17.245			-2.156
145201.000			17.244			-2.156
145301.000			17.243			-2.155
145401.000			17.244			-2.156
145500.000			17.245			-2.156
145600.000			17.244			-2.156
145701.000			17.242			-2.155
145800.000			17.242			-2.155
145900.000			17.242			-2.155
146001.000			17.241			-2.155
146101.000			17.241			-2.155
146201.000			17.242			-2.155
146302.000			17.242			-2.155
146400.000			17.243			-2.155
146500.000			17.242			-2.155
146600.000			17.242			-2.155
146700.000			17.241			-2.155
146801.000			17.240			-2.155
146900.000			17.241			-2.155
147000.000			17.240			-2.155
147102.000			17.240			-2.155
147201.000			17.240			-2.155
147300.000			17.240			-2.155
147401.000			17.240			-2.155
147500.000			17.240			-2.155
147600.000			17.239			-2.155
147701.000			17.239			-2.155
147800.000			17.238			-2.155
147900.000			17.238			-2.155
148002.000			17.238			-2.155
148101.000			17.238			-2.155
148200.000			17.238			-2.155
148301.000			17.238			-2.155
148400.000			17.236			-2.155
148500.000			17.236			-2.155
148601.000			17.236			-2.154
148700.000			17.236			-2.154
148800.000			17.236			-2.155
148902.000			17.236			-2.154
149001.000			17.235			-2.154
149101.000			17.236			-2.154
149201.000			17.235			-2.154
149300.000			17.235			-2.154
149400.000			17.235			-2.154
149501.000			17.235			-2.154
149600.000			17.235			-2.154
149700.000			17.235			-2.154
149800.000			17.234			-2.154
149901.000			17.233			-2.154
150002.000			17.233			-2.154
150100.000			17.233			-2.154
150200.000			17.232			-2.154
150301.000			17.230			-2.154
150400.000			17.231			-2.154
150500.000			17.232			-2.154
150601.000			17.232			-2.154
150700.000			17.231			-2.154
150801.000			17.230			-2.154
150902.000			17.230			-2.154
151000.000			17.231			-2.154
151100.000			17.230			-2.154
151201.000			17.230			-2.154
151300.000			17.230			-2.154
151400.000			17.230			-2.154
151501.000			17.230			-2.154
151600.000			17.230			-2.154
151701.000			17.230			-2.154
151802.000			17.229			-2.154
151901.000			17.228			-2.153
152000.000			17.228			-2.154
152101.000			17.229			-2.154
152200.000			17.229			-2.154
152300.000			17.227			-2.153
152401.000			17.227			-2.153
152500.000			17.227			-2.153
152601.000			17.227			-2.153
152702.000			17.227			-2.153
152801.000			17.227			-2.153
152900.000			17.226			-2.153
153000.000			17.226			-2.153
153100.000			17.225			-2.153
153201.000			17.225			-2.153
153300.000			17.225			-2.153
153400.000			17.224			-2.153
153502.000			17.224			-2.153
153601.000			17.225			-2.153
153701.000			17.223			-2.153
153801.000			17.223			-2.153
153900.000			17.223			-2.153
154000.000			17.223			-2.153
154101.000			17.223			-2.153
154200.000			17.223			-2.153
154300.000			17.223			-2.153
154401.000			17.223			-2.153
154501.000			17.223			-2.153
154601.000			17.222			-2.153
154701.000			17.221			-2.153
154800.000			17.221			-2.153
154900.000			17.221			-2.153
155001.000			17.221			-2.153
155100.000			17.221			-2.153
155200.000			17.221			-2.153
155301.000			17.221			-2.153
155401.000			17.221			-2.153
155501.000			17.220			-2.152
155601.000			17.220			-2.152
155700.000			17.220			-2.152
155800.000			17.220			-2.153
155901.000			17.218			-2.152
156000.000			17.218			-2.152
156100.000			17.219			-2.152
156200.000			17.219			-2.152
156301.000			17.219			-2.152
156402.000			17.218			-2.152
156501.000			17.217			-2.152
156600.000			17.218			-2.152
156701.000			17.217			-2.152
156800.000			17.217			-2.152
156900.000			17.217			-2.152
157001.000			17.217			-2.152
157100.000			17.217			-2.152
157200.000			17.216			-2.152
157302.000			17.215			-2.152
157401.000			17.215			-2.152
157500.000			17.215			-2.152
157601.000			17.214			-2.152
157700.000			17.215			-2.152
157800.000			17.215			-2.152
157901.000			17.215			-2.152
158000.000			17.215			-2.152
158100.000			17.215			-2.152
158202.000			17.214			-2.152
158301.000			17.214			-2.152
158400.000			17.213			-2.152
158501.000			17.213			-2.152
158600.000			17.213			-2.152
158700.000			17.212			-2.152
158801.000			17.211			-2.151
158900.000			17.211			-2.151
159000.000			17.211			-2.151
159102.000			17.212			-2.151
159201.000			17.212			-2.152
159302.000			17.211			-2.151
159400.000			17.211			-2.151
159500.000			17.210			-2.151
159601.000			17.211			-2.151
159700.000			17.210			-2.151
159800.000			17.211			-2.151
159901.000			17.210			-2.151
160001.000			17.210			-2.151
160101.000			17.209			-2.151
160202.000			17.209			-2.151
160300.000			17.209			-2.151
160400.000			17.208			-2.151
160501.000			17.209			-2.151
160600.000			17.208			-2.151
160700.000			17.208			-2.151
160801.000			17.208			-2.151
160900.000			17.207			-2.151
161001.000			17.208			-2.151
161102.000			17.208			-2.151
161200.000			17.207			-2.151
161300.000			17.206			-2.151
161401.000			17.207			-2.151
161500.000			17.206			-2.151
161600.000			17.206			-2.151
161701.000			17.205			-2.151
161800.000			17.205			-2.151
161901.000			17.205			-2.151
162002.000			17.205			-2.151
162100.000			17.204			-2.150
162200.000			17.204			-2.151
162301.000			17.205			-2.151
162400.000			17.205			-2.151
162500.000			17.204			-2.151
162600.000			17.204			-2.150
162700.000			17.203			-2.150
162802.000			17.204			-2.150
162901.000			17.203			-2.150
163000.000			17.203			-2.150
163101.000			17.201			-2.150
163200.000			17.202			-2.150
163300.000			17.202			-2.150
163401.000			17.203			-2.150
163500.000			17.202			-2.150
163600.000			17.201			-2.150
163702.000			17.202			-2.150
163801.000			17.202			-2.150
163900.000			17.200			-2.150
164001.000			17.201			-2.150
164100.000			17.201			-2.150
164200.000			17.200			-2.150
164301.000			17.200			-2.150
164400.000			17.199			-2.150
164500.000			17.199			-2.150
164602.000			17.199			-2.150
164701.000			17.198			-2.150
164801.000			17.198			-2.150
164901.000			17.198			-2.150
165000.000			17.198			-2.150
165100.000			17.198			-2.150
165201.000			17.197			-2.150
165300.000			17.198			-2.150
165400.000			17.197			-2.150
165501.000			17.196			-2.150
165601.000			17.197			-2.150
165702.000			17.197			-2.150
165801.000			17.197			-2.150
165900.000			17.198			-2.150
166001.000			17.197			-2.150
166100.000			17.195			-2.149
166200.000			17.195			-2.149
166301.000			17.197			-2.150
166400.000			17.196			-2.150
166500.000			17.195			-2.149
166602.000			17.195			-2.149
166701.000			17.194			-2.149
166800.000			17.194			-2.149
166901.000			17.195			-2.149
167000.000			17.195			-2.149
167100.000			17.195			-2.149
167201.000			17.193			-2.149
167300.000			17.193			-2.149
167400.000			17.193			-2.149
167502.000			17.192			-2.149
167601.000			17.191			-2.149
167701.000			17.192			-2.149
167801.000			17.191			-2.149
167900.000			17.192			-2.149
168000.000			17.192			-2.149
168101.000			17.191			-2.149
168200.000			17.191			-2.149
168300.000			17.191			-2.149
168401.000			17.191			-2.149
168501.000			17.191			-2.149
168601.000			17.190			-2.149
168701.000			17.190			-2.149
168800.000			17.190			-2.149
168900.000			17.190			-2.149
169000.000			17.189			-2.149
169100.000			17.189			-2.149
169201.000			17.189			-2.149
169300.000			17.188			-2.149
169400.000			17.188			-2.148
169502.000			17.187			-2.148
169601.000			17.187			-2.148
169700.000			17.189			-2.149
169801.000			17.187			-2.148
169900.000			17.186			-2.148
170000.000			17.186			-2.148
170101.000			17.186			-2.148
170200.000			17.186			-2.148
170300.000			17.186			-2.148
170402.000			17.185			-2.148
170501.000			17.186			-2.148
170601.000			17.185			-2.148
170701.000			17.185			-2.148
170800.000			17.185			-2.148
170900.000			17.184			-2.148
171001.000			17.183			-2.148
171100.000			17.184			-2.148
171200.000			17.184			-2.148
171301.000			17.183			-2.148
171401.000			17.183			-2.148
171501.000			17.183			-2.148
171601.000			17.182			-2.148
171700.000			17.183			-2.148
171800.000			17.183			-2.148
171901.000			17.181			-2.148
172000.000			17.181			-2.148
172100.000			17.182			-2.148
172200.000			17.182			-2.148
172301.000			17.182			-2.148
172402.000			17.181			-2.148
172501.000			17.181			-2.148
172600.000			17.181			-2.148
172701.000			17.181			-2.148
172800.000			17.179			-2.147
172900.000			17.180			-2.147
173001.000			17.179			-2.147
173100.000			17.178			-2.147
173200.000			17.179			-2.147
173302.000			17.179			-2.147
173401.000			17.179			-2.147
173500.000			17.178			-2.147
173601.000			17.178			-2.147
173700.000			17.178			-2.147
173800.000			17.179			-2.147
173901.000			17.180			-2.147
174000.000			17.178			-2.147
174100.000			17.178			-2.147
174202.000			17.179			-2.147
174301.000			17.177			-2.147
174401.000			17.176			-2.147
174501.000			17.176			-2.147
174600.000			17.176			-2.147
174700.000			17.176			-2.147
174801.000			17.176			-2.147
174900.000			17.176			-2.147
175000.000			17.176			-2.147
175101.000			17.175			-2.147
175201.000			17.175			-2.147
175302.000			17.175			-2.147
175401.000			17.174			-2.147
175500.000			17.174			-2.147
175601.000			17.174			-2.147
175700.000			17.173			-2.147
175800.000			17.173			-2.147
175901.000			17.174			-2.147
176000.000			17.173			-2.147
176100.000			17.173			-2.147
176202.000			17.172			-2.147
176301.000			17.172			-2.146
176400.000			17.172			-2.146
176501.000			17.172			-2.147
176600.000			17.172			-2.147
176700.000			17.172			-2.147
176801.000			17.171			-2.146
176900.000			17.172			-2.146
177000.000			17.171			-2.146
177102.000			17.170			-2.146
177201.000			17.170			-2.146
177301.000			17.170			-2.146
177401.000			17.170			-2.146
177500.000			17.171			-2.146
177600.000			17.170			-2.146
177701.000			17.170			-2.146
177800.000			17.169			-2.146
177900.000			17.168			-2.146
178001.000			17.169			-2.146
178101.000			17.169			-2.146
178201.000			17.169			-2.146
178301.000			17.168			-2.146
178400.000			17.168			-2.146
178500.000			17.169			-2.146
178600.000			17.169			-2.146
178700.000			17.168			-2.146
178801.000			17.167			-2.146
178900.000			17.167			-2.146
179000.000			17.167			-2.146
179102.000			17.167			-2.146
179201.000			17.167			-2.146
179300.000			17.167			-2.146
179401.000			17.167			-2.146
179500.000			17.166			-2.146
179600.000			17.166			-2.146
179701.000			17.166			-2.146
179800.000			17.166			-2.146
179900.000			17.164			-2.146
180001.000			17.164			-2.146
180101.000			17.164			-2.146
180201.000			17.165			-2.146
180301.000			17.165			-2.146
180400.000			17.164			-2.146
180500.000			17.163			-2.145
180601.000			17.163			-2.145
180700.000			17.163			-2.145
180800.000			17.163			-2.145
180901.000			17.163			-2.145
181001.000			17.163			-2.145
181101.000			17.164			-2.145
181201.000			17.163			-2.145
181300.000			17.162			-2.145
181400.000			17.161			-2.145
181501.000			17.162			-2.145
181600.000			17.161			-2.145
181700.000			17.161			-2.145
181800.000			17.161			-2.145
181901.000			17.160			-2.145
182002.000			17.160			-2.145
182100.000			17.161			-2.145
182200.000			17.161			-2.145
182301.000			17.160			-2.145
182400.000			17.160			-2.145
182500.000			17.159			-2.145
182601.000			17.160			-2.145
182700.000			17.160			-2.145
182801.000			17.158			-2.145
182902.000			17.159			-2.145
183001.000			17.159			-2.145
183100.000			17.159			-2.145
183201.000			17.159			-2.145
183300.000			17.159			-2.145
183400.000			17.159			-2.145
183501.000			17.159			-2.145
183600.000			17.158			-2.145
183700.000			17.158			-2.145
183802.000			17.157			-2.145
183901.000			17.156			-2.144
184000.000			17.157			-2.145
184101.000			17.157			-2.145
184200.000			17.157			-2.145
184300.000			17.157			-2.145
184401.000			17.157			-2.145
184500.000			17.156			-2.144
184600.000			17.156			-2.144
184702.000			17.156			-2.145
184801.000			17.155			-2.144
184902.000			17.155			-2.144
185000.000			17.155			-2.144
185100.000			17.155			-2.144
185201.000			17.154			-2.144
185300.000			17.153			-2.144
185400.000			17.153			-2.144
185501.000			17.153			-2.144
185600.000			17.154			-2.144
185701.000			17.154			-2.144
185802.000			17.152			-2.144
185900.000			17.152			-2.144
186000.000			17.153			-2.144
186101.000			17.153			-2.144
186200.000			17.153			-2.144
186300.000			17.152			-2.144
186401.000			17.153			-2.144
186500.000			17.153			-2.144
186601.000			17.152			-2.144
186702.000			17.152			-2.144
186801.000			17.151			-2.144
186900.000			17.150			-2.144
187001.000			17.151			-2.144
187100.000			17.151			-2.144
187200.000			17.150			-2.144
187301.000			17.150			-2.144
187400.000			17.150			-2.144
187500.000			17.150			-2.144
187602.000			17.149			-2.144
187701.000			17.150			-2.144
187800.000			17.150			-2.144
187901.000			17.149			-2.144
188000.000			17.149			-2.144
188100.000			17.149			-2.144
188200.000			17.149			-2.144
188300.000			17.148			-2.144
188401.000			17.149			-2.144
188501.000			17.149			-2.144
188601.000			17.149			-2.144
188702.000			17.148			-2.144
188800.000			17.148			-2.144
188900.000			17.147			-2.143
189001.000			17.147			-2.143
189100.000			17.147			-2.143
189200.000			17.147			-2.143
189301.000			17.147			-2.143
189400.000			17.146			-2.143
189501.000			17.145			-2.143
189602.000			17.145			-2.143
189701.000			17.146			-2.143
189800.000			17.146			-2.143
189901.000			17.145			-2.143
190000.000			17.145			-2.143
190100.000			17.144			-2.143
190201.000			17.144			-2.143
190300.000			17.145			-2.143
190400.000			17.145			-2.143
190502.000			17.144			-2.143
190601.000			17.144			-2.143
190700.000			17.144			-2.143
190801.000			17.144			-2.143
190900.000			17.143			-2.143
191000.000			17.143			-2.143
191101.000			17.144			-2.143
191200.000			17.143			-2.143
191300.000			17.142			-2.143
191402.000			17.142			-2.143
191501.000			17.141			-2.143
191601.000			17.141			-2.143
191700.000			17.142			-2.143
191800.000			17.143			-2.143
191901.000			17.142			-2.143
192000.000			17.142			-2.143
192100.000			17.141			-2.143
192201.000			17.140			-2.143
192301.000			17.141			-2.143
192401.000			17.141			-2.143
192501.000			17.141			-2.143
192600.000			17.140			-2.142
192700.000			17.140			-2.142
192801.000			17.140			-2.142
192900.000			17.139			-2.142
193000.000			17.139			-2.142
193101.000			17.138			-2.142
193201.000			17.140			-2.142
193301.000			17.140			-2.142
193402.000			17.139			-2.142
193500.000			17.138			-2.142
193600.000			17.138			-2.142
193701.000			17.138			-2.142
193800.000			17.137			-2.142
193900.000			17.138			-2.142
194001.000			17.139			-2.142
194100.000			17.138			-2.142
194201.000			17.137			-2.142
194302.000			17.137			-2.142
194400.000			17.137			-2.142
194500.000			17.138			-2.142
194600.000			17.138			-2.142
194700.000			17.137			-2.142
194801.000			17.137			-2.142
194900.000			17.136			-2.142
195000.000			17.135			-2.142
195101.000			17.135			-2.142
195201.000			17.135			-2.142
195301.000			17.135			-2.142
195401.000			17.134			-2.142
195500.000			17.134			-2.142
195600.000			17.134			-2.142
195701.000			17.134			-2.142
195800.000			17.134			-2.142
195900.000			17.134			-2.142
196001.000			17.133			-2.142
196101.000			17.134			-2.142
196201.000			17.134			-2.142
196301.000			17.133			-2.142
196400.000			17.133			-2.142
196500.000			17.133			-2.142
196601.000			17.133			-2.142
196700.000			17.132			-2.142
196800.000			17.132			-2.142
196901.000			17.132			-2.142
197001.000			17.132			-2.142
197101.000			17.133			-2.142
197202.000			17.132			-2.141
197300.000			17.131			-2.141
197400.000			17.132			-2.141
197501.000			17.132			-2.141
197600.000			17.131			-2.141
197700.000			17.130			-2.141
197800.000			17.130			-2.141
197900.000			17.129			-2.141
198002.000			17.130			-2.141
198101.000			17.131			-2.141
198201.000			17.131			-2.141
198301.000			17.130			-2.141
198400.000			17.129			-2.141
198500.000			17.129			-2.141
198601.000			17.129			-2.141
198700.000			17.129			-2.141
198800.000			17.128			-2.141
198901.000			17.127			-2.141
199001.000			17.127			-2.141
199101.000			17.127			-2.141
199201.000			17.127			-2.141
199300.000			17.128			-2.141
199400.000			17.128			-2.141
199501.000			17.127			-2.141
199600.000			17.127			-2.141
199700.000			17.127			-2.141
199801.000			17.126			-2.141
199901.000			17.126			-2.141
200001.000			17.126			-2.141
200102.000			17.126			-2.141
200200.000			17.125			-2.141
200300.000			17.126			-2.141
200401.000			17.126			-2.141
200500.000			17.126			-2.141
200600.000			17.125			-2.141
200701.000			17.125			-2.141
200801.000			17.125			-2.141
200902.000			17.125			-2.141
201001.000			17.124			-2.141
201100.000			17.124			-2.140
201201.000			17.124			-2.141
201300.000			17.124			-2.141
201400.000			17.124			-2.141
201501.000			17.125			-2.141
201600.000			17.124			-2.141
201701.000			17.122			-2.140
201802.000			17.122			-2.140
201901.000			17.122			-2.140
202000.000			17.123			-2.140
202101.000			17.123			-2.140
202200.000			17.122			-2.140
202300.000			17.122			-2.140
202401.000			17.121			-2.140
202500.000			17.121			-2.140
202601.000			17.121			-2.140
202702.000			17.122			-2.140
202801.000			17.122			-2.140
202900.000			17.121			-2.140
203001.000			17.121			-2.140
203100.000			17.120			-2.140
203200.000			17.120			-2.140
203301.000			17.120			-2.140
203400.000			17.121			-2.140
203501.000			17.121			-2.140
203602.000			17.120			-2.140
203701.000			17.120			-2.140
203800.000			17.121			-2.140
203901.000			17.119			-2.140
204000.000			17.118			-2.140
204100.000			17.119			-2.140
204200.000			17.119			-2.140
204300.000			17.118			-2.140
204402.000			17.117			-2.140
204501.000			17.118			-2.140
204601.000			17.119			-2.140
204701.000			17.118			-2.140
204800.000			17.118			-2.140
204900.000			17.118			-2.140
205001.000			17.119			-2.140
205100.000			17.118			-2.140
205200.000			17.116			-2.140
205302.000			17.117			-2.140
205401.000			17.117			-2.140
205501.000			17.118			-2.140
205601.000			17.116			-2.140
205700.000			17.116			-2.139
205800.000			17.117			-2.140
205901.000			17.118			-2.140
206000.000			17.116			-2.139
206100.000			17.115			-2.139
206201.000			17.114			-2.139
206301.000			17.115			-2.139
206401.000			17.114			-2.139
206501.000			17.115			-2.139
206600.000			17.115			-2.139
206700.000			17.114			-2.139
206801.000			17.114			-2.139
206900.000			17.114			-2.139
207000.000			17.114			-2.139
207102.000			17.114			-2.139
207201.000			17.113			-2.139
207302.000			17.112			-2.139
207400.000			17.113			-2.139
207500.000			17.112			-2.139
207601.000			17.112			-2.139
207700.000			17.112			-2.139
207800.000			17.112			-2.139
207901.000			17.113			-2.139
208001.000			17.112			-2.139
208101.000			17.112			-2.139
208202.000			17.112			-2.139
208300.000			17.111			-2.139
208400.000			17.112			-2.139
208501.000			17.112			-2.139
208600.000			17.112			-2.139
208700.000			17.111			-2.139
208801.000			17.110			-2.139
208901.000			17.111			-2.139
209001.000			17.110			-2.139
209102.000			17.110			-2.139
209200.000			17.110			-2.139
209300.000			17.110			-2.139
209401.000			17.109			-2.139
209500.000			17.110			-2.139
209600.000			17.108			-2.139
209701.000			17.110			-2.139
209801.000			17.109			-2.139
209901.000			17.108			-2.138
210002.000			17.108			-2.139
210100.000			17.109			-2.139
210200.000			17.109			-2.139
210301.000			17.108			-2.139
210400.000			17.108			-2.138
210500.000			17.107			-2.138
210600.000			17.107			-2.138
210700.000			17.108			-2.139
210802.000			17.108			-2.138
210901.000			17.108			-2.138
211000.000			17.106			-2.138
211101.000			17.106			-2.138
211200.000			17.106			-2.138
211300.000			17.106			-2.138
211401.000			17.106			-2.138
211500.000			17.105			-2.138
211601.000			17.105			-2.138
211702.000			17.105			-2.138
211801.000			17.105			-2.138
211900.000			17.105			-2.138
212001.000			17.106			-2.138
212100.000			17.105			-2.138
212200.000			17.104			-2.138
212301.000			17.105			-2.138
212400.000			17.105			-2.138
212501.000			17.104			-2.138
212602.000			17.103			-2.138
212700.000			17.102			-2.138
212800.000			17.103			-2.138
212901.000			17.102			-2.138
213000.000			17.101			-2.138
213100.000			17.102			-2.138
213201.000			17.102			-2.138
213300.000			17.103			-2.138
213401.000			17.102			-2.138
213502.000			17.102			-2.138
213600.000			17.101			-2.138
213700.000			17.102			-2.138
213800.000			17.102			-2.138
213900.000			17.101			-2.138
214001.000			17.101			-2.138
214100.000			17.100			-2.138
214200.000			17.101			-2.138
214302.000			17.101			-2.138
214401.000			17.100			-2.137
214500.000			17.100			-2.137
214601.000			17.099			-2.137
214700.000			17.100			-2.137
214800.000			17.099			-2.137
214901.000			17.099			-2.137
215000.000			17.099			-2.137
215100.000			17.099			-2.137
215202.000			17.099			-2.137
215301.000			17.099			-2.137
215400.000			17.097			-2.137
215501.000			17.097			-2.137
215600.000			17.097			-2.137
215700.000			17.097			-2.137
215801.000			17.098			-2.137
215900.000			17.098			-2.137
216000.000			17.098			-2.137
216102.000			17.097			-2.137
216201.000			17.097			-2.137
216301.000			17.096			-2.137
216401.000			17.097			-2.137
216500.000			17.097			-2.137
216600.000			17.097			-2.137
216701.000			17.096			-2.137
216800.000			17.096			-2.137
216900.000			17.096			-2.137
217000.000			17.095			-2.137
217101.000			17.095			-2.137
217202.000			17.095			-2.137
217300.000			17.095			-2.137
217400.000			17.094			-2.137
217501.000			17.094			-2.137
217600.000			17.094			-2.137
217700.000			17.094			-2.137
217801.000			17.094			-2.137
217900.000			17.095			-2.137
218001.000			17.094			-2.137
218102.000			17.093			-2.137
218201.000			17.093			-2.137
218300.000			17.093			-2.137
218401.000			17.093			-2.137
218500.000			17.093			-2.137
218600.000			17.094			-2.137
218701.000			17.093			-2.137
218800.000			17.093			-2.137
218900.000			17.092			-2.137
219002.000			17.092			-2.137
219101.000			17.091			-2.136
219200.000			17.092			-2.136
219301.000			17.092			-2.137
219400.000			17.092			-2.136
219500.000			17.092			-2.137
219601.000			17.092			-2.136
219700.000			17.090			-2.136
219800.000			17.091			-2.136
219902.000			17.091			-2.136
220001.000			17.091			-2.136
220102.000			17.090			-2.136
220200.000			17.089			-2.136
220300.000			17.090			-2.136
220401.000			17.090			-2.136
220500.000			17.090			-2.136
220600.000			17.089			-2.136
220701.000			17.089			-2.136
220801.000			17.089			-2.136
220901.000			17.088			-2.136
221002.000			17.088			-2.136
221100.000			17.088			-2.136
221200.000			17.089			-2.136
221301.000			17.087			-2.136
221400.000			17.087			-2.136
221500.000			17.087			-2.136
221601.000			17.088			-2.136
221700.000			17.087			-2.136
221801.000			17.087			-2.136
221902.000			17.087			-2.136
222000.000			17.087			-2.136
222100.000			17.087			-2.136
222201.000			17.086			-2.136
222300.000			17.087			-2.136
222400.000			17.087			-2.136
222501.000			17.086			-2.136
222600.000			17.086			-2.136
222701.000			17.086			-2.136
222802.000			17.085			-2.136
222900.000			17.085			-2.136
223000.000			17.084			-2.136
223101.000			17.084			-2.135
223200.000			17.084			-2.136
223300.000			17.084			-2.136
223400.000			17.085			-2.136
223500.000			17.084			-2.136
223602.000			17.084			-2.136
223701.000			17.084			-2.135
223801.000			17.084			-2.135
223901.000			17.084			-2.135
224000.000			17.084			-2.136
224100.000			17.082			-2.135
224201.000			17.083			-2.135
224300.000			17.083			-2.135
224400.000			17.083			-2.135
224502.000			17.084			-2.135
224601.000			17.083			-2.135
224701.000			17.082			-2.135
224801.000			17.082			-2.135
224900.000			17.082			-2.135
225000.000			17.082			-2.135
225101.000			17.082			-2.135
225200.000			17.082			-2.135
225300.000			17.082			-2.135
225401.000			17.081			-2.135
225501.000			17.080			-2.135
225601.000			17.081			-2.135
225701.000			17.081			-2.135
225800.000			17.082			-2.135
225900.000			17.081			-2.135
226001.000			17.081			-2.135
226100.000			17.081			-2.135
226200.000			17.080			-2.135
226301.000			17.080			-2.135
226401.000			17.079			-2.135
226502.000			17.079			-2.135
226601.000			17.079			-2.135
226700.000			17.079			-2.135
226801.000			17.078			-2.135
226900.000			17.079			-2.135
227000.000			17.079			-2.135
227101.000			17.079			-2.135
227200.000			17.078			-2.135
227300.000			17.078			-2.135
227402.000			17.078			-2.135
227501.000			17.077			-2.135
227600.000			17.077			-2.135
227701.000			17.078			-2.135
227800.000			17.077			-2.135
227900.000			17.076			-2.135
228001.000			17.076			-2.135
228100.000			17.076			-2.135
228200.000			17.077			-2.135
228302.000			17.076			-2.134
228401.000			17.076			-2.135
228500.000			17.076			-2.134
228601.000			17.075			-2.134
228700.000			17.075			-2.134
228800.000			17.076			-2.134
228901.000			17.076			-2.134
229000.000			17.076			-2.134
229100.000			17.076			-2.134
229202.000			17.075			-2.134
229301.000			17.075			-2.134
229401.000			17.075			-2.134
229501.000			17.075			-2.134
229600.000			17.074			-2.134
229700.000			17.074			-2.134
229800.000			17.074			-2.134
229900.000			17.074			-2.134
230001.000			17.073			-2.134
230100.000			17.073			-2.134
230201.000			17.072			-2.134
230302.000			17.072			-2.134
230400.000			17.072			-2.134
230500.000			17.071			-2.134
230601.000			17.072			-2.134
230700.000			17.072			-2.134
230800.000			17.072			-2.134
230901.000			17.072			-2.134
231000.000			17.071			-2.134
231101.000			17.071			-2.134
231202.000			17.071			-2.134
231300.000			17.071			-2.134
231400.000			17.071			-2.134
231501.000			17.071			-2.134
231600.000			17.070			-2.134
231700.000			17.070			-2.134
231801.000			17.071			-2.134
231901.000			17.070			-2.134
232001.000			17.070			-2.134
232102.000			17.070			-2.134
232200.000			17.069			-2.134
232300.000			17.069			-2.134
232401.000			17.069			-2.134
232500.000			17.069			-2.134
232600.000			17.070			-2.134
232701.000			17.071			-2.134
232800.000			17.069			-2.134
232902.000			17.068			-2.134
233001.000			17.068			-2.134
233100.000			17.068			-2.133
233201.000			17.068			-2.134
233300.000			17.069			-2.134
233400.000			17.068			-2.134
233501.000			17.067			-2.133
233600.000			17.068			-2.133
233700.000			17.068			-2.133
233802.000			17.067			-2.133
233901.000			17.066			-2.133
234001.000			17.067			-2.133
234101.000			17.067			-2.133
234200.000			17.067			-2.133
234300.000			17.066			-2.133
234401.000			17.066			-2.133
234500.000			17.067			-2.133
234600.000			17.066			-2.133
234701.000			17.066			-2.133
234801.000			17.065			-2.133
234901.000			17.065			-2.133
235001.000			17.064			-2.133
235100.000			17.065			-2.133
235200.000			17.064			-2.133
235301.000			17.065			-2.133
235400.000			17.065			-2.133
235500.000			17.065			-2.133
235601.000			17.065			-2.133
235701.000			17.064			-2.133
235801.000			17.064			-2.133
235901.000			17.064			-2.133
236000.000			17.064			-2.133
236100.000			17.063			-2.133
236200.000			17.063			-2.133
236300.000			17.063			-2.133
236401.000			17.063			-2.133
236500.000			17.062			-2.133
236601.000			17.062			-2.133
236702.000			17.063			-2.133
236801.000			17.063			-2.133
236900.000			17.062			-2.133
237001.000			17.061			-2.133
237100.000			17.061			-2.133
237200.000			17.062			-2.133
237301.000			17.062			-2.133
237400.000			17.061			-2.133
237501.000			17.061			-2.133
237602.000			17.061			-2.133
237701.000			17.060			-2.133
237800.000			17.061			-2.133
237901.000			17.061			-2.133
238000.000			17.060			-2.132
238100.000			17.060			-2.133
238201.000			17.061			-2.133
238300.000			17.060			-2.133
238400.000			17.060			-2.132
238502.000			17.059			-2.132
238601.000			17.059			-2.132
238700.000			17.059			-2.132
238801.000			17.059			-2.132
238900.000			17.060			-2.133
239000.000			17.061			-2.133
239101.000			17.060			-2.133
239200.000			17.060			-2.132
239300.000			17.060			-2.132
239402.000			17.059			-2.132
239501.000			17.058			-2.132
239602.000			17.058			-2.132
239700.000			17.059			-2.132
239800.000			17.058			-2.132
239901.000			17.058			-2.132
240000.000			17.059			-2.132
240100.000			17.058			-2.132
240201.000			17.058			-2.132
240301.000			17.057			-2.132
240401.000			17.057			-2.132
240502.000			17.058			-2.132
240600.000			17.058			-2.132
240700.000			17.057			-2.132
240801.000			17.057			-2.132
240900.000			17.057			-2.132
241000.000			17.056			-2.132
241101.000			17.056			-2.132
241200.000			17.056			-2.132
241301.000			17.055			-2.132
241402.000			17.056			-2.132
241500.000			17.056			-2.132
241600.000			17.056			-2.132
241701.000			17.055			-2.132
241800.000			17.055			-2.132
241900.000			17.055			-2.132
242001.000			17.054			-2.132
242100.000			17.054			-2.132
242201.000			17.055			-2.132
242302.000			17.053			-2.132
242401.000			17.054			-2.132
242500.000			17.054			-2.132
242600.000			17.053			-2.132
242700.000			17.053			-2.132
242801.000			17.053			-2.132
242900.000			17.053			-2.132
243000.000			17.052			-2.132
243102.000			17.051			-2.131
243201.000			17.052			-2.131
243301.000			17.052			-2.131
243401.000			17.052			-2.131
243500.000			17.052			-2.131
243600.000			17.051			-2.131
243701.000			17.052			-2.131
243800.000			17.052			-2.131
243900.000			17.051			-2.131
244001.000			17.051			-2.131
244101.000			17.052			-2.131
244201.000			17.051			-2.131
244301.000			17.051			-2.131
244400.000			17.051			-2.131
244500.000			17.050			-2.131
244601.000			17.050			-2.131
244700.000			17.050			-2.131
244800.000			17.050			-2.131
244901.000			17.049			-2.131
245001.000			17.049			-2.131
245101.000			17.049			-2.131
245201.000			17.048			-2.131
245300.000			17.049			-2.131
245400.000			17.049			-2.131
245501.000			17.049			-2.131
245600.000			17.048			-2.131
245700.000			17.048			-2.131
245800.000			17.049			-2.131
245901.000			17.047			-2.131
246002.000			17.047			-2.131
246101.000			17.049			-2.131
246200.000			17.048			-2.131
246301.000			17.048			-2.131
246400.000			17.046			-2.131
246500.000			17.047			-2.131
246601.000			17.046			-2.131
246700.000			17.045			-2.131
246800.000			17.044			-2.131
246902.000			17.045			-2.131
247001.000			17.045			-2.131
247100.000			17.045			-2.131
247201.000			17.045			-2.131
247300.000			17.046			-2.131
247400.000			17.046			-2.131
247501.000			17.045			-2.131
247600.000			17.045			-2.131
247700.000			17.044			-2.131
247802.000			17.044			-2.131
247901.000			17.044			-2.130
248001.000			17.044			-2.130
248101.000			17.044			-2.130
248200.000			17.044			-2.130
248300.000			17.043			-2.130
248401.000			17.044			-2.130
248500.000			17.043			-2.130
248600.000			17.043			-2.130
248702.000			17.043			-2.130
248801.000			17.044			-2.130
248902.000			17.043			-2.130
249000.000			17.042			-2.130
249100.000			17.042			-2.130
249201.000			17.042			-2.130
249300.000			17.042			-2.130
249400.000			17.042			-2.130
249501.000			17.042			-2.130
249600.000			17.042			-2.130
249701.000			17.041			-2.130
249802.000			17.041			-2.130
249900.000			17.041			-2.130
250000.000			17.041			-2.130
250101.000			17.041			-2.130
250200.000			17.041			-2.130
250300.000			17.041			-2.130
250401.000			17.041			-2.130
250500.000			17.041			-2.130
250601.000			17.041			-2.130
250702.000			17.040			-2.130
250800.000			17.040			-2.130
250900.000			17.041			-2.130
251001.000			17.041			-2.130
251100.000			17.039			-2.130
251200.000			17.039			-2.130
251301.000			17.039			-2.130
251400.000			17.041			-2.130
251501.000			17.041			-2.130
251602.000			17.039			-2.130
251700.000			17.037			-2.130
251800.000			17.038			-2.130
251901.000			17.038			-2.130
252000.000			17.037			-2.130
252100.000			17.036			-2.130
252200.000			17.037			-2.130
252300.000			17.037			-2.130
252402.000			17.038			-2.130
252501.000			17.038			-2.130
252601.000			17.037			-2.130
252701.000			17.037			-2.130
252800.000			17.036			-2.129
252900.000			17.036			-2.130
253001.000			17.036			-2.130
253100.000			17.037			-2.130
253200.000			17.036			-2.129
253302.000			17.035			-2.129
253401.000			17.035			-2.129
253500.000			17.035			-2.129
253601.000			17.035			-2.129
253700.000			17.036			-2.129
253800.000			17.036			-2.130
253901.000			17.035			-2.129
254000.000			17.034			-2.129
254100.000			17.034			-2.129
254202.000			17.035			-2.129
254301.000			17.035			-2.129
254401.000			17.034			-2.129
254501.000			17.033			-2.129
254600.000			17.033			-2.129
254700.000			17.033			-2.129
254801.000			17.033			-2.129
254900.000			17.033			-2.129
255000.000			17.034			-2.129
255102.000			17.034			-2.129
255201.000			17.033			-2.129
255302.000			17.033			-2.129
255400.000			17.033			-2.129
255500.000			17.032			-2.129
255601.000			17.033			-2.129
255700.000			17.033			-2.129
255800.000			17.032			-2.129
255901.000			17.032			-2.129
256000.000			17.031			-2.129
256101.000			17.031			-2.129
256202.000			17.031			-2.129
256300.000			17.031			-2.129
256400.000			17.031			-2.129
256501.000			17.030			-2.129
256600.000			17.031			-2.129
256700.000			17.031			-2.129
256801.000			17.031			-2.129
256900.000			17.032			-2.129
257001.000			17.031			-2.129
257102.000			17.030			-2.129
257200.000			17.030			-2.129
257300.000			17.030			-2.129
257401.000			17.029			-2.129
257500.000			17.029			-2.129
257600.000			17.029			-2.129
257701.000			17.029			-2.129
257800.000			17.029			-2.129
257901.000			17.029			-2.129
258002.000			17.028			-2.129
258101.000			17.028			-2.128
258200.000			17.028			-2.128
258301.000			17.028			-2.128
258400.000			17.027			-2.128
258500.000			17.028			-2.128
258600.000			17.028			-2.129
258700.000			17.028			-2.128
258801.000			17.027			-2.128
258901.000			17.027			-2.128
259001.000			17.027			-2.128
259101.000			17.027			-2.128
259200.000			17.026			-2.128
259300.000			17.025			-2.128
259401.000			17.026			-2.128
259500.000			17.026			-2.128
259600.000			17.027			-2.128
259701.000			17.026			-2.128
259801.000			17.027			-2.128
259901.000			17.027			-2.128
260002.000			17.025			-2.128
260100.000			17.024			-2.128
260200.000			17.025			-2.128
260301.000			17.025			-2.128
260400.000			17.024			-2.128
260500.000			17.024			-2.128
260601.000			17.024			-2.128
260701.000			17.025			-2.128
260801.000			17.024			-2.128
260902.000			17.024			-2.128
261000.000			17.025			-2.128
261100.000			17.024			-2.128
261201.000			17.024			-2.128
261300.000			17.024			-2.128
261400.000			17.023			-2.128
261501.000			17.023			-2.128
261601.000			17.023			-2.128
261702.000			17.023			-2.128
261801.000			17.023			-2.128
261900.000			17.022			-2.128
262001.000			17.023			-2.128
262100.000			17.023			-2.128
262200.000			17.022			-2.128
262301.000			17.021			-2.128
262400.000			17.022			-2.128
262500.000			17.022			-2.128
262602.000			17.021			-2.128
262701.000			17.020			-2.128
262800.000			17.020			-2.127
262901.000			17.021			-2.128
263000.000			17.022			-2.128
263100.000			17.021			-2.128
263201.000			17.020			-2.128
263300.000			17.021			-2.128
263401.000			17.021			-2.128
263502.000			17.020			-2.128
263601.000			17.019			-2.127
263700.000			17.019			-2.127
263801.000			17.020			-2.127
263900.000			17.021			-2.128
264000.000			17.020			-2.127
264101.000			17.019			-2.127
264200.000			17.019			-2.127
264301.000			17.019			-2.127
264402.000			17.019			-2.127
264501.000			17.019			-2.127
264600.000			17.019			-2.127
264701.000			17.019			-2.127
264800.000			17.018			-2.127
264900.000			17.019			-2.127
265000.000			17.018			-2.127
265100.000			17.018			-2.127
265201.000			17.019			-2.127
265301.000			17.018			-2.127
265401.000			17.018			-2.127
265501.000			17.018			-2.127
265600.000			17.017			-2.127
265700.000			17.017			-2.127
265801.000			17.017			-2.127
265900.000			17.016			-2.127
266000.000			17.016			-2.127
266101.000			17.016			-2.127
266201.000			17.017			-2.127
266301.000			17.017			-2.127
266401.000			17.017			-2.127
266500.000			17.017			-2.127
266600.000			17.016			-2.127
266701.000			17.016			-2.127
266800.000			17.016			-2.127
266900.000			17.015			-2.127
267001.000			17.015			-2.127
267101.000			17.015			-2.127
267201.000			17.015			-2.127
267301.000			17.015			-2.127
267400.000			17.016			-2.127
267500.000			17.014			-2.127
267601.000			17.014			-2.127
267700.000			17.014			-2.127
267800.000			17.013			-2.127
267901.000			17.014			-2.127
268001.000			17.014			-2.127
268102.000			17.013			-2.127
268201.000			17.014			-2.127
268300.000			17.013			-2.127
268401.000			17.014			-2.127
268500.000			17.013			-2.127
268600.000			17.013			-2.127
268701.000			17.012			-2.126
268800.000			17.012			-2.126
268900.000			17.012			-2.127
269002.000			17.011			-2.126
269101.000			17.013			-2.127
269200.000			17.013			-2.127
269301.000			17.013			-2.127
269400.000			17.012			-2.126
269500.000			17.011			-2.126
269601.000			17.011			-2.126
269700.000			17.012			-2.126
269800.000			17.012			-2.126
269902.000			17.012			-2.126
270001.000			17.011			-2.126
270100.000			17.011			-2.126
270201.000			17.011			-2.126
270300.000			17.011			-2.126
270400.000			17.010			-2.126
270501.000			17.010			-2.126
270600.000			17.011			-2.126
270700.000			17.010			-2.126
270802.000			17.009			-2.126
270901.000			17.010			-2.126
271000.000			17.011			-2.126
271101.000			17.010			-2.126
271200.000			17.009			-2.126
271300.000			17.009			-2.126
271400.000			17.009			-2.126
271500.000			17.008			-2.126
271601.000			17.008			-2.126
271701.000			17.009			-2.126
271801.000			17.010			-2.126
271901.000			17.010			-2.126
272000.000			17.008			-2.126
272100.000			17.008			-2.126
272201.000			17.009			-2.126
272300.000			17.009			-2.126
272400.000			17.007			-2.126
272501.000			17.008			-2.126
272601.000			17.007			-2.126
272701.000			17.008			-2.126
272801.000			17.006			-2.126
272900.000			17.006			-2.126
273000.000			17.006			-2.126
273101.000			17.006			-2.126
273200.000			17.006			-2.126
273300.000			17.007			-2.126
273401.000			17.006			-2.126
273501.000			17.006			-2.126
273601.000			17.006			-2.126
273701.000			17.005			-2.126
273800.000			17.005			-2.126
273900.000			17.004			-2.126
274001.000			17.005			-2.126
274100.000			17.005			-2.126
274200.000			17.006			-2.126
274301.000			17.004			-2.126
274401.000			17.005			-2.126
274502.000			17.005			-2.126
274601.000			17.005			-2.126
274700.000			17.004			-2.126
274801.000			17.005			-2.126
274900.000			17.004			-2.126
275000.000			17.004			-2.125
275101.000			17.003			-2.125
275200.000			17.003			-2.125
275301.000			17.002			-2.125
275402.000			17.003			-2.125
275501.000			17.004			-2.125
275600.000			17.003			-2.125
275701.000			17.001			-2.125
275800.000			17.002			-2.125
275900.000			17.002			-2.125
276001.000			17.003			-2.125
276100.000			17.002			-2.125
276201.000			17.002			-2.125
276302.000			17.002			-2.125
276401.000			17.001			-2.125
276500.000			17.001			-2.125
276601.000			17.002			-2.125
276700.000			17.002			-2.125
276800.000			17.001			-2.125
276901.000			17.002			-2.125
277000.000			17.001			-2.125
277101.000			17.001			-2.125
277202.000			17.000			-2.125
277301.000			17.000			-2.125
277400.000			17.001			-2.125
277501.000			17.000			-2.125
277600.000			17.000			-2.125
277700.000			17.000			-2.125
277800.000			17.000			-2.125
277900.000			17.000			-2.125
278001.000			17.000			-2.125
278101.000			16.999			-2.125
278201.000			16.999			-2.125
278302.000			16.999			-2.125
278400.000			16.998			-2.125
278500.000			16.998			-2.125
278601.000			16.998			-2.125
278700.000			16.998			-2.125
278800.000			16.998			-2.125
278901.000			16.998			-2.125
279000.000			16.998			-2.125
279100.000			16.998			-2.125
279202.000			16.997			-2.125
279301.000			16.997			-2.125
279400.000			16.997			-2.125
279501.000			16.998			-2.125
279600.000			16.998			-2.125
279700.000			16.996			-2.124
279801.000			16.996			-2.124
279900.000			16.997			-2.125
280000.000			16.997			-2.125
280101.000			16.997			-2.125
280201.000			16.996			-2.125
280301.000			16.995			-2.124
280401.000			16.995			-2.124
280500.000			16.995			-2.124
280600.000			16.995			-2.124
280701.000			16.995			-2.124
280800.000			16.995			-2.124
280900.000			16.996			-2.124
281000.000			16.995			-2.124
281100.000			16.994			-2.124
281202.000			16.994			-2.124
281301.000			16.993			-2.124
281400.000			16.993			-2.124
281501.000			16.992			-2.124
281600.000			16.993			-2.124
281700.000			16.994			-2.124
281801.000			16.993			-2.124
281900.000			16.993			-2.124
282000.000			16.993			-2.124
282102.000			16.993			-2.124
282201.000			16.993			-2.124
282301.000			16.992			-2.124
282401.000			16.992			-2.124
282500.000			16.992			-2.124
282600.000			16.993			-2.124
282701.000			16.993			-2.124
282800.000			16.992			-2.124
282900.000			16.992			-2.124
283001.000			16.991			-2.124
283101.000			16.991			-2.124
283201.000			16.991			-2.124
283302.000			16.991			-2.124
283400.000			16.991			-2.124
283500.000			16.991			-2.124
283601.000			16.991			-2.124
283700.000			16.991			-2.124
283800.000			16.990			-2.124
283901.000			16.991			-2.124
284000.000			16.990			-2.124
284102.000			16.990			-2.124
284201.000			16.991			-2.124
284300.000			16.991			-2.124
284401.000			16.989			-2.124
284500.000			16.990			-2.124
284600.000			16.990			-2.124
284701.000			16.990			-2.124
284800.000			16.990			-2.124
284900.000			16.990			-2.124
285001.000			16.989			-2.124
285101.000			16.990			-2.124
285201.000			16.990			-2.124
285302.000			16.989			-2.124
285400.000			16.989			-2.124
285500.000			16.988			-2.124
285601.000			16.988			-2.123
285700.000			16.987			-2.123
285800.000			16.988			-2.124
285901.000			16.987			-2.123
286000.000			16.988			-2.123
286100.000			16.988			-2.123
286202.000			16.987			-2.123
286301.000			16.987			-2.123
286400.000			16.987			-2.123
286501.000			16.987			-2.123
286600.000			16.987			-2.123
286700.000			16.986			-2.123
286801.000			16.986			-2.123
286900.000			16.986			-2.123
287000.000			16.986			-2.123
287101.000			16.985			-2.123
287201.000			16.986			-2.123
287302.000			16.986			-2.123
287401.000			16.986			-2.123
287500.000			16.986			-2.123
287601.000			16.986			-2.123
287700.000			16.985			-2.123
287800.000			16.985			-2.123
287901.000			16.984			-2.123
288000.000			16.983			-2.123
288100.000			16.983			-2.123
288202.000			16.984			-2.123
288301.000			16.985			-2.123
288401.000			16.984			-2.123
288501.000			16.984			-2.123
288600.000			16.984			-2.123
288700.000			16.984			-2.123
288801.000			16.983			-2.123
288900.000			16.983			-2.123
289000.000			16.984			-2.123
289101.000			16.984			-2.123
289201.000			16.984			-2.123
289301.000			16.983			-2.123
289402.000			16.983			-2.123
289500.000			16.982			-2.123
289600.000			16.982			-2.123
289701.000			16.983			-2.123
289800.000			16.983			-2.123
289900.000			16.983			-2.123
290001.000			16.982			-2.123
290100.000			16.982			-2.123
290201.000			16.981			-2.123
290302.000			16.982			-2.123
290401.000			16.981			-2.123
290500.000			16.982			-2.123
290600.000			16.983			-2.123
290700.000			16.982			-2.123
290801.000			16.981			-2.123
290900.000			16.982			-2.123
291000.000			16.981			-2.123
291101.000			16.980			-2.123
291201.000			16.980			-2.123
291301.000			16.982			-2.123
291402.000			16.980			-2.123
291500.000			16.979			-2.122
291600.000			16.981			-2.123
291701.000			16.979			-2.122
291800.000			16.979			-2.122
291900.000			16.979			-2.122
292001.000			16.979			-2.122
292100.000			16.979			-2.122
292201.000			16.980			-2.123
292302.000			16.979			-2.122
292401.000			16.979			-2.122
292500.000			16.979			-2.122
292601.000			16.980			-2.123
292700.000			16.980			-2.122
292800.000			16.978			-2.122
292901.000			16.978			-2.122
293000.000			16.979			-2.122
293100.000			16.979			-2.122
293202.000			16.979			-2.122
293301.000			16.979			-2.122
293401.000			16.979			-2.122
293501.000			16.978			-2.122
293600.000			16.978			-2.122
293700.000			16.977			-2.122
293800.000			16.977			-2.122
293900.000			16.977			-2.122
294001.000			16.977			-2.122
294100.000			16.977			-2.122
294201.000			16.978			-2.122
294302.000			16.977			-2.122
294401.000			16.976			-2.122
294500.000			16.977			-2.122
294601.000			16.977			-2.122
294700.000			16.976			-2.122
294800.000			16.975			-2.122
294901.000			16.976			-2.122
295000.000			16.976			-2.122
295100.000			16.976			-2.122
295202.000			16.975			-2.122
295301.000			16.976			-2.122
295401.000			16.976			-2.122
295501.000			16.976			-2.122
295600.000			16.975			-2.122
295700.000			16.975			-2.122
295801.000			16.975			-2.122
295900.000			16.975			-2.122
296000.000			16.975			-2.122
296101.000			16.975			-2.122
296200.000			16.975			-2.122
296301.000			16.974			-2.122
296402.000			16.974			-2.122
296500.000			16.974			-2.122
296600.000			16.975			-2.122
296701.000			16.973			-2.122
296800.000			16.974			-2.122
296900.000			16.974			-2.122
297000.000			16.974			-2.122
297100.000			16.973			-2.122
297201.000			16.972			-2.122
297301.000			16.972			-2.122
297401.000			16.973			-2.122
297501.000			16.974			-2.122
297600.000			16.972			-2.122
297700.000			16.972			-2.121
297801.000			16.972			-2.122
297900.000			16.972			-2.122
298000.000			16.971			-2.121
298101.000			16.971			-2.121
298200.000			16.971			-2.121
298301.000			16.972			-2.121
298402.000			16.972			-2.122
298500.000			16.972			-2.122
298600.000			16.971			-2.121
298701.000			16.970			-2.121
298800.000			16.971			-2.121
298900.000			16.970			-2.121
299001.000			16.970			-2.121
299100.000			16.970			-2.121
299200.000			16.970			-2.121
299302.000			16.970			-2.121
299401.000			16.970			-2.121
299500.000			16.970			-2.121
299601.000			16.969			-2.121
299700.000			16.969			-2.121
299800.000			16.969			-2.121
299901.000			16.970			-2.121
