# Acquired on 19/12/2023 18:23:54 
# SPIDER: Creep_-1mm_0771453C
# CREEP MEASUREMENT

# time [ms]		force [N]		stiffness [N/mm]
1.000			1.041			-1.041
101.000			3.407			-3.407
201.000			3.712			-3.712
300.000			3.733			-3.733
400.000			3.722			-3.722
501.000			3.715			-3.715
600.000			3.708			-3.708
701.000			3.704			-3.704
802.000			3.695			-3.695
900.000			3.691			-3.691
1000.000			3.686			-3.686
1101.000			3.683			-3.683
1200.000			3.680			-3.680
1300.000			3.677			-3.677
1401.000			3.675			-3.675
1501.000			3.673			-3.673
1601.000			3.670			-3.670
1701.000			3.668			-3.668
1800.000			3.665			-3.665
1900.000			3.664			-3.664
2001.000			3.664			-3.664
2100.000			3.662			-3.662
2201.000			3.660			-3.660
2302.000			3.657			-3.657
2400.000			3.656			-3.656
2500.000			3.655			-3.655
2601.000			3.655			-3.655
2700.000			3.653			-3.653
2800.000			3.651			-3.651
2900.000			3.649			-3.649
3001.000			3.647			-3.647
3102.000			3.647			-3.647
3200.000			3.646			-3.646
3300.000			3.646			-3.646
3401.000			3.644			-3.644
3500.000			3.644			-3.644
3600.000			3.642			-3.642
3701.000			3.642			-3.642
3801.000			3.641			-3.641
3901.000			3.640			-3.640
4001.000			3.638			-3.638
4100.000			3.637			-3.637
4200.000			3.637			-3.637
4301.000			3.636			-3.636
4400.000			3.637			-3.637
4501.000			3.635			-3.635
4602.000			3.634			-3.634
4700.000			3.634			-3.634
4800.000			3.634			-3.634
4901.000			3.633			-3.633
5000.000			3.632			-3.632
5100.000			3.632			-3.632
5201.000			3.631			-3.631
5301.000			3.631			-3.631
5401.000			3.631			-3.631
5501.000			3.630			-3.630
5600.000			3.630			-3.630
5700.000			3.630			-3.630
5801.000			3.628			-3.628
5900.000			3.627			-3.627
6000.000			3.628			-3.628
6102.000			3.628			-3.628
6201.000			3.627			-3.627
6301.000			3.626			-3.626
6400.000			3.626			-3.626
6500.000			3.625			-3.625
6601.000			3.625			-3.625
6700.000			3.624			-3.624
6801.000			3.625			-3.625
6902.000			3.624			-3.624
7000.000			3.622			-3.622
7100.000			3.622			-3.622
7201.000			3.622			-3.622
7300.000			3.621			-3.621
7400.000			3.621			-3.621
7501.000			3.620			-3.620
7601.000			3.621			-3.621
7701.000			3.620			-3.620
7801.000			3.619			-3.619
7900.000			3.618			-3.618
8000.000			3.618			-3.618
8101.000			3.618			-3.618
8200.000			3.617			-3.617
8301.000			3.616			-3.616
8402.000			3.617			-3.617
8500.000			3.617			-3.617
8600.000			3.617			-3.617
8701.000			3.617			-3.617
8800.000			3.615			-3.615
8900.000			3.615			-3.615
9001.000			3.615			-3.615
9101.000			3.614			-3.614
9202.000			3.615			-3.615
9300.000			3.615			-3.615
9400.000			3.615			-3.615
9501.000			3.615			-3.615
9600.000			3.614			-3.614
9700.000			3.612			-3.612
9802.000			3.612			-3.612
9901.000			3.612			-3.612
10001.000			3.612			-3.612
10101.000			3.612			-3.612
10200.000			3.612			-3.612
10300.000			3.612			-3.612
10401.000			3.611			-3.611
10500.000			3.611			-3.611
10601.000			3.610			-3.610
10702.000			3.610			-3.610
10800.000			3.610			-3.610
10900.000			3.609			-3.609
11001.000			3.609			-3.609
11100.000			3.609			-3.609
11200.000			3.609			-3.609
11301.000			3.609			-3.609
11401.000			3.608			-3.608
11501.000			3.608			-3.608
11601.000			3.608			-3.608
11700.000			3.607			-3.607
11800.000			3.606			-3.606
11901.000			3.607			-3.607
12000.000			3.607			-3.607
12101.000			3.607			-3.607
12202.000			3.607			-3.607
12300.000			3.607			-3.607
12400.000			3.608			-3.608
12500.000			3.607			-3.607
12600.000			3.605			-3.605
12701.000			3.605			-3.605
12800.000			3.605			-3.605
12901.000			3.605			-3.605
13002.000			3.605			-3.605
13100.000			3.605			-3.605
13200.000			3.605			-3.605
13301.000			3.603			-3.603
13400.000			3.603			-3.603
13500.000			3.603			-3.603
13601.000			3.604			-3.604
13701.000			3.604			-3.604
13801.000			3.603			-3.603
13901.000			3.603			-3.603
14000.000			3.603			-3.603
14100.000			3.603			-3.603
14201.000			3.603			-3.603
14300.000			3.603			-3.603
14400.000			3.603			-3.603
14502.000			3.601			-3.601
14601.000			3.602			-3.602
14700.000			3.602			-3.602
14801.000			3.601			-3.601
14900.000			3.601			-3.601
15000.000			3.600			-3.600
15101.000			3.600			-3.600
15201.000			3.600			-3.600
15301.000			3.601			-3.601
15401.000			3.600			-3.600
15500.000			3.601			-3.601
15600.000			3.600			-3.600
15700.000			3.600			-3.600
15800.000			3.600			-3.600
15901.000			3.600			-3.600
16001.000			3.599			-3.599
16101.000			3.598			-3.598
16201.000			3.599			-3.599
16300.000			3.599			-3.599
16400.000			3.599			-3.599
16501.000			3.598			-3.598
16600.000			3.597			-3.597
16700.000			3.598			-3.598
16802.000			3.598			-3.598
16901.000			3.597			-3.597
17001.000			3.598			-3.598
17101.000			3.597			-3.597
17200.000			3.598			-3.598
17300.000			3.597			-3.597
17401.000			3.597			-3.597
17500.000			3.597			-3.597
17600.000			3.596			-3.596
17702.000			3.597			-3.597
17801.000			3.597			-3.597
17900.000			3.597			-3.597
18001.000			3.596			-3.596
18100.000			3.596			-3.596
18200.000			3.596			-3.596
18301.000			3.596			-3.596
18400.000			3.595			-3.595
18501.000			3.594			-3.594
18602.000			3.596			-3.596
18700.000			3.596			-3.596
18800.000			3.596			-3.596
18900.000			3.595			-3.595
19000.000			3.595			-3.595
19101.000			3.595			-3.595
19200.000			3.593			-3.593
19301.000			3.594			-3.594
19402.000			3.594			-3.594
19500.000			3.594			-3.594
19600.000			3.594			-3.594
19701.000			3.593			-3.593
19800.000			3.593			-3.593
19900.000			3.593			-3.593
20001.000			3.593			-3.593
20101.000			3.592			-3.592
20201.000			3.591			-3.591
20301.000			3.593			-3.593
20400.000			3.592			-3.592
20500.000			3.591			-3.591
20601.000			3.592			-3.592
20700.000			3.591			-3.591
20800.000			3.590			-3.590
20902.000			3.591			-3.591
21001.000			3.591			-3.591
21100.000			3.590			-3.590
21201.000			3.590			-3.590
21300.000			3.589			-3.589
21400.000			3.590			-3.590
21501.000			3.589			-3.589
21600.000			3.589			-3.589
21701.000			3.589			-3.589
21802.000			3.589			-3.589
21901.000			3.589			-3.589
22000.000			3.589			-3.589
22100.000			3.589			-3.589
22200.000			3.588			-3.588
22301.000			3.589			-3.589
22400.000			3.589			-3.589
22500.000			3.588			-3.588
22602.000			3.588			-3.588
22701.000			3.588			-3.588
22800.000			3.588			-3.588
22901.000			3.588			-3.588
23000.000			3.588			-3.588
23100.000			3.588			-3.588
23201.000			3.587			-3.587
23300.000			3.587			-3.587
23401.000			3.587			-3.587
23502.000			3.587			-3.587
23600.000			3.587			-3.587
23700.000			3.586			-3.586
23801.000			3.586			-3.586
23900.000			3.587			-3.587
24000.000			3.587			-3.587
24101.000			3.587			-3.587
24201.000			3.586			-3.586
24301.000			3.586			-3.586
24401.000			3.586			-3.586
24500.000			3.587			-3.587
24600.000			3.587			-3.587
24701.000			3.587			-3.587
24800.000			3.587			-3.587
24900.000			3.587			-3.587
25002.000			3.587			-3.587
25101.000			3.587			-3.587
25200.000			3.587			-3.587
25300.000			3.586			-3.586
25400.000			3.586			-3.586
25501.000			3.586			-3.586
25600.000			3.585			-3.585
25700.000			3.585			-3.585
25802.000			3.585			-3.585
25901.000			3.584			-3.584
26000.000			3.583			-3.583
26101.000			3.584			-3.584
26200.000			3.586			-3.586
26300.000			3.587			-3.587
26401.000			3.585			-3.585
26500.000			3.584			-3.584
26601.000			3.584			-3.584
26702.000			3.583			-3.583
26800.000			3.584			-3.584
26900.000			3.584			-3.584
27001.000			3.584			-3.584
27100.000			3.584			-3.584
27200.000			3.584			-3.584
27301.000			3.584			-3.584
27401.000			3.583			-3.583
27501.000			3.583			-3.583
27601.000			3.582			-3.582
27700.000			3.583			-3.583
27800.000			3.583			-3.583
27901.000			3.581			-3.581
28000.000			3.583			-3.583
28100.000			3.583			-3.583
28202.000			3.582			-3.582
28301.000			3.583			-3.583
28402.000			3.582			-3.582
28500.000			3.581			-3.581
28600.000			3.581			-3.581
28701.000			3.581			-3.581
28800.000			3.582			-3.582
28900.000			3.582			-3.582
29001.000			3.582			-3.582
29101.000			3.581			-3.581
29201.000			3.581			-3.581
29301.000			3.580			-3.580
29400.000			3.581			-3.581
29500.000			3.579			-3.579
29601.000			3.580			-3.580
29700.000			3.581			-3.581
29800.000			3.580			-3.580
29902.000			3.581			-3.581
30001.000			3.580			-3.580
30100.000			3.580			-3.580
30201.000			3.580			-3.580
30300.000			3.580			-3.580
30400.000			3.580			-3.580
30501.000			3.581			-3.581
30601.000			3.580			-3.580
30701.000			3.579			-3.579
30801.000			3.579			-3.579
30900.000			3.579			-3.579
31000.000			3.579			-3.579
31101.000			3.579			-3.579
31200.000			3.580			-3.580
31300.000			3.580			-3.580
31401.000			3.580			-3.580
31501.000			3.580			-3.580
31602.000			3.579			-3.579
31700.000			3.579			-3.579
31800.000			3.579			-3.579
31901.000			3.580			-3.580
32000.000			3.579			-3.579
32100.000			3.579			-3.579
32201.000			3.579			-3.579
32301.000			3.579			-3.579
32401.000			3.579			-3.579
32501.000			3.579			-3.579
32600.000			3.578			-3.578
32700.000			3.578			-3.578
32801.000			3.578			-3.578
32900.000			3.579			-3.579
33000.000			3.578			-3.578
33102.000			3.578			-3.578
33201.000			3.578			-3.578
33300.000			3.578			-3.578
33401.000			3.578			-3.578
33500.000			3.578			-3.578
33600.000			3.577			-3.577
33701.000			3.578			-3.578
33800.000			3.577			-3.577
33901.000			3.577			-3.577
34002.000			3.578			-3.578
34100.000			3.577			-3.577
34200.000			3.576			-3.576
34301.000			3.576			-3.576
34400.000			3.577			-3.577
34500.000			3.577			-3.577
34601.000			3.577			-3.577
34701.000			3.576			-3.576
34802.000			3.576			-3.576
34900.000			3.577			-3.577
35000.000			3.576			-3.576
35101.000			3.577			-3.577
35200.000			3.576			-3.576
35300.000			3.576			-3.576
35401.000			3.576			-3.576
35501.000			3.576			-3.576
35601.000			3.576			-3.576
35701.000			3.576			-3.576
35800.000			3.576			-3.576
35900.000			3.578			-3.578
36001.000			3.576			-3.576
36100.000			3.576			-3.576
36200.000			3.576			-3.576
36302.000			3.575			-3.575
36401.000			3.575			-3.575
36500.000			3.575			-3.575
36601.000			3.574			-3.574
36700.000			3.575			-3.575
36800.000			3.575			-3.575
36901.000			3.575			-3.575
37000.000			3.574			-3.574
37101.000			3.574			-3.574
37202.000			3.574			-3.574
37300.000			3.575			-3.575
37400.000			3.575			-3.575
37501.000			3.574			-3.574
37600.000			3.573			-3.573
37700.000			3.573			-3.573
37801.000			3.574			-3.574
37901.000			3.574			-3.574
38002.000			3.574			-3.574
38100.000			3.575			-3.575
38200.000			3.573			-3.573
38301.000			3.574			-3.574
38400.000			3.575			-3.575
38500.000			3.575			-3.575
38601.000			3.574			-3.574
38701.000			3.574			-3.574
38801.000			3.574			-3.574
38901.000			3.574			-3.574
39000.000			3.574			-3.574
39100.000			3.574			-3.574
39201.000			3.574			-3.574
39300.000			3.574			-3.574
39400.000			3.573			-3.573
39502.000			3.574			-3.574
39601.000			3.574			-3.574
39700.000			3.574			-3.574
39801.000			3.574			-3.574
39900.000			3.573			-3.573
40000.000			3.573			-3.573
40101.000			3.574			-3.574
40200.000			3.572			-3.572
40301.000			3.572			-3.572
40402.000			3.575			-3.575
40500.000			3.574			-3.574
40600.000			3.574			-3.574
40701.000			3.573			-3.573
40800.000			3.573			-3.573
40900.000			3.573			-3.573
41001.000			3.573			-3.573
41101.000			3.573			-3.573
41202.000			3.573			-3.573
41300.000			3.573			-3.573
41400.000			3.573			-3.573
41501.000			3.571			-3.571
41600.000			3.571			-3.571
41700.000			3.572			-3.572
41801.000			3.572			-3.572
41901.000			3.571			-3.571
42001.000			3.572			-3.572
42101.000			3.573			-3.573
42200.000			3.572			-3.572
42300.000			3.572			-3.572
42401.000			3.571			-3.571
42500.000			3.571			-3.571
42600.000			3.571			-3.571
42702.000			3.571			-3.571
42801.000			3.572			-3.572
42900.000			3.571			-3.571
43001.000			3.571			-3.571
43100.000			3.571			-3.571
43200.000			3.572			-3.572
43301.000			3.572			-3.572
43400.000			3.571			-3.571
43501.000			3.570			-3.570
43602.000			3.570			-3.570
43700.000			3.570			-3.570
43800.000			3.569			-3.569
43901.000			3.570			-3.570
44000.000			3.571			-3.571
44100.000			3.570			-3.570
44201.000			3.570			-3.570
44301.000			3.570			-3.570
44402.000			3.570			-3.570
44500.000			3.569			-3.569
44600.000			3.569			-3.569
44701.000			3.570			-3.570
44800.000			3.570			-3.570
44900.000			3.569			-3.569
45001.000			3.569			-3.569
45101.000			3.570			-3.570
45201.000			3.569			-3.569
45301.000			3.569			-3.569
45400.000			3.569			-3.569
45500.000			3.569			-3.569
45601.000			3.569			-3.569
45700.000			3.570			-3.570
45800.000			3.570			-3.570
45902.000			3.570			-3.570
46001.000			3.570			-3.570
46100.000			3.570			-3.570
46201.000			3.570			-3.570
46300.000			3.570			-3.570
46400.000			3.569			-3.569
46501.000			3.569			-3.569
46600.000			3.569			-3.569
46701.000			3.569			-3.569
46802.000			3.569			-3.569
46900.000			3.569			-3.569
47000.000			3.568			-3.568
47101.000			3.568			-3.568
47200.000			3.569			-3.569
47300.000			3.569			-3.569
47401.000			3.570			-3.570
47501.000			3.569			-3.569
47602.000			3.568			-3.568
47701.000			3.569			-3.569
47800.000			3.568			-3.568
47901.000			3.569			-3.569
48000.000			3.569			-3.569
48100.000			3.569			-3.569
48201.000			3.568			-3.568
48300.000			3.568			-3.568
48401.000			3.568			-3.568
48502.000			3.568			-3.568
48600.000			3.568			-3.568
48700.000			3.568			-3.568
48801.000			3.568			-3.568
48900.000			3.567			-3.567
49000.000			3.567			-3.567
49101.000			3.567			-3.567
49201.000			3.568			-3.568
49301.000			3.567			-3.567
49401.000			3.567			-3.567
49500.000			3.568			-3.568
49600.000			3.568			-3.568
49701.000			3.568			-3.568
49800.000			3.567			-3.567
49900.000			3.567			-3.567
50002.000			3.566			-3.566
50101.000			3.567			-3.567
50200.000			3.567			-3.567
50301.000			3.567			-3.567
50400.000			3.567			-3.567
50500.000			3.566			-3.566
50601.000			3.567			-3.567
50700.000			3.566			-3.566
50802.000			3.565			-3.565
50901.000			3.566			-3.566
51001.000			3.567			-3.567
51101.000			3.567			-3.567
51200.000			3.567			-3.567
51300.000			3.566			-3.566
51401.000			3.566			-3.566
51500.000			3.567			-3.567
51600.000			3.567			-3.567
51702.000			3.566			-3.566
51801.000			3.565			-3.565
51900.000			3.566			-3.566
52001.000			3.565			-3.565
52100.000			3.564			-3.564
52200.000			3.565			-3.565
52301.000			3.565			-3.565
52401.000			3.564			-3.564
52501.000			3.565			-3.565
52601.000			3.565			-3.565
52700.000			3.566			-3.566
52800.000			3.566			-3.566
52901.000			3.565			-3.565
53000.000			3.566			-3.566
53100.000			3.565			-3.565
53202.000			3.564			-3.564
53301.000			3.564			-3.564
53401.000			3.563			-3.563
53501.000			3.563			-3.563
53600.000			3.564			-3.564
53700.000			3.564			-3.564
53801.000			3.564			-3.564
53900.000			3.564			-3.564
54000.000			3.564			-3.564
54102.000			3.564			-3.564
54201.000			3.563			-3.563
54301.000			3.563			-3.563
54400.000			3.564			-3.564
54500.000			3.564			-3.564
54601.000			3.563			-3.563
54700.000			3.563			-3.563
54800.000			3.563			-3.563
54902.000			3.563			-3.563
55001.000			3.563			-3.563
55100.000			3.564			-3.564
55201.000			3.563			-3.563
55300.000			3.563			-3.563
55400.000			3.563			-3.563
55501.000			3.562			-3.562
55600.000			3.562			-3.562
55701.000			3.563			-3.563
55802.000			3.563			-3.563
55900.000			3.563			-3.563
56000.000			3.563			-3.563
56101.000			3.563			-3.563
56200.000			3.563			-3.563
56300.000			3.563			-3.563
56401.000			3.563			-3.563
56501.000			3.563			-3.563
56601.000			3.562			-3.562
56701.000			3.561			-3.561
56800.000			3.563			-3.563
56900.000			3.564			-3.564
57001.000			3.563			-3.563
57100.000			3.563			-3.563
57200.000			3.563			-3.563
57302.000			3.563			-3.563
57401.000			3.562			-3.562
57501.000			3.563			-3.563
57600.000			3.564			-3.564
57700.000			3.563			-3.563
57801.000			3.562			-3.562
57900.000			3.562			-3.562
58000.000			3.562			-3.562
58102.000			3.562			-3.562
58201.000			3.562			-3.562
58300.000			3.562			-3.562
58401.000			3.562			-3.562
58500.000			3.562			-3.562
58600.000			3.563			-3.563
58701.000			3.563			-3.563
58800.000			3.562			-3.562
58901.000			3.562			-3.562
59002.000			3.563			-3.563
59100.000			3.563			-3.563
59200.000			3.563			-3.563
59301.000			3.563			-3.563
59400.000			3.562			-3.562
59500.000			3.562			-3.562
59601.000			3.563			-3.563
59701.000			3.563			-3.563
59801.000			3.563			-3.563
59901.000			3.563			-3.563
60000.000			3.562			-3.562
60100.000			3.562			-3.562
60201.000			3.562			-3.562
60300.000			3.563			-3.563
60400.000			3.563			-3.563
60502.000			3.563			-3.563
60601.000			3.563			-3.563
60701.000			3.563			-3.563
60800.000			3.562			-3.562
60900.000			3.562			-3.562
61001.000			3.562			-3.562
61100.000			3.561			-3.561
61201.000			3.562			-3.562
61302.000			3.563			-3.563
61401.000			3.562			-3.562
61500.000			3.560			-3.560
61601.000			3.561			-3.561
61700.000			3.561			-3.561
61800.000			3.561			-3.561
61901.000			3.561			-3.561
62001.000			3.562			-3.562
62101.000			3.562			-3.562
62201.000			3.562			-3.562
62300.000			3.561			-3.561
62400.000			3.561			-3.561
62501.000			3.562			-3.562
62600.000			3.562			-3.562
62700.000			3.562			-3.562
62802.000			3.561			-3.561
62901.000			3.561			-3.561
63000.000			3.562			-3.562
63101.000			3.562			-3.562
63200.000			3.562			-3.562
63300.000			3.562			-3.562
63401.000			3.561			-3.561
63500.000			3.561			-3.561
63602.000			3.560			-3.560
63701.000			3.561			-3.561
63800.000			3.562			-3.562
63901.000			3.561			-3.561
64000.000			3.562			-3.562
64100.000			3.562			-3.562
64201.000			3.561			-3.561
64300.000			3.561			-3.561
64401.000			3.561			-3.561
64502.000			3.560			-3.560
64600.000			3.560			-3.560
64700.000			3.561			-3.561
64801.000			3.562			-3.562
64900.000			3.561			-3.561
65000.000			3.561			-3.561
65101.000			3.561			-3.561
65201.000			3.561			-3.561
65301.000			3.561			-3.561
65401.000			3.562			-3.562
65500.000			3.561			-3.561
65600.000			3.561			-3.561
65701.000			3.560			-3.560
65800.000			3.560			-3.560
65900.000			3.560			-3.560
66002.000			3.560			-3.560
66101.000			3.561			-3.561
66200.000			3.561			-3.561
66301.000			3.560			-3.560
66400.000			3.560			-3.560
66500.000			3.560			-3.560
66601.000			3.560			-3.560
66700.000			3.560			-3.560
66800.000			3.560			-3.560
66902.000			3.560			-3.560
67001.000			3.560			-3.560
67101.000			3.560			-3.560
67200.000			3.559			-3.559
67300.000			3.559			-3.559
67401.000			3.561			-3.561
67500.000			3.560			-3.560
67600.000			3.558			-3.558
67702.000			3.559			-3.559
67801.000			3.559			-3.559
67900.000			3.559			-3.559
68001.000			3.559			-3.559
68100.000			3.558			-3.558
68200.000			3.557			-3.557
68301.000			3.558			-3.558
68400.000			3.557			-3.557
68501.000			3.556			-3.556
68602.000			3.557			-3.557
68701.000			3.557			-3.557
68800.000			3.556			-3.556
68901.000			3.557			-3.557
69000.000			3.557			-3.557
69100.000			3.556			-3.556
69201.000			3.556			-3.556
69300.000			3.557			-3.557
69401.000			3.557			-3.557
69502.000			3.556			-3.556
69600.000			3.556			-3.556
69700.000			3.556			-3.556
69801.000			3.556			-3.556
69900.000			3.556			-3.556
70000.000			3.557			-3.557
70100.000			3.556			-3.556
70201.000			3.555			-3.555
70302.000			3.556			-3.556
70400.000			3.557			-3.557
70500.000			3.556			-3.556
70601.000			3.557			-3.557
70700.000			3.557			-3.557
70800.000			3.557			-3.557
70901.000			3.556			-3.556
71001.000			3.555			-3.555
71101.000			3.555			-3.555
71201.000			3.556			-3.556
71300.000			3.555			-3.555
71400.000			3.555			-3.555
71501.000			3.556			-3.556
71600.000			3.555			-3.555
71700.000			3.554			-3.554
71802.000			3.554			-3.554
71901.000			3.555			-3.555
72000.000			3.554			-3.554
72101.000			3.554			-3.554
72200.000			3.554			-3.554
72300.000			3.555			-3.555
72401.000			3.554			-3.554
72500.000			3.554			-3.554
72601.000			3.554			-3.554
72702.000			3.555			-3.555
72800.000			3.554			-3.554
72900.000			3.555			-3.555
73001.000			3.555			-3.555
73100.000			3.555			-3.555
73200.000			3.554			-3.554
73300.000			3.554			-3.554
73401.000			3.555			-3.555
73502.000			3.554			-3.554
73600.000			3.555			-3.555
73700.000			3.554			-3.554
73801.000			3.553			-3.553
73900.000			3.554			-3.554
74000.000			3.554			-3.554
74101.000			3.554			-3.554
74201.000			3.553			-3.553
74301.000			3.554			-3.554
74401.000			3.553			-3.553
74500.000			3.554			-3.554
74600.000			3.554			-3.554
74701.000			3.553			-3.553
74800.000			3.554			-3.554
74900.000			3.554			-3.554
75002.000			3.554			-3.554
75101.000			3.553			-3.553
75201.000			3.554			-3.554
75301.000			3.555			-3.555
75400.000			3.554			-3.554
75500.000			3.554			-3.554
75601.000			3.554			-3.554
75700.000			3.554			-3.554
75800.000			3.554			-3.554
75902.000			3.555			-3.555
76001.000			3.555			-3.555
76100.000			3.555			-3.555
76201.000			3.555			-3.555
76300.000			3.555			-3.555
76400.000			3.554			-3.554
76500.000			3.555			-3.555
76600.000			3.555			-3.555
76702.000			3.554			-3.554
76801.000			3.554			-3.554
76900.000			3.554			-3.554
77001.000			3.554			-3.554
77100.000			3.554			-3.554
77200.000			3.554			-3.554
77301.000			3.554			-3.554
77400.000			3.554			-3.554
77501.000			3.555			-3.555
77602.000			3.554			-3.554
77700.000			3.554			-3.554
77800.000			3.554			-3.554
77901.000			3.554			-3.554
78000.000			3.554			-3.554
78100.000			3.554			-3.554
78201.000			3.553			-3.553
78301.000			3.553			-3.553
78401.000			3.554			-3.554
78501.000			3.554			-3.554
78600.000			3.553			-3.553
78700.000			3.553			-3.553
78801.000			3.553			-3.553
78900.000			3.554			-3.554
79000.000			3.554			-3.554
79101.000			3.555			-3.555
79201.000			3.556			-3.556
79301.000			3.556			-3.556
79401.000			3.555			-3.555
79500.000			3.556			-3.556
79600.000			3.555			-3.555
79700.000			3.555			-3.555
79800.000			3.555			-3.555
79901.000			3.555			-3.555
80001.000			3.555			-3.555
80101.000			3.556			-3.556
80201.000			3.555			-3.555
80300.000			3.554			-3.554
80400.000			3.555			-3.555
80501.000			3.555			-3.555
80600.000			3.556			-3.556
80700.000			3.557			-3.557
80802.000			3.555			-3.555
80901.000			3.556			-3.556
81000.000			3.556			-3.556
81101.000			3.555			-3.555
81200.000			3.556			-3.556
81300.000			3.556			-3.556
81401.000			3.556			-3.556
81500.000			3.556			-3.556
81601.000			3.557			-3.557
81702.000			3.556			-3.556
81800.000			3.555			-3.555
81900.000			3.555			-3.555
82001.000			3.555			-3.555
82100.000			3.555			-3.555
82200.000			3.556			-3.556
82301.000			3.555			-3.555
82401.000			3.555			-3.555
82501.000			3.555			-3.555
82601.000			3.555			-3.555
82700.000			3.555			-3.555
82800.000			3.555			-3.555
82900.000			3.554			-3.554
83000.000			3.554			-3.554
83101.000			3.555			-3.555
83201.000			3.555			-3.555
83301.000			3.555			-3.555
83401.000			3.554			-3.554
83500.000			3.554			-3.554
83600.000			3.555			-3.555
83701.000			3.555			-3.555
83800.000			3.555			-3.555
83900.000			3.555			-3.555
84001.000			3.555			-3.555
84101.000			3.555			-3.555
84201.000			3.555			-3.555
84301.000			3.555			-3.555
84400.000			3.554			-3.554
84500.000			3.555			-3.555
84601.000			3.555			-3.555
84700.000			3.555			-3.555
84800.000			3.554			-3.554
84902.000			3.554			-3.554
85001.000			3.555			-3.555
85100.000			3.554			-3.554
85201.000			3.555			-3.555
85300.000			3.555			-3.555
85400.000			3.555			-3.555
85501.000			3.555			-3.555
85600.000			3.555			-3.555
85701.000			3.554			-3.554
85802.000			3.554			-3.554
85900.000			3.554			-3.554
86000.000			3.553			-3.553
86100.000			3.554			-3.554
86200.000			3.554			-3.554
86301.000			3.553			-3.553
86400.000			3.553			-3.553
86500.000			3.554			-3.554
86602.000			3.554			-3.554
86701.000			3.554			-3.554
86800.000			3.553			-3.553
86901.000			3.553			-3.553
87000.000			3.554			-3.554
87100.000			3.554			-3.554
87201.000			3.554			-3.554
87300.000			3.553			-3.553
87401.000			3.552			-3.552
87502.000			3.553			-3.553
87600.000			3.553			-3.553
87700.000			3.554			-3.554
87801.000			3.552			-3.552
87900.000			3.552			-3.552
88000.000			3.551			-3.551
88101.000			3.553			-3.553
88201.000			3.552			-3.552
88301.000			3.552			-3.552
88401.000			3.553			-3.553
88500.000			3.554			-3.554
88600.000			3.552			-3.552
88701.000			3.552			-3.552
88800.000			3.552			-3.552
88900.000			3.553			-3.553
89002.000			3.552			-3.552
89101.000			3.552			-3.552
89202.000			3.552			-3.552
89300.000			3.552			-3.552
89400.000			3.553			-3.553
89501.000			3.553			-3.553
89600.000			3.553			-3.553
89700.000			3.553			-3.553
89801.000			3.552			-3.552
89901.000			3.552			-3.552
90001.000			3.552			-3.552
90101.000			3.552			-3.552
90200.000			3.553			-3.553
90300.000			3.553			-3.553
90401.000			3.553			-3.553
90500.000			3.553			-3.553
90600.000			3.553			-3.553
90702.000			3.553			-3.553
90801.000			3.552			-3.552
90900.000			3.553			-3.553
91001.000			3.553			-3.553
91100.000			3.553			-3.553
91200.000			3.552			-3.552
91301.000			3.553			-3.553
91400.000			3.554			-3.554
91501.000			3.553			-3.553
91602.000			3.551			-3.551
91700.000			3.551			-3.551
91800.000			3.552			-3.552
91901.000			3.552			-3.552
92000.000			3.552			-3.552
92100.000			3.552			-3.552
92201.000			3.553			-3.553
92301.000			3.553			-3.553
92402.000			3.553			-3.553
92500.000			3.553			-3.553
92600.000			3.553			-3.553
92701.000			3.553			-3.553
92800.000			3.553			-3.553
92900.000			3.553			-3.553
93001.000			3.552			-3.552
93101.000			3.552			-3.552
93201.000			3.552			-3.552
93301.000			3.552			-3.552
93400.000			3.553			-3.553
93500.000			3.552			-3.552
93601.000			3.552			-3.552
93700.000			3.553			-3.553
93800.000			3.552			-3.552
93902.000			3.552			-3.552
94001.000			3.552			-3.552
94100.000			3.552			-3.552
94201.000			3.553			-3.553
94300.000			3.553			-3.553
94400.000			3.552			-3.552
94501.000			3.553			-3.553
94600.000			3.553			-3.553
94701.000			3.553			-3.553
94802.000			3.552			-3.552
94900.000			3.552			-3.552
95000.000			3.553			-3.553
95101.000			3.552			-3.552
95200.000			3.551			-3.551
95300.000			3.552			-3.552
95401.000			3.552			-3.552
95501.000			3.552			-3.552
95602.000			3.552			-3.552
95701.000			3.552			-3.552
95800.000			3.552			-3.552
95901.000			3.552			-3.552
96000.000			3.552			-3.552
96100.000			3.552			-3.552
96201.000			3.552			-3.552
96301.000			3.552			-3.552
96401.000			3.552			-3.552
96502.000			3.550			-3.550
96600.000			3.550			-3.550
96700.000			3.552			-3.552
96801.000			3.551			-3.551
96900.000			3.551			-3.551
97000.000			3.551			-3.551
97101.000			3.551			-3.551
97201.000			3.551			-3.551
97301.000			3.552			-3.552
97401.000			3.552			-3.552
97500.000			3.551			-3.551
97600.000			3.551			-3.551
97701.000			3.550			-3.550
97800.000			3.551			-3.551
97900.000			3.551			-3.551
98002.000			3.551			-3.551
98101.000			3.550			-3.550
98200.000			3.549			-3.549
98301.000			3.550			-3.550
98400.000			3.551			-3.551
98500.000			3.551			-3.551
98601.000			3.551			-3.551
98700.000			3.552			-3.552
98802.000			3.551			-3.551
98901.000			3.550			-3.550
99001.000			3.550			-3.550
99101.000			3.551			-3.551
99200.000			3.551			-3.551
99300.000			3.550			-3.550
99401.000			3.550			-3.550
99500.000			3.550			-3.550
99600.000			3.550			-3.550
99702.000			3.550			-3.550
99801.000			3.551			-3.551
99900.000			3.551			-3.551
100001.000			3.551			-3.551
100100.000			3.551			-3.551
100200.000			3.551			-3.551
100301.000			3.550			-3.550
100400.000			3.550			-3.550
100501.000			3.551			-3.551
100602.000			3.549			-3.549
100700.000			3.549			-3.549
100800.000			3.550			-3.550
100901.000			3.551			-3.551
101000.000			3.550			-3.550
101100.000			3.551			-3.551
101201.000			3.550			-3.550
101301.000			3.550			-3.550
101401.000			3.550			-3.550
101501.000			3.550			-3.550
101600.000			3.551			-3.551
101700.000			3.550			-3.550
101801.000			3.550			-3.550
101900.000			3.550			-3.550
102000.000			3.549			-3.549
102102.000			3.550			-3.550
102201.000			3.549			-3.549
102302.000			3.549			-3.549
102400.000			3.550			-3.550
102500.000			3.550			-3.550
102601.000			3.549			-3.549
102700.000			3.549			-3.549
102800.000			3.550			-3.550
102901.000			3.549			-3.549
103001.000			3.549			-3.549
103101.000			3.549			-3.549
103201.000			3.550			-3.550
103300.000			3.549			-3.549
103400.000			3.550			-3.550
103501.000			3.550			-3.550
103600.000			3.549			-3.549
103700.000			3.550			-3.550
103802.000			3.549			-3.549
103901.000			3.549			-3.549
104000.000			3.549			-3.549
104101.000			3.549			-3.549
104200.000			3.549			-3.549
104300.000			3.548			-3.548
104401.000			3.548			-3.548
104500.000			3.549			-3.549
104601.000			3.549			-3.549
104702.000			3.549			-3.549
104801.000			3.548			-3.548
104900.000			3.548			-3.548
105001.000			3.548			-3.548
105100.000			3.548			-3.548
105200.000			3.547			-3.547
105300.000			3.547			-3.547
105400.000			3.548			-3.548
105502.000			3.549			-3.549
105601.000			3.548			-3.548
105700.000			3.548			-3.548
105801.000			3.548			-3.548
105900.000			3.548			-3.548
106000.000			3.548			-3.548
106101.000			3.548			-3.548
106200.000			3.547			-3.547
106301.000			3.548			-3.548
106402.000			3.547			-3.547
106500.000			3.548			-3.548
106600.000			3.548			-3.548
106701.000			3.548			-3.548
106800.000			3.548			-3.548
106900.000			3.548			-3.548
107001.000			3.548			-3.548
107100.000			3.548			-3.548
107201.000			3.548			-3.548
107302.000			3.548			-3.548
107400.000			3.548			-3.548
107500.000			3.548			-3.548
107601.000			3.549			-3.549
107700.000			3.549			-3.549
107800.000			3.549			-3.549
107901.000			3.548			-3.548
108001.000			3.548			-3.548
108101.000			3.548			-3.548
108201.000			3.548			-3.548
108300.000			3.547			-3.547
108400.000			3.547			-3.547
108500.000			3.548			-3.548
108600.000			3.548			-3.548
108701.000			3.548			-3.548
108800.000			3.549			-3.549
108901.000			3.549			-3.549
109002.000			3.548			-3.548
109100.000			3.548			-3.548
109200.000			3.548			-3.548
109301.000			3.547			-3.547
109400.000			3.548			-3.548
109500.000			3.548			-3.548
109601.000			3.548			-3.548
109700.000			3.548			-3.548
109801.000			3.548			-3.548
109902.000			3.548			-3.548
110000.000			3.548			-3.548
110100.000			3.549			-3.549
110201.000			3.548			-3.548
110300.000			3.549			-3.549
110400.000			3.548			-3.548
110501.000			3.548			-3.548
110601.000			3.547			-3.547
110701.000			3.547			-3.547
110801.000			3.547			-3.547
110900.000			3.546			-3.546
111000.000			3.547			-3.547
111101.000			3.547			-3.547
111200.000			3.547			-3.547
111300.000			3.548			-3.548
111402.000			3.547			-3.547
111501.000			3.547			-3.547
111600.000			3.546			-3.546
111700.000			3.547			-3.547
111800.000			3.546			-3.546
111901.000			3.546			-3.546
112000.000			3.547			-3.547
112100.000			3.547			-3.547
112201.000			3.546			-3.546
112301.000			3.545			-3.545
112401.000			3.545			-3.545
112501.000			3.547			-3.547
112600.000			3.547			-3.547
112700.000			3.548			-3.548
112801.000			3.546			-3.546
112900.000			3.547			-3.547
113000.000			3.547			-3.547
113102.000			3.547			-3.547
113201.000			3.547			-3.547
113300.000			3.546			-3.546
113401.000			3.547			-3.547
113500.000			3.547			-3.547
113600.000			3.546			-3.546
113701.000			3.546			-3.546
113800.000			3.546			-3.546
113901.000			3.546			-3.546
114002.000			3.546			-3.546
114101.000			3.545			-3.545
114200.000			3.546			-3.546
114301.000			3.545			-3.545
114400.000			3.545			-3.545
114500.000			3.546			-3.546
114601.000			3.547			-3.547
114700.000			3.547			-3.547
114802.000			3.547			-3.547
114901.000			3.547			-3.547
115000.000			3.545			-3.545
115101.000			3.546			-3.546
115200.000			3.546			-3.546
115300.000			3.545			-3.545
115401.000			3.546			-3.546
115500.000			3.546			-3.546
115601.000			3.547			-3.547
115702.000			3.547			-3.547
115800.000			3.547			-3.547
115900.000			3.547			-3.547
116001.000			3.547			-3.547
116100.000			3.546			-3.546
116200.000			3.546			-3.546
116301.000			3.546			-3.546
116400.000			3.546			-3.546
116501.000			3.546			-3.546
116602.000			3.546			-3.546
116700.000			3.545			-3.545
116800.000			3.546			-3.546
116901.000			3.547			-3.547
117000.000			3.546			-3.546
117100.000			3.546			-3.546
117201.000			3.545			-3.545
117301.000			3.545			-3.545
117401.000			3.545			-3.545
117501.000			3.547			-3.547
117600.000			3.547			-3.547
117700.000			3.546			-3.546
117801.000			3.547			-3.547
117900.000			3.547			-3.547
118000.000			3.547			-3.547
118100.000			3.547			-3.547
118201.000			3.546			-3.546
118302.000			3.546			-3.546
118400.000			3.547			-3.547
118500.000			3.546			-3.546
118601.000			3.546			-3.546
118700.000			3.546			-3.546
118800.000			3.546			-3.546
118901.000			3.547			-3.547
119001.000			3.547			-3.547
119101.000			3.546			-3.546
119202.000			3.546			-3.546
119300.000			3.546			-3.546
119400.000			3.546			-3.546
119501.000			3.546			-3.546
119600.000			3.546			-3.546
119700.000			3.547			-3.547
119801.000			3.547			-3.547
119901.000			3.546			-3.546
120001.000			3.546			-3.546
120101.000			3.546			-3.546
120200.000			3.546			-3.546
120300.000			3.546			-3.546
120401.000			3.545			-3.545
120500.000			3.546			-3.546
120600.000			3.546			-3.546
120702.000			3.547			-3.547
120801.000			3.546			-3.546
120900.000			3.546			-3.546
121001.000			3.546			-3.546
121100.000			3.546			-3.546
121200.000			3.546			-3.546
121300.000			3.547			-3.547
121400.000			3.546			-3.546
121501.000			3.547			-3.547
121601.000			3.546			-3.546
121701.000			3.547			-3.547
121801.000			3.547			-3.547
121900.000			3.546			-3.546
122000.000			3.546			-3.546
122101.000			3.546			-3.546
122200.000			3.545			-3.545
122300.000			3.546			-3.546
122402.000			3.546			-3.546
122501.000			3.546			-3.546
122600.000			3.546			-3.546
122701.000			3.547			-3.547
122800.000			3.546			-3.546
122900.000			3.546			-3.546
123001.000			3.546			-3.546
123100.000			3.546			-3.546
123201.000			3.546			-3.546
123302.000			3.546			-3.546
123401.000			3.547			-3.547
123500.000			3.546			-3.546
123601.000			3.546			-3.546
123700.000			3.545			-3.545
123800.000			3.545			-3.545
123901.000			3.545			-3.545
124000.000			3.545			-3.545
124101.000			3.544			-3.544
124202.000			3.545			-3.545
124300.000			3.545			-3.545
124400.000			3.545			-3.545
124500.000			3.545			-3.545
124600.000			3.546			-3.546
124701.000			3.546			-3.546
124800.000			3.545			-3.545
124901.000			3.545			-3.545
125002.000			3.546			-3.546
125101.000			3.544			-3.544
125200.000			3.544			-3.544
125301.000			3.544			-3.544
125400.000			3.544			-3.544
125500.000			3.543			-3.543
125601.000			3.544			-3.544
125700.000			3.544			-3.544
125801.000			3.544			-3.544
125902.000			3.545			-3.545
126000.000			3.545			-3.545
126100.000			3.544			-3.544
126201.000			3.544			-3.544
126300.000			3.544			-3.544
126400.000			3.544			-3.544
126501.000			3.544			-3.544
126601.000			3.545			-3.545
126701.000			3.545			-3.545
126801.000			3.545			-3.545
126900.000			3.544			-3.544
127000.000			3.544			-3.544
127101.000			3.544			-3.544
127200.000			3.545			-3.545
127300.000			3.545			-3.545
127402.000			3.544			-3.544
127501.000			3.544			-3.544
127602.000			3.543			-3.543
127700.000			3.543			-3.543
127800.000			3.544			-3.544
127901.000			3.544			-3.544
128000.000			3.544			-3.544
128100.000			3.543			-3.543
128201.000			3.544			-3.544
128301.000			3.544			-3.544
128401.000			3.544			-3.544
128501.000			3.543			-3.543
128600.000			3.543			-3.543
128700.000			3.543			-3.543
128801.000			3.543			-3.543
128900.000			3.543			-3.543
129000.000			3.542			-3.542
129101.000			3.542			-3.542
129201.000			3.543			-3.543
129301.000			3.542			-3.542
129401.000			3.541			-3.541
129500.000			3.543			-3.543
129600.000			3.543			-3.543
129701.000			3.543			-3.543
129800.000			3.543			-3.543
129900.000			3.543			-3.543
130002.000			3.542			-3.542
130101.000			3.542			-3.542
130200.000			3.543			-3.543
130301.000			3.543			-3.543
130400.000			3.543			-3.543
130500.000			3.543			-3.543
130601.000			3.543			-3.543
130700.000			3.543			-3.543
130802.000			3.543			-3.543
130901.000			3.542			-3.542
131000.000			3.542			-3.542
131101.000			3.543			-3.543
131200.000			3.543			-3.543
131300.000			3.543			-3.543
131401.000			3.543			-3.543
131500.000			3.544			-3.544
131600.000			3.544			-3.544
131702.000			3.543			-3.543
131801.000			3.542			-3.542
131900.000			3.543			-3.543
132001.000			3.543			-3.543
132100.000			3.542			-3.542
132200.000			3.544			-3.544
132301.000			3.543			-3.543
132400.000			3.543			-3.543
132500.000			3.542			-3.542
132602.000			3.542			-3.542
132701.000			3.543			-3.543
132800.000			3.543			-3.543
132901.000			3.543			-3.543
133000.000			3.544			-3.544
133100.000			3.543			-3.543
133201.000			3.541			-3.541
133300.000			3.542			-3.542
133400.000			3.542			-3.542
133502.000			3.543			-3.543
133601.000			3.542			-3.542
133700.000			3.542			-3.542
133801.000			3.543			-3.543
133900.000			3.542			-3.542
134000.000			3.543			-3.543
134100.000			3.543			-3.543
134200.000			3.542			-3.542
134301.000			3.542			-3.542
134401.000			3.543			-3.543
134501.000			3.542			-3.542
134601.000			3.542			-3.542
134700.000			3.543			-3.543
134800.000			3.541			-3.541
134901.000			3.541			-3.541
135000.000			3.541			-3.541
135100.000			3.542			-3.542
135201.000			3.541			-3.541
135301.000			3.541			-3.541
135401.000			3.541			-3.541
135501.000			3.542			-3.542
135600.000			3.542			-3.542
135700.000			3.542			-3.542
135801.000			3.542			-3.542
135900.000			3.542			-3.542
136000.000			3.542			-3.542
136101.000			3.543			-3.543
136201.000			3.542			-3.542
136301.000			3.541			-3.541
136401.000			3.542			-3.542
136500.000			3.541			-3.541
136600.000			3.541			-3.541
136701.000			3.540			-3.540
136800.000			3.541			-3.541
136900.000			3.541			-3.541
137001.000			3.541			-3.541
137101.000			3.542			-3.542
137202.000			3.541			-3.541
137300.000			3.541			-3.541
137400.000			3.541			-3.541
137501.000			3.541			-3.541
137600.000			3.540			-3.540
137700.000			3.540			-3.540
137801.000			3.542			-3.542
137900.000			3.542			-3.542
138001.000			3.542			-3.542
138102.000			3.541			-3.541
138201.000			3.541			-3.541
138300.000			3.541			-3.541
138401.000			3.542			-3.542
138500.000			3.542			-3.542
138600.000			3.541			-3.541
138701.000			3.541			-3.541
138800.000			3.540			-3.540
138901.000			3.541			-3.541
139002.000			3.541			-3.541
139101.000			3.541			-3.541
139200.000			3.541			-3.541
139301.000			3.541			-3.541
139400.000			3.541			-3.541
139500.000			3.541			-3.541
139601.000			3.540			-3.540
139700.000			3.541			-3.541
139800.000			3.541			-3.541
139902.000			3.541			-3.541
140001.000			3.541			-3.541
140100.000			3.540			-3.540
140201.000			3.541			-3.541
140300.000			3.541			-3.541
140400.000			3.541			-3.541
140500.000			3.541			-3.541
140600.000			3.541			-3.541
140701.000			3.541			-3.541
140801.000			3.541			-3.541
140901.000			3.541			-3.541
141001.000			3.541			-3.541
141100.000			3.542			-3.542
141200.000			3.541			-3.541
141301.000			3.540			-3.540
141400.000			3.540			-3.540
141500.000			3.540			-3.540
141601.000			3.540			-3.540
141701.000			3.541			-3.541
141801.000			3.540			-3.540
141901.000			3.541			-3.541
142000.000			3.540			-3.540
142100.000			3.540			-3.540
142201.000			3.539			-3.539
142300.000			3.540			-3.540
142400.000			3.540			-3.540
142501.000			3.541			-3.541
142601.000			3.541			-3.541
142701.000			3.540			-3.540
142801.000			3.540			-3.540
142900.000			3.538			-3.538
143000.000			3.540			-3.540
143101.000			3.540			-3.540
143200.000			3.541			-3.541
143300.000			3.541			-3.541
143401.000			3.542			-3.542
143501.000			3.540			-3.540
143602.000			3.539			-3.539
143701.000			3.540			-3.540
143800.000			3.540			-3.540
143901.000			3.540			-3.540
144000.000			3.540			-3.540
144100.000			3.540			-3.540
144201.000			3.540			-3.540
144300.000			3.541			-3.541
144400.000			3.540			-3.540
144502.000			3.538			-3.538
144601.000			3.539			-3.539
144700.000			3.539			-3.539
144801.000			3.540			-3.540
144900.000			3.540			-3.540
145000.000			3.539			-3.539
145101.000			3.540			-3.540
145200.000			3.539			-3.539
145300.000			3.539			-3.539
145402.000			3.539			-3.539
145501.000			3.539			-3.539
145600.000			3.539			-3.539
145701.000			3.539			-3.539
145800.000			3.539			-3.539
145900.000			3.539			-3.539
146001.000			3.539			-3.539
146100.000			3.540			-3.540
146200.000			3.538			-3.538
146302.000			3.538			-3.538
146401.000			3.539			-3.539
146501.000			3.539			-3.539
146601.000			3.539			-3.539
146700.000			3.539			-3.539
146800.000			3.539			-3.539
146900.000			3.538			-3.538
147000.000			3.539			-3.539
147101.000			3.539			-3.539
147200.000			3.539			-3.539
147301.000			3.538			-3.538
147402.000			3.539			-3.539
147500.000			3.539			-3.539
147600.000			3.539			-3.539
147701.000			3.539			-3.539
147800.000			3.539			-3.539
147900.000			3.539			-3.539
148001.000			3.539			-3.539
148100.000			3.539			-3.539
148201.000			3.538			-3.538
148302.000			3.539			-3.539
148401.000			3.537			-3.537
148500.000			3.537			-3.537
148601.000			3.538			-3.538
148700.000			3.538			-3.538
148800.000			3.537			-3.537
148901.000			3.538			-3.538
149000.000			3.538			-3.538
149100.000			3.539			-3.539
149202.000			3.539			-3.539
149301.000			3.538			-3.538
149400.000			3.537			-3.537
149501.000			3.538			-3.538
149600.000			3.539			-3.539
149700.000			3.538			-3.538
149801.000			3.538			-3.538
149900.000			3.537			-3.537
150000.000			3.538			-3.538
150102.000			3.538			-3.538
150201.000			3.538			-3.538
150301.000			3.538			-3.538
150400.000			3.539			-3.539
150500.000			3.539			-3.539
150601.000			3.538			-3.538
150700.000			3.538			-3.538
150800.000			3.537			-3.537
150901.000			3.538			-3.538
151001.000			3.540			-3.540
151101.000			3.540			-3.540
151202.000			3.539			-3.539
151300.000			3.539			-3.539
151400.000			3.538			-3.538
151501.000			3.538			-3.538
151600.000			3.538			-3.538
151700.000			3.538			-3.538
151801.000			3.538			-3.538
151901.000			3.539			-3.539
152001.000			3.539			-3.539
152102.000			3.539			-3.539
152200.000			3.538			-3.538
152300.000			3.539			-3.539
152401.000			3.539			-3.539
152500.000			3.539			-3.539
152600.000			3.538			-3.538
152701.000			3.538			-3.538
152800.000			3.539			-3.539
152901.000			3.539			-3.539
153002.000			3.538			-3.538
153100.000			3.537			-3.537
153200.000			3.537			-3.537
153300.000			3.538			-3.538
153400.000			3.538			-3.538
153501.000			3.538			-3.538
153600.000			3.538			-3.538
153700.000			3.539			-3.539
153802.000			3.539			-3.539
153901.000			3.538			-3.538
154001.000			3.538			-3.538
154101.000			3.538			-3.538
154200.000			3.538			-3.538
154300.000			3.537			-3.537
154401.000			3.537			-3.537
154500.000			3.538			-3.538
154600.000			3.538			-3.538
154702.000			3.539			-3.539
154801.000			3.538			-3.538
154901.000			3.538			-3.538
155001.000			3.538			-3.538
155100.000			3.538			-3.538
155200.000			3.537			-3.537
155301.000			3.537			-3.537
155400.000			3.538			-3.538
155500.000			3.538			-3.538
155601.000			3.537			-3.537
155701.000			3.537			-3.537
155801.000			3.538			-3.538
155901.000			3.538			-3.538
156000.000			3.537			-3.537
156100.000			3.536			-3.536
156201.000			3.537			-3.537
156300.000			3.537			-3.537
156400.000			3.537			-3.537
156500.000			3.538			-3.538
156601.000			3.536			-3.536
156702.000			3.537			-3.537
156801.000			3.538			-3.538
156900.000			3.538			-3.538
157001.000			3.537			-3.537
157100.000			3.537			-3.537
157200.000			3.538			-3.538
157301.000			3.537			-3.537
157400.000			3.537			-3.537
157500.000			3.538			-3.538
157602.000			3.537			-3.537
157701.000			3.536			-3.536
157800.000			3.536			-3.536
157901.000			3.536			-3.536
158000.000			3.536			-3.536
158100.000			3.536			-3.536
158201.000			3.537			-3.537
158300.000			3.537			-3.537
158400.000			3.537			-3.537
158502.000			3.538			-3.538
158601.000			3.536			-3.536
158701.000			3.537			-3.537
158801.000			3.537			-3.537
158900.000			3.537			-3.537
159000.000			3.537			-3.537
159101.000			3.536			-3.536
159200.000			3.537			-3.537
159300.000			3.536			-3.536
159401.000			3.536			-3.536
159501.000			3.536			-3.536
159602.000			3.537			-3.537
159701.000			3.536			-3.536
159800.000			3.536			-3.536
159901.000			3.537			-3.537
160000.000			3.536			-3.536
160100.000			3.536			-3.536
160201.000			3.536			-3.536
160300.000			3.537			-3.537
160401.000			3.537			-3.537
160502.000			3.535			-3.535
160601.000			3.536			-3.536
160700.000			3.537			-3.537
160801.000			3.536			-3.536
160900.000			3.536			-3.536
161000.000			3.536			-3.536
161101.000			3.536			-3.536
161200.000			3.536			-3.536
161301.000			3.536			-3.536
161402.000			3.536			-3.536
161501.000			3.535			-3.535
161600.000			3.536			-3.536
161701.000			3.536			-3.536
161800.000			3.536			-3.536
161900.000			3.536			-3.536
162001.000			3.536			-3.536
162100.000			3.536			-3.536
162200.000			3.535			-3.535
162302.000			3.535			-3.535
162401.000			3.536			-3.536
162500.000			3.536			-3.536
162601.000			3.537			-3.537
162700.000			3.536			-3.536
162800.000			3.535			-3.535
162900.000			3.536			-3.536
163000.000			3.536			-3.536
163101.000			3.536			-3.536
163201.000			3.536			-3.536
163301.000			3.536			-3.536
163401.000			3.536			-3.536
163500.000			3.537			-3.537
163600.000			3.536			-3.536
163701.000			3.537			-3.537
163800.000			3.536			-3.536
163900.000			3.536			-3.536
164001.000			3.536			-3.536
164101.000			3.536			-3.536
164201.000			3.536			-3.536
164302.000			3.536			-3.536
164400.000			3.536			-3.536
164500.000			3.537			-3.537
164601.000			3.536			-3.536
164700.000			3.536			-3.536
164800.000			3.535			-3.535
164901.000			3.536			-3.536
165001.000			3.536			-3.536
165101.000			3.537			-3.537
165202.000			3.536			-3.536
165300.000			3.536			-3.536
165400.000			3.536			-3.536
165501.000			3.536			-3.536
165600.000			3.535			-3.535
165700.000			3.536			-3.536
165801.000			3.537			-3.537
165900.000			3.537			-3.537
166002.000			3.535			-3.535
166101.000			3.535			-3.535
166200.000			3.537			-3.537
166301.000			3.537			-3.537
166400.000			3.536			-3.536
166500.000			3.536			-3.536
166601.000			3.536			-3.536
166700.000			3.535			-3.535
166800.000			3.535			-3.535
166902.000			3.535			-3.535
167001.000			3.535			-3.535
167101.000			3.536			-3.536
167201.000			3.536			-3.536
167300.000			3.537			-3.537
167400.000			3.536			-3.536
167501.000			3.536			-3.536
167600.000			3.536			-3.536
167700.000			3.535			-3.535
167801.000			3.535			-3.535
167901.000			3.536			-3.536
168001.000			3.537			-3.537
168101.000			3.536			-3.536
168200.000			3.535			-3.535
168300.000			3.535			-3.535
168401.000			3.535			-3.535
168500.000			3.536			-3.536
168600.000			3.536			-3.536
168701.000			3.535			-3.535
168801.000			3.534			-3.534
168901.000			3.535			-3.535
169002.000			3.534			-3.534
169100.000			3.534			-3.534
169200.000			3.534			-3.534
169300.000			3.535			-3.535
169400.000			3.535			-3.535
169501.000			3.534			-3.534
169600.000			3.535			-3.535
169700.000			3.535			-3.535
169802.000			3.535			-3.535
169901.000			3.535			-3.535
170000.000			3.534			-3.534
170101.000			3.534			-3.534
170200.000			3.534			-3.534
170300.000			3.535			-3.535
170401.000			3.534			-3.534
170500.000			3.534			-3.534
170600.000			3.535			-3.535
170702.000			3.535			-3.535
170801.000			3.535			-3.535
170900.000			3.535			-3.535
171001.000			3.534			-3.534
171100.000			3.534			-3.534
171200.000			3.534			-3.534
171301.000			3.535			-3.535
171400.000			3.535			-3.535
171500.000			3.535			-3.535
171602.000			3.535			-3.535
171701.000			3.536			-3.536
171801.000			3.535			-3.535
171901.000			3.534			-3.534
172000.000			3.535			-3.535
172100.000			3.535			-3.535
172201.000			3.535			-3.535
172300.000			3.535			-3.535
172400.000			3.535			-3.535
172502.000			3.535			-3.535
172601.000			3.534			-3.534
172702.000			3.535			-3.535
172800.000			3.535			-3.535
172900.000			3.534			-3.534
173001.000			3.534			-3.534
173100.000			3.535			-3.535
173200.000			3.535			-3.535
173301.000			3.534			-3.534
173400.000			3.535			-3.535
173501.000			3.534			-3.534
173602.000			3.533			-3.533
173700.000			3.534			-3.534
173800.000			3.534			-3.534
173901.000			3.534			-3.534
174000.000			3.536			-3.536
174100.000			3.536			-3.536
174201.000			3.534			-3.534
174300.000			3.534			-3.534
174401.000			3.535			-3.535
174502.000			3.535			-3.535
174601.000			3.534			-3.534
174700.000			3.535			-3.535
174801.000			3.535			-3.535
174900.000			3.534			-3.534
175000.000			3.533			-3.533
175101.000			3.533			-3.533
175200.000			3.534			-3.534
175301.000			3.534			-3.534
175402.000			3.535			-3.535
175501.000			3.534			-3.534
175600.000			3.534			-3.534
175700.000			3.535			-3.535
175800.000			3.535			-3.535
175901.000			3.534			-3.534
176000.000			3.533			-3.533
176100.000			3.534			-3.534
176201.000			3.534			-3.534
176301.000			3.534			-3.534
176401.000			3.534			-3.534
176501.000			3.535			-3.535
176600.000			3.534			-3.534
176700.000			3.535			-3.535
176801.000			3.534			-3.534
176900.000			3.533			-3.533
177000.000			3.534			-3.534
177101.000			3.534			-3.534
177201.000			3.534			-3.534
177301.000			3.533			-3.533
177402.000			3.532			-3.532
177500.000			3.533			-3.533
177600.000			3.533			-3.533
177701.000			3.534			-3.534
177800.000			3.535			-3.535
177900.000			3.534			-3.534
178001.000			3.535			-3.535
178101.000			3.535			-3.535
178201.000			3.534			-3.534
178302.000			3.534			-3.534
178400.000			3.536			-3.536
178500.000			3.535			-3.535
178601.000			3.534			-3.534
178700.000			3.534			-3.534
178800.000			3.534			-3.534
178900.000			3.534			-3.534
179000.000			3.535			-3.535
179102.000			3.535			-3.535
179201.000			3.535			-3.535
179301.000			3.535			-3.535
179401.000			3.534			-3.534
179500.000			3.534			-3.534
179600.000			3.536			-3.536
179701.000			3.536			-3.536
179800.000			3.535			-3.535
179900.000			3.535			-3.535
180001.000			3.536			-3.536
180101.000			3.535			-3.535
180201.000			3.535			-3.535
180301.000			3.535			-3.535
180400.000			3.534			-3.534
180500.000			3.535			-3.535
180601.000			3.535			-3.535
180700.000			3.534			-3.534
180800.000			3.535			-3.535
180901.000			3.535			-3.535
181001.000			3.536			-3.536
181101.000			3.536			-3.536
181202.000			3.535			-3.535
181300.000			3.536			-3.536
181400.000			3.535			-3.535
181501.000			3.536			-3.536
181600.000			3.537			-3.537
181700.000			3.537			-3.537
181801.000			3.536			-3.536
181901.000			3.535			-3.535
182002.000			3.537			-3.537
182101.000			3.535			-3.535
182200.000			3.535			-3.535
182301.000			3.534			-3.534
182400.000			3.534			-3.534
182500.000			3.535			-3.535
182601.000			3.535			-3.535
182700.000			3.535			-3.535
182800.000			3.534			-3.534
182902.000			3.534			-3.534
183001.000			3.534			-3.534
183100.000			3.534			-3.534
183201.000			3.534			-3.534
183300.000			3.534			-3.534
183400.000			3.534			-3.534
183501.000			3.534			-3.534
183600.000			3.533			-3.533
183700.000			3.533			-3.533
183802.000			3.535			-3.535
183901.000			3.534			-3.534
184001.000			3.534			-3.534
184101.000			3.533			-3.533
184200.000			3.534			-3.534
184300.000			3.533			-3.533
184401.000			3.533			-3.533
184500.000			3.532			-3.532
184600.000			3.533			-3.533
184702.000			3.534			-3.534
184801.000			3.534			-3.534
184901.000			3.533			-3.533
185001.000			3.533			-3.533
185100.000			3.533			-3.533
185200.000			3.532			-3.532
185300.000			3.533			-3.533
185400.000			3.532			-3.532
185501.000			3.532			-3.532
185600.000			3.534			-3.534
185701.000			3.534			-3.534
185802.000			3.533			-3.533
185900.000			3.533			-3.533
186000.000			3.533			-3.533
186101.000			3.534			-3.534
186200.000			3.533			-3.533
186300.000			3.533			-3.533
186401.000			3.532			-3.532
186500.000			3.532			-3.532
186601.000			3.532			-3.532
186702.000			3.533			-3.533
186801.000			3.533			-3.533
186900.000			3.533			-3.533
187001.000			3.533			-3.533
187100.000			3.533			-3.533
187200.000			3.533			-3.533
187301.000			3.533			-3.533
187400.000			3.533			-3.533
187501.000			3.533			-3.533
187602.000			3.533			-3.533
187701.000			3.533			-3.533
187800.000			3.534			-3.534
187901.000			3.534			-3.534
188000.000			3.534			-3.534
188100.000			3.534			-3.534
188201.000			3.535			-3.535
188300.000			3.534			-3.534
188400.000			3.533			-3.533
188502.000			3.534			-3.534
188601.000			3.533			-3.533
188702.000			3.534			-3.534
188800.000			3.534			-3.534
188900.000			3.534			-3.534
189001.000			3.535			-3.535
189100.000			3.534			-3.534
189200.000			3.534			-3.534
189301.000			3.534			-3.534
189400.000			3.534			-3.534
189501.000			3.533			-3.533
189602.000			3.533			-3.533
189700.000			3.533			-3.533
189800.000			3.534			-3.534
189901.000			3.534			-3.534
190000.000			3.534			-3.534
190100.000			3.534			-3.534
190201.000			3.533			-3.533
190300.000			3.533			-3.533
190401.000			3.534			-3.534
190502.000			3.535			-3.535
190601.000			3.534			-3.534
190700.000			3.533			-3.533
190801.000			3.533			-3.533
190900.000			3.534			-3.534
191000.000			3.533			-3.533
191101.000			3.534			-3.534
191200.000			3.534			-3.534
191301.000			3.534			-3.534
191402.000			3.534			-3.534
191501.000			3.533			-3.533
191600.000			3.534			-3.534
191700.000			3.534			-3.534
191800.000			3.534			-3.534
191901.000			3.533			-3.533
192000.000			3.533			-3.533
192100.000			3.533			-3.533
192202.000			3.533			-3.533
192301.000			3.533			-3.533
192401.000			3.533			-3.533
192501.000			3.533			-3.533
192600.000			3.532			-3.532
192700.000			3.533			-3.533
192801.000			3.534			-3.534
192900.000			3.534			-3.534
193000.000			3.534			-3.534
193101.000			3.535			-3.535
193201.000			3.533			-3.533
193301.000			3.534			-3.534
193401.000			3.534			-3.534
193500.000			3.533			-3.533
193600.000			3.533			-3.533
193701.000			3.533			-3.533
193800.000			3.533			-3.533
193900.000			3.534			-3.534
194001.000			3.534			-3.534
194101.000			3.534			-3.534
194201.000			3.533			-3.533
194301.000			3.533			-3.533
194400.000			3.533			-3.533
194500.000			3.533			-3.533
194601.000			3.533			-3.533
194700.000			3.532			-3.532
194800.000			3.533			-3.533
194900.000			3.533			-3.533
195000.000			3.533			-3.533
195102.000			3.533			-3.533
195201.000			3.532			-3.532
195300.000			3.532			-3.532
195401.000			3.533			-3.533
195500.000			3.533			-3.533
195600.000			3.533			-3.533
195701.000			3.532			-3.532
195800.000			3.533			-3.533
195900.000			3.532			-3.532
196002.000			3.532			-3.532
196101.000			3.533			-3.533
196201.000			3.533			-3.533
196301.000			3.533			-3.533
196400.000			3.533			-3.533
196500.000			3.533			-3.533
196601.000			3.534			-3.534
196700.000			3.532			-3.532
196800.000			3.533			-3.533
196902.000			3.533			-3.533
197001.000			3.532			-3.532
197101.000			3.533			-3.533
197201.000			3.533			-3.533
197300.000			3.533			-3.533
197400.000			3.533			-3.533
197501.000			3.532			-3.532
197600.000			3.532			-3.532
197700.000			3.531			-3.531
197801.000			3.532			-3.532
197901.000			3.532			-3.532
198002.000			3.531			-3.531
198101.000			3.532			-3.532
198200.000			3.532			-3.532
198301.000			3.533			-3.533
198400.000			3.531			-3.531
198500.000			3.532			-3.532
198601.000			3.533			-3.533
198700.000			3.532			-3.532
198800.000			3.533			-3.533
198902.000			3.533			-3.533
199001.000			3.533			-3.533
199100.000			3.533			-3.533
199201.000			3.533			-3.533
199300.000			3.533			-3.533
199400.000			3.532			-3.532
199501.000			3.532			-3.532
199600.000			3.533			-3.533
199700.000			3.533			-3.533
199802.000			3.532			-3.532
199901.000			3.532			-3.532
200001.000			3.532			-3.532
200101.000			3.533			-3.533
200200.000			3.533			-3.533
200300.000			3.533			-3.533
200401.000			3.532			-3.532
200500.000			3.533			-3.533
200600.000			3.532			-3.532
200702.000			3.532			-3.532
200801.000			3.532			-3.532
200901.000			3.532			-3.532
201001.000			3.533			-3.533
201100.000			3.533			-3.533
201200.000			3.533			-3.533
201300.000			3.532			-3.532
201400.000			3.533			-3.533
201501.000			3.533			-3.533
201601.000			3.533			-3.533
201701.000			3.532			-3.532
201801.000			3.533			-3.533
201900.000			3.533			-3.533
202000.000			3.532			-3.532
202101.000			3.532			-3.532
202200.000			3.533			-3.533
202300.000			3.534			-3.534
202401.000			3.533			-3.533
202501.000			3.532			-3.532
202601.000			3.533			-3.533
202701.000			3.533			-3.533
202800.000			3.533			-3.533
202900.000			3.533			-3.533
203001.000			3.531			-3.531
203100.000			3.531			-3.531
203200.000			3.532			-3.532
203302.000			3.532			-3.532
203401.000			3.532			-3.532
203501.000			3.533			-3.533
203601.000			3.532			-3.532
203700.000			3.532			-3.532
203800.000			3.531			-3.531
203901.000			3.533			-3.533
204000.000			3.533			-3.533
204100.000			3.533			-3.533
204202.000			3.532			-3.532
204301.000			3.532			-3.532
204402.000			3.533			-3.533
204500.000			3.533			-3.533
204600.000			3.533			-3.533
204701.000			3.533			-3.533
204800.000			3.533			-3.533
204900.000			3.533			-3.533
205001.000			3.532			-3.532
205101.000			3.533			-3.533
205201.000			3.532			-3.532
205302.000			3.531			-3.531
205400.000			3.532			-3.532
205500.000			3.532			-3.532
205601.000			3.532			-3.532
205700.000			3.532			-3.532
205800.000			3.532			-3.532
205901.000			3.531			-3.531
206001.000			3.531			-3.531
206101.000			3.531			-3.531
206202.000			3.532			-3.532
206300.000			3.532			-3.532
206400.000			3.532			-3.532
206501.000			3.532			-3.532
206600.000			3.531			-3.531
206700.000			3.531			-3.531
206801.000			3.531			-3.531
206901.000			3.531			-3.531
207001.000			3.531			-3.531
207102.000			3.531			-3.531
207200.000			3.530			-3.530
207300.000			3.530			-3.530
207401.000			3.531			-3.531
207500.000			3.531			-3.531
207600.000			3.530			-3.530
207700.000			3.530			-3.530
207801.000			3.531			-3.531
207902.000			3.531			-3.531
208001.000			3.530			-3.530
208100.000			3.529			-3.529
208201.000			3.530			-3.530
208300.000			3.529			-3.529
208400.000			3.529			-3.529
208501.000			3.529			-3.529
208600.000			3.529			-3.529
208700.000			3.530			-3.530
208802.000			3.530			-3.530
208901.000			3.530			-3.530
209000.000			3.529			-3.529
209101.000			3.529			-3.529
209200.000			3.529			-3.529
209300.000			3.529			-3.529
209401.000			3.529			-3.529
209500.000			3.530			-3.530
209600.000			3.529			-3.529
209702.000			3.529			-3.529
209801.000			3.529			-3.529
209901.000			3.529			-3.529
210001.000			3.528			-3.528
210100.000			3.528			-3.528
210200.000			3.528			-3.528
210301.000			3.529			-3.529
210400.000			3.529			-3.529
210500.000			3.528			-3.528
210602.000			3.528			-3.528
210701.000			3.528			-3.528
210802.000			3.529			-3.529
210900.000			3.529			-3.529
211000.000			3.530			-3.530
211101.000			3.529			-3.529
211200.000			3.529			-3.529
211300.000			3.530			-3.530
211401.000			3.529			-3.529
211501.000			3.530			-3.530
211601.000			3.530			-3.530
211702.000			3.529			-3.529
211800.000			3.529			-3.529
211900.000			3.529			-3.529
212001.000			3.530			-3.530
212100.000			3.530			-3.530
212200.000			3.528			-3.528
212301.000			3.529			-3.529
212401.000			3.530			-3.530
212501.000			3.529			-3.529
212602.000			3.529			-3.529
212700.000			3.531			-3.531
212800.000			3.531			-3.531
212901.000			3.530			-3.530
213000.000			3.528			-3.528
213100.000			3.529			-3.529
213201.000			3.529			-3.529
213301.000			3.530			-3.530
213401.000			3.530			-3.530
213502.000			3.529			-3.529
213600.000			3.529			-3.529
213700.000			3.530			-3.530
213801.000			3.530			-3.530
213900.000			3.530			-3.530
214000.000			3.529			-3.529
214100.000			3.530			-3.530
214200.000			3.530			-3.530
214302.000			3.530			-3.530
214401.000			3.531			-3.531
214500.000			3.530			-3.530
214601.000			3.529			-3.529
214700.000			3.530			-3.530
214800.000			3.530			-3.530
214901.000			3.530			-3.530
215000.000			3.530			-3.530
215100.000			3.531			-3.531
215202.000			3.530			-3.530
215301.000			3.529			-3.529
215400.000			3.529			-3.529
215501.000			3.530			-3.530
215600.000			3.530			-3.530
215700.000			3.529			-3.529
215801.000			3.529			-3.529
215900.000			3.529			-3.529
216000.000			3.530			-3.530
216102.000			3.530			-3.530
216201.000			3.531			-3.531
216300.000			3.531			-3.531
216401.000			3.530			-3.530
216500.000			3.530			-3.530
216600.000			3.529			-3.529
216701.000			3.529			-3.529
216800.000			3.529			-3.529
216900.000			3.530			-3.530
217002.000			3.530			-3.530
217101.000			3.530			-3.530
217202.000			3.530			-3.530
217300.000			3.529			-3.529
217400.000			3.530			-3.530
217501.000			3.530			-3.530
217600.000			3.530			-3.530
217700.000			3.529			-3.529
217801.000			3.529			-3.529
217901.000			3.529			-3.529
218001.000			3.529			-3.529
218102.000			3.530			-3.530
218200.000			3.530			-3.530
218300.000			3.529			-3.529
218401.000			3.529			-3.529
218500.000			3.530			-3.530
218600.000			3.530			-3.530
218701.000			3.529			-3.529
218801.000			3.529			-3.529
218901.000			3.529			-3.529
219002.000			3.529			-3.529
219100.000			3.530			-3.530
219200.000			3.528			-3.528
219301.000			3.528			-3.528
219400.000			3.529			-3.529
219500.000			3.529			-3.529
219601.000			3.528			-3.528
219700.000			3.528			-3.528
219801.000			3.529			-3.529
219902.000			3.529			-3.529
220000.000			3.529			-3.529
220100.000			3.530			-3.530
220201.000			3.530			-3.530
220300.000			3.529			-3.529
220400.000			3.529			-3.529
220500.000			3.528			-3.528
220600.000			3.529			-3.529
220702.000			3.529			-3.529
220801.000			3.529			-3.529
220901.000			3.529			-3.529
221001.000			3.529			-3.529
221100.000			3.528			-3.528
221200.000			3.528			-3.528
221301.000			3.528			-3.528
221400.000			3.528			-3.528
221500.000			3.529			-3.529
221602.000			3.528			-3.528
221701.000			3.528			-3.528
221800.000			3.528			-3.528
221901.000			3.528			-3.528
222000.000			3.529			-3.529
222100.000			3.528			-3.528
222201.000			3.527			-3.527
222300.000			3.527			-3.527
222400.000			3.528			-3.528
222502.000			3.529			-3.529
222601.000			3.528			-3.528
222700.000			3.527			-3.527
222801.000			3.529			-3.529
222900.000			3.528			-3.528
223000.000			3.528			-3.528
223101.000			3.529			-3.529
223200.000			3.528			-3.528
223300.000			3.528			-3.528
223402.000			3.529			-3.529
223501.000			3.530			-3.530
223602.000			3.529			-3.529
223700.000			3.528			-3.528
223800.000			3.528			-3.528
223901.000			3.528			-3.528
224000.000			3.528			-3.528
224100.000			3.528			-3.528
224201.000			3.528			-3.528
224301.000			3.527			-3.527
224401.000			3.528			-3.528
224502.000			3.528			-3.528
224600.000			3.528			-3.528
224700.000			3.527			-3.527
224801.000			3.528			-3.528
224900.000			3.527			-3.527
225000.000			3.527			-3.527
225101.000			3.528			-3.528
225200.000			3.527			-3.527
225301.000			3.526			-3.526
225402.000			3.528			-3.528
225501.000			3.527			-3.527
225600.000			3.527			-3.527
225701.000			3.527			-3.527
225800.000			3.527			-3.527
225900.000			3.526			-3.526
226001.000			3.527			-3.527
226100.000			3.526			-3.526
226201.000			3.528			-3.528
226302.000			3.527			-3.527
226401.000			3.527			-3.527
226500.000			3.526			-3.526
226601.000			3.526			-3.526
226700.000			3.527			-3.527
226800.000			3.527			-3.527
226900.000			3.527			-3.527
227000.000			3.526			-3.526
227101.000			3.527			-3.527
227201.000			3.528			-3.528
227301.000			3.527			-3.527
227401.000			3.526			-3.526
227500.000			3.526			-3.526
227600.000			3.527			-3.527
227701.000			3.527			-3.527
227800.000			3.526			-3.526
227900.000			3.526			-3.526
228001.000			3.528			-3.528
228101.000			3.527			-3.527
228201.000			3.526			-3.526
228301.000			3.527			-3.527
228400.000			3.526			-3.526
228500.000			3.526			-3.526
228601.000			3.527			-3.527
228700.000			3.527			-3.527
228800.000			3.527			-3.527
228901.000			3.527			-3.527
229001.000			3.527			-3.527
229101.000			3.528			-3.528
229202.000			3.527			-3.527
229300.000			3.527			-3.527
229400.000			3.525			-3.525
229501.000			3.525			-3.525
229600.000			3.526			-3.526
229700.000			3.526			-3.526
229801.000			3.526			-3.526
229900.000			3.526			-3.526
230002.000			3.526			-3.526
230101.000			3.526			-3.526
230201.000			3.527			-3.527
230301.000			3.526			-3.526
230400.000			3.526			-3.526
230500.000			3.527			-3.527
230601.000			3.527			-3.527
230700.000			3.526			-3.526
230800.000			3.526			-3.526
230902.000			3.526			-3.526
231001.000			3.526			-3.526
231101.000			3.526			-3.526
231201.000			3.526			-3.526
231300.000			3.526			-3.526
231400.000			3.527			-3.527
231501.000			3.528			-3.528
231600.000			3.527			-3.527
231700.000			3.527			-3.527
231802.000			3.527			-3.527
231901.000			3.527			-3.527
232001.000			3.528			-3.528
232101.000			3.528			-3.528
232200.000			3.528			-3.528
232300.000			3.528			-3.528
232401.000			3.528			-3.528
232500.000			3.527			-3.527
232600.000			3.527			-3.527
232702.000			3.527			-3.527
232801.000			3.529			-3.529
232901.000			3.528			-3.528
233001.000			3.528			-3.528
233100.000			3.528			-3.528
233200.000			3.528			-3.528
233300.000			3.527			-3.527
233400.000			3.527			-3.527
233501.000			3.528			-3.528
233601.000			3.528			-3.528
233701.000			3.529			-3.529
233802.000			3.529			-3.529
233900.000			3.529			-3.529
234000.000			3.529			-3.529
234101.000			3.529			-3.529
234200.000			3.530			-3.530
234300.000			3.529			-3.529
234401.000			3.528			-3.528
234500.000			3.529			-3.529
234601.000			3.529			-3.529
234702.000			3.529			-3.529
234800.000			3.529			-3.529
234900.000			3.529			-3.529
235001.000			3.529			-3.529
235100.000			3.530			-3.530
235200.000			3.530			-3.530
235301.000			3.530			-3.530
235400.000			3.530			-3.530
235501.000			3.529			-3.529
235602.000			3.530			-3.530
235701.000			3.529			-3.529
235800.000			3.529			-3.529
235901.000			3.530			-3.530
236000.000			3.531			-3.531
236100.000			3.529			-3.529
236201.000			3.529			-3.529
236300.000			3.529			-3.529
236402.000			3.529			-3.529
236501.000			3.529			-3.529
236601.000			3.528			-3.528
236701.000			3.528			-3.528
236800.000			3.529			-3.529
236900.000			3.529			-3.529
237001.000			3.529			-3.529
237100.000			3.530			-3.530
237200.000			3.529			-3.529
237301.000			3.528			-3.528
237401.000			3.529			-3.529
237501.000			3.529			-3.529
237601.000			3.528			-3.528
237700.000			3.528			-3.528
237800.000			3.528			-3.528
237901.000			3.529			-3.529
238000.000			3.528			-3.528
238100.000			3.528			-3.528
238201.000			3.527			-3.527
238301.000			3.528			-3.528
238401.000			3.528			-3.528
238502.000			3.529			-3.529
238600.000			3.529			-3.529
238700.000			3.527			-3.527
238801.000			3.528			-3.528
238900.000			3.528			-3.528
239000.000			3.528			-3.528
239101.000			3.528			-3.528
239200.000			3.529			-3.529
239301.000			3.529			-3.529
239402.000			3.528			-3.528
239500.000			3.529			-3.529
239600.000			3.529			-3.529
239700.000			3.528			-3.528
239800.000			3.528			-3.528
239901.000			3.527			-3.527
240000.000			3.528			-3.528
240100.000			3.528			-3.528
240202.000			3.529			-3.529
240301.000			3.529			-3.529
240401.000			3.529			-3.529
240501.000			3.527			-3.527
240600.000			3.528			-3.528
240700.000			3.528			-3.528
240801.000			3.526			-3.526
240900.000			3.528			-3.528
241000.000			3.527			-3.527
241102.000			3.528			-3.528
241201.000			3.527			-3.527
241301.000			3.527			-3.527
241401.000			3.528			-3.528
241500.000			3.528			-3.528
241600.000			3.528			-3.528
241701.000			3.528			-3.528
241800.000			3.529			-3.529
241900.000			3.528			-3.528
242002.000			3.527			-3.527
242101.000			3.527			-3.527
242201.000			3.528			-3.528
242301.000			3.526			-3.526
242400.000			3.528			-3.528
242500.000			3.527			-3.527
242601.000			3.527			-3.527
242700.000			3.527			-3.527
242800.000			3.527			-3.527
242902.000			3.527			-3.527
243001.000			3.527			-3.527
243102.000			3.527			-3.527
243200.000			3.526			-3.526
243300.000			3.527			-3.527
243401.000			3.528			-3.528
243500.000			3.527			-3.527
243600.000			3.526			-3.526
243701.000			3.527			-3.527
243801.000			3.527			-3.527
243901.000			3.527			-3.527
244002.000			3.527			-3.527
244100.000			3.527			-3.527
244200.000			3.527			-3.527
244301.000			3.527			-3.527
244400.000			3.527			-3.527
244500.000			3.526			-3.526
244601.000			3.526			-3.526
244700.000			3.527			-3.527
244801.000			3.527			-3.527
244902.000			3.526			-3.526
245000.000			3.527			-3.527
245100.000			3.527			-3.527
245201.000			3.527			-3.527
245300.000			3.527			-3.527
245400.000			3.526			-3.526
245501.000			3.527			-3.527
245600.000			3.527			-3.527
245701.000			3.528			-3.528
245802.000			3.528			-3.528
245901.000			3.528			-3.528
246000.000			3.527			-3.527
246100.000			3.527			-3.527
246200.000			3.527			-3.527
246301.000			3.527			-3.527
246400.000			3.527			-3.527
246500.000			3.527			-3.527
246601.000			3.526			-3.526
246701.000			3.527			-3.527
246801.000			3.528			-3.528
246901.000			3.527			-3.527
247000.000			3.527			-3.527
247100.000			3.527			-3.527
247201.000			3.527			-3.527
247300.000			3.527			-3.527
247400.000			3.527			-3.527
247501.000			3.528			-3.528
247601.000			3.527			-3.527
247701.000			3.528			-3.528
247801.000			3.527			-3.527
247900.000			3.525			-3.525
248000.000			3.526			-3.526
248101.000			3.526			-3.526
248200.000			3.527			-3.527
248300.000			3.527			-3.527
248401.000			3.527			-3.527
248501.000			3.527			-3.527
248601.000			3.527			-3.527
248702.000			3.527			-3.527
248800.000			3.527			-3.527
248900.000			3.527			-3.527
249001.000			3.527			-3.527
249100.000			3.526			-3.526
249200.000			3.526			-3.526
249300.000			3.526			-3.526
249400.000			3.525			-3.525
249502.000			3.526			-3.526
249601.000			3.526			-3.526
249701.000			3.525			-3.525
249801.000			3.525			-3.525
249900.000			3.526			-3.526
250000.000			3.526			-3.526
250101.000			3.525			-3.525
250200.000			3.526			-3.526
250300.000			3.526			-3.526
250401.000			3.525			-3.525
250501.000			3.525			-3.525
250601.000			3.525			-3.525
250701.000			3.525			-3.525
250800.000			3.526			-3.526
250900.000			3.525			-3.525
251001.000			3.525			-3.525
251100.000			3.525			-3.525
251200.000			3.526			-3.526
251302.000			3.525			-3.525
251401.000			3.525			-3.525
251501.000			3.525			-3.525
251601.000			3.525			-3.525
251700.000			3.525			-3.525
251800.000			3.525			-3.525
251901.000			3.526			-3.526
252000.000			3.526			-3.526
252100.000			3.526			-3.526
252201.000			3.525			-3.525
252301.000			3.525			-3.525
252402.000			3.526			-3.526
252500.000			3.526			-3.526
252600.000			3.526			-3.526
252701.000			3.526			-3.526
252800.000			3.525			-3.525
252900.000			3.526			-3.526
253001.000			3.526			-3.526
253100.000			3.526			-3.526
253201.000			3.525			-3.525
253302.000			3.525			-3.525
253400.000			3.526			-3.526
253500.000			3.525			-3.525
253601.000			3.525			-3.525
253700.000			3.525			-3.525
253800.000			3.526			-3.526
253901.000			3.526			-3.526
254000.000			3.524			-3.524
254101.000			3.525			-3.525
254202.000			3.526			-3.526
254300.000			3.527			-3.527
254400.000			3.526			-3.526
254501.000			3.526			-3.526
254600.000			3.526			-3.526
254700.000			3.526			-3.526
254801.000			3.526			-3.526
254900.000			3.525			-3.525
255001.000			3.525			-3.525
255102.000			3.526			-3.526
255201.000			3.526			-3.526
255300.000			3.526			-3.526
255401.000			3.526			-3.526
255500.000			3.526			-3.526
255600.000			3.525			-3.525
255700.000			3.525			-3.525
255800.000			3.524			-3.524
255902.000			3.524			-3.524
256001.000			3.524			-3.524
256101.000			3.525			-3.525
256201.000			3.526			-3.526
256300.000			3.525			-3.525
256400.000			3.525			-3.525
256501.000			3.526			-3.526
256600.000			3.525			-3.525
256700.000			3.526			-3.526
256801.000			3.527			-3.527
256901.000			3.526			-3.526
257001.000			3.525			-3.525
257101.000			3.525			-3.525
257200.000			3.524			-3.524
257300.000			3.524			-3.524
257401.000			3.524			-3.524
257500.000			3.525			-3.525
257600.000			3.526			-3.526
257701.000			3.526			-3.526
257801.000			3.525			-3.525
257901.000			3.525			-3.525
258001.000			3.526			-3.526
258100.000			3.525			-3.525
258200.000			3.524			-3.524
258301.000			3.525			-3.525
258400.000			3.524			-3.524
258500.000			3.525			-3.525
258601.000			3.525			-3.525
258701.000			3.524			-3.524
258802.000			3.525			-3.525
258901.000			3.526			-3.526
259000.000			3.526			-3.526
259101.000			3.524			-3.524
259200.000			3.524			-3.524
259300.000			3.525			-3.525
259401.000			3.525			-3.525
259500.000			3.525			-3.525
259600.000			3.525			-3.525
259702.000			3.525			-3.525
259801.000			3.524			-3.524
259900.000			3.525			-3.525
260001.000			3.525			-3.525
260100.000			3.524			-3.524
260200.000			3.524			-3.524
260301.000			3.525			-3.525
260400.000			3.525			-3.525
260500.000			3.526			-3.526
260602.000			3.525			-3.525
260701.000			3.525			-3.525
260800.000			3.525			-3.525
260901.000			3.526			-3.526
261000.000			3.524			-3.524
261100.000			3.524			-3.524
261201.000			3.524			-3.524
261300.000			3.524			-3.524
261400.000			3.524			-3.524
261502.000			3.525			-3.525
261601.000			3.525			-3.525
261700.000			3.524			-3.524
261801.000			3.525			-3.525
261900.000			3.526			-3.526
262000.000			3.525			-3.525
262100.000			3.525			-3.525
262200.000			3.524			-3.524
262301.000			3.525			-3.525
262401.000			3.525			-3.525
262501.000			3.525			-3.525
262601.000			3.524			-3.524
262700.000			3.525			-3.525
262800.000			3.526			-3.526
262901.000			3.525			-3.525
263000.000			3.524			-3.524
263100.000			3.524			-3.524
263201.000			3.525			-3.525
263301.000			3.525			-3.525
263401.000			3.524			-3.524
263501.000			3.524			-3.524
263600.000			3.525			-3.525
263700.000			3.525			-3.525
263801.000			3.525			-3.525
263900.000			3.525			-3.525
264000.000			3.525			-3.525
264101.000			3.525			-3.525
264201.000			3.525			-3.525
264301.000			3.523			-3.523
264402.000			3.523			-3.523
264500.000			3.525			-3.525
264600.000			3.525			-3.525
264701.000			3.524			-3.524
264800.000			3.525			-3.525
264900.000			3.525			-3.525
265001.000			3.524			-3.524
265100.000			3.524			-3.524
265202.000			3.525			-3.525
265301.000			3.525			-3.525
265400.000			3.525			-3.525
265501.000			3.524			-3.524
265600.000			3.525			-3.525
265700.000			3.525			-3.525
265801.000			3.524			-3.524
265900.000			3.524			-3.524
266000.000			3.524			-3.524
266102.000			3.525			-3.525
266201.000			3.525			-3.525
266301.000			3.525			-3.525
266401.000			3.525			-3.525
266500.000			3.525			-3.525
266600.000			3.524			-3.524
266701.000			3.523			-3.523
266800.000			3.524			-3.524
266900.000			3.524			-3.524
267002.000			3.525			-3.525
267101.000			3.525			-3.525
267201.000			3.526			-3.526
267301.000			3.525			-3.525
267400.000			3.525			-3.525
267500.000			3.525			-3.525
267601.000			3.524			-3.524
267700.000			3.523			-3.523
267800.000			3.525			-3.525
267901.000			3.525			-3.525
268001.000			3.525			-3.525
268101.000			3.525			-3.525
268201.000			3.525			-3.525
268300.000			3.525			-3.525
268400.000			3.525			-3.525
268500.000			3.524			-3.524
268600.000			3.524			-3.524
268701.000			3.524			-3.524
268800.000			3.523			-3.523
268901.000			3.524			-3.524
269002.000			3.524			-3.524
269101.000			3.523			-3.523
269200.000			3.524			-3.524
269301.000			3.525			-3.525
269400.000			3.525			-3.525
269500.000			3.524			-3.524
269601.000			3.524			-3.524
269700.000			3.524			-3.524
269800.000			3.525			-3.525
269902.000			3.524			-3.524
270001.000			3.523			-3.523
270100.000			3.523			-3.523
270201.000			3.524			-3.524
270300.000			3.524			-3.524
270400.000			3.523			-3.523
270501.000			3.524			-3.524
270600.000			3.524			-3.524
270700.000			3.524			-3.524
270802.000			3.524			-3.524
270901.000			3.524			-3.524
271000.000			3.522			-3.522
271101.000			3.523			-3.523
271200.000			3.524			-3.524
271300.000			3.523			-3.523
271401.000			3.524			-3.524
271500.000			3.523			-3.523
271600.000			3.524			-3.524
271702.000			3.524			-3.524
271801.000			3.523			-3.523
271901.000			3.523			-3.523
272000.000			3.523			-3.523
272100.000			3.523			-3.523
272201.000			3.523			-3.523
272300.000			3.523			-3.523
272400.000			3.521			-3.521
272501.000			3.523			-3.523
272601.000			3.523			-3.523
272701.000			3.523			-3.523
272801.000			3.522			-3.522
272900.000			3.523			-3.523
273000.000			3.522			-3.522
273101.000			3.523			-3.523
273200.000			3.523			-3.523
273300.000			3.523			-3.523
273401.000			3.523			-3.523
273501.000			3.523			-3.523
273601.000			3.523			-3.523
273701.000			3.523			-3.523
273800.000			3.521			-3.521
273900.000			3.524			-3.524
274001.000			3.523			-3.523
274100.000			3.524			-3.524
274200.000			3.523			-3.523
274301.000			3.522			-3.522
274401.000			3.523			-3.523
274501.000			3.523			-3.523
274601.000			3.524			-3.524
274700.000			3.524			-3.524
274800.000			3.524			-3.524
274900.000			3.524			-3.524
275000.000			3.522			-3.522
275101.000			3.524			-3.524
275200.000			3.524			-3.524
275301.000			3.524			-3.524
275402.000			3.524			-3.524
275501.000			3.524			-3.524
275600.000			3.523			-3.523
275701.000			3.523			-3.523
275800.000			3.523			-3.523
275900.000			3.523			-3.523
276001.000			3.523			-3.523
276100.000			3.522			-3.522
276200.000			3.522			-3.522
276302.000			3.524			-3.524
276401.000			3.524			-3.524
276500.000			3.524			-3.524
276601.000			3.524			-3.524
276700.000			3.523			-3.523
276800.000			3.523			-3.523
276901.000			3.523			-3.523
277000.000			3.524			-3.524
277100.000			3.523			-3.523
277202.000			3.523			-3.523
277301.000			3.523			-3.523
277400.000			3.524			-3.524
277501.000			3.523			-3.523
277600.000			3.523			-3.523
277700.000			3.523			-3.523
277801.000			3.524			-3.524
277900.000			3.524			-3.524
278000.000			3.524			-3.524
278102.000			3.523			-3.523
278201.000			3.524			-3.524
278302.000			3.523			-3.523
278400.000			3.522			-3.522
278500.000			3.522			-3.522
278601.000			3.523			-3.523
278700.000			3.523			-3.523
278800.000			3.523			-3.523
278901.000			3.523			-3.523
279000.000			3.524			-3.524
279101.000			3.523			-3.523
279202.000			3.523			-3.523
279300.000			3.524			-3.524
279400.000			3.523			-3.523
279501.000			3.524			-3.524
279600.000			3.523			-3.523
279700.000			3.522			-3.522
279801.000			3.524			-3.524
279900.000			3.523			-3.523
280001.000			3.524			-3.524
280102.000			3.523			-3.523
280201.000			3.523			-3.523
280300.000			3.524			-3.524
280401.000			3.524			-3.524
280500.000			3.523			-3.523
280600.000			3.523			-3.523
280701.000			3.523			-3.523
280800.000			3.524			-3.524
280901.000			3.524			-3.524
281002.000			3.523			-3.523
281101.000			3.524			-3.524
281200.000			3.524			-3.524
281300.000			3.523			-3.523
281400.000			3.522			-3.522
281501.000			3.522			-3.522
281600.000			3.522			-3.522
281700.000			3.523			-3.523
281802.000			3.523			-3.523
281901.000			3.523			-3.523
282000.000			3.522			-3.522
282101.000			3.523			-3.523
282200.000			3.523			-3.523
282300.000			3.523			-3.523
282401.000			3.523			-3.523
282500.000			3.523			-3.523
282600.000			3.522			-3.522
282702.000			3.523			-3.523
282801.000			3.522			-3.522
282901.000			3.522			-3.522
283001.000			3.522			-3.522
283100.000			3.522			-3.522
283200.000			3.522			-3.522
283301.000			3.522			-3.522
283400.000			3.523			-3.523
283500.000			3.524			-3.524
283602.000			3.524			-3.524
283701.000			3.524			-3.524
283801.000			3.523			-3.523
283901.000			3.522			-3.522
284000.000			3.522			-3.522
284100.000			3.522			-3.522
284201.000			3.523			-3.523
284300.000			3.522			-3.522
284400.000			3.522			-3.522
284502.000			3.523			-3.523
284601.000			3.522			-3.522
284702.000			3.523			-3.523
284800.000			3.523			-3.523
284900.000			3.523			-3.523
285001.000			3.523			-3.523
285100.000			3.523			-3.523
285200.000			3.522			-3.522
285301.000			3.523			-3.523
285400.000			3.524			-3.524
285501.000			3.523			-3.523
285602.000			3.523			-3.523
285701.000			3.522			-3.522
285800.000			3.523			-3.523
285901.000			3.523			-3.523
286000.000			3.523			-3.523
286100.000			3.523			-3.523
286201.000			3.524			-3.524
286300.000			3.523			-3.523
286401.000			3.524			-3.524
286502.000			3.523			-3.523
286601.000			3.523			-3.523
286700.000			3.523			-3.523
286801.000			3.523			-3.523
286900.000			3.523			-3.523
287000.000			3.523			-3.523
287101.000			3.523			-3.523
287200.000			3.523			-3.523
287300.000			3.523			-3.523
287402.000			3.523			-3.523
287501.000			3.523			-3.523
287600.000			3.523			-3.523
287700.000			3.523			-3.523
287800.000			3.522			-3.522
287901.000			3.522			-3.522
288000.000			3.522			-3.522
288100.000			3.521			-3.521
288201.000			3.522			-3.522
288301.000			3.522			-3.522
288401.000			3.523			-3.523
288501.000			3.523			-3.523
288600.000			3.522			-3.522
288700.000			3.523			-3.523
288801.000			3.523			-3.523
288900.000			3.523			-3.523
289000.000			3.522			-3.522
289101.000			3.521			-3.521
289201.000			3.522			-3.522
289301.000			3.523			-3.523
289402.000			3.523			-3.523
289500.000			3.523			-3.523
289600.000			3.524			-3.524
289701.000			3.524			-3.524
289800.000			3.523			-3.523
289900.000			3.522			-3.522
290001.000			3.523			-3.523
290100.000			3.523			-3.523
290201.000			3.523			-3.523
290302.000			3.523			-3.523
290400.000			3.524			-3.524
290500.000			3.524			-3.524
290601.000			3.523			-3.523
290700.000			3.522			-3.522
290800.000			3.521			-3.521
290900.000			3.523			-3.523
291000.000			3.522			-3.522
291102.000			3.522			-3.522
291201.000			3.523			-3.523
291301.000			3.524			-3.524
291401.000			3.523			-3.523
291500.000			3.522			-3.522
291600.000			3.523			-3.523
291701.000			3.523			-3.523
291800.000			3.523			-3.523
291900.000			3.523			-3.523
292002.000			3.523			-3.523
292101.000			3.523			-3.523
292201.000			3.523			-3.523
292301.000			3.523			-3.523
292400.000			3.522			-3.522
292500.000			3.523			-3.523
292601.000			3.522			-3.522
292700.000			3.523			-3.523
292800.000			3.524			-3.524
292902.000			3.523			-3.523
293001.000			3.522			-3.522
293101.000			3.522			-3.522
293201.000			3.522			-3.522
293300.000			3.522			-3.522
293400.000			3.522			-3.522
293501.000			3.521			-3.521
293600.000			3.522			-3.522
293700.000			3.522			-3.522
293801.000			3.522			-3.522
293901.000			3.523			-3.523
294002.000			3.523			-3.523
294100.000			3.523			-3.523
294200.000			3.522			-3.522
294301.000			3.522			-3.522
294400.000			3.522			-3.522
294500.000			3.521			-3.521
294601.000			3.521			-3.521
294700.000			3.521			-3.521
294801.000			3.521			-3.521
294902.000			3.521			-3.521
295001.000			3.521			-3.521
295100.000			3.522			-3.522
295201.000			3.521			-3.521
295300.000			3.521			-3.521
295400.000			3.521			-3.521
295501.000			3.521			-3.521
295600.000			3.521			-3.521
295701.000			3.521			-3.521
295802.000			3.522			-3.522
295901.000			3.523			-3.523
296000.000			3.521			-3.521
296101.000			3.522			-3.522
296200.000			3.522			-3.522
296300.000			3.521			-3.521
296401.000			3.522			-3.522
296500.000			3.522			-3.522
296600.000			3.520			-3.520
296702.000			3.522			-3.522
296801.000			3.522			-3.522
296900.000			3.521			-3.521
297001.000			3.521			-3.521
297100.000			3.522			-3.522
297200.000			3.522			-3.522
297300.000			3.521			-3.521
297400.000			3.521			-3.521
297501.000			3.521			-3.521
297601.000			3.522			-3.522
297701.000			3.521			-3.521
297802.000			3.521			-3.521
297900.000			3.522			-3.522
298000.000			3.522			-3.522
298101.000			3.522			-3.522
298200.000			3.521			-3.521
298300.000			3.521			-3.521
298401.000			3.522			-3.522
298501.000			3.523			-3.523
298601.000			3.522			-3.522
298702.000			3.522			-3.522
298800.000			3.521			-3.521
298900.000			3.521			-3.521
299001.000			3.521			-3.521
299100.000			3.521			-3.521
299200.000			3.521			-3.521
299301.000			3.521			-3.521
299400.000			3.520			-3.520
299501.000			3.521			-3.521
299602.000			3.521			-3.521
299700.000			3.522			-3.522
299800.000			3.522			-3.522
299901.000			3.521			-3.521
