# Acquired on 30/01/2024 10:09:16 
# SPIDER: Creep_11mm_GRPCNT1454A-2
# CREEP MEASUREMENT

# time [ms]		force [N]		stiffness [N/mm]
1.000			-49.001			-4.455
104.000			-49.614			-4.510
204.000			-49.498			-4.500
304.000			-49.034			-4.458
404.000			-48.329			-4.394
505.000			-48.071			-4.370
604.000			-47.846			-4.350
704.000			-47.648			-4.332
805.000			-47.472			-4.316
903.000			-47.313			-4.301
1004.000			-47.165			-4.288
1105.000			-47.030			-4.275
1204.000			-46.792			-4.254
1304.000			-46.684			-4.244
1404.000			-46.583			-4.235
1504.000			-46.487			-4.226
1604.000			-46.396			-4.218
1704.000			-46.312			-4.210
1804.000			-46.231			-4.203
1905.000			-46.080			-4.189
2004.000			-46.009			-4.183
2103.000			-45.941			-4.176
2205.000			-45.876			-4.171
2304.000			-45.814			-4.165
2404.000			-45.754			-4.159
2505.000			-45.697			-4.154
2604.000			-45.587			-4.144
2704.000			-45.535			-4.140
2804.000			-45.485			-4.135
2904.000			-45.435			-4.130
3004.000			-45.387			-4.126
3105.000			-45.341			-4.122
3204.000			-45.297			-4.118
3303.000			-45.252			-4.114
3405.000			-45.169			-4.106
3504.000			-45.128			-4.103
3604.000			-45.089			-4.099
3705.000			-45.051			-4.096
3804.000			-45.014			-4.092
3904.000			-44.979			-4.089
4004.000			-44.942			-4.086
4104.000			-44.873			-4.079
4204.000			-44.839			-4.076
4305.000			-44.807			-4.073
4404.000			-44.775			-4.070
4504.000			-44.744			-4.068
4605.000			-44.713			-4.065
4703.000			-44.683			-4.062
4804.000			-44.624			-4.057
4905.000			-44.597			-4.054
5004.000			-44.569			-4.052
5105.000			-44.542			-4.049
5203.000			-44.515			-4.047
5304.000			-44.488			-4.044
5405.000			-44.462			-4.042
5504.000			-44.412			-4.037
5604.000			-44.387			-4.035
5705.000			-44.363			-4.033
5804.000			-44.339			-4.031
5903.000			-44.315			-4.029
6005.000			-44.292			-4.027
6104.000			-44.269			-4.024
6204.000			-44.247			-4.022
6305.000			-44.203			-4.018
6404.000			-44.181			-4.016
6504.000			-44.160			-4.015
6604.000			-44.138			-4.013
6704.000			-44.118			-4.011
6804.000			-44.098			-4.009
6905.000			-44.079			-4.007
7004.000			-44.038			-4.003
7103.000			-44.018			-4.002
7205.000			-43.999			-4.000
7304.000			-43.981			-3.998
7404.000			-43.962			-3.997
7505.000			-43.943			-3.995
7604.000			-43.926			-3.993
7704.000			-43.890			-3.990
7804.000			-43.873			-3.988
7904.000			-43.857			-3.987
8004.000			-43.840			-3.985
8104.000			-43.822			-3.984
8204.000			-43.805			-3.982
8305.000			-43.788			-3.981
8404.000			-43.756			-3.978
8503.000			-43.741			-3.976
8605.000			-43.724			-3.975
8704.000			-43.708			-3.973
8804.000			-43.692			-3.972
8905.000			-43.676			-3.971
9003.000			-43.661			-3.969
9104.000			-43.648			-3.968
9205.000			-43.618			-3.965
9304.000			-43.603			-3.964
9404.000			-43.588			-3.963
9505.000			-43.574			-3.961
9604.000			-43.560			-3.960
9703.000			-43.547			-3.959
9805.000			-43.532			-3.957
9904.000			-43.505			-3.955
10004.000			-43.491			-3.954
10105.000			-43.478			-3.953
10204.000			-43.465			-3.951
10304.000			-43.452			-3.950
10404.000			-43.440			-3.949
10504.000			-43.426			-3.948
10604.000			-43.399			-3.945
10705.000			-43.387			-3.944
10804.000			-43.373			-3.943
10903.000			-43.362			-3.942
11005.000			-43.350			-3.941
11104.000			-43.337			-3.940
11204.000			-43.326			-3.939
11305.000			-43.301			-3.936
11404.000			-43.290			-3.935
11505.000			-43.278			-3.934
11603.000			-43.266			-3.933
11704.000			-43.255			-3.932
11805.000			-43.243			-3.931
11904.000			-43.232			-3.930
12004.000			-43.221			-3.929
12105.000			-43.199			-3.927
12204.000			-43.188			-3.926
12303.000			-43.176			-3.925
12405.000			-43.165			-3.924
12504.000			-43.155			-3.923
12604.000			-43.145			-3.922
12705.000			-43.134			-3.921
12804.000			-43.112			-3.919
12904.000			-43.102			-3.918
13004.000			-43.092			-3.917
13104.000			-43.082			-3.917
13204.000			-43.071			-3.916
13305.000			-43.062			-3.915
13404.000			-43.053			-3.914
13503.000			-43.034			-3.912
13605.000			-43.023			-3.911
13704.000			-43.012			-3.910
13804.000			-43.002			-3.909
13905.000			-42.992			-3.908
14004.000			-42.984			-3.908
14104.000			-42.974			-3.907
14204.000			-42.965			-3.906
14304.000			-42.946			-3.904
14404.000			-42.936			-3.903
14504.000			-42.927			-3.902
14604.000			-42.919			-3.902
14705.000			-42.910			-3.901
14804.000			-42.901			-3.900
14903.000			-42.890			-3.899
15005.000			-42.874			-3.898
15104.000			-42.865			-3.897
15204.000			-42.856			-3.896
15305.000			-42.847			-3.895
15404.000			-42.839			-3.894
15504.000			-42.831			-3.894
15604.000			-42.822			-3.893
15704.000			-42.805			-3.891
15804.000			-42.796			-3.891
15905.000			-42.787			-3.890
16004.000			-42.780			-3.889
16104.000			-42.772			-3.888
16205.000			-42.763			-3.888
16303.000			-42.755			-3.887
16404.000			-42.739			-3.885
16505.000			-42.730			-3.885
16604.000			-42.722			-3.884
16704.000			-42.715			-3.883
16805.000			-42.707			-3.882
16904.000			-42.699			-3.882
17003.000			-42.691			-3.881
17105.000			-42.683			-3.880
17204.000			-42.668			-3.879
17304.000			-42.660			-3.878
17405.000			-42.652			-3.877
17504.000			-42.645			-3.877
17604.000			-42.638			-3.876
17703.000			-42.630			-3.875
17804.000			-42.622			-3.875
17905.000			-42.608			-3.873
18004.000			-42.600			-3.873
18104.000			-42.594			-3.872
18204.000			-42.586			-3.871
18304.000			-42.578			-3.871
18403.000			-42.571			-3.870
18505.000			-42.564			-3.869
18604.000			-42.550			-3.868
18704.000			-42.544			-3.868
18805.000			-42.537			-3.867
18903.000			-42.530			-3.866
19004.000			-42.523			-3.866
19105.000			-42.515			-3.865
19204.000			-42.507			-3.864
19304.000			-42.494			-3.863
19405.000			-42.488			-3.863
19504.000			-42.481			-3.862
19603.000			-42.475			-3.861
19705.000			-42.468			-3.861
19804.000			-42.461			-3.860
19904.000			-42.455			-3.860
20005.000			-42.449			-3.859
20104.000			-42.434			-3.858
20204.000			-42.428			-3.857
20304.000			-42.422			-3.857
20404.000			-42.415			-3.856
20504.000			-42.409			-3.855
20605.000			-42.404			-3.855
20704.000			-42.396			-3.854
20804.000			-42.383			-3.853
20905.000			-42.377			-3.852
21003.000			-42.370			-3.852
21105.000			-42.364			-3.851
21204.000			-42.358			-3.851
21304.000			-42.352			-3.850
21405.000			-42.346			-3.850
21503.000			-42.333			-3.848
21604.000			-42.327			-3.848
21705.000			-42.322			-3.847
21804.000			-42.316			-3.847
21904.000			-42.310			-3.846
22005.000			-42.304			-3.846
22104.000			-42.298			-3.845
22203.000			-42.287			-3.844
22305.000			-42.281			-3.844
22404.000			-42.275			-3.843
22504.000			-42.268			-3.843
22605.000			-42.262			-3.842
22704.000			-42.257			-3.842
22804.000			-42.251			-3.841
22904.000			-42.245			-3.840
23004.000			-42.235			-3.840
23104.000			-42.229			-3.839
23205.000			-42.223			-3.838
23304.000			-42.217			-3.838
23403.000			-42.211			-3.837
23505.000			-42.205			-3.837
23604.000			-42.200			-3.836
23704.000			-42.189			-3.835
23805.000			-42.184			-3.835
23904.000			-42.178			-3.834
24004.000			-42.172			-3.834
24103.000			-42.167			-3.833
24204.000			-42.163			-3.833
24305.000			-42.157			-3.832
24404.000			-42.147			-3.832
24504.000			-42.142			-3.831
24605.000			-42.136			-3.831
24704.000			-42.131			-3.830
24803.000			-42.125			-3.830
24905.000			-42.120			-3.829
25004.000			-42.114			-3.829
25104.000			-42.109			-3.828
25205.000			-42.099			-3.827
25304.000			-42.095			-3.827
25404.000			-42.088			-3.826
25504.000			-42.083			-3.826
25604.000			-42.078			-3.825
25704.000			-42.073			-3.825
25805.000			-42.068			-3.824
25904.000			-42.059			-3.824
26003.000			-42.053			-3.823
26105.000			-42.048			-3.823
26204.000			-42.044			-3.822
26304.000			-42.038			-3.822
26405.000			-42.033			-3.821
26504.000			-42.028			-3.821
26604.000			-42.019			-3.820
26704.000			-42.014			-3.819
26804.000			-42.009			-3.819
26904.000			-42.004			-3.819
27005.000			-41.999			-3.818
27104.000			-41.994			-3.818
27204.000			-41.990			-3.817
27305.000			-41.980			-3.816
27403.000			-41.976			-3.816
27505.000			-41.971			-3.816
27604.000			-41.966			-3.815
27704.000			-41.961			-3.815
27805.000			-41.956			-3.814
27904.000			-41.951			-3.814
28004.000			-41.947			-3.813
28104.000			-41.938			-3.813
28204.000			-41.933			-3.812
28304.000			-41.929			-3.812
28405.000			-41.924			-3.811
28504.000			-41.919			-3.811
28604.000			-41.915			-3.810
28705.000			-41.911			-3.810
28803.000			-41.902			-3.809
28904.000			-41.897			-3.809
29005.000			-41.893			-3.808
29104.000			-41.888			-3.808
29204.000			-41.883			-3.808
29305.000			-41.878			-3.807
29404.000			-41.874			-3.807
29503.000			-41.867			-3.806
29605.000			-41.863			-3.806
29704.000			-41.858			-3.805
29804.000			-41.853			-3.805
29905.000			-41.850			-3.805
30004.000			-41.845			-3.804
30104.000			-41.840			-3.804
30204.000			-41.832			-3.803
30304.000			-41.827			-3.802
30404.000			-41.822			-3.802
30504.000			-41.819			-3.802
30604.000			-41.815			-3.801
30705.000			-41.810			-3.801
30804.000			-41.806			-3.801
30903.000			-41.802			-3.800
31005.000			-41.792			-3.799
31104.000			-41.789			-3.799
31204.000			-41.786			-3.799
31305.000			-41.781			-3.798
31404.000			-41.778			-3.798
31504.000			-41.774			-3.798
31604.000			-41.769			-3.797
31704.000			-41.761			-3.796
31804.000			-41.756			-3.796
31905.000			-41.752			-3.796
32004.000			-41.749			-3.795
32103.000			-41.743			-3.795
32205.000			-41.740			-3.795
32304.000			-41.737			-3.794
32404.000			-41.729			-3.794
32505.000			-41.726			-3.793
32604.000			-41.719			-3.793
32704.000			-41.716			-3.792
32804.000			-41.713			-3.792
32904.000			-41.708			-3.792
33004.000			-41.704			-3.791
33105.000			-41.697			-3.791
33204.000			-41.694			-3.790
33304.000			-41.690			-3.790
33405.000			-41.686			-3.790
33503.000			-41.682			-3.789
33604.000			-41.679			-3.789
33705.000			-41.674			-3.789
33804.000			-41.671			-3.788
33905.000			-41.664			-3.788
34004.000			-41.660			-3.787
34104.000			-41.655			-3.787
34204.000			-41.651			-3.786
34304.000			-41.647			-3.786
34404.000			-41.644			-3.786
34505.000			-41.640			-3.785
34604.000			-41.634			-3.785
34704.000			-41.630			-3.785
34805.000			-41.624			-3.784
34903.000			-41.620			-3.784
35004.000			-41.616			-3.783
35105.000			-41.614			-3.783
35204.000			-41.611			-3.783
35304.000			-41.603			-3.782
35404.000			-41.599			-3.782
35504.000			-41.596			-3.781
35604.000			-41.592			-3.781
35705.000			-41.589			-3.781
35804.000			-41.585			-3.780
35904.000			-41.582			-3.780
36005.000			-41.576			-3.780
36103.000			-41.571			-3.779
36204.000			-41.567			-3.779
36305.000			-41.564			-3.779
36404.000			-41.560			-3.778
36504.000			-41.557			-3.778
36605.000			-41.553			-3.778
36704.000			-41.549			-3.777
36803.000			-41.543			-3.777
36905.000			-41.539			-3.776
37004.000			-41.536			-3.776
37105.000			-41.533			-3.776
37204.000			-41.530			-3.775
37304.000			-41.526			-3.775
37405.000			-41.522			-3.775
37503.000			-41.515			-3.774
37604.000			-41.512			-3.774
37705.000			-41.507			-3.773
37804.000			-41.504			-3.773
37904.000			-41.502			-3.773
38005.000			-41.499			-3.773
38104.000			-41.495			-3.772
38203.000			-41.487			-3.772
38305.000			-41.485			-3.771
38404.000			-41.481			-3.771
38504.000			-41.478			-3.771
38605.000			-41.475			-3.770
38704.000			-41.472			-3.770
38804.000			-41.467			-3.770
38904.000			-41.461			-3.769
39004.000			-41.459			-3.769
39104.000			-41.455			-3.769
39205.000			-41.451			-3.768
39304.000			-41.448			-3.768
39404.000			-41.445			-3.768
39505.000			-41.441			-3.767
39604.000			-41.438			-3.767
39704.000			-41.431			-3.766
39805.000			-41.428			-3.766
39904.000			-41.425			-3.766
40004.000			-41.423			-3.766
40103.000			-41.419			-3.765
40204.000			-41.415			-3.765
40305.000			-41.412			-3.765
40404.000			-41.407			-3.764
40504.000			-41.403			-3.764
40605.000			-41.399			-3.764
40704.000			-41.397			-3.763
40803.000			-41.394			-3.763
40905.000			-41.392			-3.763
41004.000			-41.388			-3.763
41104.000			-41.381			-3.762
41205.000			-41.378			-3.762
41304.000			-41.375			-3.761
41404.000			-41.372			-3.761
41504.000			-41.369			-3.761
41604.000			-41.364			-3.760
41704.000			-41.361			-3.760
41805.000			-41.359			-3.760
41904.000			-41.353			-3.759
42003.000			-41.350			-3.759
42105.000			-41.346			-3.759
42204.000			-41.345			-3.759
42304.000			-41.342			-3.758
42405.000			-41.339			-3.758
42504.000			-41.335			-3.758
42604.000			-41.329			-3.757
42704.000			-41.326			-3.757
42804.000			-41.323			-3.757
42904.000			-41.321			-3.756
43005.000			-41.318			-3.756
43104.000			-41.315			-3.756
43204.000			-41.312			-3.756
43305.000			-41.305			-3.755
43403.000			-41.303			-3.755
43505.000			-41.300			-3.755
43604.000			-41.296			-3.754
43704.000			-41.294			-3.754
43805.000			-41.291			-3.754
43904.000			-41.288			-3.753
44004.000			-41.283			-3.753
44104.000			-41.279			-3.753
44204.000			-41.276			-3.752
44304.000			-41.273			-3.752
44405.000			-41.271			-3.752
44504.000			-41.268			-3.752
44603.000			-41.265			-3.751
44705.000			-41.262			-3.751
44804.000			-41.256			-3.751
44904.000			-41.253			-3.750
45005.000			-41.251			-3.750
45104.000			-41.248			-3.750
45204.000			-41.244			-3.749
45304.000			-41.240			-3.749
45404.000			-41.238			-3.749
45504.000			-41.233			-3.748
45605.000			-41.230			-3.748
45704.000			-41.228			-3.748
45804.000			-41.225			-3.748
45905.000			-41.222			-3.747
46003.000			-41.220			-3.747
46104.000			-41.217			-3.747
46205.000			-41.211			-3.746
46304.000			-41.209			-3.746
46404.000			-41.207			-3.746
46504.000			-41.203			-3.746
46604.000			-41.199			-3.745
46703.000			-41.197			-3.745
46804.000			-41.194			-3.745
46904.000			-41.189			-3.744
47005.000			-41.186			-3.744
47104.000			-41.183			-3.744
47203.000			-41.181			-3.744
47305.000			-41.178			-3.743
47404.000			-41.176			-3.743
47504.000			-41.174			-3.743
47605.000			-41.168			-3.743
47704.000			-41.165			-3.742
47804.000			-41.162			-3.742
47904.000			-41.160			-3.742
48004.000			-41.157			-3.742
48104.000			-41.153			-3.741
48205.000			-41.151			-3.741
48304.000			-41.148			-3.741
48404.000			-41.144			-3.740
48505.000			-41.141			-3.740
48603.000			-41.138			-3.740
48704.000			-41.135			-3.740
48805.000			-41.133			-3.739
48904.000			-41.131			-3.739
49004.000			-41.128			-3.739
49105.000			-41.122			-3.738
49204.000			-41.119			-3.738
49303.000			-41.117			-3.738
49405.000			-41.114			-3.738
49504.000			-41.112			-3.737
49604.000			-41.109			-3.737
49705.000			-41.107			-3.737
49804.000			-41.102			-3.737
49905.000			-41.099			-3.736
50003.000			-41.097			-3.736
50104.000			-41.095			-3.736
50205.000			-41.092			-3.736
50304.000			-41.090			-3.735
50404.000			-41.086			-3.735
50505.000			-41.084			-3.735
50604.000			-41.079			-3.734
50703.000			-41.077			-3.734
50805.000			-41.075			-3.734
50904.000			-41.072			-3.734
51004.000			-41.069			-3.734
51105.000			-41.067			-3.733
51203.000			-41.064			-3.733
51304.000			-41.060			-3.733
51405.000			-41.058			-3.733
51504.000			-41.055			-3.732
51604.000			-41.052			-3.732
51705.000			-41.049			-3.732
51804.000			-41.047			-3.732
51903.000			-41.046			-3.731
52005.000			-41.039			-3.731
52104.000			-41.037			-3.731
52204.000			-41.034			-3.730
52305.000			-41.032			-3.730
52404.000			-41.029			-3.730
52504.000			-41.028			-3.730
52604.000			-41.025			-3.730
52704.000			-41.020			-3.729
52804.000			-41.018			-3.729
52904.000			-41.016			-3.729
53004.000			-41.013			-3.728
53103.000			-41.011			-3.728
53204.000			-41.009			-3.728
53304.000			-41.006			-3.728
53405.000			-41.004			-3.728
53504.000			-40.998			-3.727
53604.000			-40.995			-3.727
53705.000			-40.994			-3.727
53803.000			-40.992			-3.727
53904.000			-40.990			-3.726
54005.000			-40.988			-3.726
54104.000			-40.985			-3.726
54204.000			-40.980			-3.725
54305.000			-40.977			-3.725
54404.000			-40.976			-3.725
54503.000			-40.973			-3.725
54605.000			-40.971			-3.725
54704.000			-40.969			-3.724
54804.000			-40.966			-3.724
54905.000			-40.961			-3.724
55004.000			-40.958			-3.723
55104.000			-40.956			-3.723
55204.000			-40.954			-3.723
55304.000			-40.952			-3.723
55404.000			-40.949			-3.723
55505.000			-40.946			-3.722
55604.000			-40.942			-3.722
55704.000			-40.941			-3.722
55805.000			-40.939			-3.722
55903.000			-40.937			-3.722
56004.000			-40.934			-3.721
56105.000			-40.932			-3.721
56204.000			-40.929			-3.721
56305.000			-40.927			-3.721
56404.000			-40.922			-3.720
56504.000			-40.920			-3.720
56604.000			-40.918			-3.720
56704.000			-40.916			-3.720
56804.000			-40.913			-3.719
56905.000			-40.911			-3.719
57004.000			-40.909			-3.719
57103.000			-40.905			-3.719
57205.000			-40.903			-3.718
57304.000			-40.901			-3.718
57404.000			-40.899			-3.718
57505.000			-40.896			-3.718
57604.000			-40.894			-3.718
57704.000			-40.892			-3.717
57804.000			-40.887			-3.717
57904.000			-40.885			-3.717
58003.000			-40.883			-3.717
58105.000			-40.881			-3.716
58204.000			-40.879			-3.716
58304.000			-40.877			-3.716
58405.000			-40.874			-3.716
58504.000			-40.869			-3.715
58604.000			-40.867			-3.715
58704.000			-40.865			-3.715
58804.000			-40.864			-3.715
58904.000			-40.861			-3.715
59005.000			-40.859			-3.714
59104.000			-40.857			-3.714
59204.000			-40.856			-3.714
59305.000			-40.851			-3.714
59403.000			-40.848			-3.713
59505.000			-40.846			-3.713
59604.000			-40.844			-3.713
59704.000			-40.842			-3.713
59805.000			-40.840			-3.713
59904.000			-40.837			-3.712
60004.000			-40.834			-3.712
60104.000			-40.831			-3.712
60204.000			-40.830			-3.712
60304.000			-40.828			-3.712
60405.000			-40.825			-3.711
60504.000			-40.823			-3.711
60603.000			-40.821			-3.711
60705.000			-40.817			-3.711
60804.000			-40.816			-3.711
60904.000			-40.813			-3.710
61005.000			-40.811			-3.710
61104.000			-40.809			-3.710
61204.000			-40.807			-3.710
61304.000			-40.804			-3.709
61404.000			-40.801			-3.709
61504.000			-40.799			-3.709
61605.000			-40.796			-3.709
61704.000			-40.794			-3.709
61804.000			-40.793			-3.708
61905.000			-40.790			-3.708
62003.000			-40.788			-3.708
62104.000			-40.786			-3.708
62205.000			-40.782			-3.707
62304.000			-40.780			-3.707
62404.000			-40.778			-3.707
62504.000			-40.776			-3.707
62604.000			-40.774			-3.707
62703.000			-40.772			-3.707
62804.000			-40.770			-3.706
62904.000			-40.766			-3.706
63005.000			-40.762			-3.706
63104.000			-40.760			-3.705
63204.000			-40.759			-3.705
63305.000			-40.757			-3.705
63403.000			-40.756			-3.705
63504.000			-40.754			-3.705
63605.000			-40.750			-3.705
63704.000			-40.748			-3.704
63804.000			-40.746			-3.704
63905.000			-40.744			-3.704
64004.000			-40.742			-3.704
64103.000			-40.739			-3.704
64205.000			-40.737			-3.703
64304.000			-40.735			-3.703
64404.000			-40.733			-3.703
64505.000			-40.731			-3.703
64604.000			-40.729			-3.703
64704.000			-40.725			-3.702
64804.000			-40.724			-3.702
64904.000			-40.722			-3.702
65004.000			-40.720			-3.702
65105.000			-40.717			-3.702
65204.000			-40.714			-3.701
65304.000			-40.712			-3.701
65405.000			-40.710			-3.701
65503.000			-40.709			-3.701
65604.000			-40.707			-3.701
65705.000			-40.705			-3.700
65804.000			-40.700			-3.700
65905.000			-40.699			-3.700
66004.000			-40.698			-3.700
66104.000			-40.695			-3.700
66204.000			-40.694			-3.699
66304.000			-40.692			-3.699
66404.000			-40.690			-3.699
66505.000			-40.686			-3.699
66604.000			-40.684			-3.699
66704.000			-40.681			-3.698
66805.000			-40.680			-3.698
66903.000			-40.678			-3.698
67004.000			-40.676			-3.698
67105.000			-40.676			-3.698
67204.000			-40.673			-3.698
67304.000			-40.669			-3.697
67405.000			-40.667			-3.697
67504.000			-40.665			-3.697
67603.000			-40.663			-3.697
67705.000			-40.662			-3.697
67804.000			-40.660			-3.696
67904.000			-40.658			-3.696
68005.000			-40.654			-3.696
68104.000			-40.653			-3.696
68204.000			-40.651			-3.696
68304.000			-40.650			-3.695
68404.000			-40.647			-3.695
68504.000			-40.644			-3.695
68605.000			-40.642			-3.695
68704.000			-40.638			-3.694
68804.000			-40.637			-3.694
68905.000			-40.636			-3.694
69003.000			-40.635			-3.694
69105.000			-40.632			-3.694
69204.000			-40.630			-3.694
69304.000			-40.628			-3.693
69405.000			-40.625			-3.693
69504.000			-40.623			-3.693
69604.000			-40.620			-3.693
69704.000			-40.618			-3.693
69804.000			-40.616			-3.692
69904.000			-40.614			-3.692
70005.000			-40.614			-3.692
70104.000			-40.611			-3.692
70203.000			-40.610			-3.692
70305.000			-40.607			-3.692
70404.000			-40.604			-3.691
70504.000			-40.602			-3.691
70605.000			-40.601			-3.691
70704.000			-40.599			-3.691
70804.000			-40.598			-3.691
70904.000			-40.593			-3.690
71004.000			-40.592			-3.690
71104.000			-40.589			-3.690
71205.000			-40.589			-3.690
71304.000			-40.588			-3.690
71404.000			-40.586			-3.690
71505.000			-40.584			-3.689
71603.000			-40.580			-3.689
71704.000			-40.578			-3.689
71805.000			-40.576			-3.689
71904.000			-40.576			-3.689
72004.000			-40.573			-3.688
72104.000			-40.571			-3.688
72204.000			-40.569			-3.688
72303.000			-40.565			-3.688
72404.000			-40.565			-3.688
72504.000			-40.564			-3.688
72605.000			-40.562			-3.687
72704.000			-40.559			-3.687
72804.000			-40.557			-3.687
72905.000			-40.556			-3.687
73003.000			-40.554			-3.687
73104.000			-40.550			-3.686
73205.000			-40.548			-3.686
73304.000			-40.546			-3.686
73404.000			-40.545			-3.686
73505.000			-40.542			-3.686
73604.000			-40.539			-3.685
73703.000			-40.538			-3.685
73805.000			-40.537			-3.685
73904.000			-40.535			-3.685
74004.000			-40.534			-3.685
74105.000			-40.532			-3.685
74204.000			-40.531			-3.685
74304.000			-40.529			-3.684
74404.000			-40.527			-3.684
74504.000			-40.523			-3.684
74604.000			-40.522			-3.684
74705.000			-40.521			-3.684
74804.000			-40.519			-3.684
74904.000			-40.516			-3.683
75005.000			-40.515			-3.683
75103.000			-40.514			-3.683
75204.000			-40.510			-3.683
75305.000			-40.508			-3.683
75404.000			-40.507			-3.682
75505.000			-40.505			-3.682
75604.000			-40.503			-3.682
75704.000			-40.501			-3.682
75804.000			-40.498			-3.682
75904.000			-40.497			-3.682
76004.000			-40.494			-3.681
76105.000			-40.493			-3.681
76204.000			-40.492			-3.681
76304.000			-40.490			-3.681
76405.000			-40.488			-3.681
76503.000			-40.487			-3.681
76604.000			-40.486			-3.681
76705.000			-40.482			-3.680
76804.000			-40.480			-3.680
76904.000			-40.479			-3.680
77005.000			-40.477			-3.680
77104.000			-40.475			-3.680
77203.000			-40.474			-3.679
77305.000			-40.473			-3.679
77404.000			-40.469			-3.679
77504.000			-40.467			-3.679
77605.000			-40.467			-3.679
77704.000			-40.465			-3.679
77804.000			-40.463			-3.678
77904.000			-40.462			-3.678
78004.000			-40.461			-3.678
78104.000			-40.457			-3.678
78205.000			-40.455			-3.678
78304.000			-40.453			-3.678
78404.000			-40.453			-3.678
78505.000			-40.452			-3.677
78603.000			-40.449			-3.677
78705.000			-40.447			-3.677
78804.000			-40.445			-3.677
78904.000			-40.442			-3.677
79005.000			-40.441			-3.676
79104.000			-40.440			-3.676
79204.000			-40.438			-3.676
79304.000			-40.436			-3.676
79404.000			-40.435			-3.676
79504.000			-40.433			-3.676
79605.000			-40.429			-3.675
79704.000			-40.429			-3.675
79804.000			-40.428			-3.675
79905.000			-40.426			-3.675
80003.000			-40.423			-3.675
80104.000			-40.422			-3.675
80205.000			-40.421			-3.675
80304.000			-40.418			-3.674
80404.000			-40.416			-3.674
80505.000			-40.415			-3.674
80604.000			-40.412			-3.674
80703.000			-40.409			-3.674
80805.000			-40.409			-3.674
80904.000			-40.408			-3.673
81004.000			-40.405			-3.673
81105.000			-40.403			-3.673
81204.000			-40.402			-3.673
81304.000			-40.399			-3.673
81404.000			-40.398			-3.673
81504.000			-40.398			-3.673
81604.000			-40.397			-3.672
81704.000			-40.395			-3.672
81804.000			-40.390			-3.672
81903.000			-40.389			-3.672
82004.000			-40.388			-3.672
82103.000			-40.387			-3.672
82205.000			-40.386			-3.671
82304.000			-40.384			-3.671
82404.000			-40.383			-3.671
82505.000			-40.380			-3.671
82603.000			-40.377			-3.671
82704.000			-40.377			-3.671
82805.000			-40.374			-3.670
82904.000			-40.373			-3.670
83004.000			-40.372			-3.670
83105.000			-40.370			-3.670
83204.000			-40.367			-3.670
83303.000			-40.365			-3.670
83405.000			-40.363			-3.669
83504.000			-40.362			-3.669
83604.000			-40.361			-3.669
83705.000			-40.360			-3.669
83804.000			-40.358			-3.669
83904.000			-40.355			-3.669
84004.000			-40.354			-3.669
84104.000			-40.352			-3.668
84204.000			-40.351			-3.668
84305.000			-40.349			-3.668
84404.000			-40.348			-3.668
84504.000			-40.346			-3.668
84605.000			-40.346			-3.668
84703.000			-40.342			-3.667
84804.000			-40.342			-3.667
84905.000			-40.339			-3.667
85004.000			-40.336			-3.667
85105.000			-40.336			-3.667
85204.000			-40.335			-3.667
85304.000			-40.334			-3.667
85404.000			-40.329			-3.666
85504.000			-40.329			-3.666
85604.000			-40.327			-3.666
85705.000			-40.325			-3.666
85804.000			-40.324			-3.666
85904.000			-40.323			-3.666
86005.000			-40.321			-3.666
86103.000			-40.317			-3.665
86204.000			-40.317			-3.665
86305.000			-40.316			-3.665
86404.000			-40.314			-3.665
86504.000			-40.313			-3.665
86605.000			-40.312			-3.665
86704.000			-40.311			-3.665
86803.000			-40.309			-3.664
86905.000			-40.306			-3.664
87004.000			-40.305			-3.664
87104.000			-40.303			-3.664
87205.000			-40.300			-3.664
87304.000			-40.299			-3.664
87404.000			-40.298			-3.663
87504.000			-40.297			-3.663
87604.000			-40.294			-3.663
87704.000			-40.293			-3.663
87805.000			-40.292			-3.663
87904.000			-40.289			-3.663
88004.000			-40.289			-3.663
88105.000			-40.288			-3.663
88203.000			-40.286			-3.662
88305.000			-40.283			-3.662
88404.000			-40.281			-3.662
88504.000			-40.279			-3.662
88605.000			-40.278			-3.662
88704.000			-40.278			-3.662
88804.000			-40.277			-3.662
88904.000			-40.274			-3.661
89004.000			-40.271			-3.661
89104.000			-40.270			-3.661
89205.000			-40.268			-3.661
89304.000			-40.267			-3.661
89404.000			-40.265			-3.660
89505.000			-40.264			-3.660
89603.000			-40.263			-3.660
89704.000			-40.261			-3.660
89805.000			-40.259			-3.660
89904.000			-40.258			-3.660
90004.000			-40.256			-3.660
90105.000			-40.254			-3.659
90204.000			-40.252			-3.659
90303.000			-40.251			-3.659
90405.000			-40.250			-3.659
90504.000			-40.247			-3.659
90604.000			-40.245			-3.659
90705.000			-40.244			-3.659
90804.000			-40.242			-3.658
90904.000			-40.242			-3.658
91004.000			-40.241			-3.658
91104.000			-40.240			-3.658
91204.000			-40.237			-3.658
91304.000			-40.236			-3.658
91404.000			-40.234			-3.658
91505.000			-40.233			-3.658
91604.000			-40.232			-3.657
91703.000			-40.229			-3.657
91805.000			-40.228			-3.657
91904.000			-40.225			-3.657
92004.000			-40.224			-3.657
92105.000			-40.222			-3.657
92203.000			-40.221			-3.656
92304.000			-40.220			-3.656
92405.000			-40.219			-3.656
92504.000			-40.217			-3.656
92604.000			-40.215			-3.656
92705.000			-40.214			-3.656
92804.000			-40.213			-3.656
92903.000			-40.210			-3.655
93005.000			-40.209			-3.655
93104.000			-40.208			-3.655
93204.000			-40.207			-3.655
93305.000			-40.206			-3.655
93404.000			-40.203			-3.655
93504.000			-40.200			-3.655
93604.000			-40.200			-3.655
93704.000			-40.199			-3.654
93804.000			-40.197			-3.654
93905.000			-40.196			-3.654
94004.000			-40.196			-3.654
94104.000			-40.192			-3.654
94205.000			-40.191			-3.654
94303.000			-40.188			-3.653
94404.000			-40.188			-3.653
94505.000			-40.187			-3.653
94604.000			-40.185			-3.653
94705.000			-40.184			-3.653
94804.000			-40.182			-3.653
94904.000			-40.181			-3.653
95004.000			-40.178			-3.653
95104.000			-40.177			-3.652
95204.000			-40.176			-3.652
95305.000			-40.175			-3.652
95404.000			-40.173			-3.652
95504.000			-40.171			-3.652
95605.000			-40.169			-3.652
95703.000			-40.167			-3.652
95804.000			-40.166			-3.651
95905.000			-40.166			-3.651
96004.000			-40.165			-3.651
96104.000			-40.162			-3.651
96205.000			-40.161			-3.651
96304.000			-40.160			-3.651
96403.000			-40.158			-3.651
96505.000			-40.156			-3.651
96604.000			-40.155			-3.650
96704.000			-40.155			-3.650
96805.000			-40.154			-3.650
96904.000			-40.151			-3.650
97004.000			-40.149			-3.650
97104.000			-40.148			-3.650
97204.000			-40.146			-3.650
97304.000			-40.144			-3.649
97405.000			-40.142			-3.649
97504.000			-40.140			-3.649
97604.000			-40.140			-3.649
97705.000			-40.138			-3.649
97803.000			-40.137			-3.649
97905.000			-40.135			-3.649
98004.000			-40.134			-3.649
98104.000			-40.133			-3.648
98205.000			-40.132			-3.648
98304.000			-40.131			-3.648
98404.000			-40.129			-3.648
98504.000			-40.126			-3.648
98604.000			-40.127			-3.648
98704.000			-40.126			-3.648
98805.000			-40.123			-3.648
98904.000			-40.120			-3.647
99004.000			-40.120			-3.647
99105.000			-40.118			-3.647
99203.000			-40.116			-3.647
99304.000			-40.115			-3.647
99405.000			-40.114			-3.647
99504.000			-40.113			-3.647
99604.000			-40.112			-3.647
99704.000			-40.110			-3.646
99804.000			-40.110			-3.646
99903.000			-40.106			-3.646
100005.000			-40.105			-3.646
100104.000			-40.104			-3.646
100204.000			-40.103			-3.646
100305.000			-40.102			-3.646
100403.000			-40.100			-3.645
100504.000			-40.099			-3.645
100605.000			-40.096			-3.645
100704.000			-40.094			-3.645
100804.000			-40.092			-3.645
100904.000			-40.091			-3.645
101004.000			-40.091			-3.645
101103.000			-40.090			-3.645
101204.000			-40.088			-3.644
101304.000			-40.088			-3.644
101405.000			-40.086			-3.644
101504.000			-40.084			-3.644
101604.000			-40.082			-3.644
101705.000			-40.082			-3.644
101803.000			-40.080			-3.644
101904.000			-40.078			-3.643
102005.000			-40.077			-3.643
102104.000			-40.076			-3.643
102204.000			-40.075			-3.643
102305.000			-40.073			-3.643
102404.000			-40.071			-3.643
102503.000			-40.070			-3.643
102605.000			-40.069			-3.643
102704.000			-40.069			-3.643
102804.000			-40.066			-3.642
102905.000			-40.064			-3.642
103004.000			-40.064			-3.642
103104.000			-40.062			-3.642
103204.000			-40.061			-3.642
103304.000			-40.060			-3.642
103404.000			-40.057			-3.642
103505.000			-40.056			-3.641
103604.000			-40.054			-3.641
103704.000			-40.053			-3.641
103805.000			-40.054			-3.641
103903.000			-40.052			-3.641
104004.000			-40.050			-3.641
104105.000			-40.049			-3.641
104204.000			-40.047			-3.641
104305.000			-40.044			-3.640
104404.000			-40.044			-3.640
104504.000			-40.043			-3.640
104604.000			-40.042			-3.640
104704.000			-40.040			-3.640
104804.000			-40.038			-3.640
104905.000			-40.037			-3.640
105004.000			-40.036			-3.640
105104.000			-40.034			-3.639
105205.000			-40.033			-3.639
105303.000			-40.032			-3.639
105404.000			-40.032			-3.639
105505.000			-40.030			-3.639
105604.000			-40.029			-3.639
105704.000			-40.025			-3.639
105804.000			-40.024			-3.639
105904.000			-40.023			-3.638
106003.000			-40.022			-3.638
106105.000			-40.021			-3.638
106204.000			-40.020			-3.638
106304.000			-40.019			-3.638
106405.000			-40.017			-3.638
106503.000			-40.016			-3.638
106604.000			-40.014			-3.638
106705.000			-40.013			-3.638
106804.000			-40.012			-3.637
106904.000			-40.011			-3.637
107005.000			-40.010			-3.637
107104.000			-40.008			-3.637
107203.000			-40.006			-3.637
107305.000			-40.005			-3.637
107404.000			-40.004			-3.637
107505.000			-40.003			-3.637
107604.000			-40.003			-3.637
107704.000			-40.002			-3.637
107805.000			-40.001			-3.636
107903.000			-39.997			-3.636
108004.000			-39.995			-3.636
108105.000			-39.995			-3.636
108204.000			-39.994			-3.636
108304.000			-39.993			-3.636
108405.000			-39.992			-3.636
108504.000			-39.990			-3.635
108604.000			-39.989			-3.635
108705.000			-39.987			-3.635
108803.000			-39.986			-3.635
108904.000			-39.985			-3.635
109005.000			-39.983			-3.635
109104.000			-39.982			-3.635
109204.000			-39.981			-3.635
109305.000			-39.978			-3.634
109404.000			-39.978			-3.634
109503.000			-39.977			-3.634
109605.000			-39.976			-3.634
109703.000			-39.974			-3.634
109804.000			-39.974			-3.634
109905.000			-39.973			-3.634
110004.000			-39.972			-3.634
110104.000			-39.969			-3.634
110205.000			-39.968			-3.633
110304.000			-39.966			-3.633
110403.000			-39.964			-3.633
110505.000			-39.963			-3.633
110604.000			-39.962			-3.633
110705.000			-39.961			-3.633
110804.000			-39.959			-3.633
110904.000			-39.958			-3.633
111005.000			-39.957			-3.632
111103.000			-39.956			-3.632
111204.000			-39.955			-3.632
111305.000			-39.954			-3.632
111404.000			-39.952			-3.632
111504.000			-39.950			-3.632
111605.000			-39.950			-3.632
111704.000			-39.947			-3.632
111804.000			-39.946			-3.631
111905.000			-39.946			-3.631
112003.000			-39.946			-3.631
112104.000			-39.944			-3.631
112205.000			-39.942			-3.631
112304.000			-39.940			-3.631
112404.000			-39.940			-3.631
112505.000			-39.938			-3.631
112604.000			-39.937			-3.631
112703.000			-39.936			-3.631
112805.000			-39.936			-3.631
112904.000			-39.934			-3.630
113004.000			-39.931			-3.630
113105.000			-39.930			-3.630
113204.000			-39.929			-3.630
113304.000			-39.928			-3.630
113404.000			-39.926			-3.630
113504.000			-39.925			-3.630
113603.000			-39.924			-3.629
113705.000			-39.923			-3.629
113804.000			-39.921			-3.629
113905.000			-39.920			-3.629
114004.000			-39.919			-3.629
114104.000			-39.918			-3.629
114205.000			-39.916			-3.629
114303.000			-39.914			-3.629
114404.000			-39.913			-3.628
114505.000			-39.912			-3.628
114604.000			-39.912			-3.628
114704.000			-39.911			-3.628
114805.000			-39.910			-3.628
114904.000			-39.908			-3.628
115003.000			-39.906			-3.628
115105.000			-39.905			-3.628
115204.000			-39.904			-3.628
115304.000			-39.903			-3.628
115405.000			-39.901			-3.627
115504.000			-39.901			-3.627
115604.000			-39.900			-3.627
115704.000			-39.898			-3.627
115804.000			-39.897			-3.627
115903.000			-39.896			-3.627
116005.000			-39.893			-3.627
116104.000			-39.893			-3.627
116204.000			-39.892			-3.627
116305.000			-39.891			-3.626
116404.000			-39.891			-3.626
116504.000			-39.889			-3.626
116604.000			-39.887			-3.626
116704.000			-39.885			-3.626
116804.000			-39.885			-3.626
116904.000			-39.884			-3.626
117004.000			-39.882			-3.626
117105.000			-39.881			-3.626
117204.000			-39.881			-3.626
117303.000			-39.878			-3.625
117405.000			-39.877			-3.625
117503.000			-39.876			-3.625
117604.000			-39.875			-3.625
117705.000			-39.874			-3.625
117804.000			-39.872			-3.625
117904.000			-39.872			-3.625
118005.000			-39.872			-3.625
118104.000			-39.869			-3.624
118203.000			-39.868			-3.624
118305.000			-39.867			-3.624
118404.000			-39.866			-3.624
118504.000			-39.864			-3.624
118605.000			-39.862			-3.624
118704.000			-39.862			-3.624
118804.000			-39.861			-3.624
118905.000			-39.860			-3.624
119004.000			-39.858			-3.623
119103.000			-39.857			-3.623
119205.000			-39.856			-3.623
119304.000			-39.855			-3.623
119404.000			-39.854			-3.623
119505.000			-39.852			-3.623
119604.000			-39.851			-3.623
119704.000			-39.850			-3.623
119804.000			-39.849			-3.623
119904.000			-39.849			-3.623
120003.000			-39.847			-3.622
120105.000			-39.846			-3.622
120204.000			-39.844			-3.622
120305.000			-39.842			-3.622
120404.000			-39.842			-3.622
120504.000			-39.840			-3.622
120605.000			-39.839			-3.622
120703.000			-39.838			-3.622
120804.000			-39.838			-3.622
120905.000			-39.836			-3.621
121004.000			-39.834			-3.621
121104.000			-39.833			-3.621
121205.000			-39.832			-3.621
121304.000			-39.832			-3.621
121403.000			-39.831			-3.621
121505.000			-39.829			-3.621
121604.000			-39.828			-3.621
121704.000			-39.826			-3.621
121805.000			-39.824			-3.620
121904.000			-39.823			-3.620
122004.000			-39.822			-3.620
122104.000			-39.820			-3.620
122204.000			-39.819			-3.620
122304.000			-39.819			-3.620
122405.000			-39.819			-3.620
122504.000			-39.817			-3.620
122604.000			-39.816			-3.620
122705.000			-39.815			-3.620
122804.000			-39.815			-3.620
122904.000			-39.813			-3.619
123004.000			-39.812			-3.619
123104.000			-39.810			-3.619
123204.000			-39.809			-3.619
123304.000			-39.808			-3.619
123404.000			-39.807			-3.619
123505.000			-39.807			-3.619
123604.000			-39.806			-3.619
123703.000			-39.803			-3.618
123805.000			-39.802			-3.618
123904.000			-39.801			-3.618
124004.000			-39.800			-3.618
124105.000			-39.799			-3.618
124204.000			-39.798			-3.618
124304.000			-39.797			-3.618
124404.000			-39.795			-3.618
124504.000			-39.793			-3.618
124603.000			-39.792			-3.617
124705.000			-39.792			-3.617
124804.000			-39.790			-3.617
124904.000			-39.788			-3.617
125005.000			-39.788			-3.617
125104.000			-39.788			-3.617
125204.000			-39.787			-3.617
125304.000			-39.785			-3.617
125404.000			-39.784			-3.617
125504.000			-39.782			-3.617
125605.000			-39.782			-3.617
125704.000			-39.782			-3.617
125804.000			-39.780			-3.616
125905.000			-39.778			-3.616
126004.000			-39.776			-3.616
126104.000			-39.777			-3.616
126204.000			-39.775			-3.616
126304.000			-39.773			-3.616
126404.000			-39.772			-3.616
126504.000			-39.771			-3.616
126604.000			-39.771			-3.616
126705.000			-39.770			-3.615
126804.000			-39.767			-3.615
126903.000			-39.766			-3.615
127005.000			-39.766			-3.615
127104.000			-39.764			-3.615
127204.000			-39.763			-3.615
127305.000			-39.762			-3.615
127404.000			-39.760			-3.615
127504.000			-39.759			-3.614
127605.000			-39.759			-3.614
127704.000			-39.758			-3.614
127803.000			-39.756			-3.614
127905.000			-39.755			-3.614
128004.000			-39.754			-3.614
128104.000			-39.754			-3.614
128205.000			-39.751			-3.614
128304.000			-39.750			-3.614
128404.000			-39.749			-3.614
128504.000			-39.748			-3.613
128604.000			-39.748			-3.613
128703.000			-39.747			-3.613
128805.000			-39.746			-3.613
128904.000			-39.744			-3.613
129004.000			-39.743			-3.613
129105.000			-39.741			-3.613
129204.000			-39.740			-3.613
129304.000			-39.740			-3.613
129404.000			-39.739			-3.613
129504.000			-39.738			-3.613
129604.000			-39.737			-3.612
129704.000			-39.735			-3.612
129804.000			-39.734			-3.612
129905.000			-39.733			-3.612
130004.000			-39.733			-3.612
130104.000			-39.732			-3.612
130205.000			-39.730			-3.612
130303.000			-39.729			-3.612
130404.000			-39.728			-3.612
130505.000			-39.726			-3.611
130604.000			-39.725			-3.611
130704.000			-39.725			-3.611
130805.000			-39.724			-3.611
130904.000			-39.723			-3.611
131003.000			-39.722			-3.611
131105.000			-39.720			-3.611
131204.000			-39.719			-3.611
131304.000			-39.718			-3.611
131405.000			-39.717			-3.611
131504.000			-39.716			-3.611
131604.000			-39.714			-3.610
131704.000			-39.714			-3.610
131804.000			-39.713			-3.610
131903.000			-39.712			-3.610
132005.000			-39.711			-3.610
132104.000			-39.710			-3.610
132204.000			-39.710			-3.610
132305.000			-39.708			-3.610
132404.000			-39.707			-3.610
132504.000			-39.705			-3.610
132604.000			-39.705			-3.610
132704.000			-39.704			-3.609
132803.000			-39.703			-3.609
132905.000			-39.701			-3.609
133004.000			-39.701			-3.609
133105.000			-39.701			-3.609
133204.000			-39.699			-3.609
133304.000			-39.696			-3.609
133405.000			-39.696			-3.609
133503.000			-39.695			-3.609
133604.000			-39.694			-3.609
133705.000			-39.692			-3.608
133804.000			-39.691			-3.608
133904.000			-39.691			-3.608
134005.000			-39.689			-3.608
134104.000			-39.688			-3.608
134204.000			-39.687			-3.608
134305.000			-39.686			-3.608
134403.000			-39.685			-3.608
134504.000			-39.684			-3.608
134604.000			-39.684			-3.608
134704.000			-39.682			-3.607
134804.000			-39.681			-3.607
134905.000			-39.679			-3.607
135004.000			-39.678			-3.607
135104.000			-39.677			-3.607
135205.000			-39.676			-3.607
135304.000			-39.676			-3.607
135404.000			-39.675			-3.607
135504.000			-39.673			-3.607
135604.000			-39.673			-3.607
135704.000			-39.671			-3.606
135805.000			-39.670			-3.606
135904.000			-39.670			-3.606
136004.000			-39.669			-3.606
136105.000			-39.667			-3.606
136204.000			-39.666			-3.606
136305.000			-39.664			-3.606
136403.000			-39.663			-3.606
136504.000			-39.663			-3.606
136604.000			-39.662			-3.606
136704.000			-39.662			-3.606
136804.000			-39.660			-3.605
136905.000			-39.659			-3.605
137004.000			-39.658			-3.605
137104.000			-39.657			-3.605
137205.000			-39.656			-3.605
137304.000			-39.655			-3.605
137404.000			-39.655			-3.605
137504.000			-39.654			-3.605
137604.000			-39.651			-3.605
137704.000			-39.651			-3.605
137805.000			-39.648			-3.604
137904.000			-39.648			-3.604
138004.000			-39.648			-3.604
138105.000			-39.648			-3.604
138204.000			-39.646			-3.604
138304.000			-39.645			-3.604
138404.000			-39.643			-3.604
138504.000			-39.643			-3.604
138604.000			-39.641			-3.604
138705.000			-39.641			-3.604
138804.000			-39.639			-3.604
138904.000			-39.639			-3.604
139005.000			-39.638			-3.603
139104.000			-39.635			-3.603
139204.000			-39.635			-3.603
139303.000			-39.635			-3.603
139404.000			-39.634			-3.603
139503.000			-39.632			-3.603
139604.000			-39.631			-3.603
139704.000			-39.631			-3.603
139805.000			-39.629			-3.603
139904.000			-39.629			-3.603
140004.000			-39.629			-3.603
140105.000			-39.626			-3.602
140204.000			-39.625			-3.602
140304.000			-39.625			-3.602
140404.000			-39.623			-3.602
140504.000			-39.621			-3.602
140604.000			-39.621			-3.602
140705.000			-39.620			-3.602
140804.000			-39.619			-3.602
140904.000			-39.618			-3.602
141005.000			-39.617			-3.602
141103.000			-39.616			-3.601
141204.000			-39.615			-3.601
141304.000			-39.614			-3.601
141404.000			-39.612			-3.601
141504.000			-39.612			-3.601
141605.000			-39.612			-3.601
141704.000			-39.610			-3.601
141804.000			-39.610			-3.601
141905.000			-39.610			-3.601
142004.000			-39.607			-3.601
142104.000			-39.606			-3.601
142204.000			-39.605			-3.600
142304.000			-39.605			-3.600
142404.000			-39.604			-3.600
142504.000			-39.602			-3.600
142604.000			-39.602			-3.600
142705.000			-39.601			-3.600
142804.000			-39.601			-3.600
142903.000			-39.599			-3.600
143005.000			-39.598			-3.600
143103.000			-39.597			-3.600
143204.000			-39.595			-3.600
143305.000			-39.594			-3.599
143404.000			-39.593			-3.599
143504.000			-39.593			-3.599
143605.000			-39.593			-3.599
143704.000			-39.592			-3.599
143803.000			-39.590			-3.599
143905.000			-39.589			-3.599
144003.000			-39.588			-3.599
144104.000			-39.586			-3.599
144205.000			-39.585			-3.599
144304.000			-39.584			-3.599
144404.000			-39.583			-3.598
144505.000			-39.582			-3.598
144604.000			-39.582			-3.598
144704.000			-39.581			-3.598
144805.000			-39.580			-3.598
144903.000			-39.577			-3.598
145004.000			-39.577			-3.598
145105.000			-39.577			-3.598
145204.000			-39.576			-3.598
145304.000			-39.576			-3.598
145405.000			-39.575			-3.598
145504.000			-39.573			-3.598
145604.000			-39.572			-3.597
145705.000			-39.570			-3.597
145803.000			-39.570			-3.597
145905.000			-39.570			-3.597
146003.000			-39.568			-3.597
146104.000			-39.566			-3.597
146205.000			-39.566			-3.597
146304.000			-39.565			-3.597
146404.000			-39.564			-3.597
146505.000			-39.563			-3.597
146604.000			-39.561			-3.596
146704.000			-39.561			-3.596
146805.000			-39.561			-3.596
146903.000			-39.560			-3.596
147004.000			-39.558			-3.596
147105.000			-39.556			-3.596
147204.000			-39.555			-3.596
147304.000			-39.555			-3.596
147405.000			-39.555			-3.596
147504.000			-39.554			-3.596
147604.000			-39.554			-3.596
147705.000			-39.552			-3.596
147803.000			-39.550			-3.595
147904.000			-39.549			-3.595
148004.000			-39.548			-3.595
148104.000			-39.548			-3.595
148204.000			-39.546			-3.595
148305.000			-39.546			-3.595
148404.000			-39.545			-3.595
148504.000			-39.544			-3.595
148605.000			-39.543			-3.595
148704.000			-39.542			-3.595
148804.000			-39.542			-3.595
148903.000			-39.540			-3.595
149004.000			-39.539			-3.594
149105.000			-39.539			-3.594
149204.000			-39.537			-3.594
149304.000			-39.536			-3.594
149405.000			-39.535			-3.594
149504.000			-39.534			-3.594
149604.000			-39.533			-3.594
149705.000			-39.532			-3.594
149803.000			-39.532			-3.594
149904.000			-39.531			-3.594
150004.000			-39.528			-3.593
150104.000			-39.528			-3.593
150204.000			-39.528			-3.593
150305.000			-39.526			-3.593
150404.000			-39.525			-3.593
150504.000			-39.526			-3.593
150605.000			-39.525			-3.593
150703.000			-39.522			-3.593
150804.000			-39.521			-3.593
150904.000			-39.521			-3.593
151004.000			-39.521			-3.593
151104.000			-39.519			-3.593
151205.000			-39.517			-3.592
151304.000			-39.517			-3.592
151404.000			-39.516			-3.592
151505.000			-39.516			-3.592
151603.000			-39.516			-3.592
151704.000			-39.514			-3.592
151805.000			-39.512			-3.592
151904.000			-39.512			-3.592
152004.000			-39.511			-3.592
152104.000			-39.510			-3.592
152204.000			-39.510			-3.592
152305.000			-39.509			-3.592
152404.000			-39.507			-3.592
152503.000			-39.506			-3.591
152605.000			-39.505			-3.591
152704.000			-39.505			-3.591
152804.000			-39.504			-3.591
152905.000			-39.504			-3.591
153004.000			-39.501			-3.591
153104.000			-39.500			-3.591
153205.000			-39.499			-3.591
153304.000			-39.500			-3.591
153403.000			-39.498			-3.591
153505.000			-39.498			-3.591
153603.000			-39.496			-3.591
153704.000			-39.495			-3.590
153805.000			-39.493			-3.590
153904.000			-39.493			-3.590
154004.000			-39.492			-3.590
154105.000			-39.492			-3.590
154204.000			-39.491			-3.590
154304.000			-39.489			-3.590
154405.000			-39.488			-3.590
154503.000			-39.487			-3.590
154604.000			-39.487			-3.590
154705.000			-39.486			-3.590
154804.000			-39.486			-3.590
154904.000			-39.485			-3.590
155005.000			-39.482			-3.589
155104.000			-39.481			-3.589
155204.000			-39.481			-3.589
155305.000			-39.480			-3.589
155403.000			-39.479			-3.589
155505.000			-39.480			-3.589
155603.000			-39.479			-3.589
155704.000			-39.478			-3.589
155805.000			-39.477			-3.589
155904.000			-39.474			-3.589
156004.000			-39.473			-3.588
156105.000			-39.472			-3.588
156204.000			-39.472			-3.588
156304.000			-39.472			-3.588
156405.000			-39.471			-3.588
156503.000			-39.469			-3.588
156604.000			-39.469			-3.588
156705.000			-39.467			-3.588
156804.000			-39.467			-3.588
156904.000			-39.466			-3.588
157005.000			-39.464			-3.588
157104.000			-39.463			-3.588
157204.000			-39.463			-3.588
157305.000			-39.462			-3.587
157403.000			-39.462			-3.587
157504.000			-39.461			-3.587
157605.000			-39.460			-3.587
157704.000			-39.458			-3.587
157804.000			-39.457			-3.587
157905.000			-39.456			-3.587
158004.000			-39.456			-3.587
158104.000			-39.455			-3.587
158205.000			-39.453			-3.587
158303.000			-39.452			-3.587
158404.000			-39.452			-3.587
158503.000			-39.452			-3.587
158604.000			-39.451			-3.586
158705.000			-39.449			-3.586
158804.000			-39.448			-3.586
158904.000			-39.448			-3.586
159005.000			-39.447			-3.586
159104.000			-39.446			-3.586
159204.000			-39.445			-3.586
159305.000			-39.445			-3.586
159403.000			-39.444			-3.586
159504.000			-39.443			-3.586
159605.000			-39.442			-3.586
159704.000			-39.441			-3.586
159804.000			-39.440			-3.585
159905.000			-39.440			-3.585
160004.000			-39.440			-3.585
160104.000			-39.438			-3.585
160205.000			-39.437			-3.585
160303.000			-39.436			-3.585
160404.000			-39.434			-3.585
160505.000			-39.435			-3.585
160604.000			-39.434			-3.585
160704.000			-39.433			-3.585
160805.000			-39.431			-3.585
160904.000			-39.431			-3.585
161004.000			-39.429			-3.584
161105.000			-39.429			-3.584
161203.000			-39.428			-3.584
161304.000			-39.428			-3.584
161404.000			-39.428			-3.584
161504.000			-39.426			-3.584
161604.000			-39.425			-3.584
161704.000			-39.424			-3.584
161804.000			-39.423			-3.584
161905.000			-39.422			-3.584
162004.000			-39.422			-3.584
162103.000			-39.421			-3.584
162205.000			-39.419			-3.584
162304.000			-39.418			-3.583
162404.000			-39.416			-3.583
162505.000			-39.415			-3.583
162604.000			-39.414			-3.583
162704.000			-39.414			-3.583
162805.000			-39.413			-3.583
162904.000			-39.413			-3.583
163003.000			-39.411			-3.583
163105.000			-39.411			-3.583
163204.000			-39.411			-3.583
163304.000			-39.409			-3.583
163405.000			-39.407			-3.582
163504.000			-39.408			-3.583
163604.000			-39.407			-3.582
163705.000			-39.405			-3.582
163804.000			-39.405			-3.582
163903.000			-39.404			-3.582
164005.000			-39.403			-3.582
164104.000			-39.402			-3.582
164204.000			-39.402			-3.582
164305.000			-39.401			-3.582
164404.000			-39.400			-3.582
164504.000			-39.399			-3.582
164605.000			-39.398			-3.582
164704.000			-39.397			-3.582
164803.000			-39.397			-3.582
164905.000			-39.396			-3.581
165003.000			-39.396			-3.581
165105.000			-39.395			-3.581
165204.000			-39.393			-3.581
165304.000			-39.392			-3.581
165405.000			-39.392			-3.581
165504.000			-39.392			-3.581
165604.000			-39.391			-3.581
165705.000			-39.390			-3.581
165804.000			-39.388			-3.581
165903.000			-39.386			-3.581
166005.000			-39.385			-3.580
166104.000			-39.385			-3.580
166204.000			-39.385			-3.580
166305.000			-39.384			-3.580
166404.000			-39.382			-3.580
166504.000			-39.382			-3.580
166605.000			-39.381			-3.580
166704.000			-39.380			-3.580
166803.000			-39.379			-3.580
166905.000			-39.379			-3.580
167003.000			-39.379			-3.580
167104.000			-39.377			-3.580
167205.000			-39.376			-3.580
167304.000			-39.374			-3.579
167404.000			-39.376			-3.580
167505.000			-39.374			-3.579
167604.000			-39.373			-3.579
167704.000			-39.373			-3.579
167805.000			-39.372			-3.579
167903.000			-39.370			-3.579
168004.000			-39.369			-3.579
168105.000			-39.369			-3.579
168204.000			-39.366			-3.579
168305.000			-39.366			-3.579
168404.000			-39.365			-3.579
168504.000			-39.363			-3.578
168605.000			-39.363			-3.578
168704.000			-39.363			-3.578
168803.000			-39.362			-3.578
168905.000			-39.361			-3.578
169003.000			-39.361			-3.578
169104.000			-39.360			-3.578
169205.000			-39.359			-3.578
169304.000			-39.358			-3.578
169404.000			-39.357			-3.578
169505.000			-39.356			-3.578
169604.000			-39.355			-3.578
169704.000			-39.354			-3.578
169805.000			-39.354			-3.578
169903.000			-39.353			-3.578
170004.000			-39.352			-3.577
170105.000			-39.351			-3.577
170204.000			-39.351			-3.577
170304.000			-39.351			-3.577
170405.000			-39.349			-3.577
170504.000			-39.347			-3.577
170604.000			-39.347			-3.577
170705.000			-39.348			-3.577
170803.000			-39.347			-3.577
170904.000			-39.344			-3.577
171005.000			-39.343			-3.577
171104.000			-39.344			-3.577
171204.000			-39.343			-3.577
171304.000			-39.342			-3.577
171404.000			-39.341			-3.576
171505.000			-39.341			-3.576
171604.000			-39.341			-3.576
171703.000			-39.339			-3.576
171805.000			-39.339			-3.576
171904.000			-39.337			-3.576
172004.000			-39.336			-3.576
172105.000			-39.335			-3.576
172204.000			-39.335			-3.576
172304.000			-39.334			-3.576
172405.000			-39.332			-3.576
172504.000			-39.333			-3.576
172603.000			-39.331			-3.576
172705.000			-39.331			-3.576
172804.000			-39.330			-3.575
172904.000			-39.329			-3.575
173005.000			-39.328			-3.575
173104.000			-39.328			-3.575
173204.000			-39.326			-3.575
173305.000			-39.325			-3.575
173404.000			-39.325			-3.575
173503.000			-39.324			-3.575
173605.000			-39.323			-3.575
173704.000			-39.322			-3.575
173804.000			-39.322			-3.575
173905.000			-39.320			-3.575
174004.000			-39.320			-3.575
174104.000			-39.319			-3.574
174205.000			-39.317			-3.574
174304.000			-39.316			-3.574
174403.000			-39.316			-3.574
174505.000			-39.315			-3.574
174604.000			-39.314			-3.574
174705.000			-39.313			-3.574
174804.000			-39.313			-3.574
174904.000			-39.312			-3.574
175005.000			-39.312			-3.574
175104.000			-39.311			-3.574
175204.000			-39.309			-3.574
175304.000			-39.309			-3.574
175404.000			-39.309			-3.574
175504.000			-39.308			-3.573
175605.000			-39.307			-3.573
175704.000			-39.306			-3.573
175804.000			-39.306			-3.573
175905.000			-39.304			-3.573
176004.000			-39.305			-3.573
176104.000			-39.302			-3.573
176204.000			-39.300			-3.573
176304.000			-39.300			-3.573
176404.000			-39.300			-3.573
176505.000			-39.300			-3.573
176604.000			-39.299			-3.573
176704.000			-39.297			-3.572
176805.000			-39.297			-3.572
176904.000			-39.297			-3.572
177004.000			-39.296			-3.572
177104.000			-39.295			-3.572
177204.000			-39.294			-3.572
177303.000			-39.293			-3.572
177405.000			-39.293			-3.572
177504.000			-39.290			-3.572
177604.000			-39.290			-3.572
177705.000			-39.290			-3.572
177804.000			-39.289			-3.572
177905.000			-39.289			-3.572
178004.000			-39.288			-3.572
178104.000			-39.287			-3.572
178204.000			-39.286			-3.571
178304.000			-39.284			-3.571
178404.000			-39.284			-3.571
178505.000			-39.283			-3.571
178604.000			-39.282			-3.571
178704.000			-39.282			-3.571
178805.000			-39.281			-3.571
178904.000			-39.281			-3.571
179004.000			-39.279			-3.571
179104.000			-39.279			-3.571
179204.000			-39.278			-3.571
179303.000			-39.278			-3.571
179405.000			-39.276			-3.571
179504.000			-39.275			-3.570
179604.000			-39.275			-3.570
179705.000			-39.273			-3.570
179804.000			-39.273			-3.570
179904.000			-39.272			-3.570
180005.000			-39.271			-3.570
180104.000			-39.271			-3.570
180203.000			-39.270			-3.570
180305.000			-39.269			-3.570
180404.000			-39.268			-3.570
180504.000			-39.268			-3.570
180605.000			-39.267			-3.570
180704.000			-39.266			-3.570
180804.000			-39.266			-3.570
180904.000			-39.265			-3.570
181004.000			-39.264			-3.569
181103.000			-39.263			-3.569
181204.000			-39.262			-3.569
181303.000			-39.261			-3.569
181405.000			-39.260			-3.569
181504.000			-39.260			-3.569
181604.000			-39.260			-3.569
181705.000			-39.259			-3.569
181804.000			-39.257			-3.569
181904.000			-39.257			-3.569
182004.000			-39.256			-3.569
182104.000			-39.255			-3.569
182203.000			-39.254			-3.569
182305.000			-39.254			-3.569
182404.000			-39.253			-3.568
182504.000			-39.252			-3.568
182605.000			-39.252			-3.568
182704.000			-39.251			-3.568
182804.000			-39.249			-3.568
182904.000			-39.249			-3.568
183004.000			-39.249			-3.568
183103.000			-39.248			-3.568
183205.000			-39.247			-3.568
183304.000			-39.246			-3.568
183404.000			-39.245			-3.568
183505.000			-39.245			-3.568
183604.000			-39.244			-3.568
183704.000			-39.243			-3.568
183804.000			-39.243			-3.568
183904.000			-39.243			-3.568
184003.000			-39.241			-3.567
184105.000			-39.240			-3.567
184204.000			-39.239			-3.567
184305.000			-39.239			-3.567
184404.000			-39.238			-3.567
184504.000			-39.236			-3.567
184605.000			-39.235			-3.567
184704.000			-39.235			-3.567
184804.000			-39.234			-3.567
184904.000			-39.233			-3.567
185004.000			-39.233			-3.567
185104.000			-39.232			-3.567
185205.000			-39.231			-3.566
185304.000			-39.232			-3.567
185404.000			-39.231			-3.566
185505.000			-39.229			-3.566
185603.000			-39.230			-3.566
185704.000			-39.229			-3.566
185804.000			-39.228			-3.566
185904.000			-39.226			-3.566
186004.000			-39.224			-3.566
186105.000			-39.225			-3.566
186204.000			-39.223			-3.566
186304.000			-39.223			-3.566
186405.000			-39.222			-3.566
186503.000			-39.221			-3.566
186604.000			-39.221			-3.566
186704.000			-39.220			-3.565
186804.000			-39.219			-3.565
186904.000			-39.218			-3.565
187005.000			-39.218			-3.565
187104.000			-39.217			-3.565
187204.000			-39.216			-3.565
187305.000			-39.216			-3.565
187404.000			-39.215			-3.565
187505.000			-39.214			-3.565
187603.000			-39.213			-3.565
187704.000			-39.212			-3.565
187805.000			-39.211			-3.565
187904.000			-39.210			-3.565
188004.000			-39.210			-3.565
188105.000			-39.210			-3.565
188204.000			-39.210			-3.565
188304.000			-39.209			-3.564
188405.000			-39.207			-3.564
188503.000			-39.207			-3.564
188604.000			-39.207			-3.564
188705.000			-39.207			-3.564
188804.000			-39.205			-3.564
188904.000			-39.203			-3.564
189005.000			-39.202			-3.564
189104.000			-39.202			-3.564
189204.000			-39.200			-3.564
189305.000			-39.199			-3.564
189403.000			-39.199			-3.564
189504.000			-39.199			-3.564
189604.000			-39.198			-3.563
189704.000			-39.197			-3.563
189804.000			-39.196			-3.563
189905.000			-39.194			-3.563
190004.000			-39.194			-3.563
190104.000			-39.194			-3.563
190205.000			-39.193			-3.563
190304.000			-39.194			-3.563
190404.000			-39.193			-3.563
190503.000			-39.191			-3.563
190604.000			-39.192			-3.563
190705.000			-39.190			-3.563
190804.000			-39.190			-3.563
190904.000			-39.189			-3.563
191005.000			-39.188			-3.563
191104.000			-39.187			-3.562
191204.000			-39.187			-3.562
191305.000			-39.185			-3.562
191403.000			-39.185			-3.562
191504.000			-39.183			-3.562
191604.000			-39.183			-3.562
191704.000			-39.184			-3.562
191804.000			-39.183			-3.562
191905.000			-39.182			-3.562
192004.000			-39.179			-3.562
192104.000			-39.179			-3.562
192205.000			-39.178			-3.562
192304.000			-39.177			-3.562
192404.000			-39.178			-3.562
192504.000			-39.177			-3.562
192604.000			-39.176			-3.561
192704.000			-39.174			-3.561
192805.000			-39.174			-3.561
192904.000			-39.173			-3.561
193004.000			-39.171			-3.561
193105.000			-39.172			-3.561
193204.000			-39.172			-3.561
193304.000			-39.171			-3.561
193404.000			-39.171			-3.561
193504.000			-39.170			-3.561
193604.000			-39.168			-3.561
193704.000			-39.168			-3.561
193804.000			-39.168			-3.561
193905.000			-39.167			-3.561
194004.000			-39.165			-3.560
194104.000			-39.165			-3.560
194205.000			-39.164			-3.560
194303.000			-39.164			-3.560
194404.000			-39.162			-3.560
194504.000			-39.161			-3.560
194604.000			-39.161			-3.560
194704.000			-39.159			-3.560
194805.000			-39.159			-3.560
194904.000			-39.158			-3.560
195004.000			-39.158			-3.560
195105.000			-39.156			-3.560
195204.000			-39.156			-3.560
195304.000			-39.156			-3.560
195404.000			-39.156			-3.560
195504.000			-39.155			-3.560
195604.000			-39.154			-3.559
195705.000			-39.154			-3.559
195804.000			-39.152			-3.559
195904.000			-39.151			-3.559
196005.000			-39.151			-3.559
196104.000			-39.151			-3.559
196204.000			-39.150			-3.559
196304.000			-39.149			-3.559
196404.000			-39.147			-3.559
196504.000			-39.148			-3.559
196605.000			-39.147			-3.559
196704.000			-39.146			-3.559
196804.000			-39.145			-3.559
196905.000			-39.145			-3.559
197004.000			-39.144			-3.559
197105.000			-39.143			-3.558
197203.000			-39.141			-3.558
197304.000			-39.141			-3.558
197404.000			-39.141			-3.558
197504.000			-39.140			-3.558
197604.000			-39.139			-3.558
197705.000			-39.139			-3.558
197804.000			-39.137			-3.558
197904.000			-39.137			-3.558
198005.000			-39.136			-3.558
198104.000			-39.135			-3.558
198204.000			-39.134			-3.558
198304.000			-39.134			-3.558
198404.000			-39.133			-3.558
198504.000			-39.132			-3.557
198605.000			-39.130			-3.557
198704.000			-39.130			-3.557
198804.000			-39.130			-3.557
198905.000			-39.129			-3.557
199004.000			-39.130			-3.557
199104.000			-39.129			-3.557
199204.000			-39.128			-3.557
199304.000			-39.128			-3.557
199404.000			-39.127			-3.557
199505.000			-39.126			-3.557
199604.000			-39.126			-3.557
199704.000			-39.125			-3.557
199805.000			-39.125			-3.557
199904.000			-39.124			-3.557
200004.000			-39.121			-3.556
200103.000			-39.121			-3.556
200204.000			-39.121			-3.556
200305.000			-39.119			-3.556
200404.000			-39.119			-3.556
200504.000			-39.119			-3.556
200605.000			-39.119			-3.556
200704.000			-39.117			-3.556
200804.000			-39.118			-3.556
200905.000			-39.116			-3.556
201003.000			-39.115			-3.556
201104.000			-39.114			-3.556
201205.000			-39.114			-3.556
201304.000			-39.113			-3.556
201404.000			-39.113			-3.556
201505.000			-39.112			-3.556
201604.000			-39.112			-3.556
201703.000			-39.110			-3.555
201805.000			-39.109			-3.555
201904.000			-39.109			-3.555
202004.000			-39.109			-3.555
202105.000			-39.109			-3.555
202204.000			-39.106			-3.555
202304.000			-39.107			-3.555
202405.000			-39.105			-3.555
202504.000			-39.105			-3.555
202603.000			-39.105			-3.555
202705.000			-39.103			-3.555
202804.000			-39.103			-3.555
202904.000			-39.102			-3.555
203005.000			-39.100			-3.555
203104.000			-39.100			-3.555
203204.000			-39.101			-3.555
203303.000			-39.100			-3.555
203404.000			-39.099			-3.554
203503.000			-39.099			-3.554
203604.000			-39.098			-3.554
203704.000			-39.097			-3.554
203805.000			-39.095			-3.554
203904.000			-39.094			-3.554
204004.000			-39.094			-3.554
204105.000			-39.095			-3.554
204204.000			-39.095			-3.554
204304.000			-39.094			-3.554
204404.000			-39.092			-3.554
204504.000			-39.091			-3.554
204604.000			-39.089			-3.554
204705.000			-39.089			-3.554
204804.000			-39.088			-3.553
204904.000			-39.089			-3.554
205005.000			-39.088			-3.553
205104.000			-39.086			-3.553
205204.000			-39.085			-3.553
205304.000			-39.086			-3.553
205404.000			-39.084			-3.553
205504.000			-39.082			-3.553
205605.000			-39.083			-3.553
205704.000			-39.082			-3.553
205804.000			-39.081			-3.553
205905.000			-39.080			-3.553
206004.000			-39.080			-3.553
206104.000			-39.080			-3.553
206204.000			-39.080			-3.553
206304.000			-39.078			-3.553
206404.000			-39.077			-3.552
206504.000			-39.077			-3.552
206604.000			-39.077			-3.552
206705.000			-39.077			-3.552
206804.000			-39.076			-3.552
206904.000			-39.075			-3.552
207005.000			-39.073			-3.552
207103.000			-39.074			-3.552
207204.000			-39.073			-3.552
207305.000			-39.071			-3.552
207404.000			-39.072			-3.552
207504.000			-39.072			-3.552
207605.000			-39.070			-3.552
207704.000			-39.070			-3.552
207804.000			-39.069			-3.552
207905.000			-39.068			-3.552
208003.000			-39.066			-3.551
208104.000			-39.065			-3.551
208205.000			-39.064			-3.551
208304.000			-39.064			-3.551
208404.000			-39.064			-3.551
208505.000			-39.065			-3.551
208604.000			-39.064			-3.551
208704.000			-39.061			-3.551
208805.000			-39.061			-3.551
208903.000			-39.060			-3.551
209004.000			-39.059			-3.551
209105.000			-39.060			-3.551
209204.000			-39.060			-3.551
209304.000			-39.058			-3.551
209405.000			-39.057			-3.551
209504.000			-39.056			-3.551
209604.000			-39.057			-3.551
209705.000			-39.057			-3.551
209803.000			-39.055			-3.550
209905.000			-39.053			-3.550
210004.000			-39.053			-3.550
210104.000			-39.053			-3.550
210205.000			-39.052			-3.550
210304.000			-39.051			-3.550
210404.000			-39.051			-3.550
210505.000			-39.049			-3.550
210604.000			-39.049			-3.550
210703.000			-39.049			-3.550
210805.000			-39.049			-3.550
210904.000			-39.047			-3.550
211004.000			-39.046			-3.550
211105.000			-39.046			-3.550
211204.000			-39.045			-3.550
211304.000			-39.044			-3.549
211405.000			-39.045			-3.550
211504.000			-39.044			-3.549
211603.000			-39.042			-3.549
211705.000			-39.041			-3.549
211804.000			-39.041			-3.549
211904.000			-39.040			-3.549
212005.000			-39.040			-3.549
212104.000			-39.039			-3.549
212204.000			-39.038			-3.549
212304.000			-39.038			-3.549
212404.000			-39.038			-3.549
212503.000			-39.036			-3.549
212605.000			-39.035			-3.549
212704.000			-39.034			-3.549
212804.000			-39.034			-3.549
212905.000			-39.034			-3.549
213004.000			-39.034			-3.549
213105.000			-39.033			-3.548
213203.000			-39.032			-3.548
213304.000			-39.031			-3.548
213405.000			-39.030			-3.548
213504.000			-39.029			-3.548
213604.000			-39.029			-3.548
213705.000			-39.030			-3.548
213804.000			-39.028			-3.548
213904.000			-39.027			-3.548
214005.000			-39.027			-3.548
214103.000			-39.026			-3.548
214204.000			-39.026			-3.548
214305.000			-39.025			-3.548
214404.000			-39.024			-3.548
214504.000			-39.023			-3.548
214605.000			-39.023			-3.548
214704.000			-39.023			-3.548
214804.000			-39.022			-3.547
214905.000			-39.020			-3.547
215003.000			-39.019			-3.547
215104.000			-39.018			-3.547
215205.000			-39.019			-3.547
215304.000			-39.019			-3.547
215404.000			-39.018			-3.547
215505.000			-39.016			-3.547
215604.000			-39.015			-3.547
215703.000			-39.015			-3.547
215805.000			-39.016			-3.547
215903.000			-39.015			-3.547
216004.000			-39.013			-3.547
216105.000			-39.013			-3.547
216204.000			-39.013			-3.547
216305.000			-39.012			-3.547
216404.000			-39.011			-3.546
216504.000			-39.010			-3.546
216604.000			-39.010			-3.546
216704.000			-39.009			-3.546
216804.000			-39.008			-3.546
216905.000			-39.008			-3.546
217004.000			-39.007			-3.546
217104.000			-39.006			-3.546
217205.000			-39.005			-3.546
217304.000			-39.006			-3.546
217404.000			-39.004			-3.546
217504.000			-39.003			-3.546
217604.000			-39.002			-3.546
217704.000			-39.002			-3.546
217805.000			-39.002			-3.546
217904.000			-39.001			-3.546
218004.000			-39.001			-3.546
218105.000			-39.000			-3.545
218204.000			-38.998			-3.545
218304.000			-38.999			-3.545
218404.000			-38.998			-3.545
218504.000			-38.998			-3.545
218604.000			-38.996			-3.545
218705.000			-38.996			-3.545
218804.000			-38.996			-3.545
218904.000			-38.995			-3.545
219005.000			-38.994			-3.545
219104.000			-38.994			-3.545
219204.000			-38.994			-3.545
219303.000			-38.993			-3.545
219404.000			-38.992			-3.545
219503.000			-38.991			-3.545
219604.000			-38.991			-3.545
219704.000			-38.990			-3.545
219805.000			-38.990			-3.545
219904.000			-38.988			-3.544
220004.000			-38.988			-3.544
220105.000			-38.987			-3.544
220204.000			-38.988			-3.544
220304.000			-38.985			-3.544
220404.000			-38.984			-3.544
220504.000			-38.984			-3.544
220604.000			-38.984			-3.544
220705.000			-38.984			-3.544
220804.000			-38.983			-3.544
220904.000			-38.982			-3.544
221005.000			-38.981			-3.544
221104.000			-38.981			-3.544
221204.000			-38.980			-3.544
221304.000			-38.980			-3.544
221404.000			-38.979			-3.544
221503.000			-38.978			-3.543
221605.000			-38.978			-3.543
221704.000			-38.978			-3.543
221804.000			-38.977			-3.543
221905.000			-38.977			-3.543
222004.000			-38.975			-3.543
222104.000			-38.975			-3.543
222204.000			-38.974			-3.543
222304.000			-38.975			-3.543
222403.000			-38.974			-3.543
222505.000			-38.972			-3.543
222604.000			-38.970			-3.543
222705.000			-38.970			-3.543
222804.000			-38.969			-3.543
222904.000			-38.969			-3.543
223005.000			-38.970			-3.543
223104.000			-38.969			-3.543
223204.000			-38.968			-3.543
223304.000			-38.968			-3.543
223404.000			-38.967			-3.542
223504.000			-38.966			-3.542
223605.000			-38.965			-3.542
223704.000			-38.965			-3.542
223804.000			-38.965			-3.542
223905.000			-38.962			-3.542
224004.000			-38.962			-3.542
224104.000			-38.962			-3.542
224204.000			-38.961			-3.542
224304.000			-38.961			-3.542
224404.000			-38.962			-3.542
224505.000			-38.960			-3.542
224604.000			-38.959			-3.542
224704.000			-38.958			-3.542
224805.000			-38.957			-3.542
224904.000			-38.957			-3.542
225004.000			-38.955			-3.541
225104.000			-38.955			-3.541
225204.000			-38.954			-3.541
225303.000			-38.954			-3.541
225405.000			-38.953			-3.541
225504.000			-38.952			-3.541
225604.000			-38.952			-3.541
225705.000			-38.952			-3.541
225804.000			-38.952			-3.541
225905.000			-38.951			-3.541
226004.000			-38.950			-3.541
226104.000			-38.949			-3.541
226204.000			-38.948			-3.541
226304.000			-38.949			-3.541
226404.000			-38.948			-3.541
226505.000			-38.947			-3.541
226604.000			-38.947			-3.541
226704.000			-38.947			-3.541
226805.000			-38.944			-3.540
226904.000			-38.943			-3.540
227004.000			-38.943			-3.540
227104.000			-38.943			-3.540
227204.000			-38.943			-3.540
227303.000			-38.942			-3.540
227405.000			-38.942			-3.540
227504.000			-38.942			-3.540
227604.000			-38.939			-3.540
227705.000			-38.938			-3.540
227804.000			-38.938			-3.540
227904.000			-38.937			-3.540
228005.000			-38.937			-3.540
228104.000			-38.936			-3.540
228203.000			-38.937			-3.540
228305.000			-38.935			-3.540
228404.000			-38.935			-3.540
228504.000			-38.934			-3.539
228605.000			-38.933			-3.539
228704.000			-38.933			-3.539
228804.000			-38.932			-3.539
228904.000			-38.932			-3.539
229004.000			-38.931			-3.539
229103.000			-38.931			-3.539
229204.000			-38.931			-3.539
229304.000			-38.930			-3.539
229405.000			-38.929			-3.539
229504.000			-38.928			-3.539
229604.000			-38.928			-3.539
229705.000			-38.927			-3.539
229804.000			-38.928			-3.539
229904.000			-38.926			-3.539
230004.000			-38.925			-3.539
230104.000			-38.924			-3.539
230203.000			-38.924			-3.539
230305.000			-38.923			-3.538
230404.000			-38.922			-3.538
230504.000			-38.922			-3.538
230605.000			-38.922			-3.538
230704.000			-38.920			-3.538
230804.000			-38.920			-3.538
230904.000			-38.919			-3.538
231004.000			-38.919			-3.538
231103.000			-38.919			-3.538
231205.000			-38.917			-3.538
231304.000			-38.916			-3.538
231404.000			-38.916			-3.538
231505.000			-38.917			-3.538
231604.000			-38.916			-3.538
231704.000			-38.914			-3.538
231804.000			-38.915			-3.538
231904.000			-38.913			-3.538
232003.000			-38.913			-3.538
232105.000			-38.912			-3.537
232204.000			-38.911			-3.537
232305.000			-38.911			-3.537
232404.000			-38.911			-3.537
232504.000			-38.910			-3.537
232605.000			-38.909			-3.537
232703.000			-38.908			-3.537
232804.000			-38.908			-3.537
232905.000			-38.908			-3.537
233004.000			-38.906			-3.537
233104.000			-38.906			-3.537
233205.000			-38.907			-3.537
233304.000			-38.905			-3.537
233404.000			-38.904			-3.537
233505.000			-38.903			-3.537
233603.000			-38.903			-3.537
233704.000			-38.903			-3.537
233805.000			-38.903			-3.537
233904.000			-38.902			-3.537
234004.000			-38.902			-3.537
234105.000			-38.900			-3.536
234204.000			-38.899			-3.536
234304.000			-38.898			-3.536
234405.000			-38.898			-3.536
234503.000			-38.898			-3.536
234604.000			-38.897			-3.536
234704.000			-38.897			-3.536
234804.000			-38.895			-3.536
234904.000			-38.895			-3.536
235005.000			-38.896			-3.536
235104.000			-38.896			-3.536
235204.000			-38.895			-3.536
235305.000			-38.893			-3.536
235404.000			-38.892			-3.536
235505.000			-38.892			-3.536
235603.000			-38.891			-3.536
235704.000			-38.891			-3.536
235805.000			-38.891			-3.536
235904.000			-38.890			-3.535
236004.000			-38.889			-3.535
236105.000			-38.889			-3.535
236204.000			-38.886			-3.535
236304.000			-38.885			-3.535
236405.000			-38.886			-3.535
236503.000			-38.886			-3.535
236604.000			-38.885			-3.535
236705.000			-38.884			-3.535
236804.000			-38.884			-3.535
236904.000			-38.885			-3.535
237005.000			-38.883			-3.535
237104.000			-38.882			-3.535
237204.000			-38.882			-3.535
237305.000			-38.881			-3.535
237403.000			-38.881			-3.535
237504.000			-38.881			-3.535
237604.000			-38.881			-3.535
237704.000			-38.879			-3.534
237804.000			-38.879			-3.534
237905.000			-38.878			-3.534
238004.000			-38.878			-3.534
238104.000			-38.877			-3.534
238205.000			-38.875			-3.534
238304.000			-38.874			-3.534
238404.000			-38.875			-3.534
238503.000			-38.874			-3.534
238604.000			-38.873			-3.534
238703.000			-38.873			-3.534
238804.000			-38.872			-3.534
238904.000			-38.872			-3.534
239005.000			-38.872			-3.534
239104.000			-38.871			-3.534
239204.000			-38.869			-3.534
239305.000			-38.869			-3.534
239404.000			-38.868			-3.533
239504.000			-38.868			-3.533
239604.000			-38.868			-3.533
239704.000			-38.867			-3.533
239803.000			-38.867			-3.533
239905.000			-38.866			-3.533
240004.000			-38.865			-3.533
240104.000			-38.864			-3.533
240205.000			-38.864			-3.533
240304.000			-38.863			-3.533
240404.000			-38.863			-3.533
240504.000			-38.862			-3.533
240604.000			-38.862			-3.533
240703.000			-38.861			-3.533
240805.000			-38.861			-3.533
240904.000			-38.860			-3.533
241004.000			-38.859			-3.533
241105.000			-38.858			-3.533
241204.000			-38.859			-3.533
241304.000			-38.856			-3.532
241404.000			-38.856			-3.532
241504.000			-38.856			-3.532
241603.000			-38.855			-3.532
241705.000			-38.855			-3.532
241804.000			-38.855			-3.532
241905.000			-38.855			-3.532
242004.000			-38.854			-3.532
242104.000			-38.852			-3.532
242205.000			-38.853			-3.532
242303.000			-38.853			-3.532
242404.000			-38.852			-3.532
242504.000			-38.851			-3.532
242604.000			-38.851			-3.532
242704.000			-38.849			-3.532
242805.000			-38.848			-3.532
242904.000			-38.849			-3.532
243004.000			-38.848			-3.532
243105.000			-38.847			-3.532
243204.000			-38.846			-3.531
243304.000			-38.846			-3.531
243404.000			-38.846			-3.531
243504.000			-38.846			-3.531
243604.000			-38.844			-3.531
243705.000			-38.843			-3.531
243804.000			-38.843			-3.531
243904.000			-38.844			-3.531
244005.000			-38.843			-3.531
244104.000			-38.841			-3.531
244204.000			-38.840			-3.531
244304.000			-38.839			-3.531
244404.000			-38.838			-3.531
244504.000			-38.839			-3.531
244605.000			-38.839			-3.531
244704.000			-38.838			-3.531
244804.000			-38.837			-3.531
244905.000			-38.837			-3.531
245004.000			-38.835			-3.530
245105.000			-38.835			-3.530
245203.000			-38.835			-3.530
245304.000			-38.834			-3.530
245405.000			-38.833			-3.530
245504.000			-38.833			-3.530
245604.000			-38.833			-3.530
245705.000			-38.832			-3.530
245804.000			-38.831			-3.530
245904.000			-38.830			-3.530
246005.000			-38.830			-3.530
246103.000			-38.829			-3.530
246204.000			-38.828			-3.530
246304.000			-38.828			-3.530
246404.000			-38.827			-3.530
246504.000			-38.827			-3.530
246605.000			-38.826			-3.530
246704.000			-38.825			-3.530
246804.000			-38.825			-3.530
246905.000			-38.825			-3.530
247004.000			-38.825			-3.530
247104.000			-38.823			-3.529
247204.000			-38.823			-3.529
247304.000			-38.823			-3.529
247404.000			-38.822			-3.529
247505.000			-38.821			-3.529
247604.000			-38.822			-3.529
247704.000			-38.820			-3.529
247805.000			-38.820			-3.529
247904.000			-38.819			-3.529
248004.000			-38.819			-3.529
248103.000			-38.819			-3.529
248204.000			-38.818			-3.529
248303.000			-38.817			-3.529
248404.000			-38.817			-3.529
248504.000			-38.816			-3.529
248605.000			-38.815			-3.529
248704.000			-38.814			-3.529
248804.000			-38.813			-3.528
248905.000			-38.813			-3.528
249004.000			-38.812			-3.528
249104.000			-38.811			-3.528
249204.000			-38.812			-3.528
249304.000			-38.811			-3.528
249404.000			-38.811			-3.528
249505.000			-38.810			-3.528
249604.000			-38.809			-3.528
249704.000			-38.809			-3.528
249805.000			-38.808			-3.528
249904.000			-38.808			-3.528
250004.000			-38.806			-3.528
250104.000			-38.806			-3.528
250204.000			-38.806			-3.528
250304.000			-38.805			-3.528
250405.000			-38.805			-3.528
250504.000			-38.803			-3.528
250604.000			-38.803			-3.528
250705.000			-38.803			-3.528
250804.000			-38.801			-3.527
250904.000			-38.802			-3.527
251004.000			-38.801			-3.527
251104.000			-38.800			-3.527
251204.000			-38.799			-3.527
251304.000			-38.799			-3.527
251404.000			-38.799			-3.527
251505.000			-38.797			-3.527
251604.000			-38.797			-3.527
251704.000			-38.797			-3.527
251805.000			-38.797			-3.527
251903.000			-38.796			-3.527
252004.000			-38.796			-3.527
252105.000			-38.795			-3.527
252204.000			-38.794			-3.527
252304.000			-38.794			-3.527
252405.000			-38.793			-3.527
252504.000			-38.792			-3.527
252604.000			-38.792			-3.527
252705.000			-38.792			-3.527
252803.000			-38.792			-3.527
252904.000			-38.790			-3.526
253004.000			-38.789			-3.526
253104.000			-38.790			-3.526
253204.000			-38.790			-3.526
253305.000			-38.788			-3.526
253404.000			-38.788			-3.526
253504.000			-38.788			-3.526
253605.000			-38.787			-3.526
253704.000			-38.787			-3.526
253804.000			-38.786			-3.526
253904.000			-38.785			-3.526
254004.000			-38.784			-3.526
254104.000			-38.784			-3.526
254205.000			-38.783			-3.526
254304.000			-38.783			-3.526
254404.000			-38.781			-3.526
254505.000			-38.781			-3.526
254604.000			-38.782			-3.526
254705.000			-38.781			-3.526
254803.000			-38.780			-3.525
254904.000			-38.779			-3.525
255004.000			-38.778			-3.525
255104.000			-38.778			-3.525
255204.000			-38.778			-3.525
255305.000			-38.777			-3.525
255404.000			-38.776			-3.525
255504.000			-38.776			-3.525
255605.000			-38.776			-3.525
255704.000			-38.775			-3.525
255804.000			-38.775			-3.525
255904.000			-38.774			-3.525
256004.000			-38.774			-3.525
256104.000			-38.774			-3.525
256205.000			-38.774			-3.525
256304.000			-38.773			-3.525
256404.000			-38.772			-3.525
256505.000			-38.771			-3.525
256604.000			-38.770			-3.525
256704.000			-38.770			-3.525
256804.000			-38.770			-3.525
256904.000			-38.769			-3.524
257003.000			-38.768			-3.524
257105.000			-38.768			-3.524
257204.000			-38.767			-3.524
257304.000			-38.767			-3.524
257405.000			-38.766			-3.524
257504.000			-38.764			-3.524
257604.000			-38.763			-3.524
257704.000			-38.764			-3.524
257804.000			-38.764			-3.524
257903.000			-38.763			-3.524
258004.000			-38.762			-3.524
258104.000			-38.762			-3.524
258205.000			-38.761			-3.524
258304.000			-38.761			-3.524
258404.000			-38.758			-3.523
258505.000			-38.758			-3.523
258604.000			-38.758			-3.523
258704.000			-38.758			-3.523
258804.000			-38.757			-3.523
258904.000			-38.757			-3.523
259003.000			-38.756			-3.523
259105.000			-38.756			-3.523
259204.000			-38.755			-3.523
259304.000			-38.754			-3.523
259405.000			-38.754			-3.523
259504.000			-38.755			-3.523
259604.000			-38.754			-3.523
259705.000			-38.753			-3.523
259804.000			-38.752			-3.523
259903.000			-38.752			-3.523
260005.000			-38.751			-3.523
260104.000			-38.751			-3.523
260204.000			-38.750			-3.523
260305.000			-38.749			-3.523
260404.000			-38.749			-3.523
260504.000			-38.748			-3.523
260605.000			-38.747			-3.522
260704.000			-38.747			-3.522
260803.000			-38.747			-3.522
260905.000			-38.747			-3.522
261004.000			-38.746			-3.522
261105.000			-38.745			-3.522
261204.000			-38.744			-3.522
261304.000			-38.744			-3.522
261405.000			-38.745			-3.522
261504.000			-38.745			-3.522
261604.000			-38.744			-3.522
261704.000			-38.742			-3.522
261804.000			-38.741			-3.522
261904.000			-38.740			-3.522
262005.000			-38.741			-3.522
262104.000			-38.741			-3.522
262204.000			-38.739			-3.522
262305.000			-38.739			-3.522
262404.000			-38.738			-3.522
262504.000			-38.738			-3.522
262604.000			-38.737			-3.522
262704.000			-38.736			-3.521
262803.000			-38.736			-3.521
262905.000			-38.736			-3.521
263004.000			-38.736			-3.521
263104.000			-38.735			-3.521
263205.000			-38.734			-3.521
263304.000			-38.733			-3.521
263404.000			-38.733			-3.521
263504.000			-38.732			-3.521
263604.000			-38.731			-3.521
263703.000			-38.731			-3.521
263805.000			-38.731			-3.521
263904.000			-38.729			-3.521
264004.000			-38.730			-3.521
264105.000			-38.730			-3.521
264204.000			-38.729			-3.521
264305.000			-38.728			-3.521
264403.000			-38.727			-3.521
264504.000			-38.727			-3.521
264604.000			-38.726			-3.521
264704.000			-38.727			-3.521
264804.000			-38.726			-3.521
264905.000			-38.724			-3.520
265004.000			-38.724			-3.520
265104.000			-38.724			-3.520
265205.000			-38.723			-3.520
265303.000			-38.723			-3.520
265404.000			-38.723			-3.520
265504.000			-38.723			-3.520
265604.000			-38.721			-3.520
265704.000			-38.719			-3.520
265805.000			-38.719			-3.520
265904.000			-38.719			-3.520
266004.000			-38.719			-3.520
266105.000			-38.719			-3.520
266204.000			-38.719			-3.520
266304.000			-38.718			-3.520
266404.000			-38.718			-3.520
266504.000			-38.717			-3.520
266604.000			-38.716			-3.520
266705.000			-38.715			-3.520
266804.000			-38.714			-3.519
266904.000			-38.714			-3.519
267005.000			-38.713			-3.519
267104.000			-38.713			-3.519
267204.000			-38.712			-3.519
267303.000			-38.712			-3.519
267404.000			-38.711			-3.519
267505.000			-38.710			-3.519
267604.000			-38.710			-3.519
267704.000			-38.711			-3.519
267805.000			-38.711			-3.519
267904.000			-38.709			-3.519
268004.000			-38.707			-3.519
268105.000			-38.708			-3.519
268203.000			-38.706			-3.519
268304.000			-38.706			-3.519
268405.000			-38.706			-3.519
268504.000			-38.706			-3.519
268604.000			-38.706			-3.519
268705.000			-38.705			-3.519
268804.000			-38.705			-3.519
268904.000			-38.703			-3.518
269005.000			-38.704			-3.519
269103.000			-38.704			-3.519
269204.000			-38.703			-3.518
269305.000			-38.702			-3.518
269404.000			-38.702			-3.518
269504.000			-38.701			-3.518
269605.000			-38.700			-3.518
269704.000			-38.700			-3.518
269804.000			-38.699			-3.518
269905.000			-38.698			-3.518
270003.000			-38.698			-3.518
270104.000			-38.698			-3.518
270204.000			-38.697			-3.518
270304.000			-38.697			-3.518
270404.000			-38.695			-3.518
270504.000			-38.695			-3.518
270604.000			-38.695			-3.518
270705.000			-38.695			-3.518
270804.000			-38.694			-3.518
270904.000			-38.693			-3.518
271005.000			-38.692			-3.517
271103.000			-38.692			-3.517
271204.000			-38.691			-3.517
271305.000			-38.691			-3.517
271404.000			-38.691			-3.517
271504.000			-38.690			-3.517
271605.000			-38.688			-3.517
271704.000			-38.688			-3.517
271804.000			-38.688			-3.517
271905.000			-38.686			-3.517
272003.000			-38.687			-3.517
272104.000			-38.686			-3.517
272204.000			-38.686			-3.517
272304.000			-38.685			-3.517
272404.000			-38.685			-3.517
272505.000			-38.684			-3.517
272604.000			-38.684			-3.517
272704.000			-38.683			-3.517
272805.000			-38.682			-3.517
272904.000			-38.682			-3.517
273004.000			-38.682			-3.517
273104.000			-38.682			-3.517
273204.000			-38.681			-3.516
273304.000			-38.680			-3.516
273405.000			-38.680			-3.516
273504.000			-38.680			-3.516
273604.000			-38.679			-3.516
273705.000			-38.679			-3.516
273804.000			-38.679			-3.516
273905.000			-38.679			-3.516
274003.000			-38.677			-3.516
274104.000			-38.677			-3.516
274204.000			-38.676			-3.516
274304.000			-38.676			-3.516
274404.000			-38.676			-3.516
274505.000			-38.676			-3.516
274604.000			-38.675			-3.516
274704.000			-38.673			-3.516
274805.000			-38.672			-3.516
274904.000			-38.672			-3.516
275004.000			-38.672			-3.516
275104.000			-38.670			-3.515
275204.000			-38.670			-3.515
275304.000			-38.670			-3.515
275405.000			-38.670			-3.515
275504.000			-38.670			-3.515
275604.000			-38.669			-3.515
275705.000			-38.669			-3.515
275804.000			-38.668			-3.515
275904.000			-38.667			-3.515
276004.000			-38.666			-3.515
276104.000			-38.666			-3.515
276203.000			-38.666			-3.515
276305.000			-38.666			-3.515
276404.000			-38.665			-3.515
276504.000			-38.664			-3.515
276605.000			-38.663			-3.515
276704.000			-38.663			-3.515
276804.000			-38.663			-3.515
276904.000			-38.663			-3.515
277004.000			-38.662			-3.515
277103.000			-38.662			-3.515
277204.000			-38.661			-3.515
277304.000			-38.660			-3.515
277405.000			-38.659			-3.514
277504.000			-38.660			-3.515
277604.000			-38.658			-3.514
277705.000			-38.657			-3.514
277804.000			-38.658			-3.514
277904.000			-38.658			-3.514
278004.000			-38.657			-3.514
278104.000			-38.657			-3.514
278203.000			-38.656			-3.514
278305.000			-38.655			-3.514
278404.000			-38.654			-3.514
278504.000			-38.654			-3.514
278605.000			-38.654			-3.514
278704.000			-38.653			-3.514
278804.000			-38.652			-3.514
278905.000			-38.652			-3.514
279004.000			-38.651			-3.514
279103.000			-38.651			-3.514
279205.000			-38.650			-3.514
279304.000			-38.648			-3.513
279404.000			-38.649			-3.514
279505.000			-38.648			-3.513
279604.000			-38.648			-3.513
279704.000			-38.647			-3.513
279805.000			-38.647			-3.513
279904.000			-38.647			-3.513
280003.000			-38.648			-3.513
280105.000			-38.646			-3.513
280204.000			-38.646			-3.513
280305.000			-38.645			-3.513
280404.000			-38.645			-3.513
280504.000			-38.643			-3.513
280605.000			-38.643			-3.513
280704.000			-38.642			-3.513
280804.000			-38.642			-3.513
280904.000			-38.642			-3.513
281004.000			-38.642			-3.513
281103.000			-38.642			-3.513
281205.000			-38.640			-3.513
281304.000			-38.640			-3.513
281404.000			-38.640			-3.513
281505.000			-38.639			-3.513
281604.000			-38.639			-3.513
281704.000			-38.639			-3.513
281804.000			-38.638			-3.513
281904.000			-38.637			-3.512
282003.000			-38.636			-3.512
282105.000			-38.636			-3.512
282204.000			-38.636			-3.512
282304.000			-38.635			-3.512
282405.000			-38.634			-3.512
282504.000			-38.633			-3.512
282604.000			-38.633			-3.512
282704.000			-38.632			-3.512
282804.000			-38.632			-3.512
282903.000			-38.631			-3.512
283005.000			-38.632			-3.512
283104.000			-38.631			-3.512
283204.000			-38.630			-3.512
283305.000			-38.630			-3.512
283404.000			-38.629			-3.512
283505.000			-38.629			-3.512
283604.000			-38.629			-3.512
283704.000			-38.628			-3.512
283804.000			-38.627			-3.512
283904.000			-38.627			-3.512
284004.000			-38.627			-3.512
284105.000			-38.624			-3.511
284204.000			-38.625			-3.511
284304.000			-38.626			-3.511
284405.000			-38.625			-3.511
284504.000			-38.624			-3.511
284604.000			-38.624			-3.511
284704.000			-38.624			-3.511
284804.000			-38.621			-3.511
284904.000			-38.622			-3.511
285005.000			-38.622			-3.511
285104.000			-38.622			-3.511
285204.000			-38.621			-3.511
285305.000			-38.621			-3.511
285404.000			-38.620			-3.511
285504.000			-38.619			-3.511
285604.000			-38.618			-3.511
285704.000			-38.617			-3.511
285804.000			-38.618			-3.511
285905.000			-38.618			-3.511
286004.000			-38.617			-3.511
286104.000			-38.616			-3.511
286205.000			-38.616			-3.511
286304.000			-38.614			-3.510
286404.000			-38.615			-3.510
286503.000			-38.615			-3.510
286604.000			-38.614			-3.510
286703.000			-38.614			-3.510
286804.000			-38.613			-3.510
286904.000			-38.613			-3.510
287005.000			-38.610			-3.510
287104.000			-38.610			-3.510
287204.000			-38.611			-3.510
287305.000			-38.611			-3.510
287404.000			-38.611			-3.510
287504.000			-38.610			-3.510
287604.000			-38.609			-3.510
287704.000			-38.607			-3.510
287803.000			-38.608			-3.510
287905.000			-38.607			-3.510
288004.000			-38.606			-3.510
288104.000			-38.605			-3.510
288205.000			-38.605			-3.510
288304.000			-38.606			-3.510
288404.000			-38.606			-3.510
288504.000			-38.604			-3.509
288604.000			-38.604			-3.509
288703.000			-38.604			-3.509
288805.000			-38.604			-3.509
288904.000			-38.604			-3.509
289004.000			-38.602			-3.509
289105.000			-38.601			-3.509
289204.000			-38.600			-3.509
289304.000			-38.601			-3.509
289405.000			-38.601			-3.509
289504.000			-38.600			-3.509
289603.000			-38.600			-3.509
289705.000			-38.599			-3.509
289804.000			-38.598			-3.509
289905.000			-38.596			-3.509
290004.000			-38.597			-3.509
290104.000			-38.597			-3.509
290205.000			-38.597			-3.509
290304.000			-38.596			-3.509
290404.000			-38.595			-3.509
290504.000			-38.595			-3.509
290604.000			-38.594			-3.509
290703.000			-38.593			-3.508
290805.000			-38.593			-3.508
290904.000			-38.593			-3.508
291004.000			-38.592			-3.508
291105.000			-38.591			-3.508
291204.000			-38.591			-3.508
291304.000			-38.591			-3.508
291405.000			-38.591			-3.508
291504.000			-38.590			-3.508
291603.000			-38.589			-3.508
291705.000			-38.589			-3.508
291804.000			-38.588			-3.508
291904.000			-38.587			-3.508
292005.000			-38.587			-3.508
292104.000			-38.586			-3.508
292204.000			-38.586			-3.508
292305.000			-38.586			-3.508
292404.000			-38.584			-3.508
292503.000			-38.584			-3.508
292605.000			-38.584			-3.508
292703.000			-38.584			-3.508
292804.000			-38.583			-3.508
292905.000			-38.582			-3.507
293004.000			-38.582			-3.507
293105.000			-38.582			-3.507
293204.000			-38.580			-3.507
293304.000			-38.581			-3.507
293405.000			-38.581			-3.507
293504.000			-38.579			-3.507
293603.000			-38.579			-3.507
293705.000			-38.578			-3.507
293804.000			-38.578			-3.507
293904.000			-38.577			-3.507
294005.000			-38.577			-3.507
294104.000			-38.577			-3.507
294204.000			-38.577			-3.507
294305.000			-38.576			-3.507
294404.000			-38.575			-3.507
294503.000			-38.574			-3.507
294605.000			-38.574			-3.507
294703.000			-38.574			-3.507
294804.000			-38.574			-3.507
294905.000			-38.574			-3.507
295004.000			-38.572			-3.507
295104.000			-38.571			-3.506
295205.000			-38.571			-3.506
295304.000			-38.570			-3.506
295404.000			-38.570			-3.506
295505.000			-38.571			-3.506
295603.000			-38.571			-3.506
295704.000			-38.570			-3.506
295805.000			-38.569			-3.506
295904.000			-38.568			-3.506
296004.000			-38.568			-3.506
296104.000			-38.566			-3.506
296204.000			-38.566			-3.506
296305.000			-38.566			-3.506
296404.000			-38.566			-3.506
296503.000			-38.565			-3.506
296605.000			-38.565			-3.506
296704.000			-38.565			-3.506
296804.000			-38.564			-3.506
296905.000			-38.565			-3.506
297004.000			-38.564			-3.506
297104.000			-38.563			-3.506
297205.000			-38.562			-3.506
297304.000			-38.562			-3.506
297403.000			-38.560			-3.505
297505.000			-38.560			-3.505
297603.000			-38.560			-3.505
297704.000			-38.560			-3.505
297805.000			-38.559			-3.505
297904.000			-38.558			-3.505
298004.000			-38.558			-3.505
298105.000			-38.559			-3.505
298204.000			-38.558			-3.505
298304.000			-38.557			-3.505
298405.000			-38.557			-3.505
298503.000			-38.556			-3.505
298604.000			-38.555			-3.505
298705.000			-38.555			-3.505
298804.000			-38.553			-3.505
298904.000			-38.553			-3.505
299005.000			-38.554			-3.505
299104.000			-38.554			-3.505
299204.000			-38.553			-3.505
299305.000			-38.551			-3.505
299403.000			-38.551			-3.505
299505.000			-38.552			-3.505
299603.000			-38.551			-3.505
299704.000			-38.549			-3.504
299805.000			-38.549			-3.504
299904.000			-38.549			-3.504
