# Acquired on 30/01/2024 11:44:08 
# SPIDER: Creep_11mm_HM077x145x38AB-1
# CREEP MEASUREMENT

# time [ms]		force [N]		stiffness [N/mm]
0.000			-33.018			-3.002
103.000			-33.435			-3.040
205.000			-33.512			-3.047
304.000			-33.417			-3.038
404.000			-33.233			-3.021
505.000			-33.166			-3.015
603.000			-33.107			-3.010
704.000			-33.054			-3.005
805.000			-33.009			-3.001
904.000			-32.967			-2.997
1004.000			-32.929			-2.994
1104.000			-32.859			-2.987
1204.000			-32.828			-2.984
1304.000			-32.798			-2.982
1405.000			-32.771			-2.979
1504.000			-32.744			-2.977
1604.000			-32.719			-2.974
1705.000			-32.695			-2.972
1803.000			-32.650			-2.968
1905.000			-32.630			-2.966
2004.000			-32.609			-2.964
2104.000			-32.589			-2.963
2205.000			-32.569			-2.961
2303.000			-32.551			-2.959
2404.000			-32.533			-2.958
2505.000			-32.500			-2.955
2604.000			-32.484			-2.953
2704.000			-32.468			-2.952
2805.000			-32.453			-2.950
2904.000			-32.439			-2.949
3003.000			-32.424			-2.948
3105.000			-32.409			-2.946
3204.000			-32.395			-2.945
3304.000			-32.368			-2.943
3405.000			-32.355			-2.941
3503.000			-32.344			-2.940
3604.000			-32.332			-2.939
3705.000			-32.320			-2.938
3804.000			-32.309			-2.937
3904.000			-32.297			-2.936
4005.000			-32.274			-2.934
4104.000			-32.265			-2.933
4203.000			-32.255			-2.932
4305.000			-32.244			-2.931
4404.000			-32.232			-2.930
4504.000			-32.223			-2.929
4605.000			-32.213			-2.928
4704.000			-32.194			-2.927
4804.000			-32.185			-2.926
4905.000			-32.176			-2.925
5004.000			-32.167			-2.924
5105.000			-32.158			-2.923
5204.000			-32.149			-2.923
5304.000			-32.141			-2.922
5404.000			-32.125			-2.920
5504.000			-32.117			-2.920
5604.000			-32.109			-2.919
5705.000			-32.101			-2.918
5804.000			-32.093			-2.918
5904.000			-32.085			-2.917
6005.000			-32.078			-2.916
6104.000			-32.070			-2.915
6204.000			-32.055			-2.914
6305.000			-32.048			-2.913
6404.000			-32.041			-2.913
6504.000			-32.034			-2.912
6604.000			-32.026			-2.911
6704.000			-32.019			-2.911
6804.000			-32.012			-2.910
6905.000			-32.000			-2.909
7004.000			-31.992			-2.908
7104.000			-31.986			-2.908
7205.000			-31.980			-2.907
7303.000			-31.973			-2.907
7404.000			-31.966			-2.906
7505.000			-31.960			-2.905
7604.000			-31.948			-2.904
7704.000			-31.943			-2.904
7804.000			-31.936			-2.903
7904.000			-31.929			-2.903
8004.000			-31.921			-2.902
8104.000			-31.914			-2.901
8204.000			-31.908			-2.901
8305.000			-31.897			-2.900
8404.000			-31.891			-2.899
8503.000			-31.886			-2.899
8605.000			-31.880			-2.898
8704.000			-31.874			-2.898
8804.000			-31.869			-2.897
8905.000			-31.864			-2.897
9004.000			-31.858			-2.896
9104.000			-31.847			-2.895
9204.000			-31.841			-2.895
9304.000			-31.836			-2.894
9404.000			-31.832			-2.894
9505.000			-31.826			-2.893
9604.000			-31.821			-2.893
9704.000			-31.816			-2.892
9805.000			-31.807			-2.892
9903.000			-31.802			-2.891
10004.000			-31.796			-2.891
10105.000			-31.790			-2.890
10204.000			-31.785			-2.890
10304.000			-31.781			-2.889
10404.000			-31.777			-2.889
10504.000			-31.768			-2.888
10604.000			-31.764			-2.888
10705.000			-31.759			-2.887
10804.000			-31.754			-2.887
10904.000			-31.749			-2.886
11005.000			-31.744			-2.886
11103.000			-31.741			-2.886
11204.000			-31.730			-2.885
11305.000			-31.727			-2.884
11404.000			-31.722			-2.884
11505.000			-31.719			-2.884
11604.000			-31.715			-2.883
11704.000			-31.709			-2.883
11804.000			-31.705			-2.882
11904.000			-31.702			-2.882
12004.000			-31.694			-2.881
12105.000			-31.690			-2.881
12204.000			-31.686			-2.881
12304.000			-31.681			-2.880
12405.000			-31.677			-2.880
12503.000			-31.673			-2.879
12604.000			-31.669			-2.879
12705.000			-31.662			-2.878
12804.000			-31.658			-2.878
12904.000			-31.655			-2.878
13004.000			-31.650			-2.877
13104.000			-31.646			-2.877
13204.000			-31.642			-2.877
13305.000			-31.639			-2.876
13404.000			-31.631			-2.876
13504.000			-31.628			-2.875
13605.000			-31.624			-2.875
13703.000			-31.620			-2.875
13804.000			-31.617			-2.874
13905.000			-31.613			-2.874
14004.000			-31.609			-2.874
14104.000			-31.603			-2.873
14205.000			-31.600			-2.873
14304.000			-31.596			-2.872
14403.000			-31.592			-2.872
14505.000			-31.588			-2.872
14604.000			-31.584			-2.871
14705.000			-31.581			-2.871
14804.000			-31.578			-2.871
14904.000			-31.572			-2.870
15005.000			-31.568			-2.870
15103.000			-31.565			-2.870
15204.000			-31.562			-2.869
15305.000			-31.559			-2.869
15404.000			-31.555			-2.869
15504.000			-31.550			-2.868
15604.000			-31.545			-2.868
15704.000			-31.542			-2.867
15804.000			-31.538			-2.867
15905.000			-31.535			-2.867
16004.000			-31.532			-2.867
16104.000			-31.529			-2.866
16205.000			-31.526			-2.866
16303.000			-31.520			-2.865
16404.000			-31.517			-2.865
16505.000			-31.514			-2.865
16604.000			-31.511			-2.865
16704.000			-31.506			-2.864
16805.000			-31.503			-2.864
16904.000			-31.502			-2.864
17003.000			-31.497			-2.863
17105.000			-31.494			-2.863
17204.000			-31.490			-2.863
17304.000			-31.487			-2.862
17405.000			-31.483			-2.862
17504.000			-31.480			-2.862
17604.000			-31.478			-2.862
17703.000			-31.475			-2.861
17804.000			-31.470			-2.861
17905.000			-31.466			-2.861
18004.000			-31.463			-2.860
18104.000			-31.461			-2.860
18205.000			-31.459			-2.860
18304.000			-31.457			-2.860
18403.000			-31.453			-2.859
18505.000			-31.448			-2.859
18604.000			-31.444			-2.859
18704.000			-31.441			-2.858
18805.000			-31.438			-2.858
18904.000			-31.436			-2.858
19004.000			-31.434			-2.858
19104.000			-31.432			-2.857
19204.000			-31.426			-2.857
19304.000			-31.423			-2.857
19405.000			-31.421			-2.856
19504.000			-31.417			-2.856
19603.000			-31.415			-2.856
19705.000			-31.413			-2.856
19804.000			-31.410			-2.855
19904.000			-31.405			-2.855
20005.000			-31.402			-2.855
20104.000			-31.399			-2.854
20204.000			-31.396			-2.854
20304.000			-31.394			-2.854
20404.000			-31.390			-2.854
20504.000			-31.389			-2.854
20605.000			-31.384			-2.853
20704.000			-31.381			-2.853
20804.000			-31.379			-2.853
20905.000			-31.376			-2.852
21003.000			-31.374			-2.852
21105.000			-31.372			-2.852
21204.000			-31.369			-2.852
21304.000			-31.366			-2.851
21405.000			-31.362			-2.851
21504.000			-31.359			-2.851
21604.000			-31.357			-2.851
21704.000			-31.356			-2.851
21804.000			-31.353			-2.850
21904.000			-31.350			-2.850
22005.000			-31.348			-2.850
22104.000			-31.342			-2.849
22203.000			-31.340			-2.849
22305.000			-31.338			-2.849
22404.000			-31.335			-2.849
22504.000			-31.332			-2.848
22605.000			-31.331			-2.848
22704.000			-31.329			-2.848
22804.000			-31.324			-2.848
22904.000			-31.322			-2.847
23004.000			-31.320			-2.847
23104.000			-31.318			-2.847
23205.000			-31.315			-2.847
23304.000			-31.313			-2.847
23404.000			-31.310			-2.846
23505.000			-31.306			-2.846
23604.000			-31.304			-2.846
23704.000			-31.302			-2.846
23805.000			-31.300			-2.845
23904.000			-31.297			-2.845
24004.000			-31.295			-2.845
24103.000			-31.294			-2.845
24204.000			-31.291			-2.845
24305.000			-31.287			-2.844
24404.000			-31.285			-2.844
24504.000			-31.282			-2.844
24605.000			-31.280			-2.844
24704.000			-31.278			-2.843
24803.000			-31.276			-2.843
24905.000			-31.273			-2.843
25004.000			-31.269			-2.843
25104.000			-31.267			-2.842
25205.000			-31.265			-2.842
25304.000			-31.262			-2.842
25404.000			-31.261			-2.842
25504.000			-31.260			-2.842
25604.000			-31.258			-2.842
25704.000			-31.253			-2.841
25805.000			-31.251			-2.841
25904.000			-31.249			-2.841
26004.000			-31.247			-2.841
26105.000			-31.244			-2.840
26203.000			-31.242			-2.840
26304.000			-31.241			-2.840
26405.000			-31.237			-2.840
26504.000			-31.234			-2.839
26604.000			-31.233			-2.839
26704.000			-31.232			-2.839
26804.000			-31.229			-2.839
26904.000			-31.227			-2.839
27005.000			-31.225			-2.839
27104.000			-31.223			-2.838
27204.000			-31.220			-2.838
27305.000			-31.217			-2.838
27403.000			-31.216			-2.838
27505.000			-31.214			-2.838
27604.000			-31.213			-2.838
27704.000			-31.210			-2.837
27805.000			-31.208			-2.837
27904.000			-31.205			-2.837
28004.000			-31.202			-2.837
28104.000			-31.199			-2.836
28204.000			-31.197			-2.836
28304.000			-31.196			-2.836
28405.000			-31.195			-2.836
28504.000			-31.193			-2.836
28604.000			-31.190			-2.835
28705.000			-31.187			-2.835
28803.000			-31.185			-2.835
28904.000			-31.183			-2.835
29005.000			-31.182			-2.835
29104.000			-31.180			-2.835
29204.000			-31.178			-2.834
29304.000			-31.174			-2.834
29404.000			-31.172			-2.834
29503.000			-31.171			-2.834
29605.000			-31.169			-2.834
29704.000			-31.168			-2.833
29804.000			-31.165			-2.833
29905.000			-31.162			-2.833
30003.000			-31.162			-2.833
30104.000			-31.159			-2.833
30205.000			-31.157			-2.832
30304.000			-31.154			-2.832
30404.000			-31.152			-2.832
30504.000			-31.152			-2.832
30604.000			-31.150			-2.832
30704.000			-31.148			-2.832
30804.000			-31.145			-2.831
30904.000			-31.144			-2.831
31005.000			-31.141			-2.831
31104.000			-31.139			-2.831
31203.000			-31.137			-2.831
31305.000			-31.135			-2.830
31404.000			-31.134			-2.830
31504.000			-31.131			-2.830
31605.000			-31.129			-2.830
31704.000			-31.128			-2.830
31804.000			-31.127			-2.830
31904.000			-31.124			-2.829
32004.000			-31.122			-2.829
32104.000			-31.120			-2.829
32205.000			-31.118			-2.829
32304.000			-31.116			-2.829
32404.000			-31.114			-2.829
32505.000			-31.112			-2.828
32603.000			-31.111			-2.828
32704.000			-31.110			-2.828
32805.000			-31.107			-2.828
32904.000			-31.105			-2.828
33004.000			-31.102			-2.827
33104.000			-31.101			-2.827
33204.000			-31.099			-2.827
33304.000			-31.097			-2.827
33405.000			-31.096			-2.827
33504.000			-31.094			-2.827
33604.000			-31.092			-2.827
33705.000			-31.089			-2.826
33803.000			-31.088			-2.826
33905.000			-31.086			-2.826
34004.000			-31.084			-2.826
34104.000			-31.083			-2.826
34205.000			-31.081			-2.826
34304.000			-31.080			-2.825
34404.000			-31.077			-2.825
34504.000			-31.075			-2.825
34604.000			-31.074			-2.825
34704.000			-31.072			-2.825
34805.000			-31.071			-2.825
34904.000			-31.070			-2.825
35003.000			-31.068			-2.824
35105.000			-31.065			-2.824
35204.000			-31.063			-2.824
35304.000			-31.062			-2.824
35405.000			-31.060			-2.824
35504.000			-31.059			-2.824
35604.000			-31.058			-2.823
35704.000			-31.057			-2.823
35804.000			-31.055			-2.823
35904.000			-31.052			-2.823
36005.000			-31.050			-2.823
36104.000			-31.048			-2.823
36204.000			-31.046			-2.822
36305.000			-31.045			-2.822
36403.000			-31.044			-2.822
36504.000			-31.043			-2.822
36605.000			-31.040			-2.822
36704.000			-31.038			-2.822
36804.000			-31.036			-2.821
36904.000			-31.035			-2.821
37004.000			-31.033			-2.821
37104.000			-31.032			-2.821
37204.000			-31.030			-2.821
37304.000			-31.027			-2.821
37405.000			-31.025			-2.820
37504.000			-31.024			-2.820
37603.000			-31.023			-2.820
37705.000			-31.021			-2.820
37804.000			-31.021			-2.820
37904.000			-31.020			-2.820
38005.000			-31.017			-2.820
38104.000			-31.016			-2.820
38204.000			-31.014			-2.819
38304.000			-31.013			-2.819
38404.000			-31.011			-2.819
38504.000			-31.009			-2.819
38605.000			-31.008			-2.819
38704.000			-31.006			-2.819
38804.000			-31.004			-2.819
38905.000			-31.003			-2.818
39004.000			-31.000			-2.818
39104.000			-30.999			-2.818
39205.000			-30.998			-2.818
39304.000			-30.996			-2.818
39404.000			-30.995			-2.818
39504.000			-30.992			-2.817
39604.000			-30.991			-2.817
39703.000			-30.990			-2.817
39805.000			-30.987			-2.817
39904.000			-30.985			-2.817
40004.000			-30.983			-2.817
40105.000			-30.983			-2.817
40204.000			-30.981			-2.816
40305.000			-30.979			-2.816
40403.000			-30.977			-2.816
40504.000			-30.977			-2.816
40605.000			-30.976			-2.816
40704.000			-30.974			-2.816
40804.000			-30.973			-2.816
40905.000			-30.969			-2.815
41004.000			-30.968			-2.815
41103.000			-30.967			-2.815
41205.000			-30.966			-2.815
41304.000			-30.965			-2.815
41404.000			-30.963			-2.815
41505.000			-30.962			-2.815
41603.000			-30.961			-2.815
41704.000			-30.958			-2.814
41805.000			-30.956			-2.814
41904.000			-30.955			-2.814
42004.000			-30.953			-2.814
42105.000			-30.952			-2.814
42204.000			-30.951			-2.814
42303.000			-30.950			-2.814
42405.000			-30.947			-2.813
42504.000			-30.946			-2.813
42604.000			-30.945			-2.813
42705.000			-30.944			-2.813
42804.000			-30.943			-2.813
42904.000			-30.941			-2.813
43004.000			-30.939			-2.813
43104.000			-30.938			-2.813
43204.000			-30.936			-2.812
43304.000			-30.934			-2.812
43404.000			-30.933			-2.812
43505.000			-30.932			-2.812
43604.000			-30.931			-2.812
43703.000			-30.929			-2.812
43805.000			-30.927			-2.812
43904.000			-30.926			-2.811
44004.000			-30.924			-2.811
44105.000			-30.924			-2.811
44204.000			-30.923			-2.811
44304.000			-30.921			-2.811
44404.000			-30.920			-2.811
44504.000			-30.918			-2.811
44604.000			-30.916			-2.811
44705.000			-30.914			-2.810
44804.000			-30.913			-2.810
44903.000			-30.912			-2.810
45005.000			-30.910			-2.810
45104.000			-30.909			-2.810
45204.000			-30.909			-2.810
45305.000			-30.906			-2.810
45404.000			-30.904			-2.809
45504.000			-30.904			-2.809
45604.000			-30.903			-2.809
45704.000			-30.901			-2.809
45804.000			-30.900			-2.809
45905.000			-30.899			-2.809
46004.000			-30.896			-2.809
46104.000			-30.894			-2.809
46205.000			-30.893			-2.808
46303.000			-30.892			-2.808
46404.000			-30.891			-2.808
46505.000			-30.891			-2.808
46604.000			-30.889			-2.808
46705.000			-30.886			-2.808
46804.000			-30.885			-2.808
46904.000			-30.885			-2.808
47004.000			-30.883			-2.808
47104.000			-30.880			-2.807
47204.000			-30.880			-2.807
47305.000			-30.879			-2.807
47404.000			-30.878			-2.807
47504.000			-30.876			-2.807
47605.000			-30.875			-2.807
47703.000			-30.874			-2.807
47804.000			-30.872			-2.807
47905.000			-30.870			-2.806
48004.000			-30.869			-2.806
48104.000			-30.868			-2.806
48205.000			-30.866			-2.806
48304.000			-30.865			-2.806
48403.000			-30.863			-2.806
48505.000			-30.863			-2.806
48604.000			-30.862			-2.806
48704.000			-30.859			-2.805
48805.000			-30.858			-2.805
48904.000			-30.858			-2.805
49004.000			-30.856			-2.805
49104.000			-30.855			-2.805
49204.000			-30.855			-2.805
49304.000			-30.853			-2.805
49405.000			-30.851			-2.805
49504.000			-30.851			-2.805
49604.000			-30.848			-2.804
49705.000			-30.848			-2.804
49803.000			-30.847			-2.804
49905.000			-30.845			-2.804
50004.000			-30.844			-2.804
50104.000			-30.842			-2.804
50205.000			-30.842			-2.804
50304.000			-30.842			-2.804
50404.000			-30.839			-2.804
50504.000			-30.837			-2.803
50604.000			-30.836			-2.803
50704.000			-30.835			-2.803
50805.000			-30.834			-2.803
50904.000			-30.834			-2.803
51004.000			-30.833			-2.803
51105.000			-30.830			-2.803
51203.000			-30.828			-2.803
51304.000			-30.826			-2.802
51405.000			-30.827			-2.802
51504.000			-30.826			-2.802
51604.000			-30.825			-2.802
51705.000			-30.823			-2.802
51804.000			-30.821			-2.802
51903.000			-30.820			-2.802
52005.000			-30.819			-2.802
52104.000			-30.817			-2.802
52204.000			-30.816			-2.801
52305.000			-30.815			-2.801
52404.000			-30.814			-2.801
52504.000			-30.812			-2.801
52604.000			-30.811			-2.801
52704.000			-30.811			-2.801
52804.000			-30.809			-2.801
52904.000			-30.808			-2.801
53004.000			-30.807			-2.801
53104.000			-30.807			-2.801
53204.000			-30.806			-2.801
53304.000			-30.802			-2.800
53405.000			-30.801			-2.800
53504.000			-30.800			-2.800
53604.000			-30.799			-2.800
53705.000			-30.799			-2.800
53803.000			-30.797			-2.800
53904.000			-30.796			-2.800
54005.000			-30.794			-2.799
54104.000			-30.794			-2.799
54204.000			-30.793			-2.799
54305.000			-30.792			-2.799
54404.000			-30.791			-2.799
54503.000			-30.790			-2.799
54605.000			-30.788			-2.799
54704.000			-30.786			-2.799
54804.000			-30.784			-2.799
54905.000			-30.784			-2.799
55004.000			-30.783			-2.798
55104.000			-30.782			-2.798
55204.000			-30.781			-2.798
55304.000			-30.779			-2.798
55404.000			-30.778			-2.798
55505.000			-30.777			-2.798
55604.000			-30.775			-2.798
55704.000			-30.775			-2.798
55805.000			-30.773			-2.798
55903.000			-30.773			-2.798
56004.000			-30.771			-2.797
56105.000			-30.770			-2.797
56204.000			-30.767			-2.797
56305.000			-30.766			-2.797
56404.000			-30.767			-2.797
56504.000			-30.766			-2.797
56604.000			-30.765			-2.797
56704.000			-30.764			-2.797
56804.000			-30.763			-2.797
56905.000			-30.761			-2.796
57004.000			-30.760			-2.796
57104.000			-30.759			-2.796
57205.000			-30.759			-2.796
57303.000			-30.757			-2.796
57404.000			-30.756			-2.796
57505.000			-30.754			-2.796
57604.000			-30.753			-2.796
57704.000			-30.752			-2.796
57805.000			-30.751			-2.796
57904.000			-30.749			-2.795
58003.000			-30.748			-2.795
58105.000			-30.747			-2.795
58204.000			-30.746			-2.795
58304.000			-30.745			-2.795
58405.000			-30.744			-2.795
58504.000			-30.743			-2.795
58604.000			-30.742			-2.795
58704.000			-30.741			-2.795
58804.000			-30.739			-2.794
58904.000			-30.738			-2.794
59005.000			-30.737			-2.794
59104.000			-30.736			-2.794
59203.000			-30.735			-2.794
59305.000			-30.735			-2.794
59404.000			-30.733			-2.794
59505.000			-30.732			-2.794
59604.000			-30.731			-2.794
59704.000			-30.731			-2.794
59805.000			-30.728			-2.793
59904.000			-30.727			-2.793
60004.000			-30.726			-2.793
60104.000			-30.726			-2.793
60204.000			-30.725			-2.793
60304.000			-30.724			-2.793
60405.000			-30.722			-2.793
60504.000			-30.722			-2.793
60603.000			-30.720			-2.793
60705.000			-30.718			-2.793
60804.000			-30.718			-2.793
60904.000			-30.716			-2.792
61005.000			-30.716			-2.792
61104.000			-30.716			-2.792
61204.000			-30.713			-2.792
61304.000			-30.712			-2.792
61404.000			-30.711			-2.792
61504.000			-30.710			-2.792
61605.000			-30.710			-2.792
61704.000			-30.709			-2.792
61804.000			-30.709			-2.792
61905.000			-30.708			-2.792
62003.000			-30.705			-2.791
62104.000			-30.705			-2.791
62205.000			-30.704			-2.791
62304.000			-30.703			-2.791
62404.000			-30.702			-2.791
62503.000			-30.700			-2.791
62604.000			-30.699			-2.791
62705.000			-30.698			-2.791
62804.000			-30.697			-2.791
62904.000			-30.697			-2.791
63005.000			-30.697			-2.791
63104.000			-30.695			-2.790
63203.000			-30.693			-2.790
63305.000			-30.692			-2.790
63404.000			-30.691			-2.790
63504.000			-30.690			-2.790
63605.000			-30.689			-2.790
63704.000			-30.689			-2.790
63804.000			-30.687			-2.790
63904.000			-30.687			-2.790
64004.000			-30.686			-2.790
64104.000			-30.683			-2.789
64205.000			-30.683			-2.789
64304.000			-30.682			-2.789
64404.000			-30.681			-2.789
64505.000			-30.681			-2.789
64603.000			-30.679			-2.789
64704.000			-30.678			-2.789
64805.000			-30.677			-2.789
64904.000			-30.676			-2.789
65004.000			-30.675			-2.789
65105.000			-30.674			-2.789
65204.000			-30.674			-2.789
65303.000			-30.673			-2.788
65405.000			-30.671			-2.788
65504.000			-30.671			-2.788
65604.000			-30.669			-2.788
65705.000			-30.668			-2.788
65804.000			-30.667			-2.788
65905.000			-30.667			-2.788
66003.000			-30.666			-2.788
66104.000			-30.664			-2.788
66205.000			-30.662			-2.787
66304.000			-30.662			-2.787
66404.000			-30.662			-2.787
66505.000			-30.662			-2.787
66604.000			-30.661			-2.787
66703.000			-30.659			-2.787
66805.000			-30.658			-2.787
66904.000			-30.657			-2.787
67004.000			-30.657			-2.787
67105.000			-30.656			-2.787
67204.000			-30.653			-2.787
67304.000			-30.652			-2.787
67404.000			-30.652			-2.787
67504.000			-30.651			-2.786
67604.000			-30.650			-2.786
67705.000			-30.649			-2.786
67804.000			-30.647			-2.786
67904.000			-30.646			-2.786
68005.000			-30.645			-2.786
68103.000			-30.644			-2.786
68204.000			-30.644			-2.786
68305.000			-30.642			-2.786
68404.000			-30.642			-2.786
68504.000			-30.641			-2.786
68605.000			-30.640			-2.785
68704.000			-30.640			-2.785
68803.000			-30.639			-2.785
68905.000			-30.638			-2.785
69004.000			-30.637			-2.785
69105.000			-30.637			-2.785
69204.000			-30.635			-2.785
69304.000			-30.633			-2.785
69405.000			-30.632			-2.785
69503.000			-30.631			-2.785
69604.000			-30.630			-2.785
69704.000			-30.630			-2.785
69804.000			-30.630			-2.785
69904.000			-30.627			-2.784
70005.000			-30.627			-2.784
70104.000			-30.626			-2.784
70203.000			-30.626			-2.784
70305.000			-30.625			-2.784
70404.000			-30.624			-2.784
70504.000			-30.622			-2.784
70605.000			-30.621			-2.784
70704.000			-30.621			-2.784
70804.000			-30.619			-2.784
70904.000			-30.619			-2.784
71004.000			-30.618			-2.783
71104.000			-30.617			-2.783
71205.000			-30.617			-2.783
71304.000			-30.616			-2.783
71404.000			-30.614			-2.783
71505.000			-30.614			-2.783
71603.000			-30.614			-2.783
71704.000			-30.614			-2.783
71805.000			-30.612			-2.783
71904.000			-30.610			-2.783
72004.000			-30.609			-2.783
72104.000			-30.608			-2.783
72204.000			-30.607			-2.782
72304.000			-30.607			-2.782
72404.000			-30.606			-2.782
72504.000			-30.605			-2.782
72605.000			-30.605			-2.782
72704.000			-30.604			-2.782
72804.000			-30.601			-2.782
72905.000			-30.601			-2.782
73003.000			-30.601			-2.782
73104.000			-30.599			-2.782
73205.000			-30.598			-2.782
73304.000			-30.599			-2.782
73404.000			-30.598			-2.782
73505.000			-30.596			-2.781
73604.000			-30.595			-2.781
73703.000			-30.594			-2.781
73805.000			-30.593			-2.781
73904.000			-30.592			-2.781
74004.000			-30.592			-2.781
74105.000			-30.591			-2.781
74204.000			-30.590			-2.781
74304.000			-30.589			-2.781
74404.000			-30.587			-2.781
74504.000			-30.587			-2.781
74604.000			-30.586			-2.781
74705.000			-30.586			-2.781
74804.000			-30.585			-2.780
74904.000			-30.584			-2.780
75005.000			-30.581			-2.780
75103.000			-30.581			-2.780
75204.000			-30.582			-2.780
75305.000			-30.581			-2.780
75404.000			-30.580			-2.780
75505.000			-30.579			-2.780
75604.000			-30.578			-2.780
75704.000			-30.577			-2.780
75804.000			-30.576			-2.780
75904.000			-30.575			-2.780
76004.000			-30.574			-2.779
76105.000			-30.573			-2.779
76204.000			-30.573			-2.779
76304.000			-30.571			-2.779
76405.000			-30.571			-2.779
76503.000			-30.570			-2.779
76604.000			-30.569			-2.779
76705.000			-30.568			-2.779
76804.000			-30.567			-2.779
76904.000			-30.566			-2.779
77005.000			-30.566			-2.779
77104.000			-30.565			-2.779
77203.000			-30.563			-2.778
77305.000			-30.563			-2.778
77404.000			-30.562			-2.778
77504.000			-30.561			-2.778
77605.000			-30.560			-2.778
77704.000			-30.560			-2.778
77804.000			-30.559			-2.778
77904.000			-30.557			-2.778
78004.000			-30.558			-2.778
78104.000			-30.557			-2.778
78205.000			-30.556			-2.778
78304.000			-30.554			-2.778
78404.000			-30.553			-2.778
78505.000			-30.552			-2.777
78603.000			-30.552			-2.777
78705.000			-30.551			-2.777
78804.000			-30.551			-2.777
78904.000			-30.550			-2.777
79005.000			-30.549			-2.777
79104.000			-30.548			-2.777
79204.000			-30.547			-2.777
79304.000			-30.546			-2.777
79404.000			-30.546			-2.777
79504.000			-30.544			-2.777
79605.000			-30.543			-2.777
79704.000			-30.542			-2.777
79804.000			-30.542			-2.777
79905.000			-30.542			-2.777
80003.000			-30.541			-2.776
80104.000			-30.539			-2.776
80205.000			-30.538			-2.776
80304.000			-30.537			-2.776
80404.000			-30.537			-2.776
80505.000			-30.537			-2.776
80604.000			-30.535			-2.776
80703.000			-30.534			-2.776
80805.000			-30.533			-2.776
80904.000			-30.532			-2.776
81004.000			-30.533			-2.776
81105.000			-30.531			-2.776
81204.000			-30.531			-2.776
81304.000			-30.530			-2.775
81404.000			-30.529			-2.775
81504.000			-30.530			-2.775
81604.000			-30.528			-2.775
81704.000			-30.527			-2.775
81804.000			-30.526			-2.775
81904.000			-30.525			-2.775
82004.000			-30.525			-2.775
82103.000			-30.524			-2.775
82205.000			-30.523			-2.775
82304.000			-30.522			-2.775
82404.000			-30.521			-2.775
82505.000			-30.521			-2.775
82603.000			-30.520			-2.775
82704.000			-30.519			-2.774
82805.000			-30.518			-2.774
82904.000			-30.518			-2.774
83004.000			-30.516			-2.774
83105.000			-30.515			-2.774
83204.000			-30.514			-2.774
83303.000			-30.513			-2.774
83405.000			-30.512			-2.774
83504.000			-30.512			-2.774
83604.000			-30.512			-2.774
83705.000			-30.510			-2.774
83804.000			-30.509			-2.774
83904.000			-30.508			-2.773
84004.000			-30.508			-2.773
84104.000			-30.507			-2.773
84204.000			-30.507			-2.773
84305.000			-30.507			-2.773
84404.000			-30.505			-2.773
84504.000			-30.503			-2.773
84605.000			-30.502			-2.773
84703.000			-30.502			-2.773
84804.000			-30.502			-2.773
84905.000			-30.500			-2.773
85004.000			-30.500			-2.773
85105.000			-30.499			-2.773
85204.000			-30.498			-2.773
85304.000			-30.497			-2.772
85404.000			-30.497			-2.772
85504.000			-30.496			-2.772
85604.000			-30.495			-2.772
85705.000			-30.495			-2.772
85804.000			-30.494			-2.772
85904.000			-30.494			-2.772
86005.000			-30.492			-2.772
86103.000			-30.491			-2.772
86204.000			-30.492			-2.772
86305.000			-30.492			-2.772
86404.000			-30.489			-2.772
86504.000			-30.489			-2.772
86605.000			-30.488			-2.772
86704.000			-30.487			-2.772
86803.000			-30.486			-2.771
86905.000			-30.485			-2.771
87004.000			-30.485			-2.771
87104.000			-30.484			-2.771
87205.000			-30.484			-2.771
87304.000			-30.482			-2.771
87404.000			-30.482			-2.771
87504.000			-30.481			-2.771
87604.000			-30.480			-2.771
87704.000			-30.479			-2.771
87805.000			-30.478			-2.771
87904.000			-30.478			-2.771
88004.000			-30.477			-2.771
88105.000			-30.476			-2.771
88203.000			-30.474			-2.770
88305.000			-30.474			-2.770
88404.000			-30.473			-2.770
88504.000			-30.473			-2.770
88605.000			-30.473			-2.770
88704.000			-30.472			-2.770
88804.000			-30.471			-2.770
88904.000			-30.470			-2.770
89004.000			-30.469			-2.770
89104.000			-30.469			-2.770
89205.000			-30.469			-2.770
89304.000			-30.468			-2.770
89404.000			-30.467			-2.770
89505.000			-30.465			-2.770
89603.000			-30.464			-2.769
89704.000			-30.465			-2.770
89805.000			-30.463			-2.769
89904.000			-30.463			-2.769
90004.000			-30.462			-2.769
90105.000			-30.462			-2.769
90204.000			-30.460			-2.769
90303.000			-30.459			-2.769
90405.000			-30.458			-2.769
90504.000			-30.458			-2.769
90604.000			-30.457			-2.769
90705.000			-30.456			-2.769
90804.000			-30.456			-2.769
90904.000			-30.454			-2.769
91004.000			-30.454			-2.769
91104.000			-30.454			-2.769
91204.000			-30.454			-2.769
91304.000			-30.453			-2.768
91404.000			-30.450			-2.768
91504.000			-30.450			-2.768
91604.000			-30.450			-2.768
91704.000			-30.450			-2.768
91805.000			-30.450			-2.768
91904.000			-30.448			-2.768
92004.000			-30.446			-2.768
92105.000			-30.447			-2.768
92203.000			-30.446			-2.768
92304.000			-30.445			-2.768
92405.000			-30.444			-2.768
92504.000			-30.443			-2.768
92604.000			-30.442			-2.767
92705.000			-30.442			-2.767
92804.000			-30.442			-2.767
92903.000			-30.442			-2.767
93005.000			-30.441			-2.767
93104.000			-30.440			-2.767
93204.000			-30.438			-2.767
93305.000			-30.438			-2.767
93404.000			-30.437			-2.767
93504.000			-30.436			-2.767
93604.000			-30.436			-2.767
93704.000			-30.436			-2.767
93804.000			-30.433			-2.767
93905.000			-30.433			-2.767
94004.000			-30.433			-2.767
94104.000			-30.433			-2.767
94205.000			-30.431			-2.766
94303.000			-30.431			-2.766
94404.000			-30.429			-2.766
94505.000			-30.429			-2.766
94604.000			-30.430			-2.766
94705.000			-30.428			-2.766
94804.000			-30.427			-2.766
94904.000			-30.427			-2.766
95004.000			-30.426			-2.766
95104.000			-30.425			-2.766
95204.000			-30.425			-2.766
95305.000			-30.424			-2.766
95404.000			-30.424			-2.766
95503.000			-30.422			-2.766
95605.000			-30.421			-2.766
95704.000			-30.420			-2.765
95804.000			-30.421			-2.766
95905.000			-30.421			-2.766
96004.000			-30.418			-2.765
96104.000			-30.417			-2.765
96204.000			-30.418			-2.765
96304.000			-30.417			-2.765
96404.000			-30.417			-2.765
96505.000			-30.417			-2.765
96604.000			-30.416			-2.765
96704.000			-30.415			-2.765
96805.000			-30.414			-2.765
96903.000			-30.413			-2.765
97004.000			-30.412			-2.765
97105.000			-30.411			-2.765
97204.000			-30.411			-2.765
97304.000			-30.410			-2.765
97405.000			-30.410			-2.765
97504.000			-30.408			-2.764
97603.000			-30.407			-2.764
97705.000			-30.407			-2.764
97804.000			-30.407			-2.764
97905.000			-30.405			-2.764
98004.000			-30.405			-2.764
98104.000			-30.404			-2.764
98205.000			-30.405			-2.764
98303.000			-30.403			-2.764
98404.000			-30.402			-2.764
98505.000			-30.402			-2.764
98604.000			-30.401			-2.764
98704.000			-30.400			-2.764
98805.000			-30.400			-2.764
98904.000			-30.398			-2.763
99003.000			-30.398			-2.763
99105.000			-30.398			-2.763
99204.000			-30.397			-2.763
99304.000			-30.396			-2.763
99405.000			-30.396			-2.763
99504.000			-30.396			-2.763
99604.000			-30.394			-2.763
99705.000			-30.393			-2.763
99804.000			-30.392			-2.763
99903.000			-30.392			-2.763
100005.000			-30.392			-2.763
100104.000			-30.391			-2.763
100204.000			-30.390			-2.763
100305.000			-30.390			-2.763
100404.000			-30.389			-2.763
100504.000			-30.388			-2.763
100604.000			-30.388			-2.763
100704.000			-30.387			-2.762
100804.000			-30.386			-2.762
100904.000			-30.386			-2.762
101004.000			-30.385			-2.762
101105.000			-30.384			-2.762
101204.000			-30.383			-2.762
101303.000			-30.383			-2.762
101405.000			-30.383			-2.762
101504.000			-30.382			-2.762
101604.000			-30.382			-2.762
101705.000			-30.381			-2.762
101804.000			-30.381			-2.762
101904.000			-30.379			-2.762
102004.000			-30.377			-2.762
102104.000			-30.378			-2.762
102204.000			-30.378			-2.762
102305.000			-30.377			-2.762
102404.000			-30.376			-2.761
102504.000			-30.376			-2.761
102605.000			-30.375			-2.761
102703.000			-30.374			-2.761
102804.000			-30.373			-2.761
102905.000			-30.372			-2.761
103004.000			-30.372			-2.761
103104.000			-30.372			-2.761
103205.000			-30.370			-2.761
103304.000			-30.371			-2.761
103403.000			-30.370			-2.761
103505.000			-30.369			-2.761
103604.000			-30.369			-2.761
103704.000			-30.369			-2.761
103805.000			-30.368			-2.761
103904.000			-30.366			-2.761
104004.000			-30.365			-2.760
104103.000			-30.365			-2.760
104204.000			-30.365			-2.760
104305.000			-30.364			-2.760
104404.000			-30.364			-2.760
104504.000			-30.363			-2.760
104605.000			-30.363			-2.760
104704.000			-30.362			-2.760
104803.000			-30.360			-2.760
104905.000			-30.359			-2.760
105004.000			-30.360			-2.760
105104.000			-30.359			-2.760
105205.000			-30.358			-2.760
105304.000			-30.357			-2.760
105404.000			-30.356			-2.760
105504.000			-30.356			-2.760
105604.000			-30.356			-2.760
105704.000			-30.354			-2.759
105805.000			-30.354			-2.759
105904.000			-30.354			-2.759
106004.000			-30.354			-2.759
106105.000			-30.352			-2.759
106203.000			-30.351			-2.759
106304.000			-30.351			-2.759
106405.000			-30.349			-2.759
106504.000			-30.349			-2.759
106604.000			-30.348			-2.759
106705.000			-30.348			-2.759
106804.000			-30.347			-2.759
106903.000			-30.347			-2.759
107005.000			-30.346			-2.759
107104.000			-30.346			-2.759
107204.000			-30.346			-2.759
107305.000			-30.345			-2.759
107404.000			-30.344			-2.759
107505.000			-30.344			-2.759
107603.000			-30.343			-2.758
107704.000			-30.342			-2.758
107805.000			-30.342			-2.758
107904.000			-30.342			-2.758
108004.000			-30.340			-2.758
108105.000			-30.340			-2.758
108204.000			-30.339			-2.758
108303.000			-30.338			-2.758
108405.000			-30.337			-2.758
108504.000			-30.337			-2.758
108604.000			-30.337			-2.758
108705.000			-30.336			-2.758
108804.000			-30.334			-2.758
108904.000			-30.335			-2.758
109004.000			-30.333			-2.758
109104.000			-30.333			-2.758
109204.000			-30.332			-2.757
109305.000			-30.333			-2.758
109404.000			-30.332			-2.757
109504.000			-30.332			-2.757
109605.000			-30.331			-2.757
109703.000			-30.330			-2.757
109804.000			-30.329			-2.757
109905.000			-30.329			-2.757
110004.000			-30.328			-2.757
110104.000			-30.327			-2.757
110205.000			-30.326			-2.757
110304.000			-30.326			-2.757
110403.000			-30.325			-2.757
110505.000			-30.325			-2.757
110604.000			-30.325			-2.757
110705.000			-30.323			-2.757
110804.000			-30.322			-2.757
110904.000			-30.322			-2.757
111005.000			-30.322			-2.757
111103.000			-30.321			-2.756
111204.000			-30.320			-2.756
111305.000			-30.320			-2.756
111404.000			-30.319			-2.756
111504.000			-30.319			-2.756
111605.000			-30.318			-2.756
111704.000			-30.317			-2.756
111803.000			-30.318			-2.756
111905.000			-30.315			-2.756
112004.000			-30.314			-2.756
112104.000			-30.315			-2.756
112205.000			-30.314			-2.756
112304.000			-30.313			-2.756
112404.000			-30.313			-2.756
112504.000			-30.312			-2.756
112604.000			-30.312			-2.756
112704.000			-30.312			-2.756
112805.000			-30.311			-2.756
112904.000			-30.310			-2.755
113004.000			-30.309			-2.755
113105.000			-30.308			-2.755
113203.000			-30.308			-2.755
113304.000			-30.308			-2.755
113405.000			-30.308			-2.755
113504.000			-30.307			-2.755
113604.000			-30.305			-2.755
113704.000			-30.306			-2.755
113804.000			-30.305			-2.755
113904.000			-30.305			-2.755
114004.000			-30.304			-2.755
114104.000			-30.303			-2.755
114205.000			-30.301			-2.755
114304.000			-30.301			-2.755
114404.000			-30.302			-2.755
114505.000			-30.301			-2.755
114603.000			-30.300			-2.755
114704.000			-30.299			-2.754
114805.000			-30.299			-2.754
114904.000			-30.299			-2.754
115004.000			-30.298			-2.754
115105.000			-30.297			-2.754
115204.000			-30.297			-2.754
115303.000			-30.296			-2.754
115405.000			-30.296			-2.754
115504.000			-30.295			-2.754
115604.000			-30.294			-2.754
115705.000			-30.294			-2.754
115804.000			-30.293			-2.754
115904.000			-30.291			-2.754
116004.000			-30.292			-2.754
116104.000			-30.292			-2.754
116204.000			-30.291			-2.754
116305.000			-30.290			-2.754
116404.000			-30.290			-2.754
116504.000			-30.288			-2.753
116605.000			-30.287			-2.753
116703.000			-30.287			-2.753
116804.000			-30.287			-2.753
116905.000			-30.286			-2.753
117004.000			-30.286			-2.753
117105.000			-30.286			-2.753
117204.000			-30.285			-2.753
117304.000			-30.285			-2.753
117404.000			-30.285			-2.753
117504.000			-30.284			-2.753
117604.000			-30.283			-2.753
117705.000			-30.282			-2.753
117804.000			-30.281			-2.753
117904.000			-30.281			-2.753
118005.000			-30.281			-2.753
118103.000			-30.280			-2.753
118204.000			-30.279			-2.753
118305.000			-30.278			-2.753
118404.000			-30.279			-2.753
118504.000			-30.278			-2.753
118605.000			-30.276			-2.752
118704.000			-30.276			-2.752
118803.000			-30.276			-2.752
118905.000			-30.276			-2.752
119003.000			-30.276			-2.752
119104.000			-30.275			-2.752
119205.000			-30.274			-2.752
119304.000			-30.274			-2.752
119404.000			-30.273			-2.752
119505.000			-30.273			-2.752
119604.000			-30.271			-2.752
119703.000			-30.270			-2.752
119805.000			-30.271			-2.752
119904.000			-30.270			-2.752
120004.000			-30.270			-2.752
120105.000			-30.270			-2.752
120204.000			-30.268			-2.752
120305.000			-30.268			-2.752
120403.000			-30.267			-2.752
120504.000			-30.266			-2.751
120605.000			-30.265			-2.751
120704.000			-30.265			-2.751
120804.000			-30.265			-2.751
120905.000			-30.264			-2.751
121004.000			-30.265			-2.751
121103.000			-30.264			-2.751
121205.000			-30.263			-2.751
121304.000			-30.262			-2.751
121404.000			-30.262			-2.751
121505.000			-30.261			-2.751
121604.000			-30.261			-2.751
121704.000			-30.260			-2.751
121804.000			-30.259			-2.751
121904.000			-30.259			-2.751
122004.000			-30.259			-2.751
122105.000			-30.259			-2.751
122204.000			-30.257			-2.751
122304.000			-30.257			-2.751
122405.000			-30.257			-2.751
122503.000			-30.255			-2.750
122604.000			-30.254			-2.750
122705.000			-30.255			-2.750
122804.000			-30.254			-2.750
122904.000			-30.254			-2.750
123005.000			-30.253			-2.750
123104.000			-30.252			-2.750
123203.000			-30.252			-2.750
123305.000			-30.251			-2.750
123404.000			-30.250			-2.750
123505.000			-30.249			-2.750
123604.000			-30.250			-2.750
123704.000			-30.250			-2.750
123805.000			-30.248			-2.750
123903.000			-30.248			-2.750
124004.000			-30.248			-2.750
124105.000			-30.247			-2.750
124204.000			-30.245			-2.750
124304.000			-30.244			-2.749
124405.000			-30.244			-2.749
124504.000			-30.243			-2.749
124603.000			-30.243			-2.749
124705.000			-30.243			-2.749
124804.000			-30.242			-2.749
124904.000			-30.242			-2.749
125005.000			-30.242			-2.749
125104.000			-30.241			-2.749
125204.000			-30.241			-2.749
125304.000			-30.240			-2.749
125404.000			-30.240			-2.749
125504.000			-30.240			-2.749
125605.000			-30.239			-2.749
125704.000			-30.239			-2.749
125804.000			-30.239			-2.749
125905.000			-30.237			-2.749
126003.000			-30.236			-2.749
126104.000			-30.235			-2.749
126205.000			-30.234			-2.749
126304.000			-30.236			-2.749
126404.000			-30.234			-2.749
126504.000			-30.233			-2.748
126604.000			-30.232			-2.748
126704.000			-30.232			-2.748
126804.000			-30.231			-2.748
126904.000			-30.231			-2.748
127005.000			-30.230			-2.748
127104.000			-30.230			-2.748
127204.000			-30.230			-2.748
127305.000			-30.229			-2.748
127403.000			-30.229			-2.748
127504.000			-30.228			-2.748
127605.000			-30.228			-2.748
127704.000			-30.228			-2.748
127804.000			-30.226			-2.748
127905.000			-30.226			-2.748
128004.000			-30.225			-2.748
128103.000			-30.225			-2.748
128205.000			-30.225			-2.748
128304.000			-30.224			-2.748
128404.000			-30.224			-2.748
128505.000			-30.223			-2.748
128604.000			-30.222			-2.747
128704.000			-30.221			-2.747
128804.000			-30.221			-2.747
128904.000			-30.221			-2.747
129004.000			-30.221			-2.747
129105.000			-30.221			-2.747
129204.000			-30.219			-2.747
129304.000			-30.218			-2.747
129405.000			-30.218			-2.747
129503.000			-30.219			-2.747
129604.000			-30.216			-2.747
129705.000			-30.215			-2.747
129804.000			-30.215			-2.747
129905.000			-30.216			-2.747
130004.000			-30.214			-2.747
130104.000			-30.214			-2.747
130204.000			-30.214			-2.747
130304.000			-30.213			-2.747
130404.000			-30.213			-2.747
130505.000			-30.212			-2.747
130604.000			-30.211			-2.746
130704.000			-30.212			-2.747
130805.000			-30.212			-2.747
130903.000			-30.211			-2.746
131004.000			-30.209			-2.746
131105.000			-30.209			-2.746
131204.000			-30.209			-2.746
131304.000			-30.209			-2.746
131405.000			-30.207			-2.746
131504.000			-30.207			-2.746
131603.000			-30.206			-2.746
131705.000			-30.205			-2.746
131804.000			-30.206			-2.746
131904.000			-30.205			-2.746
132005.000			-30.204			-2.746
132104.000			-30.203			-2.746
132204.000			-30.201			-2.746
132304.000			-30.202			-2.746
132404.000			-30.203			-2.746
132504.000			-30.202			-2.746
132605.000			-30.203			-2.746
132704.000			-30.201			-2.746
132804.000			-30.200			-2.745
132905.000			-30.200			-2.745
133004.000			-30.200			-2.745
133105.000			-30.199			-2.745
133203.000			-30.198			-2.745
133304.000			-30.199			-2.745
133405.000			-30.198			-2.745
133504.000			-30.196			-2.745
133604.000			-30.196			-2.745
133705.000			-30.195			-2.745
133804.000			-30.194			-2.745
133903.000			-30.194			-2.745
134005.000			-30.195			-2.745
134103.000			-30.194			-2.745
134204.000			-30.194			-2.745
134305.000			-30.193			-2.745
134404.000			-30.193			-2.745
134504.000			-30.192			-2.745
134605.000			-30.191			-2.745
134704.000			-30.191			-2.745
134803.000			-30.189			-2.744
134905.000			-30.188			-2.744
135004.000			-30.189			-2.744
135104.000			-30.189			-2.744
135205.000			-30.188			-2.744
135304.000			-30.187			-2.744
135404.000			-30.187			-2.744
135505.000			-30.186			-2.744
135604.000			-30.186			-2.744
135703.000			-30.185			-2.744
135805.000			-30.185			-2.744
135904.000			-30.185			-2.744
136004.000			-30.184			-2.744
136105.000			-30.183			-2.744
136204.000			-30.183			-2.744
136305.000			-30.183			-2.744
136404.000			-30.183			-2.744
136504.000			-30.181			-2.744
136604.000			-30.182			-2.744
136704.000			-30.181			-2.744
136804.000			-30.180			-2.744
136905.000			-30.180			-2.744
137004.000			-30.179			-2.744
137104.000			-30.178			-2.743
137205.000			-30.179			-2.744
137304.000			-30.177			-2.743
137404.000			-30.176			-2.743
137504.000			-30.176			-2.743
137604.000			-30.177			-2.743
137704.000			-30.177			-2.743
137805.000			-30.176			-2.743
137904.000			-30.174			-2.743
138004.000			-30.174			-2.743
138105.000			-30.173			-2.743
138204.000			-30.172			-2.743
138304.000			-30.172			-2.743
138404.000			-30.172			-2.743
138504.000			-30.172			-2.743
138604.000			-30.171			-2.743
138705.000			-30.170			-2.743
138804.000			-30.170			-2.743
138904.000			-30.171			-2.743
139005.000			-30.170			-2.743
139104.000			-30.169			-2.743
139204.000			-30.169			-2.743
139303.000			-30.168			-2.743
139404.000			-30.167			-2.742
139505.000			-30.167			-2.742
139604.000			-30.166			-2.742
139704.000			-30.166			-2.742
139805.000			-30.165			-2.742
139904.000			-30.165			-2.742
140004.000			-30.164			-2.742
140105.000			-30.163			-2.742
140203.000			-30.163			-2.742
140304.000			-30.163			-2.742
140405.000			-30.162			-2.742
140504.000			-30.162			-2.742
140604.000			-30.161			-2.742
140705.000			-30.161			-2.742
140804.000			-30.160			-2.742
140903.000			-30.161			-2.742
141005.000			-30.159			-2.742
141104.000			-30.158			-2.742
141204.000			-30.158			-2.742
141305.000			-30.158			-2.742
141404.000			-30.159			-2.742
141504.000			-30.157			-2.742
141605.000			-30.156			-2.741
141704.000			-30.156			-2.741
141803.000			-30.156			-2.741
141905.000			-30.155			-2.741
142004.000			-30.154			-2.741
142104.000			-30.154			-2.741
142205.000			-30.154			-2.741
142304.000			-30.154			-2.741
142404.000			-30.153			-2.741
142503.000			-30.153			-2.741
142604.000			-30.152			-2.741
142705.000			-30.152			-2.741
142804.000			-30.151			-2.741
142904.000			-30.151			-2.741
143005.000			-30.149			-2.741
143104.000			-30.148			-2.741
143204.000			-30.149			-2.741
143305.000			-30.149			-2.741
143403.000			-30.148			-2.741
143504.000			-30.147			-2.741
143605.000			-30.147			-2.741
143704.000			-30.146			-2.741
143804.000			-30.146			-2.741
143905.000			-30.146			-2.741
144004.000			-30.145			-2.740
144103.000			-30.143			-2.740
144205.000			-30.144			-2.740
144304.000			-30.144			-2.740
144404.000			-30.142			-2.740
144505.000			-30.141			-2.740
144604.000			-30.141			-2.740
144704.000			-30.141			-2.740
144805.000			-30.141			-2.740
144904.000			-30.141			-2.740
145003.000			-30.140			-2.740
145105.000			-30.139			-2.740
145204.000			-30.138			-2.740
145304.000			-30.138			-2.740
145405.000			-30.137			-2.740
145504.000			-30.137			-2.740
145604.000			-30.137			-2.740
145703.000			-30.137			-2.740
145804.000			-30.136			-2.740
145904.000			-30.137			-2.740
146004.000			-30.136			-2.740
146104.000			-30.134			-2.739
146205.000			-30.134			-2.739
146304.000			-30.135			-2.740
146404.000			-30.134			-2.739
146505.000			-30.133			-2.739
146603.000			-30.132			-2.739
146704.000			-30.132			-2.739
146805.000			-30.131			-2.739
146904.000			-30.131			-2.739
147004.000			-30.130			-2.739
147105.000			-30.130			-2.739
147204.000			-30.129			-2.739
147304.000			-30.128			-2.739
147405.000			-30.129			-2.739
147503.000			-30.128			-2.739
147604.000			-30.128			-2.739
147705.000			-30.127			-2.739
147804.000			-30.127			-2.739
147904.000			-30.127			-2.739
148005.000			-30.127			-2.739
148104.000			-30.126			-2.739
148204.000			-30.125			-2.739
148305.000			-30.125			-2.739
148403.000			-30.125			-2.739
148504.000			-30.124			-2.739
148605.000			-30.122			-2.738
148704.000			-30.121			-2.738
148804.000			-30.121			-2.738
148904.000			-30.121			-2.738
149004.000			-30.121			-2.738
149104.000			-30.121			-2.738
149204.000			-30.121			-2.738
149303.000			-30.120			-2.738
149405.000			-30.119			-2.738
149504.000			-30.118			-2.738
149604.000			-30.118			-2.738
149705.000			-30.118			-2.738
149804.000			-30.118			-2.738
149904.000			-30.118			-2.738
150004.000			-30.117			-2.738
150104.000			-30.116			-2.738
150204.000			-30.116			-2.738
150305.000			-30.116			-2.738
150404.000			-30.115			-2.738
150504.000			-30.115			-2.738
150605.000			-30.114			-2.738
150704.000			-30.112			-2.737
150804.000			-30.114			-2.738
150904.000			-30.112			-2.737
151004.000			-30.111			-2.737
151104.000			-30.111			-2.737
151205.000			-30.111			-2.737
151304.000			-30.110			-2.737
151404.000			-30.110			-2.737
151505.000			-30.110			-2.737
151603.000			-30.110			-2.737
151704.000			-30.109			-2.737
151805.000			-30.108			-2.737
151904.000			-30.108			-2.737
152004.000			-30.107			-2.737
152104.000			-30.107			-2.737
152204.000			-30.106			-2.737
152304.000			-30.107			-2.737
152404.000			-30.107			-2.737
152504.000			-30.105			-2.737
152605.000			-30.104			-2.737
152704.000			-30.104			-2.737
152804.000			-30.104			-2.737
152905.000			-30.104			-2.737
153004.000			-30.103			-2.737
153104.000			-30.102			-2.737
153204.000			-30.102			-2.737
153304.000			-30.101			-2.736
153404.000			-30.099			-2.736
153505.000			-30.101			-2.736
153604.000			-30.100			-2.736
153704.000			-30.099			-2.736
153805.000			-30.099			-2.736
153903.000			-30.099			-2.736
154004.000			-30.099			-2.736
154104.000			-30.098			-2.736
154204.000			-30.097			-2.736
154304.000			-30.097			-2.736
154405.000			-30.097			-2.736
154504.000			-30.096			-2.736
154604.000			-30.095			-2.736
154705.000			-30.095			-2.736
154803.000			-30.094			-2.736
154904.000			-30.094			-2.736
155005.000			-30.093			-2.736
155104.000			-30.093			-2.736
155204.000			-30.094			-2.736
155304.000			-30.092			-2.736
155404.000			-30.091			-2.736
155505.000			-30.092			-2.736
155604.000			-30.092			-2.736
155703.000			-30.091			-2.736
155805.000			-30.090			-2.735
155904.000			-30.089			-2.735
156004.000			-30.090			-2.735
156105.000			-30.090			-2.735
156204.000			-30.089			-2.735
156304.000			-30.089			-2.735
156405.000			-30.088			-2.735
156504.000			-30.088			-2.735
156603.000			-30.086			-2.735
156705.000			-30.086			-2.735
156804.000			-30.086			-2.735
156904.000			-30.085			-2.735
157005.000			-30.085			-2.735
157104.000			-30.084			-2.735
157204.000			-30.083			-2.735
157305.000			-30.083			-2.735
157404.000			-30.083			-2.735
157503.000			-30.083			-2.735
157605.000			-30.083			-2.735
157704.000			-30.083			-2.735
157804.000			-30.082			-2.735
157905.000			-30.082			-2.735
158004.000			-30.081			-2.735
158104.000			-30.081			-2.735
158204.000			-30.080			-2.735
158304.000			-30.079			-2.734
158403.000			-30.080			-2.735
158505.000			-30.079			-2.734
158604.000			-30.078			-2.734
158705.000			-30.078			-2.734
158804.000			-30.077			-2.734
158904.000			-30.078			-2.734
159005.000			-30.077			-2.734
159103.000			-30.076			-2.734
159204.000			-30.075			-2.734
159304.000			-30.075			-2.734
159404.000			-30.075			-2.734
159504.000			-30.076			-2.734
159605.000			-30.074			-2.734
159704.000			-30.073			-2.734
159804.000			-30.073			-2.734
159905.000			-30.073			-2.734
160003.000			-30.072			-2.734
160104.000			-30.072			-2.734
160205.000			-30.071			-2.734
160304.000			-30.070			-2.734
160404.000			-30.070			-2.734
160505.000			-30.070			-2.734
160604.000			-30.069			-2.734
160704.000			-30.069			-2.734
160805.000			-30.070			-2.734
160903.000			-30.069			-2.734
161004.000			-30.068			-2.733
161105.000			-30.067			-2.733
161204.000			-30.067			-2.733
161304.000			-30.067			-2.733
161405.000			-30.067			-2.733
161504.000			-30.066			-2.733
161603.000			-30.064			-2.733
161705.000			-30.064			-2.733
161803.000			-30.064			-2.733
161905.000			-30.063			-2.733
162004.000			-30.063			-2.733
162104.000			-30.063			-2.733
162205.000			-30.062			-2.733
162304.000			-30.062			-2.733
162404.000			-30.062			-2.733
162504.000			-30.061			-2.733
162604.000			-30.060			-2.733
162704.000			-30.061			-2.733
162805.000			-30.061			-2.733
162904.000			-30.059			-2.733
163004.000			-30.059			-2.733
163105.000			-30.059			-2.733
163204.000			-30.058			-2.733
163304.000			-30.057			-2.732
163404.000			-30.058			-2.733
163504.000			-30.057			-2.732
163604.000			-30.057			-2.732
163705.000			-30.056			-2.732
163804.000			-30.056			-2.732
163904.000			-30.056			-2.732
164005.000			-30.055			-2.732
164104.000			-30.053			-2.732
164204.000			-30.054			-2.732
164304.000			-30.053			-2.732
164404.000			-30.053			-2.732
164504.000			-30.053			-2.732
164605.000			-30.053			-2.732
164704.000			-30.051			-2.732
164804.000			-30.052			-2.732
164905.000			-30.052			-2.732
165003.000			-30.051			-2.732
165105.000			-30.050			-2.732
165204.000			-30.050			-2.732
165304.000			-30.051			-2.732
165405.000			-30.049			-2.732
165504.000			-30.049			-2.732
165604.000			-30.048			-2.732
165705.000			-30.049			-2.732
165804.000			-30.048			-2.732
165903.000			-30.047			-2.732
166005.000			-30.046			-2.731
166104.000			-30.046			-2.731
166204.000			-30.046			-2.731
166305.000			-30.046			-2.731
166404.000			-30.045			-2.731
166504.000			-30.044			-2.731
166605.000			-30.044			-2.731
166704.000			-30.044			-2.731
166803.000			-30.043			-2.731
166905.000			-30.043			-2.731
167004.000			-30.042			-2.731
167104.000			-30.042			-2.731
167205.000			-30.041			-2.731
167304.000			-30.041			-2.731
167404.000			-30.041			-2.731
167504.000			-30.041			-2.731
167604.000			-30.040			-2.731
167703.000			-30.039			-2.731
167805.000			-30.039			-2.731
167904.000			-30.039			-2.731
168004.000			-30.038			-2.731
168105.000			-30.037			-2.731
168204.000			-30.038			-2.731
168305.000			-30.037			-2.731
168403.000			-30.037			-2.731
168504.000			-30.036			-2.731
168605.000			-30.037			-2.731
168704.000			-30.036			-2.731
168804.000			-30.035			-2.730
168905.000			-30.035			-2.730
169004.000			-30.034			-2.730
169104.000			-30.034			-2.730
169205.000			-30.034			-2.730
169303.000			-30.033			-2.730
169404.000			-30.032			-2.730
169505.000			-30.033			-2.730
169604.000			-30.032			-2.730
169704.000			-30.031			-2.730
169805.000			-30.031			-2.730
169904.000			-30.031			-2.730
170004.000			-30.030			-2.730
170105.000			-30.030			-2.730
170203.000			-30.030			-2.730
170304.000			-30.029			-2.730
170405.000			-30.028			-2.730
170504.000			-30.027			-2.730
170604.000			-30.028			-2.730
170705.000			-30.027			-2.730
170804.000			-30.027			-2.730
170903.000			-30.026			-2.730
171005.000			-30.026			-2.730
171104.000			-30.026			-2.730
171204.000			-30.025			-2.730
171305.000			-30.024			-2.729
171404.000			-30.023			-2.729
171505.000			-30.023			-2.729
171604.000			-30.024			-2.729
171704.000			-30.023			-2.729
171804.000			-30.023			-2.729
171904.000			-30.022			-2.729
172004.000			-30.022			-2.729
172105.000			-30.022			-2.729
172204.000			-30.021			-2.729
172304.000			-30.020			-2.729
172405.000			-30.020			-2.729
172503.000			-30.020			-2.729
172604.000			-30.019			-2.729
172705.000			-30.019			-2.729
172804.000			-30.018			-2.729
172904.000			-30.018			-2.729
173005.000			-30.018			-2.729
173104.000			-30.018			-2.729
173204.000			-30.017			-2.729
173305.000			-30.017			-2.729
173403.000			-30.016			-2.729
173504.000			-30.016			-2.729
173605.000			-30.015			-2.729
173704.000			-30.015			-2.729
173804.000			-30.014			-2.729
173905.000			-30.015			-2.729
174004.000			-30.014			-2.729
174103.000			-30.013			-2.728
174205.000			-30.012			-2.728
174304.000			-30.012			-2.728
174404.000			-30.012			-2.728
174505.000			-30.012			-2.728
174604.000			-30.011			-2.728
174705.000			-30.011			-2.728
174804.000			-30.011			-2.728
174904.000			-30.011			-2.728
175004.000			-30.010			-2.728
175104.000			-30.008			-2.728
175204.000			-30.008			-2.728
175305.000			-30.009			-2.728
175404.000			-30.008			-2.728
175504.000			-30.008			-2.728
175605.000			-30.008			-2.728
175703.000			-30.008			-2.728
175804.000			-30.007			-2.728
175904.000			-30.007			-2.728
176004.000			-30.005			-2.728
176104.000			-30.005			-2.728
176205.000			-30.006			-2.728
176304.000			-30.004			-2.728
176404.000			-30.004			-2.728
176505.000			-30.004			-2.728
176603.000			-30.003			-2.728
176704.000			-30.003			-2.728
176805.000			-30.002			-2.727
176904.000			-30.002			-2.727
177004.000			-30.001			-2.727
177105.000			-30.000			-2.727
177204.000			-30.000			-2.727
177304.000			-30.001			-2.727
177405.000			-30.000			-2.727
177503.000			-30.000			-2.727
177604.000			-29.999			-2.727
177705.000			-29.998			-2.727
177804.000			-29.999			-2.727
177905.000			-29.997			-2.727
178004.000			-29.997			-2.727
178104.000			-29.997			-2.727
178205.000			-29.997			-2.727
178304.000			-29.996			-2.727
178403.000			-29.997			-2.727
178505.000			-29.996			-2.727
178603.000			-29.994			-2.727
178704.000			-29.995			-2.727
178805.000			-29.995			-2.727
178904.000			-29.994			-2.727
179004.000			-29.994			-2.727
179105.000			-29.994			-2.727
179204.000			-29.993			-2.727
179304.000			-29.993			-2.727
179405.000			-29.993			-2.727
179504.000			-29.992			-2.727
179604.000			-29.991			-2.726
179704.000			-29.991			-2.726
179804.000			-29.991			-2.726
179904.000			-29.990			-2.726
180005.000			-29.990			-2.726
180104.000			-29.989			-2.726
180204.000			-29.989			-2.726
180305.000			-29.988			-2.726
180404.000			-29.988			-2.726
180504.000			-29.988			-2.726
180604.000			-29.988			-2.726
180704.000			-29.987			-2.726
180803.000			-29.986			-2.726
180905.000			-29.987			-2.726
181004.000			-29.987			-2.726
181105.000			-29.986			-2.726
181204.000			-29.985			-2.726
181304.000			-29.985			-2.726
181405.000			-29.985			-2.726
181504.000			-29.984			-2.726
181604.000			-29.985			-2.726
181704.000			-29.984			-2.726
181804.000			-29.983			-2.726
181903.000			-29.982			-2.726
182005.000			-29.981			-2.726
182104.000			-29.981			-2.726
182204.000			-29.982			-2.726
182305.000			-29.981			-2.726
182404.000			-29.981			-2.726
182504.000			-29.981			-2.726
182605.000			-29.979			-2.725
182704.000			-29.978			-2.725
182803.000			-29.978			-2.725
182905.000			-29.978			-2.725
183004.000			-29.979			-2.725
183104.000			-29.978			-2.725
183205.000			-29.978			-2.725
183304.000			-29.978			-2.725
183404.000			-29.977			-2.725
183505.000			-29.977			-2.725
183604.000			-29.976			-2.725
183703.000			-29.976			-2.725
183805.000			-29.976			-2.725
183903.000			-29.975			-2.725
184004.000			-29.974			-2.725
184105.000			-29.974			-2.725
184204.000			-29.974			-2.725
184305.000			-29.973			-2.725
184404.000			-29.973			-2.725
184504.000			-29.973			-2.725
184605.000			-29.973			-2.725
184704.000			-29.972			-2.725
184803.000			-29.971			-2.725
184905.000			-29.971			-2.725
185003.000			-29.970			-2.725
185104.000			-29.969			-2.724
185205.000			-29.970			-2.725
185304.000			-29.971			-2.725
185404.000			-29.969			-2.724
185505.000			-29.969			-2.724
185604.000			-29.969			-2.724
185704.000			-29.967			-2.724
185805.000			-29.967			-2.724
185903.000			-29.967			-2.724
186004.000			-29.968			-2.724
186104.000			-29.967			-2.724
186204.000			-29.966			-2.724
186304.000			-29.966			-2.724
186405.000			-29.965			-2.724
186504.000			-29.966			-2.724
186604.000			-29.965			-2.724
186705.000			-29.964			-2.724
186804.000			-29.964			-2.724
186904.000			-29.963			-2.724
187004.000			-29.963			-2.724
187104.000			-29.963			-2.724
187203.000			-29.963			-2.724
187305.000			-29.963			-2.724
187404.000			-29.962			-2.724
187505.000			-29.961			-2.724
187604.000			-29.960			-2.724
187704.000			-29.961			-2.724
187805.000			-29.961			-2.724
187904.000			-29.960			-2.724
188004.000			-29.958			-2.723
188104.000			-29.959			-2.724
188204.000			-29.959			-2.724
188303.000			-29.958			-2.723
188405.000			-29.957			-2.723
188504.000			-29.958			-2.723
188604.000			-29.958			-2.723
188705.000			-29.959			-2.724
188804.000			-29.958			-2.723
188904.000			-29.958			-2.723
189005.000			-29.957			-2.723
189104.000			-29.955			-2.723
189203.000			-29.955			-2.723
189305.000			-29.955			-2.723
189403.000			-29.955			-2.723
189504.000			-29.955			-2.723
189605.000			-29.954			-2.723
189704.000			-29.954			-2.723
189804.000			-29.953			-2.723
189905.000			-29.952			-2.723
190004.000			-29.951			-2.723
190104.000			-29.951			-2.723
190205.000			-29.951			-2.723
190303.000			-29.952			-2.723
190404.000			-29.950			-2.723
190505.000			-29.950			-2.723
190604.000			-29.950			-2.723
190705.000			-29.949			-2.723
190804.000			-29.948			-2.723
190904.000			-29.949			-2.723
191005.000			-29.948			-2.723
191104.000			-29.947			-2.722
191203.000			-29.948			-2.723
191305.000			-29.947			-2.722
191403.000			-29.947			-2.722
191504.000			-29.946			-2.722
191605.000			-29.947			-2.722
191704.000			-29.947			-2.722
191804.000			-29.946			-2.722
191905.000			-29.946			-2.722
192004.000			-29.944			-2.722
192104.000			-29.944			-2.722
192205.000			-29.943			-2.722
192303.000			-29.944			-2.722
192404.000			-29.944			-2.722
192505.000			-29.943			-2.722
192604.000			-29.942			-2.722
192704.000			-29.943			-2.722
192805.000			-29.943			-2.722
192904.000			-29.940			-2.722
193004.000			-29.941			-2.722
193105.000			-29.941			-2.722
193203.000			-29.940			-2.722
193304.000			-29.940			-2.722
193405.000			-29.941			-2.722
193504.000			-29.941			-2.722
193604.000			-29.939			-2.722
193704.000			-29.939			-2.722
193804.000			-29.938			-2.722
193905.000			-29.937			-2.722
194004.000			-29.937			-2.722
194104.000			-29.937			-2.722
194205.000			-29.938			-2.722
194303.000			-29.938			-2.722
194404.000			-29.935			-2.721
194505.000			-29.935			-2.721
194604.000			-29.935			-2.721
194704.000			-29.934			-2.721
194805.000			-29.934			-2.721
194904.000			-29.934			-2.721
195004.000			-29.934			-2.721
195105.000			-29.933			-2.721
195203.000			-29.934			-2.721
195304.000			-29.933			-2.721
195404.000			-29.932			-2.721
195504.000			-29.932			-2.721
195604.000			-29.931			-2.721
195705.000			-29.931			-2.721
195804.000			-29.931			-2.721
195904.000			-29.931			-2.721
196005.000			-29.930			-2.721
196104.000			-29.931			-2.721
196204.000			-29.931			-2.721
196304.000			-29.930			-2.721
196404.000			-29.929			-2.721
196504.000			-29.930			-2.721
196605.000			-29.928			-2.721
196704.000			-29.928			-2.721
196804.000			-29.928			-2.721
196905.000			-29.927			-2.721
197004.000			-29.928			-2.721
197105.000			-29.928			-2.721
197203.000			-29.927			-2.721
197304.000			-29.926			-2.721
197404.000			-29.925			-2.720
197504.000			-29.924			-2.720
197604.000			-29.924			-2.720
197705.000			-29.923			-2.720
197804.000			-29.923			-2.720
197904.000			-29.923			-2.720
198005.000			-29.923			-2.720
198104.000			-29.923			-2.720
198204.000			-29.924			-2.720
198304.000			-29.923			-2.720
198404.000			-29.921			-2.720
198503.000			-29.921			-2.720
198605.000			-29.921			-2.720
198704.000			-29.920			-2.720
198804.000			-29.920			-2.720
198905.000			-29.920			-2.720
199004.000			-29.921			-2.720
199104.000			-29.920			-2.720
199205.000			-29.918			-2.720
199304.000			-29.918			-2.720
199403.000			-29.919			-2.720
199505.000			-29.918			-2.720
199604.000			-29.918			-2.720
199704.000			-29.917			-2.720
199805.000			-29.917			-2.720
199904.000			-29.917			-2.720
200004.000			-29.917			-2.720
200104.000			-29.916			-2.720
200204.000			-29.915			-2.720
200304.000			-29.914			-2.719
200404.000			-29.915			-2.720
200503.000			-29.914			-2.719
200605.000			-29.914			-2.719
200704.000			-29.914			-2.719
200804.000			-29.913			-2.719
200905.000			-29.913			-2.719
201004.000			-29.914			-2.719
201104.000			-29.913			-2.719
201204.000			-29.912			-2.719
201304.000			-29.912			-2.719
201403.000			-29.912			-2.719
201505.000			-29.911			-2.719
201604.000			-29.910			-2.719
201704.000			-29.910			-2.719
201805.000			-29.910			-2.719
201904.000			-29.910			-2.719
202004.000			-29.910			-2.719
202104.000			-29.910			-2.719
202204.000			-29.908			-2.719
202303.000			-29.908			-2.719
202405.000			-29.907			-2.719
202504.000			-29.907			-2.719
202604.000			-29.907			-2.719
202705.000			-29.906			-2.719
202804.000			-29.908			-2.719
202904.000			-29.907			-2.719
203005.000			-29.905			-2.719
203104.000			-29.906			-2.719
203203.000			-29.906			-2.719
203305.000			-29.905			-2.719
203404.000			-29.904			-2.719
203505.000			-29.904			-2.719
203604.000			-29.904			-2.719
203704.000			-29.903			-2.718
203805.000			-29.903			-2.718
203904.000			-29.903			-2.718
204004.000			-29.902			-2.718
204104.000			-29.902			-2.718
204204.000			-29.902			-2.718
204304.000			-29.902			-2.718
204405.000			-29.902			-2.718
204504.000			-29.900			-2.718
204604.000			-29.900			-2.718
204705.000			-29.900			-2.718
204803.000			-29.900			-2.718
204904.000			-29.899			-2.718
205004.000			-29.898			-2.718
205104.000			-29.899			-2.718
205204.000			-29.898			-2.718
205305.000			-29.898			-2.718
205404.000			-29.897			-2.718
205504.000			-29.897			-2.718
205605.000			-29.898			-2.718
205704.000			-29.897			-2.718
205804.000			-29.897			-2.718
205904.000			-29.895			-2.718
206004.000			-29.895			-2.718
206104.000			-29.896			-2.718
206205.000			-29.895			-2.718
206304.000			-29.894			-2.718
206404.000			-29.894			-2.718
206505.000			-29.893			-2.718
206604.000			-29.893			-2.718
206705.000			-29.892			-2.717
206803.000			-29.892			-2.717
206904.000			-29.892			-2.717
207004.000			-29.892			-2.717
207104.000			-29.892			-2.717
207204.000			-29.891			-2.717
207305.000			-29.891			-2.717
207404.000			-29.891			-2.717
207504.000			-29.891			-2.717
207605.000			-29.891			-2.717
207703.000			-29.890			-2.717
207804.000			-29.889			-2.717
207904.000			-29.889			-2.717
208004.000			-29.889			-2.717
208104.000			-29.889			-2.717
208205.000			-29.888			-2.717
208304.000			-29.887			-2.717
208404.000			-29.887			-2.717
208505.000			-29.887			-2.717
208604.000			-29.888			-2.717
208704.000			-29.887			-2.717
208804.000			-29.885			-2.717
208904.000			-29.885			-2.717
209003.000			-29.885			-2.717
209105.000			-29.886			-2.717
209204.000			-29.885			-2.717
209304.000			-29.885			-2.717
209405.000			-29.885			-2.717
209504.000			-29.884			-2.717
209604.000			-29.883			-2.717
209704.000			-29.883			-2.717
209804.000			-29.883			-2.717
209904.000			-29.883			-2.717
210004.000			-29.882			-2.717
210104.000			-29.881			-2.716
210205.000			-29.880			-2.716
210304.000			-29.881			-2.716
210404.000			-29.881			-2.716
210505.000			-29.880			-2.716
210604.000			-29.878			-2.716
210704.000			-29.879			-2.716
210804.000			-29.880			-2.716
210904.000			-29.879			-2.716
211003.000			-29.878			-2.716
211105.000			-29.878			-2.716
211204.000			-29.878			-2.716
211304.000			-29.877			-2.716
211405.000			-29.876			-2.716
211504.000			-29.876			-2.716
211604.000			-29.876			-2.716
211704.000			-29.876			-2.716
211804.000			-29.875			-2.716
211903.000			-29.875			-2.716
212005.000			-29.875			-2.716
212104.000			-29.875			-2.716
212204.000			-29.874			-2.716
212305.000			-29.875			-2.716
212404.000			-29.874			-2.716
212504.000			-29.873			-2.716
212604.000			-29.873			-2.716
212704.000			-29.873			-2.716
212803.000			-29.873			-2.716
212905.000			-29.873			-2.716
213004.000			-29.872			-2.716
213105.000			-29.872			-2.716
213204.000			-29.871			-2.716
213304.000			-29.870			-2.715
213405.000			-29.870			-2.715
213503.000			-29.870			-2.715
213604.000			-29.870			-2.715
213704.000			-29.870			-2.715
213804.000			-29.869			-2.715
213904.000			-29.870			-2.715
214005.000			-29.869			-2.715
214104.000			-29.870			-2.715
214204.000			-29.869			-2.715
214305.000			-29.868			-2.715
214404.000			-29.867			-2.715
214504.000			-29.867			-2.715
214604.000			-29.866			-2.715
214704.000			-29.866			-2.715
214804.000			-29.866			-2.715
214905.000			-29.867			-2.715
215004.000			-29.867			-2.715
215104.000			-29.865			-2.715
215205.000			-29.864			-2.715
215304.000			-29.863			-2.715
215404.000			-29.863			-2.715
215504.000			-29.863			-2.715
215604.000			-29.863			-2.715
215704.000			-29.863			-2.715
215805.000			-29.862			-2.715
215904.000			-29.863			-2.715
216004.000			-29.862			-2.715
216105.000			-29.860			-2.715
216204.000			-29.860			-2.715
216305.000			-29.861			-2.715
216403.000			-29.862			-2.715
216504.000			-29.862			-2.715
216604.000			-29.862			-2.715
216704.000			-29.861			-2.715
216804.000			-29.858			-2.714
216905.000			-29.858			-2.714
217004.000			-29.859			-2.714
217104.000			-29.859			-2.714
217205.000			-29.858			-2.714
217304.000			-29.858			-2.714
217404.000			-29.858			-2.714
217504.000			-29.857			-2.714
217604.000			-29.858			-2.714
217704.000			-29.857			-2.714
217805.000			-29.856			-2.714
217904.000			-29.856			-2.714
218004.000			-29.855			-2.714
218105.000			-29.855			-2.714
218204.000			-29.855			-2.714
218304.000			-29.854			-2.714
218404.000			-29.853			-2.714
218504.000			-29.854			-2.714
218603.000			-29.854			-2.714
218705.000			-29.853			-2.714
218804.000			-29.853			-2.714
218904.000			-29.852			-2.714
219005.000			-29.852			-2.714
219104.000			-29.853			-2.714
219204.000			-29.853			-2.714
219304.000			-29.852			-2.714
219404.000			-29.852			-2.714
219504.000			-29.852			-2.714
219604.000			-29.850			-2.714
219704.000			-29.850			-2.714
219805.000			-29.849			-2.714
219904.000			-29.850			-2.714
220004.000			-29.849			-2.714
220105.000			-29.847			-2.713
220204.000			-29.848			-2.713
220304.000			-29.848			-2.713
220404.000			-29.848			-2.713
220504.000			-29.847			-2.713
220603.000			-29.847			-2.713
220705.000			-29.847			-2.713
220804.000			-29.847			-2.713
220904.000			-29.846			-2.713
221005.000			-29.845			-2.713
221104.000			-29.847			-2.713
221204.000			-29.846			-2.713
221304.000			-29.845			-2.713
221404.000			-29.844			-2.713
221503.000			-29.844			-2.713
221605.000			-29.843			-2.713
221704.000			-29.843			-2.713
221804.000			-29.845			-2.713
221905.000			-29.844			-2.713
222004.000			-29.843			-2.713
222104.000			-29.842			-2.713
222204.000			-29.842			-2.713
222304.000			-29.842			-2.713
222403.000			-29.842			-2.713
222505.000			-29.841			-2.713
222604.000			-29.841			-2.713
222705.000			-29.840			-2.713
222804.000			-29.838			-2.713
222904.000			-29.839			-2.713
223005.000			-29.840			-2.713
223104.000			-29.839			-2.713
223204.000			-29.838			-2.713
223304.000			-29.838			-2.713
223404.000			-29.838			-2.713
223504.000			-29.837			-2.712
223605.000			-29.837			-2.712
223704.000			-29.838			-2.713
223804.000			-29.837			-2.712
223905.000			-29.837			-2.712
224004.000			-29.835			-2.712
224104.000			-29.835			-2.712
224204.000			-29.835			-2.712
224304.000			-29.835			-2.712
224403.000			-29.835			-2.712
224505.000			-29.834			-2.712
224604.000			-29.834			-2.712
224704.000			-29.834			-2.712
224805.000			-29.834			-2.712
224904.000			-29.832			-2.712
225004.000			-29.832			-2.712
225104.000			-29.832			-2.712
225204.000			-29.831			-2.712
225303.000			-29.831			-2.712
225405.000			-29.832			-2.712
225504.000			-29.831			-2.712
225604.000			-29.830			-2.712
225705.000			-29.831			-2.712
225804.000			-29.830			-2.712
225905.000			-29.829			-2.712
226003.000			-29.830			-2.712
226104.000			-29.829			-2.712
226204.000			-29.830			-2.712
226304.000			-29.829			-2.712
226404.000			-29.829			-2.712
226505.000			-29.828			-2.712
226604.000			-29.828			-2.712
226704.000			-29.828			-2.712
226805.000			-29.827			-2.712
226904.000			-29.827			-2.712
227004.000			-29.827			-2.712
227104.000			-29.827			-2.712
227204.000			-29.826			-2.711
227304.000			-29.826			-2.711
227405.000			-29.825			-2.711
227504.000			-29.824			-2.711
227604.000			-29.825			-2.711
227705.000			-29.824			-2.711
227804.000			-29.824			-2.711
227904.000			-29.824			-2.711
228004.000			-29.823			-2.711
228104.000			-29.823			-2.711
228204.000			-29.823			-2.711
228305.000			-29.823			-2.711
228404.000			-29.823			-2.711
228504.000			-29.822			-2.711
228605.000			-29.821			-2.711
228704.000			-29.820			-2.711
228804.000			-29.820			-2.711
228903.000			-29.820			-2.711
229004.000			-29.821			-2.711
229105.000			-29.820			-2.711
229204.000			-29.821			-2.711
229304.000			-29.820			-2.711
229405.000			-29.819			-2.711
229504.000			-29.819			-2.711
229604.000			-29.819			-2.711
229705.000			-29.819			-2.711
229803.000			-29.818			-2.711
229904.000			-29.818			-2.711
230004.000			-29.817			-2.711
230104.000			-29.818			-2.711
230204.000			-29.817			-2.711
230305.000			-29.816			-2.711
230404.000			-29.817			-2.711
230504.000			-29.816			-2.711
230605.000			-29.816			-2.711
230704.000			-29.816			-2.711
230804.000			-29.816			-2.711
230904.000			-29.815			-2.710
231004.000			-29.814			-2.710
231104.000			-29.813			-2.710
231205.000			-29.813			-2.710
231304.000			-29.812			-2.710
231404.000			-29.812			-2.710
231505.000			-29.813			-2.710
231604.000			-29.813			-2.710
231704.000			-29.812			-2.710
231804.000			-29.812			-2.710
231904.000			-29.811			-2.710
232004.000			-29.810			-2.710
232104.000			-29.810			-2.710
232204.000			-29.810			-2.710
232305.000			-29.810			-2.710
232404.000			-29.810			-2.710
232503.000			-29.809			-2.710
232605.000			-29.809			-2.710
232703.000			-29.808			-2.710
232804.000			-29.808			-2.710
232905.000			-29.808			-2.710
233004.000			-29.808			-2.710
233104.000			-29.807			-2.710
233205.000			-29.808			-2.710
233304.000			-29.808			-2.710
233403.000			-29.806			-2.710
233505.000			-29.806			-2.710
233603.000			-29.807			-2.710
233704.000			-29.806			-2.710
233805.000			-29.806			-2.710
233904.000			-29.806			-2.710
234004.000			-29.805			-2.710
234105.000			-29.805			-2.710
234204.000			-29.804			-2.709
234303.000			-29.804			-2.709
234405.000			-29.804			-2.709
234503.000			-29.804			-2.709
234604.000			-29.803			-2.709
234705.000			-29.803			-2.709
234804.000			-29.803			-2.709
234904.000			-29.802			-2.709
235005.000			-29.802			-2.709
235104.000			-29.802			-2.709
235203.000			-29.803			-2.709
235305.000			-29.802			-2.709
235403.000			-29.801			-2.709
235505.000			-29.801			-2.709
235604.000			-29.800			-2.709
235704.000			-29.800			-2.709
235805.000			-29.801			-2.709
235904.000			-29.801			-2.709
236004.000			-29.799			-2.709
236105.000			-29.799			-2.709
236204.000			-29.799			-2.709
236303.000			-29.798			-2.709
236405.000			-29.798			-2.709
236504.000			-29.797			-2.709
236604.000			-29.797			-2.709
236705.000			-29.797			-2.709
236804.000			-29.797			-2.709
236904.000			-29.797			-2.709
237005.000			-29.795			-2.709
237104.000			-29.796			-2.709
237203.000			-29.795			-2.709
237305.000			-29.795			-2.709
237403.000			-29.795			-2.709
237504.000			-29.795			-2.709
237605.000			-29.794			-2.709
237704.000			-29.794			-2.709
237804.000			-29.793			-2.708
237905.000			-29.793			-2.708
238004.000			-29.793			-2.708
238104.000			-29.793			-2.708
238205.000			-29.793			-2.708
238303.000			-29.792			-2.708
238404.000			-29.792			-2.708
238503.000			-29.792			-2.708
238604.000			-29.792			-2.708
238705.000			-29.791			-2.708
238804.000			-29.791			-2.708
238904.000			-29.791			-2.708
239005.000			-29.789			-2.708
239104.000			-29.789			-2.708
239204.000			-29.789			-2.708
239305.000			-29.789			-2.708
239403.000			-29.790			-2.708
239504.000			-29.789			-2.708
239605.000			-29.789			-2.708
239704.000			-29.788			-2.708
239804.000			-29.788			-2.708
239905.000			-29.787			-2.708
240004.000			-29.786			-2.708
240104.000			-29.787			-2.708
240205.000			-29.787			-2.708
240303.000			-29.786			-2.708
240404.000			-29.786			-2.708
240504.000			-29.785			-2.708
240604.000			-29.785			-2.708
240704.000			-29.786			-2.708
240805.000			-29.785			-2.708
240904.000			-29.784			-2.708
241004.000			-29.784			-2.708
241105.000			-29.784			-2.708
241204.000			-29.784			-2.708
241304.000			-29.785			-2.708
241404.000			-29.784			-2.708
241504.000			-29.783			-2.708
241604.000			-29.782			-2.707
241704.000			-29.782			-2.707
241804.000			-29.781			-2.707
241905.000			-29.781			-2.707
242004.000			-29.781			-2.707
242104.000			-29.780			-2.707
242205.000			-29.780			-2.707
242303.000			-29.781			-2.707
242404.000			-29.780			-2.707
242504.000			-29.779			-2.707
242604.000			-29.779			-2.707
242704.000			-29.780			-2.707
242805.000			-29.780			-2.707
242904.000			-29.779			-2.707
243004.000			-29.780			-2.707
243105.000			-29.779			-2.707
243204.000			-29.778			-2.707
243304.000			-29.777			-2.707
243404.000			-29.777			-2.707
243504.000			-29.777			-2.707
243604.000			-29.777			-2.707
243705.000			-29.776			-2.707
243804.000			-29.776			-2.707
243904.000			-29.776			-2.707
244005.000			-29.775			-2.707
244104.000			-29.775			-2.707
244204.000			-29.774			-2.707
244304.000			-29.775			-2.707
244404.000			-29.774			-2.707
244503.000			-29.774			-2.707
244605.000			-29.774			-2.707
244704.000			-29.775			-2.707
244804.000			-29.774			-2.707
244905.000			-29.772			-2.707
245004.000			-29.772			-2.707
245105.000			-29.771			-2.706
245204.000			-29.772			-2.707
245304.000			-29.771			-2.706
245404.000			-29.770			-2.706
245504.000			-29.770			-2.706
245604.000			-29.771			-2.706
245705.000			-29.771			-2.706
245804.000			-29.769			-2.706
245904.000			-29.769			-2.706
246005.000			-29.770			-2.706
246104.000			-29.769			-2.706
246204.000			-29.769			-2.706
246304.000			-29.769			-2.706
246404.000			-29.768			-2.706
246503.000			-29.768			-2.706
246605.000			-29.768			-2.706
246704.000			-29.768			-2.706
246804.000			-29.768			-2.706
246905.000			-29.767			-2.706
247004.000			-29.767			-2.706
247104.000			-29.766			-2.706
247205.000			-29.765			-2.706
247304.000			-29.764			-2.706
247403.000			-29.764			-2.706
247505.000			-29.765			-2.706
247604.000			-29.765			-2.706
247704.000			-29.765			-2.706
247805.000			-29.765			-2.706
247904.000			-29.764			-2.706
248004.000			-29.764			-2.706
248104.000			-29.763			-2.706
248204.000			-29.763			-2.706
248304.000			-29.763			-2.706
248404.000			-29.763			-2.706
248503.000			-29.764			-2.706
248605.000			-29.762			-2.706
248704.000			-29.763			-2.706
248804.000			-29.763			-2.706
248905.000			-29.762			-2.706
249004.000			-29.762			-2.706
249104.000			-29.761			-2.706
249205.000			-29.761			-2.706
249304.000			-29.760			-2.705
249403.000			-29.760			-2.705
249505.000			-29.759			-2.705
249604.000			-29.759			-2.705
249704.000			-29.759			-2.705
249805.000			-29.759			-2.705
249904.000			-29.759			-2.705
250004.000			-29.759			-2.705
250105.000			-29.758			-2.705
250204.000			-29.757			-2.705
250303.000			-29.758			-2.705
250405.000			-29.757			-2.705
250504.000			-29.758			-2.705
250604.000			-29.758			-2.705
250705.000			-29.757			-2.705
250804.000			-29.755			-2.705
250904.000			-29.755			-2.705
251005.000			-29.756			-2.705
251104.000			-29.756			-2.705
251203.000			-29.755			-2.705
251305.000			-29.754			-2.705
251403.000			-29.754			-2.705
251505.000			-29.754			-2.705
251604.000			-29.753			-2.705
251704.000			-29.753			-2.705
251805.000			-29.754			-2.705
251904.000			-29.755			-2.705
252004.000			-29.754			-2.705
252105.000			-29.753			-2.705
252204.000			-29.752			-2.705
252303.000			-29.752			-2.705
252405.000			-29.753			-2.705
252504.000			-29.752			-2.705
252604.000			-29.751			-2.705
252705.000			-29.751			-2.705
252804.000			-29.751			-2.705
252904.000			-29.751			-2.705
253005.000			-29.749			-2.704
253104.000			-29.749			-2.704
253203.000			-29.750			-2.705
253305.000			-29.749			-2.704
253404.000			-29.749			-2.704
253504.000			-29.749			-2.704
253605.000			-29.750			-2.705
253704.000			-29.748			-2.704
253804.000			-29.747			-2.704
253905.000			-29.747			-2.704
254004.000			-29.747			-2.704
254103.000			-29.747			-2.704
254205.000			-29.746			-2.704
254304.000			-29.746			-2.704
254404.000			-29.746			-2.704
254505.000			-29.746			-2.704
254604.000			-29.745			-2.704
254705.000			-29.745			-2.704
254804.000			-29.744			-2.704
254904.000			-29.743			-2.704
255004.000			-29.743			-2.704
255104.000			-29.744			-2.704
255203.000			-29.743			-2.704
255305.000			-29.744			-2.704
255404.000			-29.744			-2.704
255504.000			-29.743			-2.704
255605.000			-29.743			-2.704
255704.000			-29.744			-2.704
255804.000			-29.744			-2.704
255905.000			-29.740			-2.704
256004.000			-29.741			-2.704
256103.000			-29.741			-2.704
256205.000			-29.741			-2.704
256304.000			-29.741			-2.704
256404.000			-29.740			-2.704
256505.000			-29.740			-2.704
256604.000			-29.739			-2.704
256704.000			-29.739			-2.704
256805.000			-29.739			-2.704
256904.000			-29.739			-2.704
257003.000			-29.740			-2.704
257105.000			-29.739			-2.704
257203.000			-29.738			-2.703
257304.000			-29.738			-2.703
257405.000			-29.738			-2.703
257504.000			-29.738			-2.703
257604.000			-29.737			-2.703
257704.000			-29.738			-2.703
257804.000			-29.738			-2.703
257905.000			-29.736			-2.703
258004.000			-29.735			-2.703
258103.000			-29.735			-2.703
258205.000			-29.736			-2.703
258304.000			-29.735			-2.703
258404.000			-29.735			-2.703
258505.000			-29.734			-2.703
258604.000			-29.734			-2.703
258704.000			-29.734			-2.703
258805.000			-29.733			-2.703
258904.000			-29.732			-2.703
259003.000			-29.732			-2.703
259105.000			-29.733			-2.703
259203.000			-29.733			-2.703
259304.000			-29.733			-2.703
259405.000			-29.733			-2.703
259504.000			-29.730			-2.703
259604.000			-29.731			-2.703
259705.000			-29.731			-2.703
259804.000			-29.730			-2.703
259904.000			-29.730			-2.703
260005.000			-29.730			-2.703
260103.000			-29.729			-2.703
260204.000			-29.729			-2.703
260305.000			-29.729			-2.703
260404.000			-29.729			-2.703
260504.000			-29.730			-2.703
260605.000			-29.729			-2.703
260704.000			-29.727			-2.702
260804.000			-29.728			-2.703
260905.000			-29.727			-2.702
261003.000			-29.727			-2.702
261105.000			-29.727			-2.702
261204.000			-29.727			-2.702
261304.000			-29.726			-2.702
261405.000			-29.726			-2.702
261504.000			-29.725			-2.702
261604.000			-29.726			-2.702
261705.000			-29.725			-2.702
261804.000			-29.725			-2.702
261904.000			-29.724			-2.702
262005.000			-29.724			-2.702
262103.000			-29.724			-2.702
262204.000			-29.724			-2.702
262305.000			-29.724			-2.702
262404.000			-29.723			-2.702
262504.000			-29.723			-2.702
262605.000			-29.723			-2.702
262704.000			-29.723			-2.702
262804.000			-29.722			-2.702
262905.000			-29.722			-2.702
263003.000			-29.722			-2.702
263104.000			-29.721			-2.702
263205.000			-29.721			-2.702
263304.000			-29.722			-2.702
263404.000			-29.722			-2.702
263505.000			-29.721			-2.702
263604.000			-29.720			-2.702
263704.000			-29.720			-2.702
263805.000			-29.719			-2.702
263903.000			-29.719			-2.702
264004.000			-29.719			-2.702
264105.000			-29.719			-2.702
264204.000			-29.720			-2.702
264305.000			-29.720			-2.702
264404.000			-29.720			-2.702
264504.000			-29.719			-2.702
264605.000			-29.717			-2.702
264704.000			-29.717			-2.702
264803.000			-29.717			-2.702
264905.000			-29.717			-2.702
265003.000			-29.717			-2.702
265104.000			-29.717			-2.702
265205.000			-29.716			-2.701
265304.000			-29.717			-2.702
265404.000			-29.716			-2.701
265505.000			-29.715			-2.701
265604.000			-29.715			-2.701
265704.000			-29.714			-2.701
265805.000			-29.714			-2.701
265903.000			-29.715			-2.701
266004.000			-29.714			-2.701
266105.000			-29.715			-2.701
266204.000			-29.715			-2.701
266304.000			-29.714			-2.701
266405.000			-29.713			-2.701
266504.000			-29.712			-2.701
266604.000			-29.713			-2.701
266705.000			-29.711			-2.701
266803.000			-29.711			-2.701
266904.000			-29.711			-2.701
267005.000			-29.710			-2.701
267104.000			-29.710			-2.701
267204.000			-29.710			-2.701
267304.000			-29.710			-2.701
267404.000			-29.710			-2.701
267505.000			-29.710			-2.701
267604.000			-29.709			-2.701
267703.000			-29.709			-2.701
267805.000			-29.708			-2.701
267903.000			-29.707			-2.701
268004.000			-29.708			-2.701
268105.000			-29.709			-2.701
268204.000			-29.708			-2.701
268304.000			-29.708			-2.701
268405.000			-29.707			-2.701
268504.000			-29.707			-2.701
268604.000			-29.706			-2.701
268705.000			-29.706			-2.701
268803.000			-29.706			-2.701
268904.000			-29.706			-2.701
269005.000			-29.706			-2.701
269104.000			-29.706			-2.701
269204.000			-29.705			-2.700
269305.000			-29.705			-2.700
269404.000			-29.705			-2.700
269504.000			-29.704			-2.700
269605.000			-29.701			-2.700
269703.000			-29.702			-2.700
269804.000			-29.704			-2.700
269905.000			-29.703			-2.700
270004.000			-29.703			-2.700
270104.000			-29.703			-2.700
270205.000			-29.703			-2.700
270304.000			-29.701			-2.700
270404.000			-29.701			-2.700
270505.000			-29.701			-2.700
270603.000			-29.701			-2.700
270705.000			-29.701			-2.700
270804.000			-29.701			-2.700
270904.000			-29.700			-2.700
271005.000			-29.700			-2.700
271104.000			-29.699			-2.700
271204.000			-29.700			-2.700
271305.000			-29.700			-2.700
271404.000			-29.700			-2.700
271503.000			-29.699			-2.700
271605.000			-29.698			-2.700
271704.000			-29.698			-2.700
271804.000			-29.696			-2.700
271905.000			-29.697			-2.700
272004.000			-29.696			-2.700
272104.000			-29.697			-2.700
272205.000			-29.698			-2.700
272304.000			-29.698			-2.700
272403.000			-29.697			-2.700
272505.000			-29.696			-2.700
272603.000			-29.695			-2.700
272704.000			-29.695			-2.700
272805.000			-29.695			-2.700
272904.000			-29.695			-2.700
273004.000			-29.695			-2.700
273105.000			-29.695			-2.700
273204.000			-29.694			-2.699
273304.000			-29.695			-2.700
273405.000			-29.694			-2.699
273503.000			-29.694			-2.699
273604.000			-29.694			-2.699
273705.000			-29.694			-2.699
273804.000			-29.693			-2.699
273905.000			-29.692			-2.699
274004.000			-29.693			-2.699
274104.000			-29.692			-2.699
274205.000			-29.692			-2.699
274304.000			-29.691			-2.699
274404.000			-29.691			-2.699
274505.000			-29.690			-2.699
274603.000			-29.690			-2.699
274704.000			-29.690			-2.699
274805.000			-29.690			-2.699
274904.000			-29.690			-2.699
275004.000			-29.689			-2.699
275105.000			-29.689			-2.699
275204.000			-29.690			-2.699
275304.000			-29.688			-2.699
275405.000			-29.687			-2.699
275503.000			-29.687			-2.699
275604.000			-29.687			-2.699
275704.000			-29.687			-2.699
275804.000			-29.687			-2.699
275904.000			-29.687			-2.699
276005.000			-29.687			-2.699
276104.000			-29.687			-2.699
276204.000			-29.686			-2.699
276305.000			-29.686			-2.699
276404.000			-29.685			-2.699
276504.000			-29.685			-2.699
276604.000			-29.685			-2.699
276704.000			-29.686			-2.699
276804.000			-29.684			-2.699
276904.000			-29.684			-2.699
277004.000			-29.684			-2.699
277105.000			-29.685			-2.699
277204.000			-29.685			-2.699
277304.000			-29.684			-2.699
277405.000			-29.683			-2.698
277503.000			-29.683			-2.698
277604.000			-29.683			-2.698
277704.000			-29.682			-2.698
277804.000			-29.682			-2.698
277904.000			-29.682			-2.698
278005.000			-29.682			-2.698
278104.000			-29.682			-2.698
278204.000			-29.682			-2.698
278305.000			-29.681			-2.698
278404.000			-29.681			-2.698
278504.000			-29.681			-2.698
278604.000			-29.680			-2.698
278704.000			-29.680			-2.698
278803.000			-29.680			-2.698
278905.000			-29.680			-2.698
279004.000			-29.679			-2.698
279104.000			-29.679			-2.698
279205.000			-29.679			-2.698
279304.000			-29.679			-2.698
279404.000			-29.679			-2.698
279505.000			-29.679			-2.698
279604.000			-29.678			-2.698
279703.000			-29.678			-2.698
279805.000			-29.676			-2.698
279903.000			-29.676			-2.698
280004.000			-29.677			-2.698
280105.000			-29.677			-2.698
280204.000			-29.676			-2.698
280305.000			-29.676			-2.698
280404.000			-29.676			-2.698
280504.000			-29.676			-2.698
280605.000			-29.675			-2.698
280704.000			-29.674			-2.698
280803.000			-29.674			-2.698
280905.000			-29.674			-2.698
281004.000			-29.675			-2.698
281104.000			-29.675			-2.698
281205.000			-29.674			-2.698
281304.000			-29.673			-2.698
281404.000			-29.672			-2.697
281505.000			-29.672			-2.697
281604.000			-29.671			-2.697
281703.000			-29.671			-2.697
281805.000			-29.672			-2.697
281904.000			-29.672			-2.697
282004.000			-29.672			-2.697
282105.000			-29.671			-2.697
282204.000			-29.671			-2.697
282304.000			-29.670			-2.697
282405.000			-29.671			-2.697
282504.000			-29.670			-2.697
282603.000			-29.669			-2.697
282705.000			-29.669			-2.697
282803.000			-29.669			-2.697
282904.000			-29.670			-2.697
283005.000			-29.669			-2.697
283104.000			-29.669			-2.697
283204.000			-29.669			-2.697
283304.000			-29.669			-2.697
283404.000			-29.668			-2.697
283505.000			-29.669			-2.697
283604.000			-29.668			-2.697
283703.000			-29.667			-2.697
283805.000			-29.667			-2.697
283903.000			-29.667			-2.697
284004.000			-29.666			-2.697
284105.000			-29.666			-2.697
284204.000			-29.665			-2.697
284304.000			-29.665			-2.697
284405.000			-29.665			-2.697
284504.000			-29.665			-2.697
284604.000			-29.664			-2.697
284705.000			-29.663			-2.697
284803.000			-29.664			-2.697
284904.000			-29.663			-2.697
285005.000			-29.663			-2.697
285104.000			-29.662			-2.697
285204.000			-29.663			-2.697
285305.000			-29.663			-2.697
285404.000			-29.663			-2.697
285504.000			-29.663			-2.697
285605.000			-29.662			-2.697
285703.000			-29.662			-2.697
285804.000			-29.661			-2.696
285904.000			-29.661			-2.696
286004.000			-29.661			-2.696
286104.000			-29.662			-2.697
286205.000			-29.661			-2.696
286304.000			-29.659			-2.696
286404.000			-29.660			-2.696
286505.000			-29.660			-2.696
286604.000			-29.660			-2.696
286705.000			-29.660			-2.696
286803.000			-29.659			-2.696
286904.000			-29.660			-2.696
287005.000			-29.658			-2.696
287104.000			-29.657			-2.696
287204.000			-29.657			-2.696
287305.000			-29.658			-2.696
287404.000			-29.657			-2.696
287504.000			-29.656			-2.696
287605.000			-29.657			-2.696
287703.000			-29.656			-2.696
287804.000			-29.656			-2.696
287904.000			-29.656			-2.696
288004.000			-29.656			-2.696
288104.000			-29.655			-2.696
288205.000			-29.654			-2.696
288304.000			-29.656			-2.696
288404.000			-29.655			-2.696
288505.000			-29.654			-2.696
288604.000			-29.654			-2.696
288704.000			-29.654			-2.696
288804.000			-29.654			-2.696
288904.000			-29.653			-2.696
289003.000			-29.652			-2.696
289105.000			-29.652			-2.696
289204.000			-29.653			-2.696
289304.000			-29.652			-2.696
289405.000			-29.651			-2.696
289504.000			-29.651			-2.696
289604.000			-29.652			-2.696
289704.000			-29.652			-2.696
289804.000			-29.652			-2.696
289904.000			-29.651			-2.696
290004.000			-29.650			-2.695
290104.000			-29.651			-2.696
290205.000			-29.651			-2.696
290304.000			-29.650			-2.695
290404.000			-29.649			-2.695
290505.000			-29.649			-2.695
290604.000			-29.650			-2.695
290704.000			-29.649			-2.695
290804.000			-29.648			-2.695
290904.000			-29.648			-2.695
291003.000			-29.648			-2.695
291105.000			-29.648			-2.695
291204.000			-29.648			-2.695
291304.000			-29.648			-2.695
291405.000			-29.647			-2.695
291504.000			-29.647			-2.695
291604.000			-29.647			-2.695
291704.000			-29.646			-2.695
291804.000			-29.647			-2.695
291903.000			-29.647			-2.695
292005.000			-29.646			-2.695
292104.000			-29.646			-2.695
292204.000			-29.646			-2.695
292305.000			-29.646			-2.695
292404.000			-29.645			-2.695
292504.000			-29.645			-2.695
292605.000			-29.644			-2.695
292704.000			-29.644			-2.695
292803.000			-29.645			-2.695
292905.000			-29.643			-2.695
293004.000			-29.643			-2.695
293105.000			-29.644			-2.695
293204.000			-29.643			-2.695
293304.000			-29.642			-2.695
293405.000			-29.643			-2.695
293504.000			-29.642			-2.695
293604.000			-29.642			-2.695
293704.000			-29.643			-2.695
293804.000			-29.641			-2.695
293903.000			-29.641			-2.695
294005.000			-29.641			-2.695
294104.000			-29.641			-2.695
294204.000			-29.640			-2.695
294305.000			-29.640			-2.695
294404.000			-29.640			-2.695
294504.000			-29.639			-2.694
294604.000			-29.639			-2.694
294704.000			-29.639			-2.694
294803.000			-29.639			-2.694
294905.000			-29.639			-2.694
295004.000			-29.638			-2.694
295104.000			-29.638			-2.694
295205.000			-29.638			-2.694
295304.000			-29.637			-2.694
295404.000			-29.637			-2.694
295505.000			-29.637			-2.694
295604.000			-29.637			-2.694
295703.000			-29.636			-2.694
295805.000			-29.636			-2.694
295904.000			-29.637			-2.694
296004.000			-29.637			-2.694
296105.000			-29.636			-2.694
296204.000			-29.636			-2.694
296305.000			-29.636			-2.694
296404.000			-29.635			-2.694
296504.000			-29.635			-2.694
296604.000			-29.634			-2.694
296704.000			-29.635			-2.694
296803.000			-29.634			-2.694
296905.000			-29.634			-2.694
297004.000			-29.634			-2.694
297104.000			-29.634			-2.694
297205.000			-29.633			-2.694
297304.000			-29.634			-2.694
297404.000			-29.632			-2.694
297505.000			-29.632			-2.694
297604.000			-29.632			-2.694
297703.000			-29.632			-2.694
297805.000			-29.632			-2.694
297904.000			-29.632			-2.694
298004.000			-29.631			-2.694
298105.000			-29.629			-2.694
298204.000			-29.631			-2.694
298304.000			-29.632			-2.694
298405.000			-29.630			-2.694
298504.000			-29.629			-2.694
298603.000			-29.631			-2.694
298705.000			-29.630			-2.694
298804.000			-29.628			-2.693
298904.000			-29.629			-2.694
299005.000			-29.629			-2.694
299104.000			-29.629			-2.694
299204.000			-29.628			-2.693
299304.000			-29.629			-2.694
299404.000			-29.628			-2.693
299505.000			-29.627			-2.693
299604.000			-29.628			-2.693
299703.000			-29.628			-2.693
299805.000			-29.628			-2.693
299904.000			-29.628			-2.693
