# Acquired on 25/01/2024 09:53:55 
# SPIDER: Creep_3mm_GRPCNT1454A-3
# CREEP MEASUREMENT

# time [ms]		force [N]		stiffness [N/mm]
1.000			-12.464			-4.155
104.000			-13.225			-4.408
204.000			-13.371			-4.457
304.000			-13.257			-4.419
404.000			-13.148			-4.383
505.000			-12.998			-4.333
604.000			-12.940			-4.313
703.000			-12.891			-4.297
805.000			-12.847			-4.282
904.000			-12.808			-4.269
1004.000			-12.773			-4.258
1105.000			-12.741			-4.247
1203.000			-12.683			-4.228
1304.000			-12.658			-4.219
1405.000			-12.635			-4.212
1504.000			-12.613			-4.204
1604.000			-12.591			-4.197
1705.000			-12.571			-4.190
1804.000			-12.552			-4.184
1903.000			-12.518			-4.173
2005.000			-12.502			-4.167
2104.000			-12.486			-4.162
2204.000			-12.471			-4.157
2305.000			-12.457			-4.152
2403.000			-12.444			-4.148
2504.000			-12.431			-4.144
2605.000			-12.418			-4.139
2704.000			-12.394			-4.131
2804.000			-12.383			-4.128
2905.000			-12.371			-4.124
3004.000			-12.361			-4.120
3103.000			-12.351			-4.117
3205.000			-12.341			-4.114
3304.000			-12.331			-4.110
3404.000			-12.312			-4.104
3505.000			-12.303			-4.101
3603.000			-12.295			-4.098
3705.000			-12.286			-4.095
3804.000			-12.277			-4.092
3904.000			-12.269			-4.090
4005.000			-12.261			-4.087
4104.000			-12.248			-4.083
4204.000			-12.239			-4.080
4304.000			-12.231			-4.077
4404.000			-12.224			-4.075
4504.000			-12.218			-4.073
4605.000			-12.210			-4.070
4704.000			-12.203			-4.068
4803.000			-12.197			-4.066
4905.000			-12.183			-4.061
5004.000			-12.177			-4.059
5104.000			-12.171			-4.057
5205.000			-12.166			-4.055
5304.000			-12.160			-4.053
5404.000			-12.155			-4.052
5504.000			-12.149			-4.050
5604.000			-12.138			-4.046
5704.000			-12.133			-4.044
5805.000			-12.128			-4.043
5904.000			-12.122			-4.041
6003.000			-12.117			-4.039
6105.000			-12.112			-4.037
6204.000			-12.107			-4.036
6304.000			-12.097			-4.032
6405.000			-12.092			-4.031
6504.000			-12.087			-4.029
6604.000			-12.083			-4.028
6703.000			-12.079			-4.026
6804.000			-12.076			-4.025
6905.000			-12.071			-4.024
7004.000			-12.066			-4.022
7104.000			-12.056			-4.019
7205.000			-12.053			-4.018
7304.000			-12.049			-4.016
7403.000			-12.045			-4.015
7505.000			-12.040			-4.013
7604.000			-12.036			-4.012
7704.000			-12.032			-4.011
7805.000			-12.023			-4.008
7903.000			-12.020			-4.007
8004.000			-12.017			-4.006
8105.000			-12.013			-4.004
8204.000			-12.010			-4.003
8304.000			-12.005			-4.002
8404.000			-12.002			-4.001
8504.000			-11.996			-3.999
8604.000			-11.991			-3.997
8705.000			-11.988			-3.996
8804.000			-11.985			-3.995
8904.000			-11.983			-3.994
9005.000			-11.979			-3.993
9103.000			-11.974			-3.991
9204.000			-11.971			-3.990
9305.000			-11.964			-3.988
9404.000			-11.962			-3.987
9504.000			-11.959			-3.986
9605.000			-11.955			-3.985
9704.000			-11.952			-3.984
9803.000			-11.949			-3.983
9905.000			-11.946			-3.982
10004.000			-11.940			-3.980
10105.000			-11.937			-3.979
10204.000			-11.935			-3.978
10304.000			-11.931			-3.977
10405.000			-11.928			-3.976
10503.000			-11.926			-3.975
10604.000			-11.923			-3.974
10705.000			-11.917			-3.972
10804.000			-11.914			-3.971
10904.000			-11.912			-3.971
11004.000			-11.909			-3.970
11104.000			-11.907			-3.969
11204.000			-11.905			-3.968
11305.000			-11.902			-3.967
11404.000			-11.899			-3.966
11504.000			-11.893			-3.964
11605.000			-11.890			-3.963
11703.000			-11.888			-3.963
11804.000			-11.886			-3.962
11905.000			-11.883			-3.961
12004.000			-11.881			-3.960
12104.000			-11.878			-3.959
12205.000			-11.874			-3.958
12304.000			-11.872			-3.957
12403.000			-11.869			-3.956
12505.000			-11.866			-3.955
12604.000			-11.864			-3.955
12704.000			-11.862			-3.954
12805.000			-11.861			-3.954
12904.000			-11.855			-3.952
13004.000			-11.854			-3.951
13103.000			-11.851			-3.950
13204.000			-11.848			-3.949
13305.000			-11.845			-3.948
13404.000			-11.843			-3.948
13504.000			-11.842			-3.947
13604.000			-11.840			-3.947
13704.000			-11.836			-3.945
13803.000			-11.833			-3.944
13905.000			-11.830			-3.943
14004.000			-11.828			-3.943
14104.000			-11.827			-3.942
14205.000			-11.825			-3.942
14303.000			-11.823			-3.941
14404.000			-11.819			-3.940
14505.000			-11.817			-3.939
14604.000			-11.815			-3.938
14704.000			-11.812			-3.937
14805.000			-11.810			-3.937
14904.000			-11.809			-3.936
15003.000			-11.806			-3.935
15105.000			-11.803			-3.934
15204.000			-11.801			-3.934
15304.000			-11.799			-3.933
15405.000			-11.797			-3.932
15504.000			-11.795			-3.932
15604.000			-11.793			-3.931
15704.000			-11.792			-3.931
15804.000			-11.791			-3.930
15904.000			-11.786			-3.929
16005.000			-11.785			-3.928
16104.000			-11.782			-3.927
16204.000			-11.780			-3.927
16305.000			-11.779			-3.926
16403.000			-11.777			-3.926
16505.000			-11.776			-3.925
16604.000			-11.773			-3.924
16704.000			-11.771			-3.924
16805.000			-11.768			-3.923
16904.000			-11.766			-3.922
17004.000			-11.765			-3.922
17104.000			-11.762			-3.921
17204.000			-11.760			-3.920
17304.000			-11.758			-3.919
17405.000			-11.757			-3.919
17504.000			-11.755			-3.918
17603.000			-11.753			-3.918
17705.000			-11.751			-3.917
17804.000			-11.750			-3.917
17904.000			-11.748			-3.916
18005.000			-11.745			-3.915
18104.000			-11.743			-3.914
18204.000			-11.741			-3.914
18304.000			-11.740			-3.913
18404.000			-11.739			-3.913
18504.000			-11.737			-3.912
18605.000			-11.736			-3.912
18704.000			-11.734			-3.911
18804.000			-11.732			-3.911
18905.000			-11.730			-3.910
19003.000			-11.727			-3.909
19104.000			-11.726			-3.909
19205.000			-11.725			-3.908
19304.000			-11.724			-3.908
19404.000			-11.722			-3.907
19504.000			-11.718			-3.906
19604.000			-11.717			-3.906
19703.000			-11.716			-3.905
19804.000			-11.714			-3.905
19903.000			-11.713			-3.904
20005.000			-11.711			-3.904
20104.000			-11.711			-3.904
20204.000			-11.709			-3.903
20305.000			-11.706			-3.902
20403.000			-11.705			-3.902
20504.000			-11.704			-3.901
20605.000			-11.702			-3.901
20704.000			-11.700			-3.900
20804.000			-11.699			-3.900
20905.000			-11.697			-3.899
21004.000			-11.695			-3.898
21103.000			-11.693			-3.898
21205.000			-11.692			-3.897
21304.000			-11.690			-3.897
21404.000			-11.690			-3.897
21505.000			-11.688			-3.896
21604.000			-11.686			-3.895
21704.000			-11.684			-3.895
21804.000			-11.683			-3.894
21904.000			-11.682			-3.894
22004.000			-11.679			-3.893
22105.000			-11.679			-3.893
22204.000			-11.678			-3.893
22303.000			-11.676			-3.892
22405.000			-11.674			-3.891
22504.000			-11.673			-3.891
22604.000			-11.671			-3.890
22705.000			-11.671			-3.890
22804.000			-11.670			-3.890
22905.000			-11.667			-3.889
23003.000			-11.665			-3.888
23104.000			-11.664			-3.888
23205.000			-11.663			-3.888
23304.000			-11.661			-3.887
23404.000			-11.660			-3.887
23505.000			-11.659			-3.886
23604.000			-11.658			-3.886
23703.000			-11.656			-3.885
23805.000			-11.655			-3.885
23904.000			-11.653			-3.884
24004.000			-11.652			-3.884
24105.000			-11.652			-3.884
24204.000			-11.651			-3.884
24304.000			-11.649			-3.883
24404.000			-11.647			-3.882
24504.000			-11.646			-3.882
24604.000			-11.644			-3.881
24705.000			-11.643			-3.881
24804.000			-11.642			-3.881
24904.000			-11.640			-3.880
25005.000			-11.639			-3.880
25104.000			-11.639			-3.880
25204.000			-11.637			-3.879
25305.000			-11.635			-3.878
25404.000			-11.633			-3.878
25504.000			-11.632			-3.877
25604.000			-11.631			-3.877
25704.000			-11.630			-3.877
25804.000			-11.628			-3.876
25904.000			-11.628			-3.876
26004.000			-11.627			-3.876
26105.000			-11.625			-3.875
26204.000			-11.623			-3.874
26303.000			-11.622			-3.874
26405.000			-11.621			-3.874
26504.000			-11.619			-3.873
26604.000			-11.619			-3.873
26705.000			-11.619			-3.873
26804.000			-11.618			-3.873
26904.000			-11.615			-3.872
27004.000			-11.613			-3.871
27104.000			-11.612			-3.871
27204.000			-11.612			-3.871
27305.000			-11.611			-3.870
27404.000			-11.610			-3.870
27504.000			-11.608			-3.869
27605.000			-11.606			-3.869
27703.000			-11.606			-3.869
27804.000			-11.604			-3.868
27905.000			-11.604			-3.868
28004.000			-11.603			-3.868
28104.000			-11.601			-3.867
28204.000			-11.600			-3.867
28304.000			-11.598			-3.866
28403.000			-11.597			-3.866
28505.000			-11.596			-3.865
28604.000			-11.595			-3.865
28704.000			-11.595			-3.865
28805.000			-11.593			-3.864
28904.000			-11.592			-3.864
29004.000			-11.590			-3.863
29103.000			-11.589			-3.863
29204.000			-11.588			-3.863
29305.000			-11.587			-3.862
29404.000			-11.587			-3.862
29504.000			-11.586			-3.862
29605.000			-11.584			-3.861
29704.000			-11.583			-3.861
29803.000			-11.581			-3.860
29905.000			-11.580			-3.860
30004.000			-11.579			-3.860
30104.000			-11.579			-3.860
30205.000			-11.578			-3.859
30304.000			-11.576			-3.859
30404.000			-11.577			-3.859
30504.000			-11.573			-3.858
30604.000			-11.573			-3.858
30704.000			-11.573			-3.858
30805.000			-11.571			-3.857
30904.000			-11.571			-3.857
31003.000			-11.569			-3.856
31105.000			-11.568			-3.856
31204.000			-11.567			-3.856
31304.000			-11.567			-3.856
31405.000			-11.565			-3.855
31504.000			-11.563			-3.854
31604.000			-11.563			-3.854
31704.000			-11.562			-3.854
31804.000			-11.561			-3.854
31904.000			-11.560			-3.853
32005.000			-11.558			-3.853
32104.000			-11.557			-3.852
32204.000			-11.556			-3.852
32305.000			-11.556			-3.852
32403.000			-11.555			-3.852
32505.000			-11.553			-3.851
32604.000			-11.553			-3.851
32704.000			-11.551			-3.850
32805.000			-11.550			-3.850
32904.000			-11.550			-3.850
33004.000			-11.549			-3.850
33104.000			-11.549			-3.850
33204.000			-11.548			-3.849
33304.000			-11.547			-3.849
33405.000			-11.545			-3.848
33504.000			-11.544			-3.848
33603.000			-11.543			-3.848
33705.000			-11.542			-3.847
33804.000			-11.542			-3.847
33904.000			-11.542			-3.847
34005.000			-11.540			-3.847
34104.000			-11.539			-3.846
34204.000			-11.537			-3.846
34304.000			-11.537			-3.846
34404.000			-11.536			-3.845
34504.000			-11.536			-3.845
34605.000			-11.534			-3.845
34704.000			-11.533			-3.844
34804.000			-11.533			-3.844
34905.000			-11.531			-3.844
35003.000			-11.530			-3.843
35104.000			-11.530			-3.843
35205.000			-11.529			-3.843
35304.000			-11.528			-3.843
35404.000			-11.526			-3.842
35504.000			-11.526			-3.842
35604.000			-11.524			-3.841
35703.000			-11.524			-3.841
35804.000			-11.523			-3.841
35904.000			-11.521			-3.840
36005.000			-11.521			-3.840
36104.000			-11.521			-3.840
36203.000			-11.520			-3.840
36305.000			-11.518			-3.839
36404.000			-11.517			-3.839
36504.000			-11.517			-3.839
36605.000			-11.516			-3.839
36704.000			-11.515			-3.838
36804.000			-11.514			-3.838
36904.000			-11.513			-3.838
37004.000			-11.513			-3.838
37104.000			-11.512			-3.837
37205.000			-11.511			-3.837
37304.000			-11.511			-3.837
37404.000			-11.509			-3.836
37505.000			-11.508			-3.836
37603.000			-11.508			-3.836
37704.000			-11.508			-3.836
37805.000			-11.505			-3.835
37904.000			-11.505			-3.835
38004.000			-11.504			-3.835
38104.000			-11.502			-3.834
38204.000			-11.501			-3.834
38304.000			-11.501			-3.834
38405.000			-11.500			-3.833
38504.000			-11.500			-3.833
38604.000			-11.499			-3.833
38705.000			-11.498			-3.833
38803.000			-11.497			-3.832
38905.000			-11.496			-3.832
39004.000			-11.495			-3.832
39104.000			-11.495			-3.832
39205.000			-11.493			-3.831
39304.000			-11.492			-3.831
39404.000			-11.492			-3.831
39504.000			-11.491			-3.830
39604.000			-11.490			-3.830
39704.000			-11.490			-3.830
39805.000			-11.489			-3.830
39904.000			-11.488			-3.829
40004.000			-11.486			-3.829
40105.000			-11.485			-3.828
40203.000			-11.484			-3.828
40304.000			-11.483			-3.828
40405.000			-11.484			-3.828
40504.000			-11.483			-3.828
40604.000			-11.482			-3.827
40705.000			-11.482			-3.827
40804.000			-11.480			-3.827
40903.000			-11.479			-3.826
41005.000			-11.479			-3.826
41104.000			-11.478			-3.826
41204.000			-11.477			-3.826
41305.000			-11.476			-3.825
41404.000			-11.476			-3.825
41504.000			-11.474			-3.825
41604.000			-11.474			-3.825
41704.000			-11.474			-3.825
41804.000			-11.472			-3.824
41904.000			-11.472			-3.824
42004.000			-11.472			-3.824
42103.000			-11.470			-3.823
42204.000			-11.470			-3.823
42303.000			-11.469			-3.823
42405.000			-11.469			-3.823
42504.000			-11.469			-3.823
42604.000			-11.467			-3.822
42705.000			-11.467			-3.822
42803.000			-11.466			-3.822
42904.000			-11.466			-3.822
43005.000			-11.464			-3.821
43104.000			-11.464			-3.821
43204.000			-11.464			-3.821
43305.000			-11.463			-3.821
43404.000			-11.462			-3.821
43503.000			-11.461			-3.820
43605.000			-11.461			-3.820
43704.000			-11.459			-3.820
43804.000			-11.459			-3.820
43905.000			-11.458			-3.819
44004.000			-11.457			-3.819
44104.000			-11.456			-3.819
44204.000			-11.455			-3.818
44304.000			-11.455			-3.818
44404.000			-11.454			-3.818
44505.000			-11.453			-3.818
44604.000			-11.453			-3.818
44703.000			-11.453			-3.818
44805.000			-11.453			-3.818
44904.000			-11.452			-3.817
45004.000			-11.451			-3.817
45105.000			-11.450			-3.817
45204.000			-11.450			-3.817
45305.000			-11.449			-3.816
45403.000			-11.449			-3.816
45504.000			-11.448			-3.816
45605.000			-11.447			-3.816
45704.000			-11.446			-3.815
45804.000			-11.445			-3.815
45905.000			-11.444			-3.815
46004.000			-11.444			-3.815
46103.000			-11.443			-3.814
46205.000			-11.442			-3.814
46304.000			-11.441			-3.814
46404.000			-11.441			-3.814
46505.000			-11.441			-3.814
46604.000			-11.440			-3.813
46704.000			-11.439			-3.813
46804.000			-11.439			-3.813
46904.000			-11.438			-3.813
47004.000			-11.438			-3.813
47105.000			-11.437			-3.812
47204.000			-11.435			-3.812
47304.000			-11.434			-3.811
47405.000			-11.434			-3.811
47503.000			-11.434			-3.811
47604.000			-11.433			-3.811
47705.000			-11.433			-3.811
47804.000			-11.431			-3.810
47904.000			-11.430			-3.810
48004.000			-11.431			-3.810
48104.000			-11.429			-3.810
48204.000			-11.428			-3.809
48304.000			-11.427			-3.809
48404.000			-11.427			-3.809
48505.000			-11.426			-3.809
48604.000			-11.427			-3.809
48703.000			-11.427			-3.809
48805.000			-11.423			-3.808
48904.000			-11.423			-3.808
49004.000			-11.424			-3.808
49105.000			-11.423			-3.808
49204.000			-11.422			-3.807
49304.000			-11.423			-3.808
49404.000			-11.422			-3.807
49504.000			-11.419			-3.806
49604.000			-11.419			-3.806
49705.000			-11.419			-3.806
49804.000			-11.420			-3.807
49904.000			-11.418			-3.806
50005.000			-11.418			-3.806
50103.000			-11.418			-3.806
50204.000			-11.416			-3.805
50305.000			-11.415			-3.805
50404.000			-11.414			-3.805
50504.000			-11.414			-3.805
50605.000			-11.414			-3.805
50704.000			-11.414			-3.805
50803.000			-11.414			-3.805
50905.000			-11.414			-3.805
51004.000			-11.410			-3.803
51104.000			-11.410			-3.803
51205.000			-11.410			-3.803
51303.000			-11.409			-3.803
51404.000			-11.408			-3.803
51505.000			-11.408			-3.803
51604.000			-11.408			-3.803
51705.000			-11.407			-3.802
51804.000			-11.407			-3.802
51904.000			-11.405			-3.802
52004.000			-11.404			-3.801
52104.000			-11.404			-3.801
52204.000			-11.404			-3.801
52305.000			-11.402			-3.801
52404.000			-11.402			-3.801
52503.000			-11.400			-3.800
52605.000			-11.399			-3.800
52704.000			-11.400			-3.800
52804.000			-11.399			-3.800
52905.000			-11.399			-3.800
53004.000			-11.398			-3.799
53104.000			-11.398			-3.799
53204.000			-11.397			-3.799
53304.000			-11.396			-3.799
53404.000			-11.395			-3.798
53505.000			-11.396			-3.799
53604.000			-11.395			-3.798
53704.000			-11.393			-3.798
53805.000			-11.393			-3.798
53903.000			-11.392			-3.797
54004.000			-11.392			-3.797
54105.000			-11.391			-3.797
54204.000			-11.391			-3.797
54304.000			-11.390			-3.797
54405.000			-11.390			-3.797
54504.000			-11.391			-3.797
54603.000			-11.390			-3.797
54705.000			-11.388			-3.796
54804.000			-11.388			-3.796
54905.000			-11.388			-3.796
55004.000			-11.387			-3.796
55104.000			-11.387			-3.796
55205.000			-11.385			-3.795
55303.000			-11.385			-3.795
55404.000			-11.385			-3.795
55505.000			-11.383			-3.794
55604.000			-11.382			-3.794
55704.000			-11.382			-3.794
55805.000			-11.382			-3.794
55904.000			-11.381			-3.794
56003.000			-11.382			-3.794
56105.000			-11.381			-3.794
56204.000			-11.381			-3.794
56304.000			-11.380			-3.793
56405.000			-11.379			-3.793
56504.000			-11.378			-3.793
56604.000			-11.378			-3.793
56704.000			-11.378			-3.793
56804.000			-11.377			-3.792
56904.000			-11.377			-3.792
57005.000			-11.377			-3.792
57104.000			-11.375			-3.792
57204.000			-11.375			-3.792
57305.000			-11.375			-3.792
57403.000			-11.374			-3.791
57504.000			-11.374			-3.791
57605.000			-11.373			-3.791
57704.000			-11.373			-3.791
57804.000			-11.372			-3.791
57904.000			-11.371			-3.790
58004.000			-11.372			-3.791
58103.000			-11.372			-3.791
58204.000			-11.371			-3.790
58304.000			-11.369			-3.790
58405.000			-11.368			-3.789
58504.000			-11.368			-3.789
58603.000			-11.368			-3.789
58705.000			-11.368			-3.789
58804.000			-11.366			-3.789
58904.000			-11.366			-3.789
59005.000			-11.366			-3.789
59104.000			-11.366			-3.789
59204.000			-11.365			-3.788
59304.000			-11.363			-3.788
59404.000			-11.362			-3.787
59504.000			-11.363			-3.788
59605.000			-11.362			-3.787
59704.000			-11.361			-3.787
59804.000			-11.362			-3.787
59905.000			-11.361			-3.787
60003.000			-11.361			-3.787
60104.000			-11.361			-3.787
60205.000			-11.360			-3.787
60304.000			-11.360			-3.787
60404.000			-11.360			-3.787
60505.000			-11.358			-3.786
60604.000			-11.358			-3.786
60703.000			-11.357			-3.786
60805.000			-11.357			-3.786
60904.000			-11.356			-3.785
61004.000			-11.356			-3.785
61105.000			-11.355			-3.785
61204.000			-11.354			-3.785
61305.000			-11.354			-3.785
61403.000			-11.354			-3.785
61504.000			-11.352			-3.784
61605.000			-11.353			-3.784
61704.000			-11.352			-3.784
61804.000			-11.351			-3.784
61904.000			-11.351			-3.784
62004.000			-11.350			-3.783
62103.000			-11.350			-3.783
62205.000			-11.350			-3.783
62304.000			-11.348			-3.783
62404.000			-11.347			-3.782
62505.000			-11.348			-3.783
62603.000			-11.348			-3.783
62704.000			-11.346			-3.782
62805.000			-11.346			-3.782
62904.000			-11.345			-3.782
63004.000			-11.345			-3.782
63105.000			-11.346			-3.782
63204.000			-11.344			-3.781
63303.000			-11.344			-3.781
63405.000			-11.342			-3.781
63504.000			-11.342			-3.781
63604.000			-11.343			-3.781
63705.000			-11.342			-3.781
63804.000			-11.341			-3.780
63904.000			-11.340			-3.780
64004.000			-11.339			-3.780
64104.000			-11.340			-3.780
64204.000			-11.339			-3.780
64304.000			-11.339			-3.780
64404.000			-11.338			-3.779
64505.000			-11.337			-3.779
64604.000			-11.336			-3.779
64703.000			-11.337			-3.779
64805.000			-11.337			-3.779
64904.000			-11.335			-3.778
65004.000			-11.334			-3.778
65105.000			-11.334			-3.778
65204.000			-11.334			-3.778
65304.000			-11.333			-3.778
65404.000			-11.333			-3.778
65504.000			-11.333			-3.778
65604.000			-11.331			-3.777
65705.000			-11.331			-3.777
65804.000			-11.331			-3.777
65903.000			-11.330			-3.777
66005.000			-11.330			-3.777
66104.000			-11.330			-3.777
66204.000			-11.329			-3.776
66305.000			-11.329			-3.776
66404.000			-11.328			-3.776
66504.000			-11.327			-3.776
66604.000			-11.326			-3.775
66704.000			-11.326			-3.775
66804.000			-11.326			-3.775
66905.000			-11.325			-3.775
67004.000			-11.326			-3.775
67104.000			-11.324			-3.775
67205.000			-11.325			-3.775
67303.000			-11.323			-3.774
67404.000			-11.323			-3.774
67505.000			-11.323			-3.774
67604.000			-11.322			-3.774
67705.000			-11.322			-3.774
67804.000			-11.322			-3.774
67904.000			-11.322			-3.774
68004.000			-11.321			-3.774
68104.000			-11.320			-3.773
68204.000			-11.320			-3.773
68305.000			-11.320			-3.773
68404.000			-11.319			-3.773
68503.000			-11.319			-3.773
68605.000			-11.318			-3.773
68704.000			-11.317			-3.772
68804.000			-11.317			-3.772
68905.000			-11.317			-3.772
69004.000			-11.317			-3.772
69104.000			-11.317			-3.772
69204.000			-11.317			-3.772
69304.000			-11.314			-3.771
69403.000			-11.315			-3.772
69505.000			-11.315			-3.772
69604.000			-11.313			-3.771
69704.000			-11.313			-3.771
69805.000			-11.314			-3.771
69903.000			-11.313			-3.771
70004.000			-11.313			-3.771
70105.000			-11.311			-3.770
70204.000			-11.310			-3.770
70304.000			-11.310			-3.770
70405.000			-11.310			-3.770
70504.000			-11.308			-3.769
70603.000			-11.309			-3.770
70705.000			-11.309			-3.770
70804.000			-11.307			-3.769
70905.000			-11.306			-3.769
71004.000			-11.307			-3.769
71104.000			-11.307			-3.769
71205.000			-11.307			-3.769
71303.000			-11.306			-3.769
71404.000			-11.305			-3.768
71505.000			-11.305			-3.768
71604.000			-11.306			-3.769
71704.000			-11.304			-3.768
71805.000			-11.303			-3.768
71904.000			-11.303			-3.768
72003.000			-11.303			-3.768
72105.000			-11.303			-3.768
72204.000			-11.302			-3.767
72304.000			-11.302			-3.767
72405.000			-11.301			-3.767
72503.000			-11.301			-3.767
72604.000			-11.300			-3.767
72705.000			-11.300			-3.767
72804.000			-11.299			-3.766
72904.000			-11.299			-3.766
73005.000			-11.298			-3.766
73104.000			-11.298			-3.766
73203.000			-11.297			-3.766
73305.000			-11.297			-3.766
73404.000			-11.297			-3.766
73504.000			-11.296			-3.765
73605.000			-11.296			-3.765
73704.000			-11.295			-3.765
73804.000			-11.295			-3.765
73903.000			-11.294			-3.765
74004.000			-11.294			-3.765
74105.000			-11.294			-3.765
74204.000			-11.293			-3.764
74304.000			-11.292			-3.764
74405.000			-11.292			-3.764
74504.000			-11.292			-3.764
74603.000			-11.292			-3.764
74705.000			-11.291			-3.764
74804.000			-11.290			-3.763
74904.000			-11.289			-3.763
75005.000			-11.288			-3.763
75104.000			-11.288			-3.763
75204.000			-11.288			-3.763
75304.000			-11.289			-3.763
75404.000			-11.288			-3.763
75504.000			-11.288			-3.763
75605.000			-11.288			-3.763
75704.000			-11.287			-3.762
75804.000			-11.286			-3.762
75905.000			-11.286			-3.762
76003.000			-11.285			-3.762
76104.000			-11.285			-3.762
76205.000			-11.285			-3.762
76304.000			-11.285			-3.762
76404.000			-11.284			-3.761
76505.000			-11.284			-3.761
76604.000			-11.284			-3.761
76703.000			-11.283			-3.761
76805.000			-11.282			-3.761
76904.000			-11.282			-3.761
77004.000			-11.281			-3.760
77105.000			-11.281			-3.760
77204.000			-11.280			-3.760
77305.000			-11.280			-3.760
77403.000			-11.278			-3.759
77504.000			-11.279			-3.760
77605.000			-11.278			-3.759
77704.000			-11.277			-3.759
77804.000			-11.277			-3.759
77905.000			-11.277			-3.759
78004.000			-11.276			-3.759
78103.000			-11.276			-3.759
78205.000			-11.277			-3.759
78304.000			-11.277			-3.759
78404.000			-11.278			-3.759
78505.000			-11.276			-3.759
78604.000			-11.275			-3.758
78704.000			-11.275			-3.758
78804.000			-11.273			-3.758
78904.000			-11.273			-3.758
79004.000			-11.273			-3.758
79105.000			-11.273			-3.758
79204.000			-11.272			-3.757
79304.000			-11.272			-3.757
79405.000			-11.272			-3.757
79503.000			-11.270			-3.757
79604.000			-11.270			-3.757
79705.000			-11.270			-3.757
79804.000			-11.270			-3.757
79904.000			-11.270			-3.757
80005.000			-11.269			-3.756
80104.000			-11.269			-3.756
80203.000			-11.269			-3.756
80305.000			-11.269			-3.756
80404.000			-11.267			-3.756
80505.000			-11.267			-3.756
80604.000			-11.268			-3.756
80704.000			-11.267			-3.756
80805.000			-11.266			-3.755
80903.000			-11.266			-3.755
81004.000			-11.265			-3.755
81105.000			-11.266			-3.755
81204.000			-11.266			-3.755
81304.000			-11.265			-3.755
81405.000			-11.264			-3.755
81504.000			-11.264			-3.755
81603.000			-11.264			-3.755
81705.000			-11.263			-3.754
81804.000			-11.263			-3.754
81904.000			-11.263			-3.754
82005.000			-11.263			-3.754
82104.000			-11.262			-3.754
82204.000			-11.261			-3.754
82304.000			-11.261			-3.754
82404.000			-11.261			-3.754
82504.000			-11.261			-3.754
82605.000			-11.260			-3.753
82704.000			-11.259			-3.753
82803.000			-11.259			-3.753
82905.000			-11.259			-3.753
83004.000			-11.257			-3.752
83104.000			-11.257			-3.752
83205.000			-11.257			-3.752
83304.000			-11.257			-3.752
83404.000			-11.257			-3.752
83503.000			-11.256			-3.752
83604.000			-11.256			-3.752
83705.000			-11.256			-3.752
83804.000			-11.256			-3.752
83904.000			-11.255			-3.752
84005.000			-11.255			-3.752
84104.000			-11.254			-3.751
84203.000			-11.254			-3.751
84305.000			-11.253			-3.751
84404.000			-11.253			-3.751
84504.000			-11.253			-3.751
84605.000			-11.251			-3.750
84704.000			-11.251			-3.750
84804.000			-11.251			-3.750
84904.000			-11.251			-3.750
85004.000			-11.251			-3.750
85104.000			-11.249			-3.750
85205.000			-11.250			-3.750
85304.000			-11.250			-3.750
85404.000			-11.250			-3.750
85505.000			-11.249			-3.750
85603.000			-11.249			-3.750
85704.000			-11.248			-3.749
85805.000			-11.248			-3.749
85904.000			-11.248			-3.749
86004.000			-11.248			-3.749
86105.000			-11.248			-3.749
86204.000			-11.247			-3.749
86303.000			-11.247			-3.749
86405.000			-11.246			-3.749
86504.000			-11.247			-3.749
86604.000			-11.246			-3.749
86705.000			-11.246			-3.749
86804.000			-11.245			-3.748
86905.000			-11.244			-3.748
87004.000			-11.244			-3.748
87104.000			-11.245			-3.748
87204.000			-11.244			-3.748
87304.000			-11.243			-3.748
87404.000			-11.243			-3.748
87505.000			-11.242			-3.747
87604.000			-11.241			-3.747
87703.000			-11.242			-3.747
87805.000			-11.241			-3.747
87904.000			-11.240			-3.747
88004.000			-11.240			-3.747
88105.000			-11.241			-3.747
88204.000			-11.240			-3.747
88304.000			-11.239			-3.746
88404.000			-11.239			-3.746
88504.000			-11.240			-3.747
88604.000			-11.239			-3.746
88705.000			-11.239			-3.746
88804.000			-11.238			-3.746
88904.000			-11.237			-3.746
89005.000			-11.237			-3.746
89103.000			-11.238			-3.746
89204.000			-11.237			-3.746
89305.000			-11.237			-3.746
89404.000			-11.236			-3.745
89504.000			-11.236			-3.745
89605.000			-11.235			-3.745
89704.000			-11.234			-3.745
89803.000			-11.235			-3.745
89905.000			-11.235			-3.745
90004.000			-11.235			-3.745
90105.000			-11.234			-3.745
90204.000			-11.233			-3.744
90304.000			-11.233			-3.744
90405.000			-11.232			-3.744
90503.000			-11.233			-3.744
90604.000			-11.232			-3.744
90705.000			-11.232			-3.744
90804.000			-11.231			-3.744
90904.000			-11.230			-3.743
91005.000			-11.231			-3.744
91104.000			-11.231			-3.744
91203.000			-11.229			-3.743
91305.000			-11.229			-3.743
91404.000			-11.230			-3.743
91504.000			-11.229			-3.743
91605.000			-11.228			-3.743
91704.000			-11.229			-3.743
91804.000			-11.228			-3.743
91904.000			-11.228			-3.743
92004.000			-11.228			-3.743
92104.000			-11.227			-3.742
92205.000			-11.227			-3.742
92304.000			-11.226			-3.742
92404.000			-11.226			-3.742
92505.000			-11.226			-3.742
92603.000			-11.225			-3.742
92704.000			-11.225			-3.742
92805.000			-11.225			-3.742
92904.000			-11.224			-3.741
93004.000			-11.225			-3.742
93104.000			-11.225			-3.742
93204.000			-11.224			-3.741
93303.000			-11.224			-3.741
93404.000			-11.224			-3.741
93504.000			-11.223			-3.741
93605.000			-11.222			-3.741
93704.000			-11.222			-3.741
93803.000			-11.221			-3.740
93905.000			-11.222			-3.741
94004.000			-11.221			-3.740
94104.000			-11.222			-3.741
94205.000			-11.220			-3.740
94304.000			-11.220			-3.740
94404.000			-11.220			-3.740
94504.000			-11.220			-3.740
94604.000			-11.219			-3.740
94704.000			-11.219			-3.740
94805.000			-11.219			-3.740
94904.000			-11.218			-3.739
95004.000			-11.218			-3.739
95105.000			-11.217			-3.739
95203.000			-11.216			-3.739
95304.000			-11.217			-3.739
95405.000			-11.217			-3.739
95504.000			-11.216			-3.739
95604.000			-11.217			-3.739
95705.000			-11.216			-3.739
95804.000			-11.215			-3.738
95903.000			-11.215			-3.738
96005.000			-11.215			-3.738
96104.000			-11.215			-3.738
96204.000			-11.215			-3.738
96305.000			-11.213			-3.738
96404.000			-11.214			-3.738
96505.000			-11.213			-3.738
96603.000			-11.214			-3.738
96704.000			-11.213			-3.738
96805.000			-11.212			-3.737
96904.000			-11.212			-3.737
97004.000			-11.212			-3.737
97105.000			-11.211			-3.737
97204.000			-11.211			-3.737
97303.000			-11.211			-3.737
97405.000			-11.210			-3.737
97504.000			-11.211			-3.737
97604.000			-11.211			-3.737
97705.000			-11.209			-3.736
97804.000			-11.210			-3.737
97904.000			-11.210			-3.737
98004.000			-11.210			-3.737
98104.000			-11.208			-3.736
98204.000			-11.208			-3.736
98305.000			-11.209			-3.736
98404.000			-11.209			-3.736
98504.000			-11.208			-3.736
98605.000			-11.207			-3.736
98703.000			-11.207			-3.736
98804.000			-11.206			-3.735
98905.000			-11.206			-3.735
99004.000			-11.206			-3.735
99104.000			-11.205			-3.735
99205.000			-11.205			-3.735
99304.000			-11.205			-3.735
99403.000			-11.204			-3.735
99505.000			-11.203			-3.734
99604.000			-11.203			-3.734
99705.000			-11.203			-3.734
99804.000			-11.202			-3.734
99904.000			-11.201			-3.734
100005.000			-11.201			-3.734
100103.000			-11.201			-3.734
100204.000			-11.201			-3.734
100305.000			-11.201			-3.734
100404.000			-11.200			-3.733
100504.000			-11.200			-3.733
100604.000			-11.199			-3.733
100704.000			-11.199			-3.733
100803.000			-11.199			-3.733
100905.000			-11.198			-3.733
101004.000			-11.197			-3.732
101104.000			-11.196			-3.732
101205.000			-11.197			-3.732
101304.000			-11.197			-3.732
101404.000			-11.196			-3.732
101504.000			-11.196			-3.732
101604.000			-11.195			-3.732
101704.000			-11.194			-3.731
101805.000			-11.194			-3.731
101904.000			-11.196			-3.732
102004.000			-11.195			-3.732
102105.000			-11.194			-3.731
102203.000			-11.194			-3.731
102304.000			-11.194			-3.731
102405.000			-11.193			-3.731
102504.000			-11.194			-3.731
102604.000			-11.194			-3.731
102704.000			-11.193			-3.731
102804.000			-11.193			-3.731
102903.000			-11.193			-3.731
103004.000			-11.193			-3.731
103104.000			-11.192			-3.731
103205.000			-11.191			-3.730
103304.000			-11.191			-3.730
103404.000			-11.191			-3.730
103505.000			-11.191			-3.730
103603.000			-11.189			-3.730
103704.000			-11.190			-3.730
103805.000			-11.191			-3.730
103904.000			-11.192			-3.731
104004.000			-11.191			-3.730
104105.000			-11.191			-3.730
104204.000			-11.191			-3.730
104303.000			-11.190			-3.730
104405.000			-11.189			-3.730
104504.000			-11.190			-3.730
104604.000			-11.189			-3.730
104705.000			-11.188			-3.729
104804.000			-11.187			-3.729
104904.000			-11.187			-3.729
105004.000			-11.187			-3.729
105104.000			-11.187			-3.729
105204.000			-11.186			-3.729
105305.000			-11.187			-3.729
105404.000			-11.187			-3.729
105504.000			-11.187			-3.729
105605.000			-11.185			-3.728
105703.000			-11.185			-3.728
105804.000			-11.186			-3.729
105905.000			-11.185			-3.728
106004.000			-11.185			-3.728
106105.000			-11.183			-3.728
106204.000			-11.184			-3.728
106304.000			-11.184			-3.728
106404.000			-11.183			-3.728
106504.000			-11.183			-3.728
106604.000			-11.183			-3.728
106705.000			-11.182			-3.727
106804.000			-11.182			-3.727
106904.000			-11.181			-3.727
107005.000			-11.181			-3.727
107103.000			-11.181			-3.727
107204.000			-11.180			-3.727
107305.000			-11.180			-3.727
107404.000			-11.180			-3.727
107504.000			-11.179			-3.726
107605.000			-11.179			-3.726
107704.000			-11.179			-3.726
107803.000			-11.179			-3.726
107905.000			-11.179			-3.726
108004.000			-11.179			-3.726
108104.000			-11.178			-3.726
108205.000			-11.179			-3.726
108304.000			-11.178			-3.726
108404.000			-11.177			-3.726
108504.000			-11.177			-3.726
108604.000			-11.177			-3.726
108704.000			-11.177			-3.726
108805.000			-11.177			-3.726
108904.000			-11.176			-3.725
109004.000			-11.177			-3.726
109105.000			-11.177			-3.726
109203.000			-11.176			-3.725
109305.000			-11.175			-3.725
109404.000			-11.174			-3.725
109504.000			-11.174			-3.725
109605.000			-11.174			-3.725
109704.000			-11.174			-3.725
109804.000			-11.173			-3.724
109904.000			-11.172			-3.724
110004.000			-11.173			-3.724
110103.000			-11.172			-3.724
110205.000			-11.173			-3.724
110304.000			-11.172			-3.724
110404.000			-11.172			-3.724
110505.000			-11.172			-3.724
110603.000			-11.172			-3.724
110704.000			-11.172			-3.724
110805.000			-11.171			-3.724
110904.000			-11.171			-3.724
111004.000			-11.171			-3.724
111105.000			-11.170			-3.723
111204.000			-11.170			-3.723
111303.000			-11.170			-3.723
111405.000			-11.169			-3.723
111504.000			-11.169			-3.723
111604.000			-11.167			-3.722
111705.000			-11.168			-3.723
111804.000			-11.169			-3.723
111904.000			-11.170			-3.723
112004.000			-11.168			-3.723
112104.000			-11.167			-3.722
112204.000			-11.167			-3.722
112304.000			-11.167			-3.722
112404.000			-11.166			-3.722
112505.000			-11.166			-3.722
112604.000			-11.166			-3.722
112703.000			-11.166			-3.722
112805.000			-11.166			-3.722
112904.000			-11.165			-3.722
113004.000			-11.165			-3.722
113105.000			-11.165			-3.722
113204.000			-11.164			-3.721
113304.000			-11.164			-3.721
113404.000			-11.164			-3.721
113504.000			-11.164			-3.721
113604.000			-11.163			-3.721
113705.000			-11.163			-3.721
113804.000			-11.163			-3.721
113904.000			-11.164			-3.721
114005.000			-11.163			-3.721
114103.000			-11.162			-3.721
114204.000			-11.161			-3.720
114305.000			-11.162			-3.721
114404.000			-11.161			-3.720
114504.000			-11.160			-3.720
114605.000			-11.161			-3.720
114704.000			-11.160			-3.720
114803.000			-11.160			-3.720
114905.000			-11.159			-3.720
115004.000			-11.159			-3.720
115104.000			-11.159			-3.720
115205.000			-11.159			-3.720
115304.000			-11.159			-3.720
115404.000			-11.159			-3.720
115503.000			-11.158			-3.719
115604.000			-11.158			-3.719
115703.000			-11.157			-3.719
115804.000			-11.156			-3.719
115904.000			-11.156			-3.719
116005.000			-11.156			-3.719
116104.000			-11.156			-3.719
116204.000			-11.155			-3.718
116305.000			-11.155			-3.718
116403.000			-11.154			-3.718
116504.000			-11.154			-3.718
116605.000			-11.154			-3.718
116704.000			-11.153			-3.718
116804.000			-11.153			-3.718
116905.000			-11.154			-3.718
117004.000			-11.153			-3.718
117103.000			-11.153			-3.718
117205.000			-11.152			-3.717
117304.000			-11.152			-3.717
117404.000			-11.151			-3.717
117505.000			-11.151			-3.717
117604.000			-11.152			-3.717
117704.000			-11.151			-3.717
117804.000			-11.150			-3.717
117904.000			-11.151			-3.717
118004.000			-11.151			-3.717
118105.000			-11.151			-3.717
118204.000			-11.150			-3.717
118304.000			-11.150			-3.717
118405.000			-11.149			-3.716
118503.000			-11.149			-3.716
118604.000			-11.148			-3.716
118705.000			-11.149			-3.716
118804.000			-11.149			-3.716
118905.000			-11.147			-3.716
119004.000			-11.147			-3.716
119104.000			-11.147			-3.716
119204.000			-11.147			-3.716
119304.000			-11.148			-3.716
119404.000			-11.147			-3.716
119505.000			-11.146			-3.715
119604.000			-11.146			-3.715
119704.000			-11.146			-3.715
119805.000			-11.146			-3.715
119903.000			-11.146			-3.715
120004.000			-11.146			-3.715
120105.000			-11.146			-3.715
120204.000			-11.146			-3.715
120304.000			-11.146			-3.715
120405.000			-11.143			-3.714
120504.000			-11.143			-3.714
120603.000			-11.143			-3.714
120705.000			-11.143			-3.714
120804.000			-11.142			-3.714
120904.000			-11.142			-3.714
121005.000			-11.142			-3.714
121104.000			-11.142			-3.714
121204.000			-11.142			-3.714
121304.000			-11.142			-3.714
121404.000			-11.141			-3.714
121504.000			-11.141			-3.714
121605.000			-11.141			-3.714
121704.000			-11.141			-3.714
121804.000			-11.140			-3.713
121905.000			-11.141			-3.714
122003.000			-11.142			-3.714
122105.000			-11.140			-3.713
122204.000			-11.140			-3.713
122304.000			-11.140			-3.713
122405.000			-11.139			-3.713
122504.000			-11.140			-3.713
122604.000			-11.139			-3.713
122704.000			-11.138			-3.713
122804.000			-11.138			-3.713
122904.000			-11.138			-3.713
123005.000			-11.138			-3.713
123104.000			-11.139			-3.713
123204.000			-11.139			-3.713
123305.000			-11.138			-3.713
123403.000			-11.138			-3.713
123504.000			-11.136			-3.712
123605.000			-11.135			-3.712
123704.000			-11.136			-3.712
123804.000			-11.136			-3.712
123905.000			-11.136			-3.712
124004.000			-11.136			-3.712
124103.000			-11.136			-3.712
124205.000			-11.135			-3.712
124304.000			-11.135			-3.712
124404.000			-11.134			-3.711
124505.000			-11.135			-3.712
124604.000			-11.135			-3.712
124704.000			-11.134			-3.711
124804.000			-11.134			-3.711
124904.000			-11.134			-3.711
125004.000			-11.134			-3.711
125104.000			-11.133			-3.711
125204.000			-11.133			-3.711
125305.000			-11.133			-3.711
125404.000			-11.132			-3.711
125503.000			-11.133			-3.711
125605.000			-11.132			-3.711
125704.000			-11.131			-3.710
125804.000			-11.131			-3.710
125905.000			-11.131			-3.710
126004.000			-11.132			-3.711
126104.000			-11.131			-3.710
126204.000			-11.131			-3.710
126304.000			-11.130			-3.710
126404.000			-11.130			-3.710
126505.000			-11.130			-3.710
126604.000			-11.129			-3.710
126704.000			-11.129			-3.710
126805.000			-11.130			-3.710
126903.000			-11.130			-3.710
127004.000			-11.129			-3.710
127105.000			-11.130			-3.710
127204.000			-11.130			-3.710
127304.000			-11.128			-3.709
127405.000			-11.128			-3.709
127504.000			-11.129			-3.710
127603.000			-11.128			-3.709
127705.000			-11.127			-3.709
127804.000			-11.127			-3.709
127904.000			-11.127			-3.709
128005.000			-11.127			-3.709
128104.000			-11.127			-3.709
128204.000			-11.127			-3.709
128303.000			-11.126			-3.709
128404.000			-11.127			-3.709
128505.000			-11.126			-3.709
128604.000			-11.126			-3.709
128704.000			-11.125			-3.708
128805.000			-11.125			-3.708
128904.000			-11.124			-3.708
129003.000			-11.125			-3.708
129105.000			-11.123			-3.708
129204.000			-11.123			-3.708
129304.000			-11.124			-3.708
129405.000			-11.124			-3.708
129504.000			-11.124			-3.708
129604.000			-11.123			-3.708
129704.000			-11.121			-3.707
129804.000			-11.123			-3.708
129904.000			-11.122			-3.707
130005.000			-11.122			-3.707
130104.000			-11.122			-3.707
130204.000			-11.122			-3.707
130305.000			-11.122			-3.707
130403.000			-11.121			-3.707
130504.000			-11.121			-3.707
130605.000			-11.121			-3.707
130704.000			-11.120			-3.707
130804.000			-11.120			-3.707
130905.000			-11.119			-3.706
131004.000			-11.119			-3.706
131103.000			-11.120			-3.707
131205.000			-11.119			-3.706
131304.000			-11.119			-3.706
131404.000			-11.119			-3.706
131505.000			-11.119			-3.706
131604.000			-11.118			-3.706
131705.000			-11.119			-3.706
131804.000			-11.119			-3.706
131904.000			-11.117			-3.706
132004.000			-11.116			-3.705
132104.000			-11.118			-3.706
132204.000			-11.117			-3.706
132305.000			-11.117			-3.706
132404.000			-11.117			-3.706
132504.000			-11.117			-3.706
132605.000			-11.117			-3.706
132703.000			-11.116			-3.705
132804.000			-11.116			-3.705
132905.000			-11.115			-3.705
133004.000			-11.115			-3.705
133104.000			-11.116			-3.705
133205.000			-11.115			-3.705
133304.000			-11.114			-3.705
133403.000			-11.114			-3.705
133505.000			-11.114			-3.705
133603.000			-11.115			-3.705
133704.000			-11.114			-3.705
133805.000			-11.114			-3.705
133904.000			-11.112			-3.704
134004.000			-11.113			-3.704
134105.000			-11.112			-3.704
134204.000			-11.112			-3.704
134303.000			-11.111			-3.704
134405.000			-11.110			-3.703
134504.000			-11.111			-3.704
134604.000			-11.111			-3.704
134705.000			-11.110			-3.703
134804.000			-11.110			-3.703
134905.000			-11.110			-3.703
135003.000			-11.110			-3.703
135104.000			-11.109			-3.703
135205.000			-11.110			-3.703
135304.000			-11.108			-3.703
135404.000			-11.108			-3.703
135505.000			-11.108			-3.703
135604.000			-11.108			-3.703
135704.000			-11.108			-3.703
135805.000			-11.108			-3.703
135903.000			-11.108			-3.703
136004.000			-11.106			-3.702
136105.000			-11.107			-3.702
136204.000			-11.108			-3.703
136304.000			-11.108			-3.703
136405.000			-11.106			-3.702
136504.000			-11.105			-3.702
136603.000			-11.104			-3.701
136705.000			-11.105			-3.702
136804.000			-11.104			-3.701
136904.000			-11.104			-3.701
137005.000			-11.104			-3.701
137104.000			-11.103			-3.701
137204.000			-11.103			-3.701
137305.000			-11.103			-3.701
137404.000			-11.103			-3.701
137503.000			-11.103			-3.701
137605.000			-11.103			-3.701
137704.000			-11.104			-3.701
137804.000			-11.103			-3.701
137905.000			-11.102			-3.701
138004.000			-11.101			-3.700
138105.000			-11.102			-3.701
138203.000			-11.102			-3.701
138304.000			-11.102			-3.701
138405.000			-11.101			-3.700
138504.000			-11.102			-3.701
138604.000			-11.102			-3.701
138705.000			-11.102			-3.701
138804.000			-11.102			-3.701
138904.000			-11.101			-3.700
139005.000			-11.100			-3.700
139103.000			-11.101			-3.700
139204.000			-11.100			-3.700
139305.000			-11.099			-3.700
139404.000			-11.099			-3.700
139504.000			-11.100			-3.700
139605.000			-11.100			-3.700
139704.000			-11.100			-3.700
139804.000			-11.099			-3.700
139905.000			-11.099			-3.700
140003.000			-11.099			-3.700
140104.000			-11.100			-3.700
140205.000			-11.099			-3.700
140304.000			-11.098			-3.699
140404.000			-11.098			-3.699
140505.000			-11.098			-3.699
140604.000			-11.098			-3.699
140703.000			-11.098			-3.699
140805.000			-11.098			-3.699
140903.000			-11.098			-3.699
141004.000			-11.098			-3.699
141105.000			-11.098			-3.699
141204.000			-11.098			-3.699
141305.000			-11.097			-3.699
141404.000			-11.096			-3.699
141504.000			-11.097			-3.699
141604.000			-11.096			-3.699
141704.000			-11.095			-3.698
141804.000			-11.096			-3.699
141905.000			-11.096			-3.699
142004.000			-11.097			-3.699
142104.000			-11.098			-3.699
142205.000			-11.095			-3.698
142304.000			-11.095			-3.698
142404.000			-11.095			-3.698
142504.000			-11.095			-3.698
142604.000			-11.094			-3.698
142704.000			-11.095			-3.698
142805.000			-11.094			-3.698
142904.000			-11.093			-3.698
143004.000			-11.093			-3.698
143105.000			-11.093			-3.698
143204.000			-11.093			-3.698
143304.000			-11.094			-3.698
143404.000			-11.093			-3.698
143504.000			-11.093			-3.698
143604.000			-11.093			-3.698
143705.000			-11.092			-3.697
143804.000			-11.092			-3.697
143904.000			-11.092			-3.697
144005.000			-11.093			-3.698
144103.000			-11.092			-3.697
144204.000			-11.092			-3.697
144305.000			-11.092			-3.697
144404.000			-11.091			-3.697
144505.000			-11.091			-3.697
144604.000			-11.092			-3.697
144704.000			-11.091			-3.697
144805.000			-11.090			-3.697
144904.000			-11.090			-3.697
145003.000			-11.090			-3.697
145105.000			-11.089			-3.696
145204.000			-11.089			-3.696
145304.000			-11.090			-3.697
145405.000			-11.089			-3.696
145504.000			-11.088			-3.696
145604.000			-11.089			-3.696
145705.000			-11.088			-3.696
145804.000			-11.089			-3.696
145903.000			-11.088			-3.696
146005.000			-11.087			-3.696
146104.000			-11.087			-3.696
146204.000			-11.087			-3.696
146305.000			-11.088			-3.696
146404.000			-11.087			-3.696
146504.000			-11.087			-3.696
146604.000			-11.087			-3.696
146704.000			-11.086			-3.695
146803.000			-11.085			-3.695
146905.000			-11.085			-3.695
147004.000			-11.085			-3.695
147104.000			-11.085			-3.695
147205.000			-11.086			-3.695
147304.000			-11.086			-3.695
147404.000			-11.085			-3.695
147504.000			-11.085			-3.695
147604.000			-11.085			-3.695
147703.000			-11.085			-3.695
147804.000			-11.085			-3.695
147904.000			-11.084			-3.695
148005.000			-11.084			-3.695
148104.000			-11.084			-3.695
148204.000			-11.084			-3.695
148305.000			-11.083			-3.694
148404.000			-11.083			-3.694
148504.000			-11.083			-3.694
148604.000			-11.083			-3.694
148704.000			-11.083			-3.694
148804.000			-11.081			-3.694
148905.000			-11.082			-3.694
149004.000			-11.083			-3.694
149104.000			-11.082			-3.694
149205.000			-11.082			-3.694
149304.000			-11.082			-3.694
149404.000			-11.082			-3.694
149504.000			-11.082			-3.694
149604.000			-11.081			-3.694
149704.000			-11.082			-3.694
149805.000			-11.080			-3.693
149904.000			-11.081			-3.694
150004.000			-11.080			-3.693
150105.000			-11.080			-3.693
150204.000			-11.081			-3.694
150304.000			-11.079			-3.693
150404.000			-11.079			-3.693
150504.000			-11.078			-3.693
150604.000			-11.078			-3.693
150704.000			-11.079			-3.693
150804.000			-11.079			-3.693
150905.000			-11.078			-3.693
151004.000			-11.077			-3.692
151103.000			-11.076			-3.692
151205.000			-11.076			-3.692
151303.000			-11.077			-3.692
151404.000			-11.076			-3.692
151505.000			-11.076			-3.692
151604.000			-11.076			-3.692
151704.000			-11.077			-3.692
151805.000			-11.077			-3.692
151904.000			-11.076			-3.692
152003.000			-11.076			-3.692
152105.000			-11.075			-3.692
152204.000			-11.075			-3.692
152304.000			-11.074			-3.691
152405.000			-11.073			-3.691
152504.000			-11.074			-3.691
152604.000			-11.074			-3.691
152705.000			-11.074			-3.691
152804.000			-11.074			-3.691
152903.000			-11.074			-3.691
153005.000			-11.074			-3.691
153104.000			-11.074			-3.691
153204.000			-11.073			-3.691
153305.000			-11.072			-3.691
153404.000			-11.072			-3.691
153504.000			-11.071			-3.690
153604.000			-11.071			-3.690
153704.000			-11.071			-3.690
153803.000			-11.071			-3.690
153905.000			-11.072			-3.691
154004.000			-11.071			-3.690
154105.000			-11.070			-3.690
154204.000			-11.071			-3.690
154304.000			-11.070			-3.690
154405.000			-11.070			-3.690
154503.000			-11.070			-3.690
154604.000			-11.069			-3.690
154705.000			-11.070			-3.690
154804.000			-11.070			-3.690
154904.000			-11.070			-3.690
155005.000			-11.069			-3.690
155104.000			-11.069			-3.690
155203.000			-11.069			-3.690
155305.000			-11.068			-3.689
155403.000			-11.068			-3.689
155504.000			-11.069			-3.690
155605.000			-11.068			-3.689
155704.000			-11.068			-3.689
155804.000			-11.068			-3.689
155905.000			-11.067			-3.689
156004.000			-11.067			-3.689
156103.000			-11.067			-3.689
156205.000			-11.067			-3.689
156304.000			-11.066			-3.689
156404.000			-11.066			-3.689
156505.000			-11.067			-3.689
156604.000			-11.066			-3.689
156704.000			-11.065			-3.688
156805.000			-11.067			-3.689
156904.000			-11.066			-3.689
157003.000			-11.065			-3.688
157105.000			-11.065			-3.688
157204.000			-11.065			-3.688
157305.000			-11.065			-3.688
157404.000			-11.065			-3.688
157504.000			-11.064			-3.688
157605.000			-11.064			-3.688
157704.000			-11.064			-3.688
157804.000			-11.063			-3.688
157904.000			-11.063			-3.688
158004.000			-11.064			-3.688
158104.000			-11.063			-3.688
158205.000			-11.064			-3.688
158304.000			-11.063			-3.688
158404.000			-11.063			-3.688
158505.000			-11.063			-3.688
158604.000			-11.062			-3.687
158704.000			-11.062			-3.687
158804.000			-11.063			-3.688
158904.000			-11.062			-3.687
159004.000			-11.061			-3.687
159105.000			-11.062			-3.687
159204.000			-11.062			-3.687
159304.000			-11.061			-3.687
159405.000			-11.062			-3.687
159503.000			-11.062			-3.687
159604.000			-11.061			-3.687
159704.000			-11.061			-3.687
159804.000			-11.060			-3.687
159904.000			-11.060			-3.687
160005.000			-11.059			-3.686
160104.000			-11.059			-3.686
160204.000			-11.058			-3.686
160305.000			-11.059			-3.686
160403.000			-11.059			-3.686
160505.000			-11.057			-3.686
160604.000			-11.057			-3.686
160704.000			-11.057			-3.686
160805.000			-11.058			-3.686
160904.000			-11.058			-3.686
161004.000			-11.057			-3.686
161105.000			-11.057			-3.686
161204.000			-11.058			-3.686
161303.000			-11.058			-3.686
161405.000			-11.057			-3.686
161504.000			-11.056			-3.685
161604.000			-11.056			-3.685
161705.000			-11.056			-3.685
161804.000			-11.056			-3.685
161904.000			-11.056			-3.685
162004.000			-11.055			-3.685
162104.000			-11.056			-3.685
162203.000			-11.056			-3.685
162305.000			-11.055			-3.685
162404.000			-11.055			-3.685
162504.000			-11.054			-3.685
162605.000			-11.054			-3.685
162704.000			-11.055			-3.685
162804.000			-11.055			-3.685
162904.000			-11.053			-3.684
163004.000			-11.053			-3.684
163104.000			-11.054			-3.685
163205.000			-11.054			-3.685
163304.000			-11.054			-3.685
163404.000			-11.051			-3.684
163505.000			-11.051			-3.684
163604.000			-11.052			-3.684
163705.000			-11.052			-3.684
163803.000			-11.051			-3.684
163904.000			-11.051			-3.684
164005.000			-11.051			-3.684
164104.000			-11.050			-3.683
164204.000			-11.051			-3.684
164305.000			-11.051			-3.684
164404.000			-11.051			-3.684
164503.000			-11.050			-3.683
164605.000			-11.050			-3.683
164704.000			-11.050			-3.683
164804.000			-11.050			-3.683
164905.000			-11.049			-3.683
165004.000			-11.048			-3.683
165104.000			-11.048			-3.683
165205.000			-11.049			-3.683
165304.000			-11.049			-3.683
165403.000			-11.049			-3.683
165505.000			-11.048			-3.683
165604.000			-11.048			-3.683
165704.000			-11.048			-3.683
165805.000			-11.047			-3.682
165904.000			-11.047			-3.682
166004.000			-11.048			-3.683
166104.000			-11.048			-3.683
166204.000			-11.047			-3.682
166303.000			-11.048			-3.683
166405.000			-11.048			-3.683
166504.000			-11.046			-3.682
166604.000			-11.047			-3.682
166705.000			-11.046			-3.682
166804.000			-11.046			-3.682
166905.000			-11.046			-3.682
167004.000			-11.047			-3.682
167104.000			-11.045			-3.682
167204.000			-11.045			-3.682
167304.000			-11.046			-3.682
167404.000			-11.047			-3.682
167505.000			-11.047			-3.682
167604.000			-11.046			-3.682
167704.000			-11.046			-3.682
167805.000			-11.045			-3.682
167904.000			-11.045			-3.682
168004.000			-11.045			-3.682
168104.000			-11.045			-3.682
168204.000			-11.044			-3.681
168304.000			-11.044			-3.681
168405.000			-11.044			-3.681
168504.000			-11.044			-3.681
168604.000			-11.043			-3.681
168705.000			-11.044			-3.681
168803.000			-11.044			-3.681
168904.000			-11.044			-3.681
169004.000			-11.043			-3.681
169104.000			-11.043			-3.681
169204.000			-11.042			-3.681
169305.000			-11.043			-3.681
169404.000			-11.042			-3.681
169504.000			-11.042			-3.681
169605.000			-11.043			-3.681
169703.000			-11.043			-3.681
169804.000			-11.042			-3.681
169903.000			-11.041			-3.680
170004.000			-11.040			-3.680
170105.000			-11.041			-3.680
170204.000			-11.041			-3.680
170304.000			-11.041			-3.680
170405.000			-11.040			-3.680
170504.000			-11.040			-3.680
170603.000			-11.040			-3.680
170705.000			-11.041			-3.680
170804.000			-11.040			-3.680
170904.000			-11.040			-3.680
171005.000			-11.040			-3.680
171104.000			-11.039			-3.680
171204.000			-11.039			-3.680
171305.000			-11.038			-3.679
171404.000			-11.038			-3.679
171503.000			-11.039			-3.680
171605.000			-11.039			-3.680
171704.000			-11.038			-3.679
171804.000			-11.038			-3.679
171905.000			-11.038			-3.679
172004.000			-11.037			-3.679
172104.000			-11.036			-3.679
172204.000			-11.037			-3.679
172304.000			-11.037			-3.679
172403.000			-11.038			-3.679
172505.000			-11.037			-3.679
172604.000			-11.036			-3.679
172704.000			-11.036			-3.679
172805.000			-11.037			-3.679
172904.000			-11.036			-3.679
173004.000			-11.036			-3.679
173103.000			-11.036			-3.679
173204.000			-11.035			-3.678
173305.000			-11.035			-3.678
173404.000			-11.034			-3.678
173504.000			-11.033			-3.678
173605.000			-11.034			-3.678
173704.000			-11.034			-3.678
173803.000			-11.034			-3.678
173905.000			-11.032			-3.677
174003.000			-11.034			-3.678
174104.000			-11.034			-3.678
174205.000			-11.033			-3.678
174304.000			-11.034			-3.678
174404.000			-11.033			-3.678
174505.000			-11.032			-3.677
174604.000			-11.033			-3.678
174703.000			-11.033			-3.678
174805.000			-11.033			-3.678
174904.000			-11.032			-3.677
175004.000			-11.032			-3.677
175105.000			-11.033			-3.678
175204.000			-11.032			-3.677
175304.000			-11.031			-3.677
175404.000			-11.031			-3.677
175504.000			-11.032			-3.677
175603.000			-11.032			-3.677
175705.000			-11.032			-3.677
175804.000			-11.031			-3.677
175904.000			-11.031			-3.677
176005.000			-11.031			-3.677
176104.000			-11.030			-3.677
176204.000			-11.030			-3.677
176303.000			-11.031			-3.677
176404.000			-11.030			-3.677
176505.000			-11.030			-3.677
176604.000			-11.029			-3.676
176704.000			-11.029			-3.676
176805.000			-11.029			-3.676
176904.000			-11.030			-3.677
177004.000			-11.030			-3.677
177105.000			-11.029			-3.676
177203.000			-11.030			-3.677
177304.000			-11.028			-3.676
177405.000			-11.029			-3.676
177504.000			-11.030			-3.677
177604.000			-11.029			-3.676
177705.000			-11.029			-3.676
177804.000			-11.028			-3.676
177904.000			-11.028			-3.676
178005.000			-11.028			-3.676
178103.000			-11.027			-3.676
178204.000			-11.026			-3.675
178305.000			-11.027			-3.676
178404.000			-11.027			-3.676
178504.000			-11.027			-3.676
178605.000			-11.027			-3.676
178704.000			-11.027			-3.676
178804.000			-11.026			-3.675
178905.000			-11.027			-3.676
179003.000			-11.027			-3.676
179104.000			-11.026			-3.675
179205.000			-11.026			-3.675
179304.000			-11.026			-3.675
179404.000			-11.026			-3.675
179504.000			-11.025			-3.675
179604.000			-11.025			-3.675
179703.000			-11.025			-3.675
179804.000			-11.025			-3.675
179903.000			-11.025			-3.675
180005.000			-11.024			-3.675
180104.000			-11.024			-3.675
180204.000			-11.025			-3.675
180305.000			-11.024			-3.675
180404.000			-11.023			-3.674
180504.000			-11.023			-3.674
180604.000			-11.023			-3.674
180704.000			-11.024			-3.675
180804.000			-11.024			-3.675
180905.000			-11.023			-3.674
181004.000			-11.022			-3.674
181104.000			-11.022			-3.674
181205.000			-11.022			-3.674
181303.000			-11.022			-3.674
181404.000			-11.022			-3.674
181504.000			-11.022			-3.674
181604.000			-11.021			-3.674
181704.000			-11.022			-3.674
181805.000			-11.022			-3.674
181904.000			-11.022			-3.674
182004.000			-11.021			-3.674
182105.000			-11.020			-3.673
182203.000			-11.020			-3.673
182304.000			-11.021			-3.674
182405.000			-11.021			-3.674
182504.000			-11.021			-3.674
182604.000			-11.020			-3.673
182704.000			-11.020			-3.673
182804.000			-11.020			-3.673
182903.000			-11.020			-3.673
183004.000			-11.020			-3.673
183103.000			-11.020			-3.673
183205.000			-11.019			-3.673
183304.000			-11.019			-3.673
183404.000			-11.018			-3.673
183505.000			-11.017			-3.672
183604.000			-11.018			-3.673
183704.000			-11.019			-3.673
183804.000			-11.019			-3.673
183904.000			-11.019			-3.673
184004.000			-11.018			-3.673
184105.000			-11.018			-3.673
184204.000			-11.018			-3.673
184304.000			-11.017			-3.672
184405.000			-11.017			-3.672
184504.000			-11.018			-3.673
184604.000			-11.017			-3.672
184704.000			-11.017			-3.672
184804.000			-11.016			-3.672
184904.000			-11.016			-3.672
185005.000			-11.016			-3.672
185104.000			-11.015			-3.672
185204.000			-11.015			-3.672
185305.000			-11.016			-3.672
185403.000			-11.017			-3.672
185504.000			-11.016			-3.672
185604.000			-11.015			-3.672
185704.000			-11.014			-3.671
185804.000			-11.015			-3.672
185904.000			-11.015			-3.672
186004.000			-11.014			-3.671
186105.000			-11.014			-3.671
186204.000			-11.014			-3.671
186303.000			-11.013			-3.671
186405.000			-11.013			-3.671
186504.000			-11.013			-3.671
186604.000			-11.013			-3.671
186705.000			-11.013			-3.671
186804.000			-11.013			-3.671
186904.000			-11.012			-3.671
187005.000			-11.013			-3.671
187104.000			-11.014			-3.671
187203.000			-11.013			-3.671
187305.000			-11.012			-3.671
187404.000			-11.012			-3.671
187504.000			-11.012			-3.671
187605.000			-11.012			-3.671
187704.000			-11.011			-3.670
187804.000			-11.013			-3.671
187904.000			-11.013			-3.671
188004.000			-11.013			-3.671
188103.000			-11.012			-3.671
188205.000			-11.011			-3.670
188304.000			-11.011			-3.670
188404.000			-11.011			-3.670
188505.000			-11.011			-3.670
188604.000			-11.011			-3.670
188704.000			-11.011			-3.670
188804.000			-11.010			-3.670
188904.000			-11.009			-3.670
189004.000			-11.009			-3.670
189104.000			-11.010			-3.670
189204.000			-11.009			-3.670
189305.000			-11.008			-3.669
189404.000			-11.009			-3.670
189504.000			-11.009			-3.670
189605.000			-11.009			-3.670
189703.000			-11.008			-3.669
189804.000			-11.008			-3.669
189905.000			-11.008			-3.669
190004.000			-11.009			-3.670
190104.000			-11.008			-3.669
190205.000			-11.008			-3.669
190304.000			-11.009			-3.670
190404.000			-11.008			-3.669
190505.000			-11.007			-3.669
190603.000			-11.008			-3.669
190704.000			-11.007			-3.669
190805.000			-11.007			-3.669
190904.000			-11.008			-3.669
191004.000			-11.007			-3.669
191105.000			-11.007			-3.669
191204.000			-11.006			-3.669
191303.000			-11.007			-3.669
191405.000			-11.006			-3.669
191504.000			-11.005			-3.668
191604.000			-11.006			-3.669
191705.000			-11.006			-3.669
191804.000			-11.005			-3.668
191904.000			-11.006			-3.669
192005.000			-11.007			-3.669
192104.000			-11.006			-3.669
192203.000			-11.005			-3.668
192305.000			-11.004			-3.668
192404.000			-11.004			-3.668
192505.000			-11.005			-3.668
192604.000			-11.004			-3.668
192704.000			-11.004			-3.668
192805.000			-11.004			-3.668
192903.000			-11.004			-3.668
193004.000			-11.004			-3.668
193105.000			-11.004			-3.668
193204.000			-11.003			-3.668
193304.000			-11.003			-3.668
193405.000			-11.002			-3.667
193504.000			-11.002			-3.667
193604.000			-11.003			-3.668
193705.000			-11.003			-3.668
193803.000			-11.002			-3.667
193904.000			-11.002			-3.667
194005.000			-11.002			-3.667
194104.000			-11.002			-3.667
194204.000			-11.003			-3.668
194305.000			-11.002			-3.667
194404.000			-11.002			-3.667
194503.000			-11.001			-3.667
194605.000			-11.001			-3.667
194704.000			-11.001			-3.667
194804.000			-11.001			-3.667
194905.000			-11.001			-3.667
195004.000			-11.000			-3.667
195104.000			-10.999			-3.666
195205.000			-11.000			-3.667
195304.000			-11.000			-3.667
195403.000			-10.999			-3.666
195505.000			-10.999			-3.666
195603.000			-11.000			-3.667
195705.000			-10.999			-3.666
195804.000			-10.999			-3.666
195904.000			-10.999			-3.666
196005.000			-10.999			-3.666
196104.000			-10.998			-3.666
196204.000			-10.997			-3.666
196305.000			-10.999			-3.666
196404.000			-10.999			-3.666
196503.000			-10.998			-3.666
196605.000			-10.998			-3.666
196704.000			-10.997			-3.666
196804.000			-10.998			-3.666
196905.000			-10.999			-3.666
197004.000			-10.997			-3.666
197104.000			-10.996			-3.665
197205.000			-10.998			-3.666
197304.000			-10.997			-3.666
197404.000			-10.996			-3.665
197505.000			-10.997			-3.666
197603.000			-10.997			-3.666
197704.000			-10.996			-3.665
197805.000			-10.996			-3.665
197904.000			-10.996			-3.665
198004.000			-10.996			-3.665
198105.000			-10.995			-3.665
198204.000			-10.996			-3.665
198304.000			-10.996			-3.665
198405.000			-10.996			-3.665
198504.000			-10.995			-3.665
198604.000			-10.995			-3.665
198703.000			-10.994			-3.665
198804.000			-10.994			-3.665
198905.000			-10.994			-3.665
199004.000			-10.993			-3.664
199104.000			-10.993			-3.664
199205.000			-10.993			-3.664
199304.000			-10.993			-3.664
199404.000			-10.994			-3.665
199505.000			-10.994			-3.665
199603.000			-10.992			-3.664
199704.000			-10.993			-3.664
199804.000			-10.992			-3.664
199904.000			-10.993			-3.664
200004.000			-10.994			-3.665
200105.000			-10.993			-3.664
200204.000			-10.993			-3.664
200304.000			-10.992			-3.664
200405.000			-10.992			-3.664
200503.000			-10.991			-3.664
200604.000			-10.991			-3.664
200704.000			-10.991			-3.664
200804.000			-10.992			-3.664
200904.000			-10.991			-3.664
201005.000			-10.991			-3.664
201104.000			-10.991			-3.664
201204.000			-10.991			-3.664
201305.000			-10.991			-3.664
201403.000			-10.990			-3.663
201504.000			-10.990			-3.663
201605.000			-10.990			-3.663
201704.000			-10.991			-3.664
201804.000			-10.991			-3.664
201904.000			-10.991			-3.664
202004.000			-10.991			-3.664
202105.000			-10.991			-3.664
202204.000			-10.990			-3.663
202303.000			-10.989			-3.663
202405.000			-10.989			-3.663
202504.000			-10.989			-3.663
202604.000			-10.988			-3.663
202705.000			-10.989			-3.663
202804.000			-10.988			-3.663
202904.000			-10.988			-3.663
203005.000			-10.989			-3.663
203104.000			-10.988			-3.663
203203.000			-10.988			-3.663
203305.000			-10.987			-3.662
203404.000			-10.988			-3.663
203504.000			-10.988			-3.663
203605.000			-10.987			-3.662
203704.000			-10.987			-3.662
203804.000			-10.987			-3.662
203905.000			-10.987			-3.662
204004.000			-10.987			-3.662
204103.000			-10.986			-3.662
204205.000			-10.986			-3.662
204304.000			-10.985			-3.662
204404.000			-10.986			-3.662
204505.000			-10.985			-3.662
204604.000			-10.986			-3.662
204704.000			-10.986			-3.662
204805.000			-10.985			-3.662
204904.000			-10.986			-3.662
205003.000			-10.985			-3.662
205105.000			-10.985			-3.662
205204.000			-10.986			-3.662
205305.000			-10.986			-3.662
205404.000			-10.986			-3.662
205504.000			-10.986			-3.662
205605.000			-10.985			-3.662
205704.000			-10.985			-3.662
205804.000			-10.984			-3.661
205904.000			-10.984			-3.661
206004.000			-10.985			-3.662
206104.000			-10.984			-3.661
206205.000			-10.983			-3.661
206304.000			-10.983			-3.661
206404.000			-10.983			-3.661
206505.000			-10.983			-3.661
206604.000			-10.983			-3.661
206704.000			-10.982			-3.661
206804.000			-10.982			-3.661
206904.000			-10.982			-3.661
207004.000			-10.982			-3.661
207105.000			-10.982			-3.661
207204.000			-10.982			-3.661
207304.000			-10.983			-3.661
207405.000			-10.982			-3.661
207504.000			-10.982			-3.661
207604.000			-10.982			-3.661
207704.000			-10.981			-3.660
207804.000			-10.981			-3.660
207904.000			-10.982			-3.661
208005.000			-10.981			-3.660
208104.000			-10.981			-3.660
208204.000			-10.982			-3.661
208305.000			-10.982			-3.661
208403.000			-10.981			-3.660
208505.000			-10.981			-3.660
208603.000			-10.981			-3.660
208704.000			-10.980			-3.660
208805.000			-10.979			-3.660
208904.000			-10.979			-3.660
209004.000			-10.979			-3.660
209105.000			-10.979			-3.660
209204.000			-10.979			-3.660
209304.000			-10.980			-3.660
209405.000			-10.979			-3.660
209503.000			-10.979			-3.660
209604.000			-10.979			-3.660
209705.000			-10.979			-3.660
209804.000			-10.978			-3.659
209904.000			-10.979			-3.660
210005.000			-10.979			-3.660
210104.000			-10.977			-3.659
210204.000			-10.978			-3.659
210305.000			-10.978			-3.659
210403.000			-10.978			-3.659
210504.000			-10.979			-3.660
210605.000			-10.978			-3.659
210704.000			-10.978			-3.659
210804.000			-10.978			-3.659
210905.000			-10.977			-3.659
211004.000			-10.976			-3.659
211104.000			-10.976			-3.659
211205.000			-10.976			-3.659
211303.000			-10.977			-3.659
211404.000			-10.976			-3.659
211505.000			-10.975			-3.658
211604.000			-10.976			-3.659
211705.000			-10.976			-3.659
211804.000			-10.976			-3.659
211904.000			-10.975			-3.658
212005.000			-10.975			-3.658
212104.000			-10.975			-3.658
212203.000			-10.975			-3.658
212305.000			-10.975			-3.658
212404.000			-10.975			-3.658
212504.000			-10.975			-3.658
212605.000			-10.976			-3.659
212704.000			-10.976			-3.659
212804.000			-10.976			-3.659
212904.000			-10.975			-3.658
213004.000			-10.975			-3.658
213103.000			-10.973			-3.658
213205.000			-10.972			-3.657
213304.000			-10.972			-3.657
213404.000			-10.973			-3.658
213505.000			-10.973			-3.658
213604.000			-10.974			-3.658
213704.000			-10.974			-3.658
213804.000			-10.973			-3.658
213904.000			-10.973			-3.658
214004.000			-10.973			-3.658
214105.000			-10.972			-3.657
214204.000			-10.972			-3.657
214304.000			-10.973			-3.658
214405.000			-10.973			-3.658
214504.000			-10.973			-3.658
214604.000			-10.972			-3.657
214703.000			-10.973			-3.658
214804.000			-10.973			-3.658
214905.000			-10.971			-3.657
215004.000			-10.971			-3.657
215104.000			-10.971			-3.657
215205.000			-10.970			-3.657
215304.000			-10.970			-3.657
215404.000			-10.971			-3.657
215505.000			-10.971			-3.657
215603.000			-10.972			-3.657
215704.000			-10.971			-3.657
215805.000			-10.970			-3.657
215904.000			-10.970			-3.657
216004.000			-10.969			-3.656
216105.000			-10.969			-3.656
216204.000			-10.970			-3.657
216304.000			-10.969			-3.656
216405.000			-10.969			-3.656
216503.000			-10.970			-3.657
216604.000			-10.970			-3.657
216705.000			-10.969			-3.656
216804.000			-10.969			-3.656
216904.000			-10.969			-3.656
217005.000			-10.969			-3.656
217104.000			-10.968			-3.656
217204.000			-10.968			-3.656
217305.000			-10.967			-3.656
217403.000			-10.968			-3.656
217504.000			-10.966			-3.655
217605.000			-10.966			-3.655
217704.000			-10.966			-3.655
217804.000			-10.967			-3.656
217904.000			-10.967			-3.656
218004.000			-10.967			-3.656
218105.000			-10.966			-3.655
218204.000			-10.966			-3.655
218303.000			-10.966			-3.655
218405.000			-10.967			-3.656
218504.000			-10.966			-3.655
218604.000			-10.967			-3.656
218705.000			-10.965			-3.655
218804.000			-10.965			-3.655
218904.000			-10.966			-3.655
219005.000			-10.965			-3.655
219104.000			-10.965			-3.655
219203.000			-10.966			-3.655
219305.000			-10.966			-3.655
219403.000			-10.965			-3.655
219504.000			-10.964			-3.655
219605.000			-10.965			-3.655
219704.000			-10.964			-3.655
219804.000			-10.965			-3.655
219905.000			-10.965			-3.655
220004.000			-10.965			-3.655
220103.000			-10.964			-3.655
220205.000			-10.964			-3.655
220304.000			-10.964			-3.655
220404.000			-10.963			-3.654
220505.000			-10.963			-3.654
220604.000			-10.964			-3.655
220704.000			-10.964			-3.655
220805.000			-10.963			-3.654
220904.000			-10.963			-3.654
221003.000			-10.964			-3.655
221105.000			-10.963			-3.654
221204.000			-10.964			-3.655
221305.000			-10.964			-3.655
221404.000			-10.963			-3.654
221504.000			-10.963			-3.654
221605.000			-10.962			-3.654
221704.000			-10.962			-3.654
221804.000			-10.962			-3.654
221904.000			-10.961			-3.654
222004.000			-10.962			-3.654
222104.000			-10.961			-3.654
222205.000			-10.961			-3.654
222304.000			-10.961			-3.654
222404.000			-10.961			-3.654
222505.000			-10.961			-3.654
222604.000			-10.959			-3.653
222704.000			-10.959			-3.653
222804.000			-10.959			-3.653
222904.000			-10.959			-3.653
223004.000			-10.960			-3.653
223105.000			-10.960			-3.653
223204.000			-10.959			-3.653
223304.000			-10.959			-3.653
223405.000			-10.958			-3.653
223504.000			-10.958			-3.653
223604.000			-10.959			-3.653
223704.000			-10.958			-3.653
223804.000			-10.958			-3.653
223904.000			-10.959			-3.653
224005.000			-10.958			-3.653
224104.000			-10.958			-3.653
224204.000			-10.958			-3.653
224305.000			-10.958			-3.653
224404.000			-10.957			-3.652
224505.000			-10.957			-3.652
224603.000			-10.957			-3.652
224704.000			-10.956			-3.652
224805.000			-10.956			-3.652
224904.000			-10.957			-3.652
225004.000			-10.956			-3.652
225105.000			-10.956			-3.652
225204.000			-10.955			-3.652
225304.000			-10.956			-3.652
225405.000			-10.956			-3.652
225503.000			-10.956			-3.652
225604.000			-10.955			-3.652
225705.000			-10.955			-3.652
225804.000			-10.955			-3.652
225904.000			-10.955			-3.652
226005.000			-10.955			-3.652
226104.000			-10.955			-3.652
226204.000			-10.955			-3.652
226305.000			-10.955			-3.652
226403.000			-10.955			-3.652
226504.000			-10.954			-3.651
226605.000			-10.955			-3.652
226704.000			-10.954			-3.651
226804.000			-10.954			-3.651
226905.000			-10.953			-3.651
227004.000			-10.954			-3.651
227104.000			-10.954			-3.651
227205.000			-10.954			-3.651
227303.000			-10.953			-3.651
227404.000			-10.953			-3.651
227505.000			-10.953			-3.651
227604.000			-10.954			-3.651
227705.000			-10.953			-3.651
227804.000			-10.953			-3.651
227904.000			-10.953			-3.651
228005.000			-10.954			-3.651
228104.000			-10.953			-3.651
228203.000			-10.953			-3.651
228305.000			-10.953			-3.651
228404.000			-10.953			-3.651
228504.000			-10.953			-3.651
228605.000			-10.952			-3.651
228704.000			-10.953			-3.651
228804.000			-10.952			-3.651
228905.000			-10.952			-3.651
229004.000			-10.952			-3.651
229103.000			-10.952			-3.651
229205.000			-10.952			-3.651
229304.000			-10.951			-3.650
229404.000			-10.950			-3.650
229505.000			-10.950			-3.650
229604.000			-10.950			-3.650
229704.000			-10.950			-3.650
229805.000			-10.951			-3.650
229904.000			-10.950			-3.650
230003.000			-10.950			-3.650
230105.000			-10.951			-3.650
230204.000			-10.951			-3.650
230304.000			-10.951			-3.650
230405.000			-10.951			-3.650
230504.000			-10.951			-3.650
230604.000			-10.949			-3.650
230704.000			-10.949			-3.650
230804.000			-10.949			-3.650
230903.000			-10.950			-3.650
231004.000			-10.950			-3.650
231104.000			-10.949			-3.650
231205.000			-10.949			-3.650
231304.000			-10.949			-3.650
231404.000			-10.949			-3.650
231505.000			-10.948			-3.649
231604.000			-10.948			-3.649
231704.000			-10.948			-3.649
231804.000			-10.947			-3.649
231904.000			-10.946			-3.649
232004.000			-10.948			-3.649
232105.000			-10.947			-3.649
232204.000			-10.948			-3.649
232304.000			-10.948			-3.649
232405.000			-10.948			-3.649
232504.000			-10.948			-3.649
232604.000			-10.949			-3.650
232704.000			-10.948			-3.649
232804.000			-10.946			-3.649
232904.000			-10.947			-3.649
233005.000			-10.947			-3.649
233104.000			-10.947			-3.649
233204.000			-10.947			-3.649
233305.000			-10.947			-3.649
233404.000			-10.947			-3.649
233504.000			-10.946			-3.649
233604.000			-10.946			-3.649
233704.000			-10.947			-3.649
233804.000			-10.947			-3.649
233904.000			-10.946			-3.649
234004.000			-10.946			-3.649
234105.000			-10.945			-3.648
234204.000			-10.945			-3.648
234303.000			-10.945			-3.648
234405.000			-10.945			-3.648
234503.000			-10.945			-3.648
234604.000			-10.946			-3.649
234705.000			-10.945			-3.648
234804.000			-10.944			-3.648
234904.000			-10.944			-3.648
235005.000			-10.944			-3.648
235104.000			-10.945			-3.648
235203.000			-10.945			-3.648
235305.000			-10.945			-3.648
235403.000			-10.945			-3.648
235504.000			-10.943			-3.648
235605.000			-10.943			-3.648
235704.000			-10.944			-3.648
235804.000			-10.943			-3.648
235905.000			-10.944			-3.648
236004.000			-10.944			-3.648
236103.000			-10.944			-3.648
236205.000			-10.944			-3.648
236304.000			-10.944			-3.648
236404.000			-10.943			-3.648
236505.000			-10.943			-3.648
236604.000			-10.944			-3.648
236704.000			-10.943			-3.648
236805.000			-10.942			-3.647
236904.000			-10.942			-3.647
237003.000			-10.942			-3.647
237105.000			-10.942			-3.647
237203.000			-10.943			-3.648
237305.000			-10.942			-3.647
237404.000			-10.942			-3.647
237504.000			-10.942			-3.647
237605.000			-10.942			-3.647
237704.000			-10.941			-3.647
237804.000			-10.941			-3.647
237904.000			-10.941			-3.647
238004.000			-10.942			-3.647
238103.000			-10.942			-3.647
238205.000			-10.941			-3.647
238304.000			-10.941			-3.647
238404.000			-10.941			-3.647
238505.000			-10.941			-3.647
238604.000			-10.941			-3.647
238704.000			-10.941			-3.647
238804.000			-10.940			-3.647
238904.000			-10.939			-3.646
239003.000			-10.940			-3.647
239105.000			-10.940			-3.647
239204.000			-10.940			-3.647
239304.000			-10.941			-3.647
239405.000			-10.939			-3.646
239504.000			-10.939			-3.646
239604.000			-10.940			-3.647
239704.000			-10.939			-3.646
239804.000			-10.939			-3.646
239903.000			-10.939			-3.646
240005.000			-10.940			-3.647
240104.000			-10.940			-3.647
240204.000			-10.940			-3.647
240305.000			-10.939			-3.646
240404.000			-10.938			-3.646
240505.000			-10.937			-3.646
240604.000			-10.938			-3.646
240704.000			-10.937			-3.646
240804.000			-10.937			-3.646
240904.000			-10.937			-3.646
241004.000			-10.938			-3.646
241105.000			-10.937			-3.646
241204.000			-10.936			-3.645
241304.000			-10.937			-3.646
241405.000			-10.938			-3.646
241504.000			-10.938			-3.646
241604.000			-10.937			-3.646
241704.000			-10.937			-3.646
241804.000			-10.937			-3.646
241904.000			-10.937			-3.646
242005.000			-10.937			-3.646
242104.000			-10.937			-3.646
242204.000			-10.937			-3.646
242305.000			-10.936			-3.645
242404.000			-10.935			-3.645
242504.000			-10.935			-3.645
242604.000			-10.935			-3.645
242704.000			-10.936			-3.645
242804.000			-10.935			-3.645
242905.000			-10.935			-3.645
243004.000			-10.935			-3.645
243104.000			-10.935			-3.645
243205.000			-10.935			-3.645
243304.000			-10.935			-3.645
243404.000			-10.934			-3.645
243503.000			-10.933			-3.644
243604.000			-10.934			-3.645
243705.000			-10.935			-3.645
243804.000			-10.935			-3.645
243904.000			-10.935			-3.645
244005.000			-10.934			-3.645
244104.000			-10.934			-3.645
244204.000			-10.935			-3.645
244305.000			-10.935			-3.645
244403.000			-10.933			-3.644
244504.000			-10.935			-3.645
244605.000			-10.934			-3.645
244704.000			-10.933			-3.644
244804.000			-10.933			-3.644
244905.000			-10.933			-3.644
245004.000			-10.931			-3.644
245104.000			-10.932			-3.644
245205.000			-10.932			-3.644
245303.000			-10.932			-3.644
245404.000			-10.932			-3.644
245505.000			-10.932			-3.644
245604.000			-10.932			-3.644
245704.000			-10.932			-3.644
245805.000			-10.931			-3.644
245904.000			-10.932			-3.644
246004.000			-10.932			-3.644
246105.000			-10.931			-3.644
246203.000			-10.930			-3.643
246304.000			-10.930			-3.643
246405.000			-10.930			-3.643
246504.000			-10.930			-3.643
246604.000			-10.930			-3.643
246704.000			-10.930			-3.643
246804.000			-10.931			-3.644
246903.000			-10.931			-3.644
247004.000			-10.931			-3.644
247103.000			-10.931			-3.644
247205.000			-10.930			-3.643
247304.000			-10.930			-3.643
247404.000			-10.930			-3.643
247505.000			-10.930			-3.643
247604.000			-10.929			-3.643
247704.000			-10.929			-3.643
247804.000			-10.929			-3.643
247904.000			-10.929			-3.643
248003.000			-10.928			-3.643
248105.000			-10.928			-3.643
248204.000			-10.928			-3.643
248304.000			-10.928			-3.643
248405.000			-10.928			-3.643
248504.000			-10.928			-3.643
248604.000			-10.927			-3.642
248704.000			-10.927			-3.642
248804.000			-10.927			-3.642
248903.000			-10.927			-3.642
249005.000			-10.927			-3.642
249104.000			-10.927			-3.642
249204.000			-10.927			-3.642
249305.000			-10.927			-3.642
249404.000			-10.927			-3.642
249504.000			-10.927			-3.642
249605.000			-10.927			-3.642
249704.000			-10.927			-3.642
249803.000			-10.927			-3.642
249905.000			-10.927			-3.642
250004.000			-10.927			-3.642
250105.000			-10.926			-3.642
250204.000			-10.926			-3.642
250304.000			-10.927			-3.642
250405.000			-10.926			-3.642
250504.000			-10.926			-3.642
250604.000			-10.926			-3.642
250704.000			-10.926			-3.642
250804.000			-10.926			-3.642
250904.000			-10.926			-3.642
251005.000			-10.926			-3.642
251104.000			-10.925			-3.642
251204.000			-10.925			-3.642
251305.000			-10.926			-3.642
251404.000			-10.926			-3.642
251504.000			-10.925			-3.642
251604.000			-10.924			-3.641
251704.000			-10.923			-3.641
251804.000			-10.925			-3.642
251905.000			-10.925			-3.642
252004.000			-10.925			-3.642
252104.000			-10.924			-3.641
252205.000			-10.923			-3.641
252303.000			-10.923			-3.641
252404.000			-10.922			-3.641
252505.000			-10.925			-3.642
252604.000			-10.924			-3.641
252704.000			-10.924			-3.641
252805.000			-10.924			-3.641
252904.000			-10.923			-3.641
253004.000			-10.923			-3.641
253105.000			-10.922			-3.641
253203.000			-10.922			-3.641
253305.000			-10.923			-3.641
253404.000			-10.922			-3.641
253504.000			-10.922			-3.641
253605.000			-10.923			-3.641
253704.000			-10.923			-3.641
253804.000			-10.922			-3.641
253905.000			-10.921			-3.640
254004.000			-10.922			-3.641
254103.000			-10.922			-3.641
254205.000			-10.921			-3.640
254304.000			-10.921			-3.640
254404.000			-10.921			-3.640
254505.000			-10.920			-3.640
254604.000			-10.921			-3.640
254704.000			-10.921			-3.640
254804.000			-10.921			-3.640
254904.000			-10.920			-3.640
255003.000			-10.921			-3.640
255105.000			-10.921			-3.640
255204.000			-10.921			-3.640
255304.000			-10.920			-3.640
255405.000			-10.920			-3.640
255504.000			-10.920			-3.640
255604.000			-10.920			-3.640
255704.000			-10.919			-3.640
255804.000			-10.919			-3.640
255904.000			-10.919			-3.640
256005.000			-10.919			-3.640
256104.000			-10.919			-3.640
256204.000			-10.920			-3.640
256305.000			-10.919			-3.640
256404.000			-10.920			-3.640
256505.000			-10.918			-3.639
256603.000			-10.919			-3.640
256704.000			-10.920			-3.640
256805.000			-10.918			-3.639
256904.000			-10.918			-3.639
257004.000			-10.919			-3.640
257105.000			-10.919			-3.640
257204.000			-10.918			-3.639
257304.000			-10.917			-3.639
257405.000			-10.919			-3.640
257503.000			-10.919			-3.640
257604.000			-10.919			-3.640
257704.000			-10.918			-3.639
257804.000			-10.918			-3.639
257904.000			-10.916			-3.639
258005.000			-10.917			-3.639
258104.000			-10.918			-3.639
258204.000			-10.917			-3.639
258305.000			-10.917			-3.639
258403.000			-10.917			-3.639
258504.000			-10.917			-3.639
258604.000			-10.917			-3.639
258704.000			-10.916			-3.639
258804.000			-10.916			-3.639
258905.000			-10.917			-3.639
259004.000			-10.917			-3.639
259104.000			-10.917			-3.639
259205.000			-10.916			-3.639
259303.000			-10.916			-3.639
259404.000			-10.916			-3.639
259505.000			-10.915			-3.638
259604.000			-10.916			-3.639
259705.000			-10.916			-3.639
259804.000			-10.916			-3.639
259904.000			-10.916			-3.639
260005.000			-10.916			-3.639
260104.000			-10.915			-3.638
260203.000			-10.915			-3.638
260305.000			-10.914			-3.638
260404.000			-10.915			-3.638
260504.000			-10.915			-3.638
260605.000			-10.915			-3.638
260704.000			-10.915			-3.638
260804.000			-10.915			-3.638
260905.000			-10.914			-3.638
261004.000			-10.913			-3.638
261103.000			-10.914			-3.638
261205.000			-10.913			-3.638
261304.000			-10.913			-3.638
261404.000			-10.913			-3.638
261505.000			-10.914			-3.638
261604.000			-10.913			-3.638
261704.000			-10.913			-3.638
261804.000			-10.912			-3.637
261904.000			-10.912			-3.637
262003.000			-10.913			-3.638
262105.000			-10.912			-3.637
262204.000			-10.913			-3.638
262304.000			-10.913			-3.638
262405.000			-10.912			-3.637
262504.000			-10.912			-3.637
262604.000			-10.912			-3.637
262703.000			-10.911			-3.637
262804.000			-10.912			-3.637
262905.000			-10.911			-3.637
263004.000			-10.911			-3.637
263104.000			-10.910			-3.637
263205.000			-10.910			-3.637
263304.000			-10.911			-3.637
263404.000			-10.912			-3.637
263505.000			-10.912			-3.637
263603.000			-10.912			-3.637
263704.000			-10.910			-3.637
263805.000			-10.910			-3.637
263904.000			-10.911			-3.637
264004.000			-10.909			-3.636
264105.000			-10.910			-3.637
264204.000			-10.911			-3.637
264303.000			-10.910			-3.637
264405.000			-10.910			-3.637
264503.000			-10.910			-3.637
264604.000			-10.909			-3.636
264705.000			-10.910			-3.637
264804.000			-10.910			-3.637
264904.000			-10.910			-3.637
265005.000			-10.908			-3.636
265104.000			-10.909			-3.636
265204.000			-10.909			-3.636
265305.000			-10.908			-3.636
265403.000			-10.908			-3.636
265504.000			-10.909			-3.636
265605.000			-10.909			-3.636
265704.000			-10.908			-3.636
265804.000			-10.908			-3.636
265904.000			-10.908			-3.636
266004.000			-10.908			-3.636
266105.000			-10.907			-3.636
266204.000			-10.907			-3.636
266303.000			-10.907			-3.636
266405.000			-10.907			-3.636
266504.000			-10.906			-3.635
266604.000			-10.906			-3.635
266705.000			-10.906			-3.635
266804.000			-10.908			-3.636
266904.000			-10.908			-3.636
267005.000			-10.908			-3.636
267104.000			-10.907			-3.636
267203.000			-10.907			-3.636
267305.000			-10.907			-3.636
267404.000			-10.906			-3.635
267504.000			-10.905			-3.635
267605.000			-10.906			-3.635
267704.000			-10.907			-3.636
267804.000			-10.906			-3.635
267905.000			-10.906			-3.635
268004.000			-10.905			-3.635
268103.000			-10.907			-3.636
268205.000			-10.907			-3.636
268304.000			-10.905			-3.635
268404.000			-10.906			-3.635
268505.000			-10.905			-3.635
268604.000			-10.906			-3.635
268704.000			-10.906			-3.635
268805.000			-10.904			-3.635
268904.000			-10.904			-3.635
269003.000			-10.904			-3.635
269105.000			-10.905			-3.635
269204.000			-10.904			-3.635
269305.000			-10.904			-3.635
269404.000			-10.904			-3.635
269504.000			-10.904			-3.635
269605.000			-10.904			-3.635
269704.000			-10.904			-3.635
269804.000			-10.904			-3.635
269904.000			-10.903			-3.634
270004.000			-10.903			-3.634
270104.000			-10.903			-3.634
270205.000			-10.903			-3.634
270304.000			-10.902			-3.634
270404.000			-10.901			-3.634
270505.000			-10.902			-3.634
270603.000			-10.902			-3.634
270704.000			-10.901			-3.634
270804.000			-10.903			-3.634
270904.000			-10.903			-3.634
271004.000			-10.903			-3.634
271105.000			-10.902			-3.634
271204.000			-10.901			-3.634
271304.000			-10.901			-3.634
271405.000			-10.901			-3.634
271503.000			-10.901			-3.634
271604.000			-10.901			-3.634
271705.000			-10.900			-3.633
271804.000			-10.901			-3.634
271904.000			-10.901			-3.634
272005.000			-10.901			-3.634
272104.000			-10.900			-3.633
272203.000			-10.900			-3.633
272305.000			-10.900			-3.633
272403.000			-10.900			-3.633
272505.000			-10.899			-3.633
272604.000			-10.899			-3.633
272704.000			-10.900			-3.633
272805.000			-10.899			-3.633
272904.000			-10.899			-3.633
273004.000			-10.898			-3.633
273105.000			-10.899			-3.633
273204.000			-10.900			-3.633
273303.000			-10.900			-3.633
273405.000			-10.900			-3.633
273504.000			-10.900			-3.633
273604.000			-10.899			-3.633
273705.000			-10.898			-3.633
273804.000			-10.898			-3.633
273904.000			-10.897			-3.632
274005.000			-10.897			-3.632
274104.000			-10.897			-3.632
274203.000			-10.898			-3.633
274305.000			-10.898			-3.633
274403.000			-10.898			-3.633
274504.000			-10.898			-3.633
274605.000			-10.898			-3.633
274704.000			-10.897			-3.632
274804.000			-10.897			-3.632
274905.000			-10.897			-3.632
275004.000			-10.897			-3.632
275104.000			-10.897			-3.632
275205.000			-10.896			-3.632
275303.000			-10.897			-3.632
275404.000			-10.898			-3.633
275505.000			-10.897			-3.632
275604.000			-10.898			-3.633
275705.000			-10.898			-3.633
275804.000			-10.898			-3.633
275904.000			-10.897			-3.632
276005.000			-10.897			-3.632
276104.000			-10.896			-3.632
276203.000			-10.896			-3.632
276305.000			-10.897			-3.632
276404.000			-10.897			-3.632
276504.000			-10.897			-3.632
276605.000			-10.897			-3.632
276704.000			-10.896			-3.632
276804.000			-10.895			-3.632
276905.000			-10.895			-3.632
277004.000			-10.896			-3.632
277103.000			-10.896			-3.632
277205.000			-10.896			-3.632
277303.000			-10.896			-3.632
277404.000			-10.895			-3.632
277505.000			-10.894			-3.631
277604.000			-10.895			-3.632
277704.000			-10.895			-3.632
277805.000			-10.895			-3.632
277904.000			-10.895			-3.632
278004.000			-10.895			-3.632
278105.000			-10.894			-3.631
278203.000			-10.894			-3.631
278304.000			-10.894			-3.631
278405.000			-10.895			-3.632
278504.000			-10.894			-3.631
278604.000			-10.894			-3.631
278704.000			-10.895			-3.632
278804.000			-10.895			-3.632
278905.000			-10.893			-3.631
279004.000			-10.894			-3.631
279103.000			-10.893			-3.631
279205.000			-10.893			-3.631
279303.000			-10.892			-3.631
279404.000			-10.893			-3.631
279505.000			-10.894			-3.631
279604.000			-10.893			-3.631
279704.000			-10.893			-3.631
279805.000			-10.893			-3.631
279904.000			-10.892			-3.631
280004.000			-10.892			-3.631
280105.000			-10.893			-3.631
280203.000			-10.894			-3.631
280304.000			-10.893			-3.631
280405.000			-10.892			-3.631
280504.000			-10.892			-3.631
280604.000			-10.892			-3.631
280705.000			-10.892			-3.631
280804.000			-10.892			-3.631
280904.000			-10.893			-3.631
281005.000			-10.892			-3.631
281103.000			-10.892			-3.631
281204.000			-10.892			-3.631
281305.000			-10.892			-3.631
281404.000			-10.893			-3.631
281504.000			-10.892			-3.631
281605.000			-10.892			-3.631
281704.000			-10.892			-3.631
281804.000			-10.890			-3.630
281905.000			-10.890			-3.630
282003.000			-10.890			-3.630
282105.000			-10.890			-3.630
282204.000			-10.891			-3.630
282304.000			-10.891			-3.630
282405.000			-10.891			-3.630
282504.000			-10.891			-3.630
282604.000			-10.891			-3.630
282705.000			-10.890			-3.630
282804.000			-10.889			-3.630
282903.000			-10.890			-3.630
283005.000			-10.889			-3.630
283104.000			-10.890			-3.630
283204.000			-10.889			-3.630
283305.000			-10.889			-3.630
283404.000			-10.889			-3.630
283504.000			-10.889			-3.630
283605.000			-10.890			-3.630
283704.000			-10.890			-3.630
283803.000			-10.890			-3.630
283905.000			-10.889			-3.630
284004.000			-10.888			-3.629
284104.000			-10.888			-3.629
284205.000			-10.888			-3.629
284304.000			-10.889			-3.630
284404.000			-10.889			-3.630
284505.000			-10.889			-3.630
284604.000			-10.889			-3.630
284703.000			-10.889			-3.630
284805.000			-10.888			-3.629
284903.000			-10.888			-3.629
285004.000			-10.888			-3.629
285105.000			-10.887			-3.629
285204.000			-10.887			-3.629
285305.000			-10.888			-3.629
285404.000			-10.887			-3.629
285504.000			-10.887			-3.629
285604.000			-10.888			-3.629
285704.000			-10.887			-3.629
285803.000			-10.887			-3.629
285905.000			-10.887			-3.629
286004.000			-10.887			-3.629
286104.000			-10.887			-3.629
286205.000			-10.887			-3.629
286304.000			-10.887			-3.629
286404.000			-10.887			-3.629
286505.000			-10.887			-3.629
286604.000			-10.887			-3.629
286703.000			-10.887			-3.629
286805.000			-10.886			-3.629
286904.000			-10.887			-3.629
287004.000			-10.887			-3.629
287105.000			-10.886			-3.629
287204.000			-10.885			-3.628
287304.000			-10.885			-3.628
287405.000			-10.885			-3.628
287504.000			-10.886			-3.629
287603.000			-10.887			-3.629
287705.000			-10.885			-3.628
287803.000			-10.884			-3.628
287904.000			-10.885			-3.628
288005.000			-10.885			-3.628
288104.000			-10.885			-3.628
288204.000			-10.884			-3.628
288304.000			-10.885			-3.628
288404.000			-10.884			-3.628
288505.000			-10.884			-3.628
288604.000			-10.884			-3.628
288703.000			-10.885			-3.628
288805.000			-10.884			-3.628
288904.000			-10.884			-3.628
289004.000			-10.885			-3.628
289105.000			-10.885			-3.628
289204.000			-10.884			-3.628
289304.000			-10.884			-3.628
289405.000			-10.883			-3.628
289504.000			-10.883			-3.628
289603.000			-10.883			-3.628
289705.000			-10.884			-3.628
289804.000			-10.884			-3.628
289904.000			-10.884			-3.628
290005.000			-10.883			-3.628
290104.000			-10.883			-3.628
290204.000			-10.883			-3.628
290305.000			-10.883			-3.628
290404.000			-10.883			-3.628
290503.000			-10.882			-3.627
290605.000			-10.882			-3.627
290704.000			-10.882			-3.627
290804.000			-10.883			-3.628
290905.000			-10.882			-3.627
291004.000			-10.882			-3.627
291104.000			-10.882			-3.627
291205.000			-10.882			-3.627
291304.000			-10.881			-3.627
291403.000			-10.881			-3.627
291505.000			-10.882			-3.627
291603.000			-10.882			-3.627
291705.000			-10.881			-3.627
291804.000			-10.881			-3.627
291904.000			-10.881			-3.627
292005.000			-10.881			-3.627
292104.000			-10.880			-3.627
292204.000			-10.881			-3.627
292304.000			-10.881			-3.627
292404.000			-10.881			-3.627
292503.000			-10.880			-3.627
292605.000			-10.880			-3.627
292704.000			-10.881			-3.627
292804.000			-10.880			-3.627
292905.000			-10.880			-3.627
293004.000			-10.880			-3.627
293104.000			-10.881			-3.627
293204.000			-10.880			-3.627
293304.000			-10.879			-3.626
293403.000			-10.879			-3.626
293505.000			-10.879			-3.626
293604.000			-10.880			-3.627
293704.000			-10.879			-3.626
293805.000			-10.879			-3.626
293904.000			-10.879			-3.626
294004.000			-10.879			-3.626
294105.000			-10.878			-3.626
294204.000			-10.878			-3.626
294303.000			-10.878			-3.626
294405.000			-10.878			-3.626
294504.000			-10.879			-3.626
294604.000			-10.878			-3.626
294705.000			-10.879			-3.626
294804.000			-10.879			-3.626
294905.000			-10.878			-3.626
295004.000			-10.878			-3.626
295104.000			-10.877			-3.626
295204.000			-10.877			-3.626
295304.000			-10.878			-3.626
295403.000			-10.879			-3.626
295505.000			-10.878			-3.626
295604.000			-10.877			-3.626
295704.000			-10.876			-3.625
295805.000			-10.877			-3.626
295904.000			-10.876			-3.625
296004.000			-10.876			-3.625
296105.000			-10.877			-3.626
296204.000			-10.876			-3.625
296303.000			-10.876			-3.625
296405.000			-10.876			-3.625
296504.000			-10.876			-3.625
296604.000			-10.876			-3.625
296705.000			-10.876			-3.625
296804.000			-10.876			-3.625
296904.000			-10.876			-3.625
297005.000			-10.876			-3.625
297104.000			-10.875			-3.625
297203.000			-10.877			-3.626
297305.000			-10.876			-3.625
297404.000			-10.876			-3.625
297504.000			-10.875			-3.625
297605.000			-10.875			-3.625
297704.000			-10.875			-3.625
297804.000			-10.875			-3.625
297904.000			-10.874			-3.625
298004.000			-10.875			-3.625
298105.000			-10.875			-3.625
298204.000			-10.875			-3.625
298303.000			-10.875			-3.625
298405.000			-10.875			-3.625
298504.000			-10.875			-3.625
298604.000			-10.874			-3.625
298705.000			-10.874			-3.625
298804.000			-10.874			-3.625
298904.000			-10.874			-3.625
299005.000			-10.875			-3.625
299104.000			-10.874			-3.625
299203.000			-10.873			-3.624
299305.000			-10.873			-3.624
299404.000			-10.872			-3.624
299504.000			-10.874			-3.625
299605.000			-10.873			-3.624
299704.000			-10.873			-3.624
299804.000			-10.873			-3.624
299905.000			-10.873			-3.624
