# Acquired on 09/01/2024 11:55:33 
# SPIDER: Creep_-6mm_07714532C-2
# CREEP MEASUREMENT

# time [ms]		force [N]		stiffness [N/mm]
0.000			10.746			-1.791
101.000			11.419			-1.903
200.000			11.702			-1.950
301.000			11.718			-1.953
402.000			11.683			-1.947
500.000			11.656			-1.943
600.000			11.631			-1.939
701.000			11.611			-1.935
800.000			11.592			-1.932
900.000			11.575			-1.929
1002.000			11.559			-1.927
1101.000			11.533			-1.922
1200.000			11.521			-1.920
1301.000			11.508			-1.918
1400.000			11.497			-1.916
1500.000			11.488			-1.915
1601.000			11.479			-1.913
1700.000			11.470			-1.912
1801.000			11.453			-1.909
1902.000			11.445			-1.908
2000.000			11.438			-1.906
2100.000			11.431			-1.905
2201.000			11.423			-1.904
2300.000			11.416			-1.903
2400.000			11.410			-1.902
2502.000			11.398			-1.900
2601.000			11.392			-1.899
2700.000			11.386			-1.898
2801.000			11.380			-1.897
2900.000			11.375			-1.896
3000.000			11.370			-1.895
3100.000			11.364			-1.894
3200.000			11.356			-1.893
3302.000			11.351			-1.892
3401.000			11.346			-1.891
3500.000			11.341			-1.890
3601.000			11.336			-1.889
3700.000			11.332			-1.889
3800.000			11.328			-1.888
3901.000			11.324			-1.887
4000.000			11.317			-1.886
4101.000			11.313			-1.885
4202.000			11.309			-1.885
4300.000			11.305			-1.884
4400.000			11.302			-1.884
4501.000			11.299			-1.883
4600.000			11.294			-1.882
4700.000			11.287			-1.881
4802.000			11.284			-1.881
4901.000			11.281			-1.880
5000.000			11.278			-1.880
5101.000			11.275			-1.879
5200.000			11.272			-1.879
5300.000			11.268			-1.878
5401.000			11.263			-1.877
5501.000			11.260			-1.877
5601.000			11.257			-1.876
5702.000			11.254			-1.876
5800.000			11.251			-1.875
5900.000			11.250			-1.875
6001.000			11.247			-1.874
6100.000			11.240			-1.873
6200.000			11.238			-1.873
6302.000			11.235			-1.872
6401.000			11.232			-1.872
6501.000			11.229			-1.872
6600.000			11.228			-1.871
6700.000			11.225			-1.871
6801.000			11.220			-1.870
6900.000			11.219			-1.870
7000.000			11.217			-1.870
7102.000			11.215			-1.869
7201.000			11.210			-1.868
7300.000			11.208			-1.868
7401.000			11.207			-1.868
7500.000			11.205			-1.867
7600.000			11.201			-1.867
7701.000			11.198			-1.866
7801.000			11.195			-1.866
7901.000			11.193			-1.866
8001.000			11.192			-1.865
8100.000			11.189			-1.865
8200.000			11.187			-1.865
8301.000			11.183			-1.864
8400.000			11.181			-1.864
8500.000			11.179			-1.863
8602.000			11.177			-1.863
8701.000			11.175			-1.863
8800.000			11.174			-1.862
8901.000			11.172			-1.862
9000.000			11.168			-1.861
9100.000			11.166			-1.861
9201.000			11.164			-1.861
9301.000			11.163			-1.860
9402.000			11.161			-1.860
9500.000			11.160			-1.860
9600.000			11.157			-1.859
9701.000			11.153			-1.859
9800.000			11.152			-1.859
9900.000			11.151			-1.858
10001.000			11.149			-1.858
10101.000			11.146			-1.858
10201.000			11.145			-1.858
10301.000			11.144			-1.857
10400.000			11.142			-1.857
10500.000			11.138			-1.856
10601.000			11.136			-1.856
10700.000			11.135			-1.856
10801.000			11.134			-1.856
10902.000			11.133			-1.856
11001.000			11.132			-1.855
11100.000			11.130			-1.855
11201.000			11.127			-1.855
11300.000			11.127			-1.854
11400.000			11.125			-1.854
11501.000			11.123			-1.854
11601.000			11.121			-1.854
11701.000			11.120			-1.853
11801.000			11.118			-1.853
11900.000			11.116			-1.853
12000.000			11.115			-1.853
12101.000			11.113			-1.852
12200.000			11.112			-1.852
12301.000			11.110			-1.852
12402.000			11.109			-1.852
12500.000			11.109			-1.851
12600.000			11.105			-1.851
12700.000			11.104			-1.851
12800.000			11.103			-1.851
12901.000			11.102			-1.850
13000.000			11.100			-1.850
13101.000			11.098			-1.850
13202.000			11.096			-1.849
13300.000			11.096			-1.849
13400.000			11.094			-1.849
13501.000			11.093			-1.849
13600.000			11.091			-1.848
13700.000			11.090			-1.848
13801.000			11.089			-1.848
13901.000			11.087			-1.848
14001.000			11.086			-1.848
14101.000			11.085			-1.847
14200.000			11.083			-1.847
14300.000			11.083			-1.847
14401.000			11.082			-1.847
14500.000			11.080			-1.847
14601.000			11.079			-1.846
14702.000			11.078			-1.846
14801.000			11.075			-1.846
14900.000			11.073			-1.845
15001.000			11.072			-1.845
15100.000			11.071			-1.845
15200.000			11.071			-1.845
15301.000			11.071			-1.845
15401.000			11.070			-1.845
15501.000			11.066			-1.844
15601.000			11.065			-1.844
15700.000			11.065			-1.844
15800.000			11.065			-1.844
15900.000			11.064			-1.844
16000.000			11.062			-1.844
16101.000			11.063			-1.844
16201.000			11.062			-1.844
16301.000			11.059			-1.843
16401.000			11.058			-1.843
16500.000			11.057			-1.843
16600.000			11.056			-1.843
16701.000			11.055			-1.843
16800.000			11.054			-1.842
16900.000			11.053			-1.842
17002.000			11.051			-1.842
17101.000			11.050			-1.842
17200.000			11.048			-1.841
17301.000			11.048			-1.841
17400.000			11.048			-1.841
17500.000			11.047			-1.841
17601.000			11.045			-1.841
17700.000			11.044			-1.841
17801.000			11.043			-1.841
17902.000			11.042			-1.840
18000.000			11.041			-1.840
18100.000			11.040			-1.840
18201.000			11.038			-1.840
18300.000			11.037			-1.840
18400.000			11.036			-1.839
18502.000			11.036			-1.839
18601.000			11.035			-1.839
18700.000			11.034			-1.839
18801.000			11.032			-1.839
18900.000			11.031			-1.838
19000.000			11.031			-1.838
19100.000			11.030			-1.838
19200.000			11.028			-1.838
19302.000			11.027			-1.838
19401.000			11.026			-1.838
19500.000			11.025			-1.838
19601.000			11.024			-1.837
19700.000			11.024			-1.837
19800.000			11.023			-1.837
19901.000			11.021			-1.837
20000.000			11.021			-1.837
20101.000			11.020			-1.837
20202.000			11.020			-1.837
20300.000			11.018			-1.836
20400.000			11.017			-1.836
20501.000			11.015			-1.836
20600.000			11.015			-1.836
20700.000			11.013			-1.836
20802.000			11.012			-1.835
20901.000			11.012			-1.835
21000.000			11.010			-1.835
21101.000			11.010			-1.835
21200.000			11.009			-1.835
21300.000			11.008			-1.835
21401.000			11.007			-1.834
21500.000			11.005			-1.834
21601.000			11.006			-1.834
21702.000			11.005			-1.834
21800.000			11.005			-1.834
21900.000			11.005			-1.834
22001.000			11.003			-1.834
22100.000			11.001			-1.833
22200.000			11.000			-1.833
22302.000			10.999			-1.833
22401.000			10.998			-1.833
22501.000			10.996			-1.833
22600.000			10.996			-1.833
22700.000			10.996			-1.833
22801.000			10.995			-1.833
22900.000			10.994			-1.832
23000.000			10.993			-1.832
23102.000			10.991			-1.832
23201.000			10.992			-1.832
23300.000			10.991			-1.832
23401.000			10.989			-1.832
23500.000			10.989			-1.831
23600.000			10.987			-1.831
23701.000			10.988			-1.831
23800.000			10.987			-1.831
23901.000			10.986			-1.831
24002.000			10.985			-1.831
24101.000			10.985			-1.831
24200.000			10.984			-1.831
24301.000			10.983			-1.830
24400.000			10.982			-1.830
24500.000			10.981			-1.830
24601.000			10.980			-1.830
24700.000			10.979			-1.830
24801.000			10.979			-1.830
24902.000			10.978			-1.830
25000.000			10.976			-1.829
25100.000			10.976			-1.829
25201.000			10.976			-1.829
25300.000			10.975			-1.829
25400.000			10.974			-1.829
25500.000			10.973			-1.829
25601.000			10.974			-1.829
25702.000			10.972			-1.829
25800.000			10.971			-1.829
25900.000			10.970			-1.828
26001.000			10.969			-1.828
26100.000			10.969			-1.828
26200.000			10.970			-1.828
26301.000			10.968			-1.828
26401.000			10.967			-1.828
26501.000			10.966			-1.828
26601.000			10.965			-1.828
26700.000			10.965			-1.827
26800.000			10.964			-1.827
26901.000			10.963			-1.827
27000.000			10.963			-1.827
27100.000			10.962			-1.827
27202.000			10.961			-1.827
27301.000			10.960			-1.827
27400.000			10.959			-1.827
27501.000			10.959			-1.826
27600.000			10.959			-1.826
27700.000			10.958			-1.826
27801.000			10.956			-1.826
27900.000			10.957			-1.826
28001.000			10.957			-1.826
28102.000			10.956			-1.826
28200.000			10.955			-1.826
28300.000			10.954			-1.826
28401.000			10.954			-1.826
28500.000			10.953			-1.825
28600.000			10.953			-1.825
28700.000			10.952			-1.825
28800.000			10.952			-1.825
28902.000			10.950			-1.825
29001.000			10.949			-1.825
29100.000			10.949			-1.825
29201.000			10.948			-1.825
29300.000			10.948			-1.825
29400.000			10.947			-1.824
29501.000			10.946			-1.824
29600.000			10.945			-1.824
29701.000			10.945			-1.824
29802.000			10.944			-1.824
29900.000			10.943			-1.824
30000.000			10.942			-1.824
30101.000			10.942			-1.824
30200.000			10.941			-1.824
30300.000			10.942			-1.824
30401.000			10.941			-1.824
30501.000			10.940			-1.823
30601.000			10.939			-1.823
30701.000			10.938			-1.823
30800.000			10.936			-1.823
30900.000			10.935			-1.823
31001.000			10.936			-1.823
31100.000			10.936			-1.823
31200.000			10.934			-1.822
31302.000			10.933			-1.822
31401.000			10.933			-1.822
31500.000			10.932			-1.822
31601.000			10.931			-1.822
31700.000			10.931			-1.822
31800.000			10.931			-1.822
31900.000			10.932			-1.822
32001.000			10.930			-1.822
32102.000			10.929			-1.822
32201.000			10.928			-1.821
32300.000			10.927			-1.821
32401.000			10.927			-1.821
32500.000			10.927			-1.821
32600.000			10.926			-1.821
32701.000			10.925			-1.821
32801.000			10.924			-1.821
32901.000			10.924			-1.821
33001.000			10.923			-1.821
33100.000			10.923			-1.820
33200.000			10.923			-1.820
33301.000			10.923			-1.820
33400.000			10.921			-1.820
33500.000			10.921			-1.820
33602.000			10.920			-1.820
33701.000			10.919			-1.820
33800.000			10.918			-1.820
33901.000			10.918			-1.820
34000.000			10.918			-1.820
34100.000			10.916			-1.819
34201.000			10.915			-1.819
34300.000			10.916			-1.819
34401.000			10.914			-1.819
34502.000			10.913			-1.819
34600.000			10.913			-1.819
34700.000			10.913			-1.819
34801.000			10.913			-1.819
34900.000			10.912			-1.819
35000.000			10.911			-1.819
35100.000			10.911			-1.818
35201.000			10.910			-1.818
35302.000			10.910			-1.818
35400.000			10.910			-1.818
35500.000			10.909			-1.818
35601.000			10.909			-1.818
35700.000			10.908			-1.818
35800.000			10.907			-1.818
35901.000			10.907			-1.818
36001.000			10.906			-1.818
36101.000			10.906			-1.818
36201.000			10.905			-1.818
36300.000			10.904			-1.817
36400.000			10.904			-1.817
36501.000			10.903			-1.817
36600.000			10.902			-1.817
36701.000			10.903			-1.817
36802.000			10.902			-1.817
36900.000			10.901			-1.817
37000.000			10.901			-1.817
37101.000			10.900			-1.817
37200.000			10.899			-1.817
37300.000			10.899			-1.816
37401.000			10.898			-1.816
37501.000			10.898			-1.816
37601.000			10.899			-1.816
37701.000			10.898			-1.816
37800.000			10.897			-1.816
37900.000			10.897			-1.816
38001.000			10.895			-1.816
38100.000			10.894			-1.816
38200.000			10.894			-1.816
38300.000			10.894			-1.816
38401.000			10.893			-1.816
38502.000			10.893			-1.815
38600.000			10.892			-1.815
38700.000			10.893			-1.815
38801.000			10.892			-1.815
38900.000			10.891			-1.815
39000.000			10.891			-1.815
39101.000			10.891			-1.815
39201.000			10.889			-1.815
39301.000			10.888			-1.815
39401.000			10.889			-1.815
39500.000			10.889			-1.815
39600.000			10.887			-1.815
39701.000			10.887			-1.814
39800.000			10.887			-1.814
39900.000			10.887			-1.814
40002.000			10.886			-1.814
40101.000			10.886			-1.814
40200.000			10.886			-1.814
40301.000			10.885			-1.814
40400.000			10.884			-1.814
40500.000			10.883			-1.814
40601.000			10.883			-1.814
40700.000			10.883			-1.814
40801.000			10.883			-1.814
40902.000			10.882			-1.814
41000.000			10.882			-1.814
41100.000			10.881			-1.813
41201.000			10.881			-1.813
41300.000			10.881			-1.813
41400.000			10.880			-1.813
41500.000			10.879			-1.813
41601.000			10.878			-1.813
41702.000			10.877			-1.813
41800.000			10.877			-1.813
41900.000			10.877			-1.813
42001.000			10.876			-1.813
42100.000			10.875			-1.813
42200.000			10.874			-1.812
42301.000			10.874			-1.812
42401.000			10.875			-1.812
42501.000			10.874			-1.812
42601.000			10.873			-1.812
42700.000			10.873			-1.812
42800.000			10.873			-1.812
42901.000			10.873			-1.812
43000.000			10.872			-1.812
43100.000			10.872			-1.812
43202.000			10.872			-1.812
43301.000			10.871			-1.812
43400.000			10.871			-1.812
43501.000			10.869			-1.812
43600.000			10.869			-1.812
43700.000			10.869			-1.812
43801.000			10.869			-1.811
43900.000			10.868			-1.811
44001.000			10.869			-1.811
44102.000			10.868			-1.811
44200.000			10.868			-1.811
44300.000			10.867			-1.811
44401.000			10.865			-1.811
44500.000			10.864			-1.811
44600.000			10.865			-1.811
44700.000			10.865			-1.811
44801.000			10.864			-1.811
44902.000			10.864			-1.811
45000.000			10.864			-1.811
45100.000			10.863			-1.811
45201.000			10.863			-1.810
45300.000			10.862			-1.810
45400.000			10.861			-1.810
45501.000			10.861			-1.810
45601.000			10.861			-1.810
45701.000			10.860			-1.810
45801.000			10.860			-1.810
45900.000			10.860			-1.810
46000.000			10.859			-1.810
46101.000			10.859			-1.810
46200.000			10.858			-1.810
46300.000			10.857			-1.809
46402.000			10.858			-1.810
46501.000			10.858			-1.810
46600.000			10.857			-1.810
46701.000			10.856			-1.809
46800.000			10.856			-1.809
46900.000			10.855			-1.809
47001.000			10.854			-1.809
47100.000			10.854			-1.809
47201.000			10.853			-1.809
47302.000			10.854			-1.809
47400.000			10.853			-1.809
47500.000			10.853			-1.809
47601.000			10.852			-1.809
47700.000			10.852			-1.809
47800.000			10.852			-1.809
47900.000			10.852			-1.809
48001.000			10.851			-1.808
48102.000			10.849			-1.808
48200.000			10.850			-1.808
48300.000			10.850			-1.808
48401.000			10.850			-1.808
48500.000			10.849			-1.808
48600.000			10.848			-1.808
48701.000			10.847			-1.808
48801.000			10.848			-1.808
48901.000			10.847			-1.808
49001.000			10.847			-1.808
49100.000			10.846			-1.808
49200.000			10.846			-1.808
49301.000			10.845			-1.807
49400.000			10.845			-1.808
49500.000			10.844			-1.807
49602.000			10.844			-1.807
49701.000			10.843			-1.807
49801.000			10.842			-1.807
49901.000			10.842			-1.807
50000.000			10.842			-1.807
50100.000			10.842			-1.807
50201.000			10.842			-1.807
50300.000			10.840			-1.807
50401.000			10.840			-1.807
50502.000			10.840			-1.807
50601.000			10.840			-1.807
50700.000			10.839			-1.807
50801.000			10.839			-1.806
50900.000			10.839			-1.806
51000.000			10.837			-1.806
51100.000			10.836			-1.806
51200.000			10.837			-1.806
51302.000			10.836			-1.806
51401.000			10.836			-1.806
51500.000			10.837			-1.806
51601.000			10.837			-1.806
51700.000			10.836			-1.806
51800.000			10.834			-1.806
51901.000			10.834			-1.806
52001.000			10.834			-1.806
52101.000			10.833			-1.806
52201.000			10.833			-1.806
52300.000			10.833			-1.806
52400.000			10.832			-1.805
52501.000			10.833			-1.805
52600.000			10.833			-1.805
52700.000			10.832			-1.805
52802.000			10.831			-1.805
52901.000			10.831			-1.805
53000.000			10.830			-1.805
53101.000			10.830			-1.805
53200.000			10.829			-1.805
53300.000			10.829			-1.805
53401.000			10.829			-1.805
53500.000			10.829			-1.805
53601.000			10.828			-1.805
53702.000			10.828			-1.805
53800.000			10.828			-1.805
53900.000			10.826			-1.804
54001.000			10.826			-1.804
54100.000			10.826			-1.804
54200.000			10.827			-1.804
54300.000			10.827			-1.804
54401.000			10.825			-1.804
54502.000			10.824			-1.804
54600.000			10.824			-1.804
54700.000			10.824			-1.804
54801.000			10.824			-1.804
54900.000			10.823			-1.804
55000.000			10.823			-1.804
55101.000			10.823			-1.804
55201.000			10.822			-1.804
55301.000			10.823			-1.804
55401.000			10.821			-1.804
55500.000			10.821			-1.804
55600.000			10.821			-1.803
55701.000			10.821			-1.804
55800.000			10.821			-1.803
55900.000			10.820			-1.803
56002.000			10.819			-1.803
56101.000			10.819			-1.803
56200.000			10.818			-1.803
56301.000			10.818			-1.803
56400.000			10.818			-1.803
56500.000			10.817			-1.803
56601.000			10.817			-1.803
56700.000			10.816			-1.803
56801.000			10.817			-1.803
56902.000			10.818			-1.803
57000.000			10.817			-1.803
57100.000			10.816			-1.803
57201.000			10.816			-1.803
57300.000			10.814			-1.802
57400.000			10.814			-1.802
57500.000			10.814			-1.802
57601.000			10.814			-1.802
57702.000			10.814			-1.802
57800.000			10.813			-1.802
57900.000			10.813			-1.802
58001.000			10.812			-1.802
58100.000			10.811			-1.802
58200.000			10.811			-1.802
58301.000			10.811			-1.802
58401.000			10.811			-1.802
58501.000			10.810			-1.802
58601.000			10.810			-1.802
58700.000			10.810			-1.802
58800.000			10.810			-1.802
58901.000			10.809			-1.802
59000.000			10.809			-1.802
59100.000			10.809			-1.801
59202.000			10.808			-1.801
59301.000			10.808			-1.801
59400.000			10.808			-1.801
59501.000			10.807			-1.801
59600.000			10.807			-1.801
59700.000			10.806			-1.801
59801.000			10.806			-1.801
59900.000			10.806			-1.801
60001.000			10.807			-1.801
60102.000			10.806			-1.801
60200.000			10.806			-1.801
60300.000			10.805			-1.801
60401.000			10.805			-1.801
60500.000			10.804			-1.801
60600.000			10.804			-1.801
60700.000			10.804			-1.801
60801.000			10.804			-1.801
60902.000			10.804			-1.801
61000.000			10.804			-1.801
61100.000			10.803			-1.800
61201.000			10.802			-1.800
61300.000			10.802			-1.800
61400.000			10.802			-1.800
61502.000			10.802			-1.800
61601.000			10.801			-1.800
61700.000			10.801			-1.800
61801.000			10.801			-1.800
61900.000			10.799			-1.800
62000.000			10.799			-1.800
62101.000			10.799			-1.800
62200.000			10.799			-1.800
62301.000			10.799			-1.800
62402.000			10.799			-1.800
62501.000			10.799			-1.800
62600.000			10.797			-1.800
62701.000			10.796			-1.799
62800.000			10.796			-1.799
62900.000			10.797			-1.800
63001.000			10.797			-1.799
63101.000			10.796			-1.799
63201.000			10.795			-1.799
63301.000			10.795			-1.799
63400.000			10.794			-1.799
63500.000			10.794			-1.799
63601.000			10.794			-1.799
63700.000			10.794			-1.799
63800.000			10.794			-1.799
63900.000			10.794			-1.799
64001.000			10.793			-1.799
64102.000			10.793			-1.799
64200.000			10.792			-1.799
64300.000			10.793			-1.799
64401.000			10.793			-1.799
64500.000			10.792			-1.799
64600.000			10.791			-1.799
64701.000			10.791			-1.798
64801.000			10.790			-1.798
64901.000			10.790			-1.798
65001.000			10.790			-1.798
65100.000			10.791			-1.798
65200.000			10.790			-1.798
65301.000			10.790			-1.798
65400.000			10.789			-1.798
65500.000			10.789			-1.798
65602.000			10.789			-1.798
65701.000			10.788			-1.798
65800.000			10.786			-1.798
65901.000			10.788			-1.798
66000.000			10.787			-1.798
66100.000			10.787			-1.798
66201.000			10.787			-1.798
66300.000			10.786			-1.798
66401.000			10.786			-1.798
66502.000			10.785			-1.798
66600.000			10.785			-1.798
66700.000			10.785			-1.797
66801.000			10.784			-1.797
66900.000			10.784			-1.797
67000.000			10.784			-1.797
67100.000			10.783			-1.797
67201.000			10.783			-1.797
67302.000			10.783			-1.797
67400.000			10.783			-1.797
67500.000			10.783			-1.797
67601.000			10.783			-1.797
67700.000			10.782			-1.797
67800.000			10.781			-1.797
67901.000			10.781			-1.797
68000.000			10.781			-1.797
68101.000			10.780			-1.797
68202.000			10.780			-1.797
68300.000			10.780			-1.797
68400.000			10.779			-1.796
68501.000			10.779			-1.797
68600.000			10.779			-1.797
68700.000			10.779			-1.797
68801.000			10.779			-1.797
68901.000			10.778			-1.796
69001.000			10.778			-1.796
69101.000			10.778			-1.796
69200.000			10.777			-1.796
69300.000			10.777			-1.796
69401.000			10.776			-1.796
69500.000			10.777			-1.796
69600.000			10.777			-1.796
69702.000			10.776			-1.796
69801.000			10.776			-1.796
69900.000			10.775			-1.796
70001.000			10.776			-1.796
70100.000			10.775			-1.796
70200.000			10.774			-1.796
70300.000			10.774			-1.796
70400.000			10.773			-1.796
70502.000			10.774			-1.796
70601.000			10.774			-1.796
70700.000			10.774			-1.796
70801.000			10.773			-1.796
70900.000			10.773			-1.795
71000.000			10.772			-1.795
71101.000			10.772			-1.795
71200.000			10.772			-1.795
71301.000			10.773			-1.795
71402.000			10.772			-1.795
71501.000			10.772			-1.795
71600.000			10.771			-1.795
71701.000			10.770			-1.795
71800.000			10.770			-1.795
71900.000			10.770			-1.795
72001.000			10.770			-1.795
72101.000			10.769			-1.795
72201.000			10.769			-1.795
72302.000			10.770			-1.795
72400.000			10.770			-1.795
72500.000			10.769			-1.795
72601.000			10.769			-1.795
72700.000			10.769			-1.795
72800.000			10.767			-1.795
72901.000			10.767			-1.794
73001.000			10.767			-1.795
73101.000			10.767			-1.795
73201.000			10.767			-1.795
73300.000			10.767			-1.795
73400.000			10.767			-1.795
73500.000			10.767			-1.794
73600.000			10.766			-1.794
73701.000			10.766			-1.794
73801.000			10.765			-1.794
73901.000			10.765			-1.794
74001.000			10.765			-1.794
74100.000			10.765			-1.794
74200.000			10.765			-1.794
74301.000			10.765			-1.794
74400.000			10.764			-1.794
74500.000			10.764			-1.794
74602.000			10.764			-1.794
74701.000			10.764			-1.794
74800.000			10.763			-1.794
74901.000			10.763			-1.794
75000.000			10.762			-1.794
75100.000			10.761			-1.794
75201.000			10.761			-1.794
75300.000			10.762			-1.794
75401.000			10.762			-1.794
75502.000			10.762			-1.794
75600.000			10.760			-1.793
75700.000			10.760			-1.793
75801.000			10.760			-1.793
75900.000			10.760			-1.793
76000.000			10.760			-1.793
76101.000			10.760			-1.793
76201.000			10.760			-1.793
76301.000			10.760			-1.793
76401.000			10.759			-1.793
76500.000			10.758			-1.793
76600.000			10.758			-1.793
76700.000			10.758			-1.793
76800.000			10.759			-1.793
76901.000			10.758			-1.793
77000.000			10.757			-1.793
77101.000			10.757			-1.793
77202.000			10.756			-1.793
77300.000			10.756			-1.793
77400.000			10.756			-1.793
77501.000			10.756			-1.793
77600.000			10.755			-1.793
77700.000			10.756			-1.793
77801.000			10.756			-1.793
77901.000			10.754			-1.792
78001.000			10.755			-1.792
78101.000			10.754			-1.792
78200.000			10.754			-1.792
78300.000			10.753			-1.792
78401.000			10.754			-1.792
78500.000			10.753			-1.792
78600.000			10.753			-1.792
78702.000			10.753			-1.792
78801.000			10.752			-1.792
78900.000			10.752			-1.792
79001.000			10.752			-1.792
79100.000			10.752			-1.792
79200.000			10.751			-1.792
79301.000			10.751			-1.792
79400.000			10.750			-1.792
79501.000			10.750			-1.792
79602.000			10.750			-1.792
79701.000			10.749			-1.792
79800.000			10.749			-1.792
79900.000			10.750			-1.792
80000.000			10.749			-1.791
80101.000			10.749			-1.791
80200.000			10.749			-1.791
80300.000			10.748			-1.791
80402.000			10.748			-1.791
80501.000			10.748			-1.791
80600.000			10.747			-1.791
80701.000			10.748			-1.791
80800.000			10.748			-1.791
80900.000			10.746			-1.791
81001.000			10.746			-1.791
81100.000			10.746			-1.791
81201.000			10.746			-1.791
81302.000			10.746			-1.791
81400.000			10.745			-1.791
81500.000			10.745			-1.791
81601.000			10.745			-1.791
81700.000			10.744			-1.791
81800.000			10.744			-1.791
81901.000			10.744			-1.791
82001.000			10.743			-1.791
82101.000			10.743			-1.791
82201.000			10.744			-1.791
82300.000			10.743			-1.791
82400.000			10.743			-1.791
82501.000			10.743			-1.790
82600.000			10.743			-1.790
82700.000			10.743			-1.790
82802.000			10.742			-1.790
82901.000			10.741			-1.790
83000.000			10.741			-1.790
83100.000			10.741			-1.790
83200.000			10.742			-1.790
83301.000			10.742			-1.790
83400.000			10.742			-1.790
83500.000			10.741			-1.790
83602.000			10.741			-1.790
83701.000			10.741			-1.790
83800.000			10.741			-1.790
83901.000			10.740			-1.790
84000.000			10.739			-1.790
84100.000			10.738			-1.790
84201.000			10.738			-1.790
84300.000			10.738			-1.790
84401.000			10.739			-1.790
84502.000			10.738			-1.790
84600.000			10.737			-1.789
84700.000			10.736			-1.789
84801.000			10.736			-1.789
84900.000			10.736			-1.789
85000.000			10.736			-1.789
85101.000			10.737			-1.789
85201.000			10.737			-1.790
85301.000			10.736			-1.789
85401.000			10.735			-1.789
85500.000			10.734			-1.789
85600.000			10.734			-1.789
85701.000			10.735			-1.789
85800.000			10.736			-1.789
85900.000			10.735			-1.789
86001.000			10.735			-1.789
86101.000			10.734			-1.789
86202.000			10.734			-1.789
86300.000			10.733			-1.789
86400.000			10.733			-1.789
86501.000			10.733			-1.789
86600.000			10.734			-1.789
86700.000			10.733			-1.789
86801.000			10.733			-1.789
86901.000			10.732			-1.789
87001.000			10.732			-1.789
87101.000			10.731			-1.789
87200.000			10.731			-1.788
87300.000			10.731			-1.788
87401.000			10.732			-1.789
87500.000			10.731			-1.788
87600.000			10.730			-1.788
87702.000			10.730			-1.788
87801.000			10.730			-1.788
87900.000			10.730			-1.788
88001.000			10.730			-1.788
88100.000			10.729			-1.788
88200.000			10.729			-1.788
88301.000			10.729			-1.788
88400.000			10.729			-1.788
88501.000			10.729			-1.788
88602.000			10.729			-1.788
88700.000			10.728			-1.788
88800.000			10.728			-1.788
88901.000			10.728			-1.788
89000.000			10.728			-1.788
89100.000			10.728			-1.788
89201.000			10.727			-1.788
89301.000			10.727			-1.788
89402.000			10.726			-1.788
89501.000			10.727			-1.788
89600.000			10.726			-1.788
89701.000			10.726			-1.788
89800.000			10.726			-1.788
89900.000			10.726			-1.788
90001.000			10.725			-1.788
90100.000			10.725			-1.787
90201.000			10.724			-1.787
90302.000			10.724			-1.787
90400.000			10.724			-1.787
90500.000			10.723			-1.787
90601.000			10.723			-1.787
90700.000			10.723			-1.787
90800.000			10.723			-1.787
90901.000			10.723			-1.787
91001.000			10.722			-1.787
91101.000			10.722			-1.787
91201.000			10.723			-1.787
91300.000			10.722			-1.787
91400.000			10.722			-1.787
91501.000			10.722			-1.787
91600.000			10.722			-1.787
91700.000			10.721			-1.787
91802.000			10.721			-1.787
91901.000			10.720			-1.787
92000.000			10.720			-1.787
92101.000			10.719			-1.787
92200.000			10.720			-1.787
92300.000			10.719			-1.787
92401.000			10.720			-1.787
92500.000			10.719			-1.787
92602.000			10.719			-1.787
92701.000			10.719			-1.786
92800.000			10.718			-1.786
92901.000			10.718			-1.786
93000.000			10.718			-1.786
93100.000			10.718			-1.786
93201.000			10.719			-1.786
93300.000			10.718			-1.786
93401.000			10.717			-1.786
93502.000			10.717			-1.786
93600.000			10.717			-1.786
93700.000			10.715			-1.786
93801.000			10.716			-1.786
93900.000			10.716			-1.786
94000.000			10.717			-1.786
94101.000			10.716			-1.786
94201.000			10.715			-1.786
94301.000			10.715			-1.786
94401.000			10.715			-1.786
94500.000			10.715			-1.786
94600.000			10.715			-1.786
94701.000			10.715			-1.786
94800.000			10.715			-1.786
94900.000			10.715			-1.786
95001.000			10.714			-1.786
95101.000			10.714			-1.786
95201.000			10.713			-1.786
95301.000			10.714			-1.786
95400.000			10.713			-1.786
95500.000			10.713			-1.785
95601.000			10.712			-1.785
95700.000			10.712			-1.785
95800.000			10.712			-1.785
95902.000			10.712			-1.785
96001.000			10.711			-1.785
96101.000			10.711			-1.785
96200.000			10.712			-1.785
96300.000			10.711			-1.785
96401.000			10.711			-1.785
96500.000			10.711			-1.785
96600.000			10.711			-1.785
96702.000			10.710			-1.785
96801.000			10.710			-1.785
96900.000			10.710			-1.785
97001.000			10.710			-1.785
97100.000			10.711			-1.785
97200.000			10.710			-1.785
97301.000			10.709			-1.785
97400.000			10.709			-1.785
97501.000			10.709			-1.785
97602.000			10.709			-1.785
97700.000			10.709			-1.785
97800.000			10.709			-1.785
97901.000			10.709			-1.785
98000.000			10.708			-1.785
98100.000			10.708			-1.785
98201.000			10.708			-1.785
98301.000			10.707			-1.785
98401.000			10.707			-1.784
98502.000			10.707			-1.784
98600.000			10.707			-1.785
98700.000			10.707			-1.784
98801.000			10.706			-1.784
98900.000			10.707			-1.784
99000.000			10.707			-1.785
99100.000			10.707			-1.784
99201.000			10.705			-1.784
99302.000			10.705			-1.784
99400.000			10.705			-1.784
99500.000			10.705			-1.784
99601.000			10.705			-1.784
99700.000			10.705			-1.784
99800.000			10.705			-1.784
99901.000			10.704			-1.784
100001.000			10.705			-1.784
100101.000			10.705			-1.784
100201.000			10.705			-1.784
100300.000			10.704			-1.784
100400.000			10.703			-1.784
100501.000			10.703			-1.784
100600.000			10.703			-1.784
100700.000			10.704			-1.784
100802.000			10.704			-1.784
100901.000			10.703			-1.784
101000.000			10.702			-1.784
101101.000			10.702			-1.784
101200.000			10.701			-1.784
101300.000			10.702			-1.784
101401.000			10.702			-1.784
101500.000			10.701			-1.783
101601.000			10.700			-1.783
101702.000			10.700			-1.783
101800.000			10.700			-1.783
101900.000			10.700			-1.783
102001.000			10.701			-1.783
102100.000			10.700			-1.783
102200.000			10.699			-1.783
102300.000			10.699			-1.783
102401.000			10.699			-1.783
102502.000			10.699			-1.783
102600.000			10.698			-1.783
102700.000			10.698			-1.783
102801.000			10.698			-1.783
102900.000			10.698			-1.783
103000.000			10.698			-1.783
103101.000			10.698			-1.783
103200.000			10.699			-1.783
103301.000			10.697			-1.783
103402.000			10.697			-1.783
103500.000			10.698			-1.783
103600.000			10.698			-1.783
103701.000			10.698			-1.783
103800.000			10.697			-1.783
103900.000			10.698			-1.783
104001.000			10.698			-1.783
104101.000			10.697			-1.783
104201.000			10.697			-1.783
104301.000			10.697			-1.783
104400.000			10.697			-1.783
104500.000			10.695			-1.783
104601.000			10.696			-1.783
104700.000			10.696			-1.783
104800.000			10.696			-1.783
104901.000			10.696			-1.783
105001.000			10.696			-1.783
105101.000			10.695			-1.782
105201.000			10.694			-1.782
105300.000			10.693			-1.782
105400.000			10.694			-1.782
105500.000			10.694			-1.782
105600.000			10.693			-1.782
105701.000			10.695			-1.782
105801.000			10.695			-1.782
105901.000			10.693			-1.782
106001.000			10.693			-1.782
106100.000			10.693			-1.782
106200.000			10.693			-1.782
106301.000			10.693			-1.782
106400.000			10.693			-1.782
106500.000			10.693			-1.782
106601.000			10.692			-1.782
106701.000			10.692			-1.782
106801.000			10.692			-1.782
106901.000			10.690			-1.782
107000.000			10.691			-1.782
107100.000			10.691			-1.782
107201.000			10.691			-1.782
107300.000			10.691			-1.782
107400.000			10.691			-1.782
107502.000			10.690			-1.782
107601.000			10.690			-1.782
107700.000			10.690			-1.782
107801.000			10.690			-1.782
107900.000			10.690			-1.782
108000.000			10.689			-1.782
108101.000			10.690			-1.782
108200.000			10.690			-1.782
108300.000			10.690			-1.782
108402.000			10.690			-1.782
108501.000			10.690			-1.782
108600.000			10.689			-1.782
108700.000			10.688			-1.781
108800.000			10.688			-1.781
108901.000			10.689			-1.781
109000.000			10.688			-1.781
109100.000			10.688			-1.781
109201.000			10.688			-1.781
109301.000			10.688			-1.781
109401.000			10.686			-1.781
109501.000			10.687			-1.781
109600.000			10.687			-1.781
109700.000			10.688			-1.781
109801.000			10.687			-1.781
109900.000			10.685			-1.781
110000.000			10.686			-1.781
110102.000			10.686			-1.781
110201.000			10.686			-1.781
110300.000			10.685			-1.781
110401.000			10.685			-1.781
110500.000			10.684			-1.781
110600.000			10.685			-1.781
110701.000			10.685			-1.781
110800.000			10.684			-1.781
110901.000			10.684			-1.781
111002.000			10.683			-1.781
111101.000			10.684			-1.781
111200.000			10.684			-1.781
111301.000			10.684			-1.781
111400.000			10.683			-1.781
111500.000			10.684			-1.781
111601.000			10.684			-1.781
111700.000			10.684			-1.781
111802.000			10.682			-1.780
111901.000			10.682			-1.780
112000.000			10.681			-1.780
112101.000			10.682			-1.780
112200.000			10.682			-1.780
112300.000			10.682			-1.780
112401.000			10.682			-1.780
112500.000			10.681			-1.780
112601.000			10.681			-1.780
112702.000			10.680			-1.780
112800.000			10.680			-1.780
112900.000			10.680			-1.780
113001.000			10.680			-1.780
113100.000			10.680			-1.780
113200.000			10.680			-1.780
113301.000			10.678			-1.780
113401.000			10.679			-1.780
113501.000			10.680			-1.780
113601.000			10.680			-1.780
113700.000			10.679			-1.780
113800.000			10.679			-1.780
113901.000			10.678			-1.780
114000.000			10.678			-1.780
114100.000			10.678			-1.780
114201.000			10.679			-1.780
114301.000			10.677			-1.780
114401.000			10.677			-1.779
114501.000			10.676			-1.779
114600.000			10.677			-1.779
114700.000			10.677			-1.780
114801.000			10.677			-1.780
114900.000			10.677			-1.780
115000.000			10.677			-1.779
115102.000			10.677			-1.780
115201.000			10.676			-1.779
115301.000			10.676			-1.779
115400.000			10.676			-1.779
115500.000			10.675			-1.779
115601.000			10.675			-1.779
115700.000			10.676			-1.779
115800.000			10.675			-1.779
115901.000			10.674			-1.779
116001.000			10.675			-1.779
116101.000			10.675			-1.779
116201.000			10.675			-1.779
116300.000			10.673			-1.779
116400.000			10.673			-1.779
116501.000			10.673			-1.779
116600.000			10.673			-1.779
116700.000			10.672			-1.779
116802.000			10.672			-1.779
116901.000			10.673			-1.779
117000.000			10.673			-1.779
117101.000			10.674			-1.779
117200.000			10.673			-1.779
117300.000			10.673			-1.779
117401.000			10.672			-1.779
117500.000			10.672			-1.779
117601.000			10.672			-1.779
117702.000			10.672			-1.779
117801.000			10.671			-1.778
117900.000			10.671			-1.778
118001.000			10.670			-1.778
118100.000			10.670			-1.778
118200.000			10.671			-1.778
118300.000			10.671			-1.778
118400.000			10.670			-1.778
118502.000			10.672			-1.779
118601.000			10.671			-1.778
118700.000			10.670			-1.778
118801.000			10.670			-1.778
118900.000			10.670			-1.778
119000.000			10.670			-1.778
119101.000			10.669			-1.778
119200.000			10.668			-1.778
119300.000			10.668			-1.778
119402.000			10.669			-1.778
119501.000			10.670			-1.778
119600.000			10.669			-1.778
119701.000			10.669			-1.778
119800.000			10.668			-1.778
119900.000			10.667			-1.778
120001.000			10.667			-1.778
120100.000			10.668			-1.778
120201.000			10.669			-1.778
120302.000			10.667			-1.778
120401.000			10.667			-1.778
120500.000			10.668			-1.778
120601.000			10.668			-1.778
120700.000			10.668			-1.778
120800.000			10.667			-1.778
120901.000			10.666			-1.778
121000.000			10.666			-1.778
121101.000			10.667			-1.778
121202.000			10.666			-1.778
121300.000			10.666			-1.778
121400.000			10.665			-1.778
121500.000			10.665			-1.778
121600.000			10.664			-1.777
121701.000			10.664			-1.777
121800.000			10.664			-1.777
121901.000			10.665			-1.778
122002.000			10.664			-1.777
122100.000			10.664			-1.777
122200.000			10.664			-1.777
122301.000			10.664			-1.777
122400.000			10.664			-1.777
122500.000			10.664			-1.777
122601.000			10.664			-1.777
122701.000			10.663			-1.777
122801.000			10.663			-1.777
122901.000			10.663			-1.777
123000.000			10.663			-1.777
123100.000			10.663			-1.777
123201.000			10.663			-1.777
123300.000			10.663			-1.777
123400.000			10.662			-1.777
123502.000			10.662			-1.777
123601.000			10.662			-1.777
123701.000			10.662			-1.777
123801.000			10.661			-1.777
123900.000			10.661			-1.777
124000.000			10.662			-1.777
124101.000			10.661			-1.777
124200.000			10.662			-1.777
124300.000			10.661			-1.777
124402.000			10.660			-1.777
124501.000			10.660			-1.777
124600.000			10.661			-1.777
124700.000			10.660			-1.777
124800.000			10.660			-1.777
124901.000			10.659			-1.777
125000.000			10.659			-1.776
125100.000			10.659			-1.777
125202.000			10.660			-1.777
125301.000			10.660			-1.777
125400.000			10.659			-1.777
125501.000			10.659			-1.776
125600.000			10.659			-1.777
125700.000			10.658			-1.776
125801.000			10.658			-1.776
125900.000			10.659			-1.776
126000.000			10.658			-1.776
126102.000			10.658			-1.776
126201.000			10.657			-1.776
126300.000			10.658			-1.776
126401.000			10.657			-1.776
126500.000			10.657			-1.776
126600.000			10.656			-1.776
126701.000			10.656			-1.776
126800.000			10.657			-1.776
126901.000			10.656			-1.776
127002.000			10.656			-1.776
127100.000			10.655			-1.776
127200.000			10.656			-1.776
127301.000			10.656			-1.776
127400.000			10.655			-1.776
127500.000			10.655			-1.776
127601.000			10.655			-1.776
127700.000			10.656			-1.776
127802.000			10.655			-1.776
127901.000			10.655			-1.776
128000.000			10.654			-1.776
128101.000			10.655			-1.776
128200.000			10.653			-1.776
128300.000			10.653			-1.776
128401.000			10.653			-1.776
128500.000			10.654			-1.776
128601.000			10.654			-1.776
128702.000			10.654			-1.776
128800.000			10.653			-1.776
128900.000			10.653			-1.776
129001.000			10.653			-1.776
129100.000			10.653			-1.775
129200.000			10.651			-1.775
129301.000			10.653			-1.776
129400.000			10.653			-1.776
129501.000			10.652			-1.775
129602.000			10.651			-1.775
129700.000			10.651			-1.775
129800.000			10.652			-1.775
129901.000			10.653			-1.775
130000.000			10.652			-1.775
130100.000			10.650			-1.775
130201.000			10.651			-1.775
130301.000			10.651			-1.775
130401.000			10.652			-1.775
130501.000			10.651			-1.775
130600.000			10.651			-1.775
130700.000			10.650			-1.775
130801.000			10.651			-1.775
130900.000			10.651			-1.775
131000.000			10.650			-1.775
131102.000			10.650			-1.775
131201.000			10.649			-1.775
131301.000			10.650			-1.775
131400.000			10.650			-1.775
131500.000			10.650			-1.775
131601.000			10.651			-1.775
131700.000			10.651			-1.775
131800.000			10.650			-1.775
131901.000			10.650			-1.775
132001.000			10.650			-1.775
132101.000			10.650			-1.775
132201.000			10.648			-1.775
132300.000			10.649			-1.775
132400.000			10.648			-1.775
132501.000			10.648			-1.775
132600.000			10.648			-1.775
132700.000			10.649			-1.775
132801.000			10.648			-1.775
132901.000			10.648			-1.775
133001.000			10.647			-1.775
133102.000			10.647			-1.775
133200.000			10.647			-1.775
133300.000			10.647			-1.775
133401.000			10.647			-1.775
133500.000			10.647			-1.775
133600.000			10.648			-1.775
133701.000			10.647			-1.774
133801.000			10.646			-1.774
133901.000			10.647			-1.774
134002.000			10.646			-1.774
134100.000			10.646			-1.774
134200.000			10.646			-1.774
134300.000			10.646			-1.774
134400.000			10.645			-1.774
134501.000			10.645			-1.774
134600.000			10.645			-1.774
134700.000			10.645			-1.774
134802.000			10.646			-1.774
134901.000			10.645			-1.774
135000.000			10.644			-1.774
135101.000			10.645			-1.774
135200.000			10.644			-1.774
135300.000			10.644			-1.774
135401.000			10.643			-1.774
135500.000			10.642			-1.774
135600.000			10.643			-1.774
135702.000			10.643			-1.774
135801.000			10.643			-1.774
135900.000			10.642			-1.774
136001.000			10.643			-1.774
136100.000			10.643			-1.774
136200.000			10.642			-1.774
136301.000			10.642			-1.774
136400.000			10.642			-1.774
136500.000			10.642			-1.774
136602.000			10.642			-1.774
136701.000			10.642			-1.774
136801.000			10.642			-1.774
136901.000			10.641			-1.774
137000.000			10.640			-1.773
137100.000			10.640			-1.773
137201.000			10.640			-1.773
137300.000			10.641			-1.774
137400.000			10.641			-1.774
137502.000			10.639			-1.773
137601.000			10.639			-1.773
137702.000			10.639			-1.773
137800.000			10.639			-1.773
137900.000			10.639			-1.773
138001.000			10.638			-1.773
138100.000			10.639			-1.773
138200.000			10.639			-1.773
138301.000			10.639			-1.773
138401.000			10.638			-1.773
138501.000			10.638			-1.773
138602.000			10.638			-1.773
138700.000			10.638			-1.773
138800.000			10.638			-1.773
138901.000			10.639			-1.773
139000.000			10.639			-1.773
139100.000			10.638			-1.773
139201.000			10.638			-1.773
139300.000			10.637			-1.773
139401.000			10.636			-1.773
139502.000			10.636			-1.773
139601.000			10.637			-1.773
139700.000			10.636			-1.773
139801.000			10.636			-1.773
139900.000			10.636			-1.773
140000.000			10.637			-1.773
140101.000			10.636			-1.773
140200.000			10.635			-1.772
140300.000			10.634			-1.772
140402.000			10.635			-1.773
140501.000			10.635			-1.773
140600.000			10.636			-1.773
140700.000			10.635			-1.773
140800.000			10.635			-1.772
140901.000			10.634			-1.772
141000.000			10.634			-1.772
141100.000			10.634			-1.772
141201.000			10.634			-1.772
141301.000			10.635			-1.772
141401.000			10.634			-1.772
141501.000			10.634			-1.772
141600.000			10.633			-1.772
141700.000			10.633			-1.772
141801.000			10.633			-1.772
141900.000			10.633			-1.772
142000.000			10.633			-1.772
142101.000			10.633			-1.772
142201.000			10.633			-1.772
142301.000			10.633			-1.772
142401.000			10.632			-1.772
142500.000			10.632			-1.772
142600.000			10.632			-1.772
142701.000			10.632			-1.772
142800.000			10.632			-1.772
142900.000			10.632			-1.772
143001.000			10.631			-1.772
143101.000			10.631			-1.772
143201.000			10.631			-1.772
143301.000			10.631			-1.772
143400.000			10.631			-1.772
143500.000			10.631			-1.772
143601.000			10.632			-1.772
143700.000			10.631			-1.772
143800.000			10.630			-1.772
143902.000			10.630			-1.772
144001.000			10.630			-1.772
144102.000			10.630			-1.772
144200.000			10.631			-1.772
144300.000			10.630			-1.772
144401.000			10.630			-1.772
144500.000			10.631			-1.772
144600.000			10.630			-1.772
144701.000			10.629			-1.772
144801.000			10.630			-1.772
144901.000			10.629			-1.772
145002.000			10.630			-1.772
145100.000			10.629			-1.772
145200.000			10.629			-1.772
145301.000			10.629			-1.772
145400.000			10.629			-1.771
145500.000			10.628			-1.771
145601.000			10.628			-1.771
145700.000			10.629			-1.771
145801.000			10.629			-1.771
145902.000			10.628			-1.771
146000.000			10.628			-1.771
146100.000			10.628			-1.771
146201.000			10.626			-1.771
146300.000			10.627			-1.771
146400.000			10.628			-1.771
146501.000			10.627			-1.771
146600.000			10.627			-1.771
146701.000			10.627			-1.771
146802.000			10.628			-1.771
146900.000			10.627			-1.771
147000.000			10.627			-1.771
147100.000			10.626			-1.771
147200.000			10.626			-1.771
147301.000			10.626			-1.771
147400.000			10.626			-1.771
147500.000			10.626			-1.771
147602.000			10.626			-1.771
147701.000			10.625			-1.771
147801.000			10.623			-1.771
147901.000			10.625			-1.771
148000.000			10.625			-1.771
148100.000			10.624			-1.771
148201.000			10.625			-1.771
148300.000			10.625			-1.771
148400.000			10.625			-1.771
148502.000			10.624			-1.771
148601.000			10.623			-1.771
148701.000			10.624			-1.771
148801.000			10.623			-1.771
148900.000			10.623			-1.771
149000.000			10.623			-1.771
149101.000			10.623			-1.770
149200.000			10.623			-1.771
149300.000			10.624			-1.771
149401.000			10.623			-1.771
149501.000			10.621			-1.770
149601.000			10.622			-1.770
149701.000			10.621			-1.770
149800.000			10.620			-1.770
149900.000			10.621			-1.770
150001.000			10.621			-1.770
150100.000			10.622			-1.770
150200.000			10.622			-1.770
150300.000			10.622			-1.770
150401.000			10.622			-1.770
150502.000			10.622			-1.770
150600.000			10.622			-1.770
150700.000			10.622			-1.770
150801.000			10.622			-1.770
150900.000			10.622			-1.770
151000.000			10.621			-1.770
151101.000			10.621			-1.770
151200.000			10.621			-1.770
151301.000			10.621			-1.770
151402.000			10.621			-1.770
151500.000			10.621			-1.770
151600.000			10.620			-1.770
151701.000			10.620			-1.770
151800.000			10.621			-1.770
151900.000			10.621			-1.770
152001.000			10.619			-1.770
152100.000			10.618			-1.770
152201.000			10.619			-1.770
152302.000			10.619			-1.770
152400.000			10.619			-1.770
152500.000			10.618			-1.770
152601.000			10.618			-1.770
152700.000			10.618			-1.770
152800.000			10.617			-1.769
152901.000			10.616			-1.769
153000.000			10.618			-1.770
153101.000			10.617			-1.770
153202.000			10.617			-1.770
153300.000			10.616			-1.769
153400.000			10.618			-1.770
153500.000			10.618			-1.770
153600.000			10.616			-1.769
153701.000			10.616			-1.769
153800.000			10.616			-1.769
153900.000			10.617			-1.770
154002.000			10.617			-1.769
154101.000			10.616			-1.769
154200.000			10.616			-1.769
154301.000			10.617			-1.769
154400.000			10.616			-1.769
154500.000			10.616			-1.769
154601.000			10.614			-1.769
154700.000			10.614			-1.769
154800.000			10.615			-1.769
154902.000			10.615			-1.769
155001.000			10.614			-1.769
155100.000			10.614			-1.769
155201.000			10.615			-1.769
155300.000			10.613			-1.769
155400.000			10.614			-1.769
155501.000			10.615			-1.769
155600.000			10.614			-1.769
155700.000			10.614			-1.769
155802.000			10.614			-1.769
155901.000			10.614			-1.769
156000.000			10.613			-1.769
156101.000			10.612			-1.769
156200.000			10.612			-1.769
156300.000			10.613			-1.769
156401.000			10.613			-1.769
156500.000			10.612			-1.769
156600.000			10.612			-1.769
156702.000			10.612			-1.769
156801.000			10.611			-1.769
156902.000			10.612			-1.769
157000.000			10.613			-1.769
157100.000			10.613			-1.769
157201.000			10.612			-1.769
157300.000			10.611			-1.769
157400.000			10.612			-1.769
157501.000			10.612			-1.769
157601.000			10.611			-1.768
157701.000			10.612			-1.769
157802.000			10.611			-1.769
157900.000			10.611			-1.769
158000.000			10.611			-1.768
158101.000			10.610			-1.768
158200.000			10.610			-1.768
158300.000			10.609			-1.768
158401.000			10.609			-1.768
158501.000			10.609			-1.768
158601.000			10.608			-1.768
158702.000			10.609			-1.768
158800.000			10.609			-1.768
158900.000			10.609			-1.768
159001.000			10.610			-1.768
159100.000			10.610			-1.768
159200.000			10.609			-1.768
159301.000			10.608			-1.768
159401.000			10.608			-1.768
159501.000			10.609			-1.768
159602.000			10.607			-1.768
159700.000			10.608			-1.768
159800.000			10.608			-1.768
159900.000			10.609			-1.768
160000.000			10.608			-1.768
160101.000			10.608			-1.768
160200.000			10.608			-1.768
160300.000			10.608			-1.768
160402.000			10.607			-1.768
160501.000			10.607			-1.768
160600.000			10.608			-1.768
160701.000			10.607			-1.768
160800.000			10.606			-1.768
160900.000			10.607			-1.768
161001.000			10.606			-1.768
161100.000			10.607			-1.768
161200.000			10.607			-1.768
161302.000			10.605			-1.768
161401.000			10.605			-1.768
161500.000			10.607			-1.768
161601.000			10.606			-1.768
161700.000			10.606			-1.768
161800.000			10.605			-1.767
161901.000			10.605			-1.768
162000.000			10.606			-1.768
162100.000			10.605			-1.767
162202.000			10.606			-1.768
162301.000			10.605			-1.768
162400.000			10.604			-1.767
162501.000			10.605			-1.768
162600.000			10.605			-1.768
162700.000			10.604			-1.767
162801.000			10.604			-1.767
162900.000			10.604			-1.767
163000.000			10.604			-1.767
163102.000			10.603			-1.767
163201.000			10.604			-1.767
163301.000			10.603			-1.767
163400.000			10.603			-1.767
163500.000			10.602			-1.767
163601.000			10.603			-1.767
163700.000			10.604			-1.767
163800.000			10.603			-1.767
163901.000			10.604			-1.767
164001.000			10.602			-1.767
164101.000			10.602			-1.767
164201.000			10.603			-1.767
164300.000			10.603			-1.767
164400.000			10.603			-1.767
164501.000			10.603			-1.767
164600.000			10.602			-1.767
164700.000			10.602			-1.767
164801.000			10.602			-1.767
164901.000			10.601			-1.767
165001.000			10.602			-1.767
165101.000			10.602			-1.767
165200.000			10.601			-1.767
165300.000			10.601			-1.767
165401.000			10.601			-1.767
165500.000			10.600			-1.767
165600.000			10.600			-1.767
165701.000			10.600			-1.767
165801.000			10.599			-1.767
165901.000			10.599			-1.767
166001.000			10.598			-1.766
166100.000			10.599			-1.766
166200.000			10.599			-1.767
166300.000			10.599			-1.766
166400.000			10.598			-1.766
166501.000			10.598			-1.766
166600.000			10.598			-1.766
166700.000			10.599			-1.767
166802.000			10.599			-1.767
166901.000			10.599			-1.766
167000.000			10.598			-1.766
167101.000			10.598			-1.766
167200.000			10.598			-1.766
167300.000			10.598			-1.766
167401.000			10.598			-1.766
167500.000			10.598			-1.766
167600.000			10.598			-1.766
167702.000			10.598			-1.766
167801.000			10.598			-1.766
167901.000			10.597			-1.766
168001.000			10.596			-1.766
168100.000			10.597			-1.766
168200.000			10.597			-1.766
168301.000			10.597			-1.766
168400.000			10.598			-1.766
168500.000			10.598			-1.766
168601.000			10.597			-1.766
168701.000			10.597			-1.766
168801.000			10.597			-1.766
168902.000			10.598			-1.766
169000.000			10.598			-1.766
169100.000			10.597			-1.766
169201.000			10.596			-1.766
169300.000			10.595			-1.766
169400.000			10.595			-1.766
169500.000			10.595			-1.766
169600.000			10.595			-1.766
169702.000			10.596			-1.766
169801.000			10.596			-1.766
169900.000			10.595			-1.766
170001.000			10.594			-1.766
170100.000			10.594			-1.766
170200.000			10.596			-1.766
170301.000			10.596			-1.766
170400.000			10.595			-1.766
170500.000			10.595			-1.766
170602.000			10.595			-1.766
170701.000			10.595			-1.766
170801.000			10.594			-1.766
170901.000			10.594			-1.766
171000.000			10.594			-1.766
171100.000			10.595			-1.766
171201.000			10.594			-1.766
171300.000			10.594			-1.766
171400.000			10.593			-1.765
171502.000			10.592			-1.765
171601.000			10.594			-1.766
171701.000			10.594			-1.766
171801.000			10.593			-1.766
171900.000			10.594			-1.766
172000.000			10.594			-1.766
172101.000			10.594			-1.766
172200.000			10.593			-1.765
172300.000			10.592			-1.765
172401.000			10.593			-1.766
172501.000			10.593			-1.766
172602.000			10.592			-1.765
172700.000			10.593			-1.765
172800.000			10.593			-1.765
172901.000			10.592			-1.765
173000.000			10.592			-1.765
173100.000			10.592			-1.765
173201.000			10.592			-1.765
173300.000			10.592			-1.765
173401.000			10.592			-1.765
173502.000			10.592			-1.765
173601.000			10.591			-1.765
173700.000			10.591			-1.765
173801.000			10.592			-1.765
173900.000			10.592			-1.765
174000.000			10.591			-1.765
174101.000			10.592			-1.765
174200.000			10.591			-1.765
174301.000			10.591			-1.765
174402.000			10.591			-1.765
174501.000			10.591			-1.765
174600.000			10.590			-1.765
174701.000			10.591			-1.765
174800.000			10.591			-1.765
174900.000			10.591			-1.765
175001.000			10.590			-1.765
175100.000			10.591			-1.765
175200.000			10.590			-1.765
175302.000			10.590			-1.765
175401.000			10.589			-1.765
175500.000			10.589			-1.765
175601.000			10.590			-1.765
175700.000			10.590			-1.765
175800.000			10.590			-1.765
175900.000			10.589			-1.765
176000.000			10.588			-1.765
176101.000			10.589			-1.765
176200.000			10.589			-1.765
176301.000			10.588			-1.765
176402.000			10.589			-1.765
176500.000			10.589			-1.765
176600.000			10.589			-1.765
176701.000			10.589			-1.765
176800.000			10.588			-1.765
176900.000			10.588			-1.765
177001.000			10.589			-1.765
177100.000			10.587			-1.765
177200.000			10.587			-1.765
177302.000			10.588			-1.765
177401.000			10.587			-1.765
177500.000			10.586			-1.764
177601.000			10.586			-1.764
177700.000			10.587			-1.764
177800.000			10.587			-1.765
177901.000			10.587			-1.765
178000.000			10.586			-1.764
178100.000			10.586			-1.764
178202.000			10.585			-1.764
178301.000			10.585			-1.764
178401.000			10.585			-1.764
178501.000			10.586			-1.764
178600.000			10.586			-1.764
178700.000			10.586			-1.764
178801.000			10.586			-1.764
178900.000			10.586			-1.764
179000.000			10.584			-1.764
179100.000			10.584			-1.764
179201.000			10.585			-1.764
179302.000			10.584			-1.764
179400.000			10.584			-1.764
179500.000			10.585			-1.764
179601.000			10.585			-1.764
179700.000			10.584			-1.764
179800.000			10.583			-1.764
179901.000			10.583			-1.764
180000.000			10.583			-1.764
180101.000			10.583			-1.764
180202.000			10.584			-1.764
180301.000			10.584			-1.764
180400.000			10.583			-1.764
180501.000			10.583			-1.764
180600.000			10.583			-1.764
180700.000			10.583			-1.764
180801.000			10.583			-1.764
180900.000			10.584			-1.764
181000.000			10.583			-1.764
181102.000			10.583			-1.764
181201.000			10.581			-1.764
181300.000			10.582			-1.764
181401.000			10.582			-1.764
181500.000			10.582			-1.764
181600.000			10.582			-1.764
181701.000			10.581			-1.763
181800.000			10.580			-1.763
181900.000			10.580			-1.763
182002.000			10.580			-1.763
182101.000			10.581			-1.763
182202.000			10.581			-1.763
182300.000			10.580			-1.763
182400.000			10.581			-1.764
182501.000			10.582			-1.764
182600.000			10.582			-1.764
182700.000			10.582			-1.764
182801.000			10.580			-1.763
182901.000			10.580			-1.763
183001.000			10.581			-1.763
183102.000			10.580			-1.763
183200.000			10.580			-1.763
183300.000			10.580			-1.763
183401.000			10.580			-1.763
183500.000			10.580			-1.763
183600.000			10.580			-1.763
183701.000			10.579			-1.763
183800.000			10.579			-1.763
183901.000			10.579			-1.763
184002.000			10.579			-1.763
184101.000			10.578			-1.763
184200.000			10.579			-1.763
184301.000			10.577			-1.763
184400.000			10.578			-1.763
184500.000			10.578			-1.763
184601.000			10.578			-1.763
184700.000			10.578			-1.763
184800.000			10.578			-1.763
184902.000			10.578			-1.763
185001.000			10.577			-1.763
185100.000			10.577			-1.763
185201.000			10.577			-1.763
185300.000			10.578			-1.763
185400.000			10.577			-1.763
185500.000			10.576			-1.763
185600.000			10.576			-1.763
185701.000			10.576			-1.763
185801.000			10.575			-1.763
185901.000			10.575			-1.763
186001.000			10.576			-1.763
186100.000			10.576			-1.763
186200.000			10.577			-1.763
186301.000			10.576			-1.763
186400.000			10.576			-1.763
186500.000			10.576			-1.763
186601.000			10.575			-1.762
186700.000			10.575			-1.762
186801.000			10.575			-1.763
186902.000			10.575			-1.762
187000.000			10.575			-1.762
187100.000			10.574			-1.762
187201.000			10.575			-1.763
187300.000			10.575			-1.763
187400.000			10.576			-1.763
187501.000			10.575			-1.763
187600.000			10.575			-1.762
187701.000			10.575			-1.763
187802.000			10.576			-1.763
187901.000			10.573			-1.762
188000.000			10.574			-1.762
188101.000			10.574			-1.762
188200.000			10.574			-1.762
188300.000			10.574			-1.762
188401.000			10.574			-1.762
188500.000			10.573			-1.762
188600.000			10.574			-1.762
188702.000			10.574			-1.762
188801.000			10.573			-1.762
188901.000			10.572			-1.762
189000.000			10.572			-1.762
189100.000			10.573			-1.762
189201.000			10.572			-1.762
189300.000			10.572			-1.762
189400.000			10.572			-1.762
189501.000			10.573			-1.762
189600.000			10.572			-1.762
189701.000			10.571			-1.762
189802.000			10.572			-1.762
189900.000			10.572			-1.762
190000.000			10.571			-1.762
190101.000			10.571			-1.762
190200.000			10.571			-1.762
190300.000			10.571			-1.762
190401.000			10.571			-1.762
190500.000			10.571			-1.762
190601.000			10.571			-1.762
190702.000			10.572			-1.762
190800.000			10.570			-1.762
190900.000			10.570			-1.762
191001.000			10.570			-1.762
191100.000			10.571			-1.762
191200.000			10.571			-1.762
191301.000			10.571			-1.762
191400.000			10.571			-1.762
191501.000			10.569			-1.761
191602.000			10.568			-1.761
191701.000			10.570			-1.762
191800.000			10.570			-1.762
191900.000			10.571			-1.762
192000.000			10.570			-1.762
192101.000			10.570			-1.762
192200.000			10.569			-1.761
192300.000			10.568			-1.761
192401.000			10.569			-1.761
192501.000			10.568			-1.761
192601.000			10.568			-1.761
192701.000			10.567			-1.761
192800.000			10.567			-1.761
192900.000			10.568			-1.761
193001.000			10.567			-1.761
193100.000			10.568			-1.761
193200.000			10.569			-1.762
193301.000			10.569			-1.761
193401.000			10.568			-1.761
193501.000			10.567			-1.761
193602.000			10.567			-1.761
193700.000			10.566			-1.761
193800.000			10.566			-1.761
193901.000			10.567			-1.761
194000.000			10.568			-1.761
194100.000			10.568			-1.761
194201.000			10.568			-1.761
194300.000			10.567			-1.761
194401.000			10.567			-1.761
194502.000			10.567			-1.761
194600.000			10.567			-1.761
194700.000			10.567			-1.761
194801.000			10.565			-1.761
194900.000			10.567			-1.761
195000.000			10.567			-1.761
195100.000			10.566			-1.761
195200.000			10.567			-1.761
195302.000			10.567			-1.761
195401.000			10.567			-1.761
195501.000			10.567			-1.761
195601.000			10.567			-1.761
195700.000			10.567			-1.761
195800.000			10.566			-1.761
195901.000			10.566			-1.761
196000.000			10.566			-1.761
196100.000			10.565			-1.761
196201.000			10.564			-1.761
196301.000			10.565			-1.761
196401.000			10.565			-1.761
196501.000			10.564			-1.761
196600.000			10.565			-1.761
196700.000			10.565			-1.761
196801.000			10.564			-1.761
196900.000			10.565			-1.761
197000.000			10.566			-1.761
197101.000			10.565			-1.761
197201.000			10.564			-1.761
197301.000			10.564			-1.761
197402.000			10.564			-1.761
197500.000			10.563			-1.761
197600.000			10.563			-1.761
197701.000			10.563			-1.761
197800.000			10.564			-1.761
197900.000			10.563			-1.761
198001.000			10.564			-1.761
198100.000			10.563			-1.761
198202.000			10.563			-1.760
198301.000			10.563			-1.761
198401.000			10.563			-1.761
198501.000			10.563			-1.761
198600.000			10.564			-1.761
198700.000			10.563			-1.761
198801.000			10.563			-1.760
198900.000			10.563			-1.760
199000.000			10.561			-1.760
199101.000			10.561			-1.760
199201.000			10.562			-1.760
199301.000			10.562			-1.760
199401.000			10.562			-1.760
199500.000			10.561			-1.760
199600.000			10.562			-1.760
199701.000			10.562			-1.760
199800.000			10.562			-1.760
199900.000			10.561			-1.760
200001.000			10.562			-1.760
200101.000			10.560			-1.760
200201.000			10.560			-1.760
200302.000			10.561			-1.760
200400.000			10.561			-1.760
200500.000			10.561			-1.760
200601.000			10.559			-1.760
200700.000			10.559			-1.760
200800.000			10.560			-1.760
200901.000			10.559			-1.760
201001.000			10.560			-1.760
201101.000			10.561			-1.760
201201.000			10.561			-1.760
201300.000			10.561			-1.760
201400.000			10.559			-1.760
201500.000			10.559			-1.760
201600.000			10.559			-1.760
201701.000			10.559			-1.760
201800.000			10.559			-1.760
201901.000			10.558			-1.760
202002.000			10.558			-1.760
202101.000			10.559			-1.760
202200.000			10.558			-1.760
202301.000			10.558			-1.760
202400.000			10.558			-1.760
202500.000			10.558			-1.760
202601.000			10.558			-1.760
202700.000			10.558			-1.760
202801.000			10.559			-1.760
202902.000			10.559			-1.760
203001.000			10.559			-1.760
203100.000			10.558			-1.760
203201.000			10.558			-1.760
203300.000			10.558			-1.760
203400.000			10.557			-1.760
203501.000			10.557			-1.760
203600.000			10.557			-1.759
203701.000			10.557			-1.760
203802.000			10.558			-1.760
203901.000			10.557			-1.759
204000.000			10.556			-1.759
204101.000			10.556			-1.759
204200.000			10.557			-1.760
204300.000			10.557			-1.760
204401.000			10.556			-1.759
204500.000			10.557			-1.759
204602.000			10.557			-1.759
204701.000			10.556			-1.759
204801.000			10.555			-1.759
204901.000			10.555			-1.759
205000.000			10.554			-1.759
205100.000			10.555			-1.759
205201.000			10.556			-1.759
205300.000			10.555			-1.759
205400.000			10.555			-1.759
205502.000			10.555			-1.759
205601.000			10.556			-1.759
205701.000			10.556			-1.759
205801.000			10.556			-1.759
205900.000			10.555			-1.759
206000.000			10.555			-1.759
206101.000			10.555			-1.759
206200.000			10.554			-1.759
206300.000			10.554			-1.759
206402.000			10.555			-1.759
206501.000			10.555			-1.759
206601.000			10.554			-1.759
206701.000			10.553			-1.759
206800.000			10.553			-1.759
206900.000			10.553			-1.759
207001.000			10.555			-1.759
207100.000			10.554			-1.759
207200.000			10.553			-1.759
207301.000			10.552			-1.759
207401.000			10.553			-1.759
207501.000			10.553			-1.759
207601.000			10.552			-1.759
207700.000			10.552			-1.759
207800.000			10.553			-1.759
207900.000			10.552			-1.759
208000.000			10.553			-1.759
208101.000			10.553			-1.759
208201.000			10.552			-1.759
208301.000			10.552			-1.759
208402.000			10.552			-1.759
208500.000			10.552			-1.759
208600.000			10.553			-1.759
208701.000			10.552			-1.759
208800.000			10.552			-1.759
208900.000			10.552			-1.759
209001.000			10.552			-1.759
209101.000			10.552			-1.759
209201.000			10.550			-1.758
209302.000			10.550			-1.758
209400.000			10.551			-1.758
209500.000			10.551			-1.759
209601.000			10.551			-1.758
209700.000			10.550			-1.758
209800.000			10.550			-1.758
209901.000			10.550			-1.758
210000.000			10.551			-1.758
210101.000			10.550			-1.758
210202.000			10.550			-1.758
210300.000			10.550			-1.758
210400.000			10.550			-1.758
210501.000			10.550			-1.758
210600.000			10.549			-1.758
210700.000			10.550			-1.758
210801.000			10.550			-1.758
210901.000			10.549			-1.758
211002.000			10.550			-1.758
211101.000			10.550			-1.758
211200.000			10.548			-1.758
211301.000			10.549			-1.758
211400.000			10.550			-1.758
211500.000			10.550			-1.758
211601.000			10.550			-1.758
211700.000			10.549			-1.758
211800.000			10.548			-1.758
211902.000			10.548			-1.758
212001.000			10.548			-1.758
212100.000			10.548			-1.758
212201.000			10.548			-1.758
212300.000			10.548			-1.758
212400.000			10.548			-1.758
212501.000			10.548			-1.758
212600.000			10.547			-1.758
212701.000			10.547			-1.758
212802.000			10.547			-1.758
212901.000			10.548			-1.758
213000.000			10.548			-1.758
213101.000			10.547			-1.758
213200.000			10.547			-1.758
213300.000			10.547			-1.758
213401.000			10.548			-1.758
213500.000			10.548			-1.758
213601.000			10.547			-1.758
213702.000			10.547			-1.758
213801.000			10.547			-1.758
213900.000			10.546			-1.758
214001.000			10.546			-1.758
214100.000			10.546			-1.758
214200.000			10.547			-1.758
214300.000			10.547			-1.758
214400.000			10.546			-1.758
214502.000			10.546			-1.758
214601.000			10.547			-1.758
214701.000			10.546			-1.758
214801.000			10.545			-1.758
214900.000			10.545			-1.758
215000.000			10.545			-1.757
215101.000			10.545			-1.758
215200.000			10.546			-1.758
215300.000			10.546			-1.758
215402.000			10.546			-1.758
215501.000			10.547			-1.758
215601.000			10.546			-1.758
215701.000			10.545			-1.757
215800.000			10.545			-1.757
215900.000			10.545			-1.757
216001.000			10.544			-1.757
216100.000			10.544			-1.757
216200.000			10.544			-1.757
216302.000			10.544			-1.757
216401.000			10.545			-1.757
216501.000			10.544			-1.757
216601.000			10.545			-1.757
216700.000			10.544			-1.757
216800.000			10.544			-1.757
216901.000			10.544			-1.757
217000.000			10.544			-1.757
217100.000			10.544			-1.757
217202.000			10.543			-1.757
217301.000			10.543			-1.757
217402.000			10.544			-1.757
217500.000			10.544			-1.757
217600.000			10.544			-1.757
217701.000			10.544			-1.757
217800.000			10.543			-1.757
217900.000			10.542			-1.757
218001.000			10.542			-1.757
218101.000			10.542			-1.757
218201.000			10.542			-1.757
218302.000			10.542			-1.757
218400.000			10.542			-1.757
218500.000			10.542			-1.757
218601.000			10.543			-1.757
218700.000			10.542			-1.757
218800.000			10.542			-1.757
218901.000			10.543			-1.757
219000.000			10.542			-1.757
219101.000			10.542			-1.757
219202.000			10.541			-1.757
219300.000			10.540			-1.757
219400.000			10.541			-1.757
219501.000			10.541			-1.757
219600.000			10.541			-1.757
219700.000			10.541			-1.757
219801.000			10.540			-1.757
219901.000			10.540			-1.757
220001.000			10.540			-1.757
220102.000			10.540			-1.757
220200.000			10.540			-1.757
220300.000			10.541			-1.757
220401.000			10.541			-1.757
220500.000			10.540			-1.757
220600.000			10.540			-1.757
220700.000			10.540			-1.757
220800.000			10.539			-1.757
220902.000			10.540			-1.757
221001.000			10.539			-1.757
221100.000			10.539			-1.756
221201.000			10.539			-1.756
221300.000			10.539			-1.756
221400.000			10.539			-1.756
221501.000			10.539			-1.756
221600.000			10.538			-1.756
221700.000			10.538			-1.756
221802.000			10.538			-1.756
221901.000			10.539			-1.756
222000.000			10.538			-1.756
222101.000			10.537			-1.756
222200.000			10.537			-1.756
222300.000			10.537			-1.756
222401.000			10.537			-1.756
222500.000			10.536			-1.756
222600.000			10.537			-1.756
222702.000			10.537			-1.756
222801.000			10.536			-1.756
222900.000			10.537			-1.756
223001.000			10.537			-1.756
223100.000			10.537			-1.756
223200.000			10.537			-1.756
223301.000			10.537			-1.756
223400.000			10.536			-1.756
223500.000			10.535			-1.756
223602.000			10.535			-1.756
223701.000			10.535			-1.756
223800.000			10.536			-1.756
223900.000			10.535			-1.756
224000.000			10.535			-1.756
224101.000			10.536			-1.756
224200.000			10.535			-1.756
224300.000			10.535			-1.756
224401.000			10.535			-1.756
224501.000			10.535			-1.756
224601.000			10.535			-1.756
224701.000			10.535			-1.756
224800.000			10.536			-1.756
224900.000			10.535			-1.756
225001.000			10.535			-1.756
225100.000			10.534			-1.756
225200.000			10.534			-1.756
225301.000			10.534			-1.756
225401.000			10.534			-1.756
225501.000			10.534			-1.756
225601.000			10.535			-1.756
225700.000			10.534			-1.756
225800.000			10.533			-1.755
225901.000			10.534			-1.756
226000.000			10.534			-1.756
226100.000			10.534			-1.756
226201.000			10.533			-1.755
226301.000			10.533			-1.756
226401.000			10.534			-1.756
226501.000			10.534			-1.756
226600.000			10.534			-1.756
226700.000			10.533			-1.755
226801.000			10.533			-1.756
226900.000			10.533			-1.756
227000.000			10.533			-1.756
227100.000			10.533			-1.755
227201.000			10.532			-1.755
227302.000			10.533			-1.755
227400.000			10.531			-1.755
227500.000			10.533			-1.755
227601.000			10.533			-1.755
227700.000			10.533			-1.755
227800.000			10.532			-1.755
227901.000			10.530			-1.755
228000.000			10.531			-1.755
228101.000			10.532			-1.755
228202.000			10.532			-1.755
228301.000			10.531			-1.755
228400.000			10.531			-1.755
228501.000			10.531			-1.755
228600.000			10.532			-1.755
228700.000			10.531			-1.755
228801.000			10.530			-1.755
228900.000			10.531			-1.755
229001.000			10.531			-1.755
229102.000			10.530			-1.755
229201.000			10.530			-1.755
229300.000			10.530			-1.755
229401.000			10.530			-1.755
229500.000			10.531			-1.755
229600.000			10.531			-1.755
229701.000			10.529			-1.755
229800.000			10.529			-1.755
229900.000			10.529			-1.755
230002.000			10.529			-1.755
230101.000			10.529			-1.755
230200.000			10.529			-1.755
230300.000			10.529			-1.755
230400.000			10.529			-1.755
230501.000			10.529			-1.755
230600.000			10.530			-1.755
230700.000			10.529			-1.755
230801.000			10.529			-1.755
230901.000			10.529			-1.755
231001.000			10.529			-1.755
231101.000			10.529			-1.755
231200.000			10.529			-1.755
231300.000			10.528			-1.755
231401.000			10.528			-1.755
231500.000			10.528			-1.755
231600.000			10.529			-1.755
231701.000			10.528			-1.755
231801.000			10.529			-1.755
231901.000			10.529			-1.755
232001.000			10.528			-1.755
232100.000			10.527			-1.755
232200.000			10.528			-1.755
232301.000			10.528			-1.755
232400.000			10.527			-1.754
232500.000			10.527			-1.755
232601.000			10.528			-1.755
232701.000			10.528			-1.755
232801.000			10.528			-1.755
232901.000			10.528			-1.755
233000.000			10.527			-1.754
233100.000			10.527			-1.754
233201.000			10.527			-1.754
233300.000			10.526			-1.754
233400.000			10.527			-1.754
233500.000			10.527			-1.754
233601.000			10.527			-1.754
233702.000			10.527			-1.754
233800.000			10.525			-1.754
233900.000			10.527			-1.754
234001.000			10.527			-1.755
234100.000			10.527			-1.754
234200.000			10.526			-1.754
234301.000			10.526			-1.754
234400.000			10.526			-1.754
234501.000			10.526			-1.754
234602.000			10.525			-1.754
234700.000			10.524			-1.754
234800.000			10.524			-1.754
234901.000			10.525			-1.754
235000.000			10.525			-1.754
235100.000			10.525			-1.754
235201.000			10.525			-1.754
235300.000			10.525			-1.754
235401.000			10.525			-1.754
235502.000			10.525			-1.754
235600.000			10.525			-1.754
235700.000			10.526			-1.754
235801.000			10.525			-1.754
235900.000			10.524			-1.754
236000.000			10.523			-1.754
236101.000			10.523			-1.754
236200.000			10.524			-1.754
236301.000			10.524			-1.754
236402.000			10.524			-1.754
236500.000			10.525			-1.754
236600.000			10.524			-1.754
236700.000			10.524			-1.754
236800.000			10.524			-1.754
236901.000			10.523			-1.754
237000.000			10.523			-1.754
237100.000			10.524			-1.754
237202.000			10.523			-1.754
237301.000			10.523			-1.754
237400.000			10.523			-1.754
237501.000			10.523			-1.754
237600.000			10.523			-1.754
237700.000			10.523			-1.754
237801.000			10.522			-1.754
237900.000			10.523			-1.754
238000.000			10.524			-1.754
238102.000			10.522			-1.754
238201.000			10.522			-1.754
238300.000			10.522			-1.754
238401.000			10.521			-1.754
238500.000			10.521			-1.754
238600.000			10.522			-1.754
238701.000			10.522			-1.754
238800.000			10.522			-1.754
238900.000			10.522			-1.754
239002.000			10.522			-1.754
239101.000			10.522			-1.754
239201.000			10.522			-1.754
239301.000			10.522			-1.754
239400.000			10.523			-1.754
239500.000			10.522			-1.754
239601.000			10.522			-1.754
239700.000			10.521			-1.754
239800.000			10.521			-1.754
239902.000			10.522			-1.754
240001.000			10.521			-1.753
240102.000			10.521			-1.753
240200.000			10.521			-1.754
240300.000			10.521			-1.753
240401.000			10.520			-1.753
240500.000			10.520			-1.753
240600.000			10.521			-1.753
240701.000			10.520			-1.753
240801.000			10.520			-1.753
240901.000			10.520			-1.753
241001.000			10.520			-1.753
241100.000			10.520			-1.753
241200.000			10.520			-1.753
241301.000			10.519			-1.753
241400.000			10.520			-1.753
241500.000			10.519			-1.753
241601.000			10.519			-1.753
241701.000			10.520			-1.753
241801.000			10.520			-1.753
241901.000			10.519			-1.753
242000.000			10.518			-1.753
242100.000			10.518			-1.753
242201.000			10.519			-1.753
242300.000			10.519			-1.753
242400.000			10.520			-1.753
242501.000			10.520			-1.753
242601.000			10.520			-1.753
242701.000			10.519			-1.753
242801.000			10.518			-1.753
242900.000			10.519			-1.753
243000.000			10.520			-1.753
243100.000			10.519			-1.753
243200.000			10.519			-1.753
243301.000			10.519			-1.753
243400.000			10.520			-1.753
243501.000			10.519			-1.753
243602.000			10.517			-1.753
243701.000			10.517			-1.753
243800.000			10.518			-1.753
243901.000			10.518			-1.753
244000.000			10.517			-1.753
244100.000			10.517			-1.753
244201.000			10.517			-1.753
244300.000			10.517			-1.753
244401.000			10.516			-1.753
244502.000			10.517			-1.753
244601.000			10.517			-1.753
244700.000			10.517			-1.753
244801.000			10.516			-1.753
244900.000			10.516			-1.753
245000.000			10.517			-1.753
245101.000			10.517			-1.753
245200.000			10.517			-1.753
245301.000			10.516			-1.753
245402.000			10.515			-1.752
245501.000			10.516			-1.753
245600.000			10.516			-1.753
245701.000			10.517			-1.753
245800.000			10.516			-1.753
245900.000			10.516			-1.753
246001.000			10.515			-1.753
246100.000			10.515			-1.752
246200.000			10.515			-1.753
246302.000			10.515			-1.753
246401.000			10.515			-1.753
246501.000			10.515			-1.752
246600.000			10.514			-1.752
246700.000			10.515			-1.752
246801.000			10.515			-1.753
246900.000			10.515			-1.753
247000.000			10.515			-1.753
247101.000			10.515			-1.752
247201.000			10.514			-1.752
247301.000			10.515			-1.753
247401.000			10.514			-1.752
247500.000			10.513			-1.752
247600.000			10.514			-1.752
247701.000			10.514			-1.752
247800.000			10.514			-1.752
247900.000			10.514			-1.752
248001.000			10.513			-1.752
248101.000			10.513			-1.752
248201.000			10.513			-1.752
248301.000			10.513			-1.752
248400.000			10.512			-1.752
248500.000			10.513			-1.752
248601.000			10.513			-1.752
248700.000			10.514			-1.752
248800.000			10.513			-1.752
248901.000			10.513			-1.752
249001.000			10.513			-1.752
249101.000			10.514			-1.752
249201.000			10.514			-1.752
249300.000			10.513			-1.752
249400.000			10.512			-1.752
249500.000			10.513			-1.752
249600.000			10.512			-1.752
249701.000			10.512			-1.752
249800.000			10.512			-1.752
249901.000			10.513			-1.752
250002.000			10.513			-1.752
250101.000			10.512			-1.752
250200.000			10.513			-1.752
250301.000			10.512			-1.752
250400.000			10.512			-1.752
250500.000			10.513			-1.752
250601.000			10.513			-1.752
250700.000			10.512			-1.752
250801.000			10.512			-1.752
250902.000			10.511			-1.752
251000.000			10.511			-1.752
251100.000			10.511			-1.752
251201.000			10.511			-1.752
251300.000			10.512			-1.752
251400.000			10.512			-1.752
251501.000			10.512			-1.752
251600.000			10.512			-1.752
251701.000			10.511			-1.752
251802.000			10.510			-1.752
251900.000			10.511			-1.752
252000.000			10.511			-1.752
252101.000			10.512			-1.752
252200.000			10.512			-1.752
252300.000			10.511			-1.752
252401.000			10.511			-1.752
252500.000			10.510			-1.752
252602.000			10.510			-1.752
252701.000			10.510			-1.752
252800.000			10.510			-1.752
252901.000			10.511			-1.752
253000.000			10.510			-1.752
253100.000			10.510			-1.752
253201.000			10.509			-1.751
253300.000			10.510			-1.752
253400.000			10.510			-1.752
253502.000			10.509			-1.752
253601.000			10.509			-1.752
253701.000			10.510			-1.752
253801.000			10.509			-1.752
253900.000			10.509			-1.752
254000.000			10.510			-1.752
254101.000			10.510			-1.752
254200.000			10.511			-1.752
254300.000			10.509			-1.752
254402.000			10.508			-1.751
254501.000			10.509			-1.751
254601.000			10.509			-1.752
254701.000			10.509			-1.751
254800.000			10.508			-1.751
254900.000			10.508			-1.751
255001.000			10.509			-1.751
255100.000			10.509			-1.751
255200.000			10.508			-1.751
255302.000			10.508			-1.751
255401.000			10.508			-1.751
255501.000			10.507			-1.751
255601.000			10.507			-1.751
255700.000			10.508			-1.751
255800.000			10.508			-1.751
255900.000			10.508			-1.751
256000.000			10.508			-1.751
256101.000			10.506			-1.751
256200.000			10.508			-1.751
256301.000			10.507			-1.751
256402.000			10.508			-1.751
256500.000			10.508			-1.751
256600.000			10.508			-1.751
256701.000			10.507			-1.751
256800.000			10.506			-1.751
256900.000			10.507			-1.751
257001.000			10.506			-1.751
257100.000			10.506			-1.751
257201.000			10.507			-1.751
257302.000			10.506			-1.751
257400.000			10.506			-1.751
257500.000			10.507			-1.751
257601.000			10.507			-1.751
257700.000			10.507			-1.751
257800.000			10.506			-1.751
257901.000			10.505			-1.751
258000.000			10.506			-1.751
258101.000			10.506			-1.751
258202.000			10.505			-1.751
258301.000			10.505			-1.751
258400.000			10.506			-1.751
258501.000			10.505			-1.751
258600.000			10.505			-1.751
258700.000			10.505			-1.751
258801.000			10.506			-1.751
258900.000			10.506			-1.751
259002.000			10.505			-1.751
259101.000			10.505			-1.751
259201.000			10.506			-1.751
259301.000			10.505			-1.751
259400.000			10.505			-1.751
259500.000			10.505			-1.751
259601.000			10.505			-1.751
259700.000			10.504			-1.751
259800.000			10.505			-1.751
259902.000			10.505			-1.751
260001.000			10.505			-1.751
260101.000			10.504			-1.751
260201.000			10.504			-1.751
260300.000			10.504			-1.751
260400.000			10.504			-1.751
260501.000			10.504			-1.751
260600.000			10.504			-1.751
260700.000			10.504			-1.751
260802.000			10.504			-1.751
260901.000			10.503			-1.751
261001.000			10.502			-1.750
261101.000			10.503			-1.751
261200.000			10.503			-1.751
261300.000			10.503			-1.751
261401.000			10.503			-1.751
261500.000			10.503			-1.750
261600.000			10.502			-1.750
261702.000			10.502			-1.750
261801.000			10.502			-1.750
261900.000			10.503			-1.751
262001.000			10.502			-1.750
262100.000			10.501			-1.750
262200.000			10.502			-1.750
262300.000			10.503			-1.750
262400.000			10.503			-1.750
262501.000			10.502			-1.750
262601.000			10.502			-1.750
262701.000			10.502			-1.750
262801.000			10.501			-1.750
262900.000			10.501			-1.750
263000.000			10.502			-1.750
263101.000			10.502			-1.750
263200.000			10.502			-1.750
263300.000			10.502			-1.750
263401.000			10.501			-1.750
263501.000			10.500			-1.750
263601.000			10.502			-1.750
263701.000			10.501			-1.750
263800.000			10.500			-1.750
263900.000			10.501			-1.750
264001.000			10.502			-1.750
264100.000			10.502			-1.750
264200.000			10.501			-1.750
264302.000			10.501			-1.750
264401.000			10.501			-1.750
264501.000			10.501			-1.750
264601.000			10.500			-1.750
264700.000			10.501			-1.750
264800.000			10.501			-1.750
264901.000			10.499			-1.750
265000.000			10.500			-1.750
265100.000			10.499			-1.750
265201.000			10.500			-1.750
265301.000			10.500			-1.750
265402.000			10.498			-1.750
265500.000			10.499			-1.750
265600.000			10.499			-1.750
265701.000			10.500			-1.750
265800.000			10.500			-1.750
265900.000			10.500			-1.750
266001.000			10.499			-1.750
266100.000			10.499			-1.750
266201.000			10.499			-1.750
266302.000			10.498			-1.750
266401.000			10.499			-1.750
266500.000			10.499			-1.750
266601.000			10.499			-1.750
266700.000			10.498			-1.750
266800.000			10.498			-1.750
266901.000			10.499			-1.750
267000.000			10.498			-1.750
267100.000			10.498			-1.750
267202.000			10.498			-1.750
267301.000			10.498			-1.750
267401.000			10.498			-1.750
267501.000			10.498			-1.750
267600.000			10.497			-1.750
267700.000			10.497			-1.749
267801.000			10.497			-1.750
267900.000			10.497			-1.749
268000.000			10.497			-1.750
268101.000			10.498			-1.750
268201.000			10.498			-1.750
268301.000			10.496			-1.749
268401.000			10.496			-1.749
268500.000			10.497			-1.749
268600.000			10.497			-1.750
268700.000			10.497			-1.750
268800.000			10.497			-1.749
268901.000			10.496			-1.749
269000.000			10.496			-1.749
269101.000			10.496			-1.749
269202.000			10.496			-1.749
269301.000			10.496			-1.749
269400.000			10.495			-1.749
269501.000			10.495			-1.749
269600.000			10.495			-1.749
269700.000			10.495			-1.749
269801.000			10.495			-1.749
269900.000			10.495			-1.749
270000.000			10.496			-1.749
270102.000			10.496			-1.749
270201.000			10.496			-1.749
270300.000			10.496			-1.749
270401.000			10.496			-1.749
270500.000			10.495			-1.749
270600.000			10.495			-1.749
270701.000			10.495			-1.749
270800.000			10.495			-1.749
270900.000			10.495			-1.749
271002.000			10.494			-1.749
271101.000			10.494			-1.749
271201.000			10.495			-1.749
271301.000			10.495			-1.749
271400.000			10.494			-1.749
271500.000			10.494			-1.749
271601.000			10.493			-1.749
271700.000			10.494			-1.749
271800.000			10.495			-1.749
271900.000			10.492			-1.749
272001.000			10.493			-1.749
272102.000			10.493			-1.749
272200.000			10.494			-1.749
272300.000			10.494			-1.749
272401.000			10.493			-1.749
272500.000			10.493			-1.749
272600.000			10.493			-1.749
272701.000			10.493			-1.749
272800.000			10.493			-1.749
272901.000			10.492			-1.749
273002.000			10.492			-1.749
273101.000			10.492			-1.749
273200.000			10.494			-1.749
273301.000			10.491			-1.749
273400.000			10.491			-1.749
273500.000			10.491			-1.749
273601.000			10.492			-1.749
273700.000			10.491			-1.749
273801.000			10.492			-1.749
273902.000			10.492			-1.749
274001.000			10.491			-1.749
274100.000			10.491			-1.749
274201.000			10.492			-1.749
274300.000			10.491			-1.749
274400.000			10.491			-1.749
274501.000			10.492			-1.749
274600.000			10.492			-1.749
274700.000			10.492			-1.749
274802.000			10.492			-1.749
274901.000			10.491			-1.749
275000.000			10.492			-1.749
275100.000			10.491			-1.749
275200.000			10.490			-1.748
275301.000			10.491			-1.749
275400.000			10.490			-1.748
275500.000			10.490			-1.748
275601.000			10.490			-1.748
275701.000			10.490			-1.748
275801.000			10.490			-1.748
275901.000			10.490			-1.748
276000.000			10.490			-1.748
276100.000			10.490			-1.748
276201.000			10.489			-1.748
276300.000			10.489			-1.748
276400.000			10.490			-1.748
276501.000			10.490			-1.748
276601.000			10.490			-1.748
276701.000			10.490			-1.748
276802.000			10.490			-1.748
276900.000			10.489			-1.748
277000.000			10.489			-1.748
277101.000			10.489			-1.748
277200.000			10.489			-1.748
277300.000			10.489			-1.748
277401.000			10.489			-1.748
277500.000			10.490			-1.748
277601.000			10.490			-1.748
277702.000			10.488			-1.748
277801.000			10.489			-1.748
277900.000			10.488			-1.748
278001.000			10.488			-1.748
278100.000			10.489			-1.748
278200.000			10.490			-1.748
278300.000			10.489			-1.748
278400.000			10.487			-1.748
278501.000			10.488			-1.748
278601.000			10.487			-1.748
278701.000			10.487			-1.748
278801.000			10.487			-1.748
278900.000			10.487			-1.748
279000.000			10.488			-1.748
279101.000			10.488			-1.748
279200.000			10.487			-1.748
279300.000			10.487			-1.748
279401.000			10.488			-1.748
279500.000			10.488			-1.748
279601.000			10.488			-1.748
279702.000			10.487			-1.748
279800.000			10.486			-1.748
279900.000			10.487			-1.748
280001.000			10.486			-1.748
280100.000			10.486			-1.748
280200.000			10.486			-1.748
280301.000			10.486			-1.748
280400.000			10.486			-1.748
280501.000			10.487			-1.748
280602.000			10.486			-1.748
280701.000			10.487			-1.748
280800.000			10.487			-1.748
280901.000			10.485			-1.748
281000.000			10.485			-1.747
281100.000			10.485			-1.748
281201.000			10.486			-1.748
281300.000			10.485			-1.748
281400.000			10.485			-1.747
281502.000			10.485			-1.748
281601.000			10.485			-1.748
281701.000			10.485			-1.748
281800.000			10.485			-1.748
281900.000			10.485			-1.747
282001.000			10.485			-1.748
282100.000			10.485			-1.748
282200.000			10.485			-1.747
282301.000			10.485			-1.747
282401.000			10.485			-1.747
282501.000			10.485			-1.748
282601.000			10.485			-1.747
282700.000			10.485			-1.747
282800.000			10.485			-1.747
282901.000			10.485			-1.748
283000.000			10.485			-1.748
283100.000			10.484			-1.747
283201.000			10.484			-1.747
283301.000			10.485			-1.747
283401.000			10.485			-1.747
283502.000			10.484			-1.747
283600.000			10.484			-1.747
283700.000			10.484			-1.747
283801.000			10.484			-1.747
283900.000			10.485			-1.748
284000.000			10.483			-1.747
284101.000			10.482			-1.747
284200.000			10.483			-1.747
284301.000			10.483			-1.747
284402.000			10.484			-1.747
284500.000			10.484			-1.747
284600.000			10.484			-1.747
284700.000			10.484			-1.747
284800.000			10.483			-1.747
284901.000			10.483			-1.747
285000.000			10.483			-1.747
285100.000			10.483			-1.747
285202.000			10.484			-1.747
285301.000			10.485			-1.747
285400.000			10.483			-1.747
285501.000			10.483			-1.747
285600.000			10.483			-1.747
285700.000			10.482			-1.747
285801.000			10.482			-1.747
285900.000			10.482			-1.747
286000.000			10.481			-1.747
286102.000			10.482			-1.747
286201.000			10.482			-1.747
286301.000			10.482			-1.747
286401.000			10.482			-1.747
286500.000			10.482			-1.747
286600.000			10.481			-1.747
286701.000			10.481			-1.747
286800.000			10.481			-1.747
286900.000			10.481			-1.747
287001.000			10.481			-1.747
287101.000			10.483			-1.747
287201.000			10.482			-1.747
287301.000			10.481			-1.747
287400.000			10.480			-1.747
287500.000			10.481			-1.747
287601.000			10.482			-1.747
287700.000			10.481			-1.747
287800.000			10.480			-1.747
287900.000			10.481			-1.747
288001.000			10.481			-1.747
288102.000			10.480			-1.747
288201.000			10.481			-1.747
288300.000			10.481			-1.747
288401.000			10.480			-1.747
288500.000			10.481			-1.747
288600.000			10.481			-1.747
288701.000			10.481			-1.747
288800.000			10.481			-1.747
288900.000			10.480			-1.747
289002.000			10.480			-1.747
289101.000			10.481			-1.747
289200.000			10.481			-1.747
289301.000			10.480			-1.747
289400.000			10.479			-1.747
289500.000			10.479			-1.747
289601.000			10.479			-1.747
289700.000			10.479			-1.747
289800.000			10.480			-1.747
289902.000			10.479			-1.747
290001.000			10.481			-1.747
290101.000			10.480			-1.747
290201.000			10.479			-1.746
290300.000			10.479			-1.747
290400.000			10.479			-1.746
290501.000			10.478			-1.746
290600.000			10.479			-1.747
290700.000			10.479			-1.747
290801.000			10.479			-1.747
290901.000			10.479			-1.746
291002.000			10.479			-1.746
291100.000			10.478			-1.746
291200.000			10.478			-1.746
291301.000			10.479			-1.746
291400.000			10.478			-1.746
291500.000			10.478			-1.746
291601.000			10.479			-1.746
291700.000			10.478			-1.746
291801.000			10.478			-1.746
291902.000			10.479			-1.746
292001.000			10.478			-1.746
292100.000			10.477			-1.746
292201.000			10.478			-1.746
292300.000			10.479			-1.747
292400.000			10.478			-1.746
292501.000			10.477			-1.746
292600.000			10.477			-1.746
292700.000			10.477			-1.746
292802.000			10.479			-1.746
292901.000			10.477			-1.746
293000.000			10.477			-1.746
293101.000			10.478			-1.746
293200.000			10.477			-1.746
293300.000			10.478			-1.746
293401.000			10.477			-1.746
293500.000			10.476			-1.746
293600.000			10.477			-1.746
293702.000			10.477			-1.746
293801.000			10.477			-1.746
293901.000			10.477			-1.746
294001.000			10.477			-1.746
294100.000			10.477			-1.746
294200.000			10.477			-1.746
294300.000			10.476			-1.746
294400.000			10.477			-1.746
294501.000			10.477			-1.746
294600.000			10.476			-1.746
294701.000			10.476			-1.746
294802.000			10.476			-1.746
294900.000			10.477			-1.746
295000.000			10.476			-1.746
295101.000			10.475			-1.746
295200.000			10.475			-1.746
295300.000			10.475			-1.746
295401.000			10.475			-1.746
295500.000			10.476			-1.746
295601.000			10.476			-1.746
295702.000			10.475			-1.746
295801.000			10.474			-1.746
295900.000			10.474			-1.746
296001.000			10.474			-1.746
296100.000			10.474			-1.746
296200.000			10.474			-1.746
296301.000			10.474			-1.746
296400.000			10.475			-1.746
296500.000			10.474			-1.746
296602.000			10.475			-1.746
296701.000			10.475			-1.746
296800.000			10.475			-1.746
296901.000			10.474			-1.746
297000.000			10.474			-1.746
297100.000			10.475			-1.746
297201.000			10.475			-1.746
297300.000			10.475			-1.746
297400.000			10.475			-1.746
297500.000			10.474			-1.746
297601.000			10.474			-1.746
297702.000			10.474			-1.746
297801.000			10.473			-1.746
297900.000			10.474			-1.746
298001.000			10.473			-1.746
298100.000			10.474			-1.746
298200.000			10.474			-1.746
298301.000			10.473			-1.746
298400.000			10.473			-1.746
298500.000			10.474			-1.746
298602.000			10.474			-1.746
298701.000			10.475			-1.746
298800.000			10.474			-1.746
298901.000			10.474			-1.746
299000.000			10.474			-1.746
299100.000			10.473			-1.745
299201.000			10.473			-1.745
299300.000			10.473			-1.745
299400.000			10.473			-1.745
299502.000			10.472			-1.745
299601.000			10.471			-1.745
299701.000			10.472			-1.745
299801.000			10.472			-1.745
299900.000			10.472			-1.745
