# Acquired on 30/01/2024 10:17:22 
# SPIDER: Creep_-10mm_HM077x145x38AA-1
# CREEP MEASUREMENT

# time [ms]		force [N]		stiffness [N/mm]
1.000			57.227			-5.723
105.000			57.856			-5.786
203.000			57.873			-5.787
304.000			57.656			-5.766
405.000			57.494			-5.749
504.000			57.370			-5.737
604.000			57.172			-5.717
705.000			57.090			-5.709
804.000			57.016			-5.702
903.000			56.949			-5.695
1005.000			56.885			-5.689
1104.000			56.827			-5.683
1204.000			56.773			-5.677
1305.000			56.721			-5.672
1403.000			56.628			-5.663
1504.000			56.586			-5.659
1605.000			56.545			-5.655
1704.000			56.507			-5.651
1804.000			56.469			-5.647
1905.000			56.433			-5.643
2004.000			56.399			-5.640
2103.000			56.335			-5.633
2205.000			56.304			-5.630
2304.000			56.274			-5.627
2404.000			56.244			-5.624
2505.000			56.216			-5.622
2604.000			56.190			-5.619
2704.000			56.164			-5.616
2803.000			56.113			-5.611
2904.000			56.089			-5.609
3005.000			56.066			-5.607
3104.000			56.046			-5.605
3204.000			56.024			-5.602
3304.000			56.001			-5.600
3404.000			55.980			-5.598
3504.000			55.939			-5.594
3605.000			55.920			-5.592
3704.000			55.902			-5.590
3804.000			55.882			-5.588
3905.000			55.863			-5.586
4003.000			55.844			-5.584
4104.000			55.827			-5.583
4205.000			55.810			-5.581
4304.000			55.776			-5.578
4404.000			55.760			-5.576
4505.000			55.743			-5.574
4604.000			55.726			-5.573
4703.000			55.711			-5.571
4805.000			55.696			-5.570
4904.000			55.681			-5.568
5004.000			55.653			-5.565
5105.000			55.637			-5.564
5203.000			55.623			-5.562
5304.000			55.609			-5.561
5405.000			55.596			-5.560
5504.000			55.581			-5.558
5604.000			55.570			-5.557
5705.000			55.543			-5.554
5804.000			55.531			-5.553
5903.000			55.518			-5.552
6005.000			55.506			-5.551
6104.000			55.494			-5.549
6205.000			55.482			-5.548
6304.000			55.470			-5.547
6404.000			55.445			-5.545
6505.000			55.434			-5.543
6603.000			55.423			-5.542
6704.000			55.412			-5.541
6805.000			55.401			-5.540
6904.000			55.391			-5.539
7004.000			55.380			-5.538
7104.000			55.369			-5.537
7204.000			55.347			-5.535
7304.000			55.337			-5.534
7405.000			55.328			-5.533
7504.000			55.317			-5.532
7604.000			55.307			-5.531
7705.000			55.297			-5.530
7803.000			55.287			-5.529
7904.000			55.269			-5.527
8005.000			55.258			-5.526
8104.000			55.250			-5.525
8204.000			55.240			-5.524
8305.000			55.231			-5.523
8404.000			55.222			-5.522
8503.000			55.213			-5.521
8605.000			55.196			-5.520
8704.000			55.187			-5.519
8804.000			55.179			-5.518
8905.000			55.169			-5.517
9003.000			55.161			-5.516
9104.000			55.153			-5.515
9205.000			55.144			-5.514
9304.000			55.128			-5.513
9405.000			55.120			-5.512
9504.000			55.111			-5.511
9604.000			55.104			-5.510
9704.000			55.097			-5.510
9804.000			55.089			-5.509
9904.000			55.082			-5.508
10005.000			55.073			-5.507
10104.000			55.057			-5.506
10204.000			55.049			-5.505
10305.000			55.041			-5.504
10403.000			55.034			-5.503
10504.000			55.027			-5.503
10605.000			55.020			-5.502
10704.000			55.013			-5.501
10804.000			54.999			-5.500
10905.000			54.992			-5.499
11004.000			54.985			-5.498
11103.000			54.978			-5.498
11205.000			54.971			-5.497
11304.000			54.964			-5.496
11404.000			54.956			-5.496
11505.000			54.944			-5.494
11604.000			54.937			-5.494
11704.000			54.930			-5.493
11804.000			54.923			-5.492
11904.000			54.917			-5.492
12004.000			54.911			-5.491
12105.000			54.904			-5.490
12204.000			54.897			-5.490
12304.000			54.884			-5.488
12405.000			54.877			-5.488
12503.000			54.870			-5.487
12605.000			54.864			-5.486
12704.000			54.858			-5.486
12804.000			54.853			-5.485
12905.000			54.847			-5.485
13004.000			54.835			-5.483
13104.000			54.828			-5.483
13204.000			54.822			-5.482
13304.000			54.817			-5.482
13404.000			54.811			-5.481
13505.000			54.805			-5.481
13604.000			54.800			-5.480
13704.000			54.787			-5.479
13805.000			54.782			-5.478
13903.000			54.777			-5.478
14004.000			54.771			-5.477
14105.000			54.765			-5.476
14204.000			54.759			-5.476
14304.000			54.754			-5.475
14405.000			54.742			-5.474
14504.000			54.737			-5.474
14603.000			54.732			-5.473
14705.000			54.727			-5.473
14804.000			54.721			-5.472
14904.000			54.715			-5.472
15005.000			54.711			-5.471
15103.000			54.706			-5.471
15204.000			54.694			-5.469
15305.000			54.689			-5.469
15404.000			54.685			-5.468
15504.000			54.680			-5.468
15604.000			54.675			-5.467
15704.000			54.670			-5.467
15803.000			54.664			-5.466
15904.000			54.655			-5.465
16003.000			54.649			-5.465
16105.000			54.646			-5.465
16204.000			54.640			-5.464
16304.000			54.635			-5.463
16405.000			54.630			-5.463
16503.000			54.625			-5.463
16604.000			54.615			-5.462
16705.000			54.610			-5.461
16804.000			54.606			-5.461
16904.000			54.602			-5.460
17005.000			54.596			-5.460
17104.000			54.591			-5.459
17203.000			54.587			-5.459
17305.000			54.577			-5.458
17404.000			54.573			-5.457
17504.000			54.568			-5.457
17605.000			54.565			-5.456
17704.000			54.559			-5.456
17804.000			54.554			-5.455
17904.000			54.550			-5.455
18004.000			54.546			-5.455
18104.000			54.537			-5.454
18205.000			54.534			-5.453
18304.000			54.530			-5.453
18404.000			54.525			-5.452
18505.000			54.520			-5.452
18603.000			54.515			-5.451
18704.000			54.511			-5.451
18805.000			54.502			-5.450
18904.000			54.498			-5.450
19005.000			54.493			-5.449
19104.000			54.489			-5.449
19204.000			54.485			-5.448
19304.000			54.481			-5.448
19404.000			54.478			-5.448
19504.000			54.470			-5.447
19605.000			54.465			-5.447
19704.000			54.461			-5.446
19804.000			54.457			-5.446
19905.000			54.454			-5.445
20003.000			54.450			-5.445
20104.000			54.445			-5.444
20205.000			54.436			-5.444
20304.000			54.432			-5.443
20404.000			54.429			-5.443
20505.000			54.425			-5.443
20604.000			54.422			-5.442
20703.000			54.417			-5.442
20805.000			54.413			-5.441
20904.000			54.408			-5.441
21004.000			54.402			-5.440
21105.000			54.398			-5.440
21204.000			54.395			-5.439
21304.000			54.390			-5.439
21404.000			54.387			-5.439
21504.000			54.383			-5.438
21604.000			54.378			-5.438
21705.000			54.371			-5.437
21804.000			54.368			-5.437
21904.000			54.364			-5.436
22005.000			54.360			-5.436
22103.000			54.356			-5.436
22205.000			54.352			-5.435
22304.000			54.349			-5.435
22404.000			54.342			-5.434
22505.000			54.339			-5.434
22604.000			54.335			-5.434
22704.000			54.332			-5.433
22804.000			54.328			-5.433
22904.000			54.325			-5.432
23004.000			54.321			-5.432
23105.000			54.312			-5.431
23204.000			54.308			-5.431
23303.000			54.306			-5.431
23405.000			54.303			-5.430
23504.000			54.299			-5.430
23604.000			54.295			-5.430
23705.000			54.292			-5.429
23804.000			54.289			-5.429
23904.000			54.282			-5.428
24004.000			54.279			-5.428
24104.000			54.276			-5.428
24204.000			54.273			-5.427
24305.000			54.269			-5.427
24404.000			54.265			-5.427
24504.000			54.262			-5.426
24605.000			54.255			-5.425
24703.000			54.251			-5.425
24804.000			54.248			-5.425
24905.000			54.245			-5.425
25004.000			54.242			-5.424
25104.000			54.238			-5.424
25204.000			54.235			-5.423
25304.000			54.229			-5.423
25403.000			54.226			-5.423
25504.000			54.223			-5.422
25604.000			54.219			-5.422
25705.000			54.217			-5.422
25804.000			54.214			-5.421
25904.000			54.210			-5.421
26005.000			54.203			-5.420
26103.000			54.200			-5.420
26204.000			54.197			-5.420
26305.000			54.194			-5.419
26404.000			54.191			-5.419
26504.000			54.188			-5.419
26604.000			54.184			-5.418
26704.000			54.181			-5.418
26803.000			54.175			-5.417
26905.000			54.172			-5.417
27004.000			54.170			-5.417
27104.000			54.165			-5.417
27205.000			54.162			-5.416
27303.000			54.161			-5.416
27404.000			54.157			-5.416
27505.000			54.152			-5.415
27604.000			54.148			-5.415
27704.000			54.145			-5.415
27805.000			54.142			-5.414
27904.000			54.140			-5.414
28003.000			54.137			-5.414
28105.000			54.134			-5.413
28204.000			54.126			-5.413
28304.000			54.123			-5.412
28405.000			54.121			-5.412
28504.000			54.118			-5.412
28605.000			54.114			-5.411
28703.000			54.113			-5.411
28804.000			54.111			-5.411
28905.000			54.105			-5.411
29004.000			54.102			-5.410
29104.000			54.097			-5.410
29205.000			54.094			-5.409
29304.000			54.092			-5.409
29403.000			54.090			-5.409
29505.000			54.089			-5.409
29604.000			54.085			-5.409
29704.000			54.078			-5.408
29805.000			54.075			-5.407
29904.000			54.073			-5.407
30004.000			54.070			-5.407
30104.000			54.068			-5.407
30204.000			54.065			-5.407
30304.000			54.062			-5.406
30405.000			54.057			-5.406
30504.000			54.054			-5.405
30604.000			54.051			-5.405
30705.000			54.048			-5.405
30804.000			54.045			-5.405
30904.000			54.043			-5.404
31005.000			54.041			-5.404
31104.000			54.035			-5.403
31204.000			54.033			-5.403
31304.000			54.030			-5.403
31404.000			54.027			-5.403
31504.000			54.024			-5.402
31604.000			54.021			-5.402
31704.000			54.018			-5.402
31805.000			54.014			-5.401
31904.000			54.011			-5.401
32003.000			54.008			-5.401
32105.000			54.006			-5.401
32204.000			54.003			-5.400
32304.000			54.000			-5.400
32405.000			53.999			-5.400
32504.000			53.997			-5.400
32604.000			53.990			-5.399
32704.000			53.987			-5.399
32804.000			53.985			-5.398
32904.000			53.983			-5.398
33005.000			53.980			-5.398
33104.000			53.977			-5.398
33204.000			53.975			-5.398
33305.000			53.970			-5.397
33403.000			53.968			-5.397
33504.000			53.965			-5.397
33605.000			53.964			-5.396
33704.000			53.961			-5.396
33804.000			53.958			-5.396
33905.000			53.955			-5.396
34004.000			53.950			-5.395
34103.000			53.948			-5.395
34205.000			53.945			-5.395
34304.000			53.942			-5.394
34404.000			53.940			-5.394
34505.000			53.938			-5.394
34604.000			53.935			-5.394
34704.000			53.933			-5.393
34803.000			53.928			-5.393
34904.000			53.925			-5.393
35005.000			53.923			-5.392
35104.000			53.921			-5.392
35204.000			53.919			-5.392
35305.000			53.917			-5.392
35404.000			53.915			-5.391
35503.000			53.910			-5.391
35605.000			53.907			-5.391
35704.000			53.904			-5.390
35804.000			53.902			-5.390
35905.000			53.901			-5.390
36004.000			53.899			-5.390
36104.000			53.896			-5.390
36204.000			53.889			-5.389
36304.000			53.888			-5.389
36404.000			53.887			-5.389
36505.000			53.884			-5.388
36604.000			53.881			-5.388
36704.000			53.879			-5.388
36805.000			53.877			-5.388
36903.000			53.872			-5.387
37004.000			53.870			-5.387
37105.000			53.867			-5.387
37204.000			53.865			-5.387
37304.000			53.863			-5.386
37405.000			53.862			-5.386
37504.000			53.859			-5.386
37603.000			53.856			-5.386
37705.000			53.850			-5.385
37804.000			53.849			-5.385
37904.000			53.847			-5.385
38005.000			53.845			-5.385
38104.000			53.842			-5.384
38205.000			53.839			-5.384
38303.000			53.837			-5.384
38404.000			53.833			-5.383
38505.000			53.831			-5.383
38604.000			53.829			-5.383
38704.000			53.826			-5.383
38804.000			53.825			-5.382
38904.000			53.824			-5.382
39003.000			53.822			-5.382
39105.000			53.817			-5.382
39204.000			53.815			-5.382
39304.000			53.812			-5.381
39405.000			53.811			-5.381
39503.000			53.808			-5.381
39604.000			53.807			-5.381
39704.000			53.803			-5.380
39804.000			53.798			-5.380
39904.000			53.797			-5.380
40005.000			53.795			-5.380
40104.000			53.794			-5.379
40203.000			53.791			-5.379
40305.000			53.788			-5.379
40404.000			53.785			-5.379
40504.000			53.784			-5.378
40605.000			53.780			-5.378
40704.000			53.779			-5.378
40804.000			53.776			-5.378
40904.000			53.774			-5.377
41004.000			53.772			-5.377
41104.000			53.770			-5.377
41204.000			53.767			-5.377
41304.000			53.764			-5.376
41405.000			53.762			-5.376
41504.000			53.760			-5.376
41603.000			53.758			-5.376
41705.000			53.757			-5.376
41804.000			53.753			-5.375
41904.000			53.751			-5.375
42005.000			53.746			-5.375
42104.000			53.745			-5.374
42204.000			53.744			-5.374
42304.000			53.742			-5.374
42404.000			53.739			-5.374
42504.000			53.737			-5.374
42605.000			53.734			-5.373
42704.000			53.732			-5.373
42804.000			53.729			-5.373
42905.000			53.726			-5.373
43003.000			53.725			-5.372
43104.000			53.724			-5.372
43205.000			53.722			-5.372
43304.000			53.720			-5.372
43404.000			53.717			-5.372
43505.000			53.714			-5.371
43604.000			53.712			-5.371
43703.000			53.710			-5.371
43805.000			53.706			-5.371
43904.000			53.705			-5.370
44004.000			53.704			-5.370
44105.000			53.702			-5.370
44203.000			53.697			-5.370
44304.000			53.695			-5.369
44405.000			53.692			-5.369
44504.000			53.691			-5.369
44605.000			53.690			-5.369
44704.000			53.689			-5.369
44804.000			53.687			-5.369
44904.000			53.682			-5.368
45004.000			53.681			-5.368
45103.000			53.679			-5.368
45205.000			53.676			-5.368
45304.000			53.676			-5.368
45404.000			53.674			-5.367
45505.000			53.671			-5.367
45604.000			53.667			-5.367
45704.000			53.664			-5.366
45804.000			53.663			-5.366
45904.000			53.660			-5.366
46004.000			53.658			-5.366
46105.000			53.657			-5.366
46204.000			53.656			-5.366
46303.000			53.654			-5.365
46405.000			53.651			-5.365
46504.000			53.648			-5.365
46604.000			53.646			-5.365
46705.000			53.645			-5.365
46804.000			53.643			-5.364
46904.000			53.641			-5.364
47004.000			53.640			-5.364
47104.000			53.636			-5.364
47203.000			53.633			-5.363
47305.000			53.632			-5.363
47404.000			53.630			-5.363
47504.000			53.628			-5.363
47605.000			53.628			-5.363
47703.000			53.625			-5.363
47805.000			53.622			-5.362
47904.000			53.621			-5.362
48004.000			53.618			-5.362
48105.000			53.616			-5.362
48204.000			53.614			-5.361
48304.000			53.613			-5.361
48404.000			53.611			-5.361
48504.000			53.608			-5.361
48604.000			53.606			-5.361
48705.000			53.604			-5.360
48804.000			53.602			-5.360
48904.000			53.601			-5.360
49005.000			53.599			-5.360
49103.000			53.597			-5.360
49204.000			53.595			-5.360
49305.000			53.592			-5.359
49404.000			53.591			-5.359
49504.000			53.590			-5.359
49605.000			53.586			-5.359
49704.000			53.584			-5.358
49803.000			53.583			-5.358
49905.000			53.581			-5.358
50004.000			53.577			-5.358
50104.000			53.575			-5.358
50205.000			53.574			-5.357
50304.000			53.571			-5.357
50404.000			53.571			-5.357
50504.000			53.569			-5.357
50604.000			53.567			-5.357
50704.000			53.565			-5.357
50804.000			53.564			-5.356
50904.000			53.562			-5.356
51005.000			53.560			-5.356
51104.000			53.558			-5.356
51203.000			53.556			-5.356
51305.000			53.554			-5.355
51404.000			53.551			-5.355
51504.000			53.549			-5.355
51605.000			53.548			-5.355
51704.000			53.545			-5.355
51804.000			53.543			-5.354
51904.000			53.542			-5.354
52004.000			53.541			-5.354
52104.000			53.539			-5.354
52205.000			53.535			-5.354
52304.000			53.535			-5.353
52404.000			53.533			-5.353
52505.000			53.531			-5.353
52603.000			53.530			-5.353
52704.000			53.528			-5.353
52805.000			53.526			-5.353
52904.000			53.522			-5.352
53004.000			53.522			-5.352
53105.000			53.521			-5.352
53204.000			53.518			-5.352
53303.000			53.517			-5.352
53405.000			53.515			-5.352
53504.000			53.513			-5.351
53604.000			53.509			-5.351
53705.000			53.508			-5.351
53804.000			53.507			-5.351
53904.000			53.506			-5.351
54003.000			53.504			-5.350
54104.000			53.502			-5.350
54205.000			53.501			-5.350
54304.000			53.499			-5.350
54404.000			53.496			-5.350
54504.000			53.493			-5.349
54604.000			53.492			-5.349
54703.000			53.489			-5.349
54805.000			53.487			-5.349
54904.000			53.486			-5.349
55004.000			53.485			-5.349
55105.000			53.482			-5.348
55204.000			53.480			-5.348
55304.000			53.479			-5.348
55404.000			53.478			-5.348
55504.000			53.477			-5.348
55604.000			53.474			-5.347
55705.000			53.472			-5.347
55804.000			53.470			-5.347
55904.000			53.468			-5.347
56005.000			53.466			-5.347
56103.000			53.465			-5.346
56204.000			53.463			-5.346
56305.000			53.462			-5.346
56404.000			53.461			-5.346
56504.000			53.457			-5.346
56604.000			53.456			-5.346
56704.000			53.454			-5.345
56803.000			53.453			-5.345
56905.000			53.451			-5.345
57004.000			53.449			-5.345
57104.000			53.449			-5.345
57205.000			53.446			-5.345
57304.000			53.443			-5.344
57405.000			53.442			-5.344
57503.000			53.441			-5.344
57604.000			53.439			-5.344
57705.000			53.437			-5.344
57804.000			53.436			-5.344
57904.000			53.434			-5.343
58005.000			53.431			-5.343
58104.000			53.430			-5.343
58203.000			53.428			-5.343
58305.000			53.426			-5.343
58404.000			53.426			-5.343
58504.000			53.424			-5.342
58605.000			53.423			-5.342
58703.000			53.419			-5.342
58804.000			53.417			-5.342
58904.000			53.416			-5.342
59004.000			53.414			-5.341
59104.000			53.413			-5.341
59205.000			53.412			-5.341
59304.000			53.410			-5.341
59403.000			53.408			-5.341
59505.000			53.406			-5.341
59604.000			53.405			-5.340
59704.000			53.403			-5.340
59805.000			53.403			-5.340
59904.000			53.401			-5.340
60004.000			53.399			-5.340
60104.000			53.397			-5.340
60204.000			53.395			-5.339
60304.000			53.392			-5.339
60404.000			53.391			-5.339
60504.000			53.390			-5.339
60605.000			53.388			-5.339
60704.000			53.387			-5.339
60803.000			53.387			-5.339
60905.000			53.384			-5.338
61004.000			53.382			-5.338
61104.000			53.381			-5.338
61205.000			53.379			-5.338
61304.000			53.376			-5.338
61404.000			53.375			-5.338
61504.000			53.374			-5.337
61604.000			53.372			-5.337
61704.000			53.371			-5.337
61805.000			53.369			-5.337
61904.000			53.367			-5.337
62004.000			53.366			-5.337
62105.000			53.364			-5.336
62203.000			53.363			-5.336
62304.000			53.361			-5.336
62405.000			53.359			-5.336
62504.000			53.356			-5.336
62604.000			53.354			-5.335
62705.000			53.353			-5.335
62804.000			53.353			-5.335
62903.000			53.351			-5.335
63005.000			53.351			-5.335
63104.000			53.348			-5.335
63204.000			53.346			-5.335
63305.000			53.345			-5.335
63404.000			53.343			-5.334
63504.000			53.342			-5.334
63603.000			53.341			-5.334
63704.000			53.340			-5.334
63805.000			53.336			-5.334
63904.000			53.335			-5.333
64004.000			53.334			-5.333
64105.000			53.332			-5.333
64204.000			53.331			-5.333
64303.000			53.329			-5.333
64405.000			53.328			-5.333
64504.000			53.325			-5.333
64604.000			53.325			-5.332
64705.000			53.323			-5.332
64803.000			53.321			-5.332
64904.000			53.320			-5.332
65005.000			53.319			-5.332
65104.000			53.317			-5.332
65204.000			53.314			-5.331
65305.000			53.312			-5.331
65404.000			53.312			-5.331
65503.000			53.311			-5.331
65605.000			53.309			-5.331
65704.000			53.309			-5.331
65804.000			53.307			-5.331
65905.000			53.304			-5.330
66004.000			53.302			-5.330
66104.000			53.301			-5.330
66204.000			53.300			-5.330
66304.000			53.298			-5.330
66404.000			53.297			-5.330
66505.000			53.296			-5.330
66604.000			53.295			-5.329
66704.000			53.292			-5.329
66805.000			53.290			-5.329
66903.000			53.290			-5.329
67005.000			53.289			-5.329
67104.000			53.287			-5.329
67204.000			53.287			-5.329
67305.000			53.284			-5.328
67404.000			53.282			-5.328
67504.000			53.280			-5.328
67604.000			53.278			-5.328
67704.000			53.278			-5.328
67804.000			53.276			-5.328
67905.000			53.275			-5.328
68004.000			53.274			-5.327
68104.000			53.271			-5.327
68205.000			53.270			-5.327
68303.000			53.268			-5.327
68404.000			53.267			-5.327
68505.000			53.266			-5.327
68604.000			53.264			-5.326
68704.000			53.262			-5.326
68805.000			53.260			-5.326
68904.000			53.260			-5.326
69003.000			53.258			-5.326
69105.000			53.255			-5.326
69204.000			53.255			-5.325
69304.000			53.255			-5.325
69405.000			53.254			-5.325
69504.000			53.252			-5.325
69604.000			53.250			-5.325
69704.000			53.248			-5.325
69804.000			53.246			-5.325
69903.000			53.244			-5.324
70005.000			53.245			-5.324
70104.000			53.243			-5.324
70205.000			53.242			-5.324
70304.000			53.239			-5.324
70404.000			53.238			-5.324
70505.000			53.237			-5.324
70603.000			53.237			-5.324
70704.000			53.235			-5.324
70805.000			53.234			-5.323
70904.000			53.233			-5.323
71004.000			53.230			-5.323
71105.000			53.227			-5.323
71204.000			53.226			-5.323
71303.000			53.226			-5.323
71405.000			53.224			-5.322
71504.000			53.223			-5.322
71604.000			53.221			-5.322
71705.000			53.220			-5.322
71803.000			53.219			-5.322
71904.000			53.217			-5.322
72005.000			53.215			-5.322
72104.000			53.214			-5.321
72204.000			53.213			-5.321
72305.000			53.213			-5.321
72404.000			53.211			-5.321
72503.000			53.208			-5.321
72605.000			53.207			-5.321
72704.000			53.206			-5.321
72804.000			53.204			-5.320
72905.000			53.203			-5.320
73004.000			53.202			-5.320
73104.000			53.201			-5.320
73203.000			53.199			-5.320
73304.000			53.198			-5.320
73405.000			53.195			-5.320
73504.000			53.195			-5.319
73604.000			53.193			-5.319
73705.000			53.192			-5.319
73804.000			53.192			-5.319
73903.000			53.188			-5.319
74005.000			53.186			-5.319
74104.000			53.186			-5.319
74204.000			53.185			-5.319
74305.000			53.184			-5.318
74404.000			53.183			-5.318
74504.000			53.181			-5.318
74604.000			53.178			-5.318
74704.000			53.177			-5.318
74804.000			53.175			-5.318
74905.000			53.174			-5.317
75004.000			53.174			-5.317
75104.000			53.172			-5.317
75205.000			53.172			-5.317
75303.000			53.171			-5.317
75404.000			53.170			-5.317
75505.000			53.169			-5.317
75604.000			53.167			-5.317
75704.000			53.165			-5.317
75805.000			53.164			-5.316
75904.000			53.164			-5.316
76004.000			53.162			-5.316
76105.000			53.159			-5.316
76203.000			53.158			-5.316
76304.000			53.157			-5.316
76405.000			53.155			-5.316
76504.000			53.154			-5.315
76605.000			53.153			-5.315
76704.000			53.152			-5.315
76804.000			53.149			-5.315
76904.000			53.148			-5.315
77004.000			53.147			-5.315
77104.000			53.146			-5.315
77205.000			53.144			-5.314
77304.000			53.143			-5.314
77404.000			53.143			-5.314
77505.000			53.140			-5.314
77603.000			53.140			-5.314
77704.000			53.139			-5.314
77805.000			53.137			-5.314
77904.000			53.137			-5.314
78004.000			53.136			-5.314
78105.000			53.135			-5.314
78204.000			53.134			-5.313
78303.000			53.130			-5.313
78405.000			53.129			-5.313
78504.000			53.128			-5.313
78604.000			53.128			-5.313
78705.000			53.126			-5.313
78804.000			53.124			-5.312
78904.000			53.124			-5.312
79004.000			53.122			-5.312
79104.000			53.120			-5.312
79204.000			53.119			-5.312
79305.000			53.118			-5.312
79404.000			53.116			-5.312
79504.000			53.115			-5.312
79605.000			53.115			-5.312
79703.000			53.112			-5.311
79805.000			53.111			-5.311
79904.000			53.110			-5.311
80004.000			53.108			-5.311
80105.000			53.107			-5.311
80204.000			53.107			-5.311
80304.000			53.106			-5.311
80404.000			53.104			-5.310
80504.000			53.102			-5.310
80604.000			53.101			-5.310
80705.000			53.101			-5.310
80804.000			53.099			-5.310
80903.000			53.097			-5.310
81005.000			53.097			-5.310
81104.000			53.095			-5.309
81204.000			53.093			-5.309
81305.000			53.092			-5.309
81404.000			53.091			-5.309
81504.000			53.091			-5.309
81604.000			53.088			-5.309
81704.000			53.088			-5.309
81803.000			53.087			-5.309
81905.000			53.085			-5.309
82004.000			53.083			-5.308
82104.000			53.083			-5.308
82205.000			53.082			-5.308
82303.000			53.081			-5.308
82404.000			53.080			-5.308
82505.000			53.078			-5.308
82604.000			53.075			-5.308
82704.000			53.074			-5.307
82804.000			53.073			-5.307
82904.000			53.073			-5.307
83003.000			53.072			-5.307
83104.000			53.070			-5.307
83204.000			53.070			-5.307
83305.000			53.068			-5.307
83404.000			53.065			-5.307
83504.000			53.066			-5.307
83605.000			53.065			-5.307
83703.000			53.062			-5.306
83804.000			53.062			-5.306
83905.000			53.061			-5.306
84004.000			53.060			-5.306
84104.000			53.057			-5.306
84205.000			53.056			-5.306
84304.000			53.055			-5.306
84403.000			53.055			-5.305
84505.000			53.053			-5.305
84604.000			53.052			-5.305
84704.000			53.051			-5.305
84805.000			53.049			-5.305
84904.000			53.048			-5.305
85004.000			53.047			-5.305
85104.000			53.045			-5.305
85204.000			53.045			-5.304
85304.000			53.044			-5.304
85405.000			53.043			-5.304
85504.000			53.041			-5.304
85604.000			53.039			-5.304
85705.000			53.038			-5.304
85803.000			53.037			-5.304
85904.000			53.036			-5.304
86005.000			53.036			-5.304
86104.000			53.035			-5.304
86205.000			53.032			-5.303
86304.000			53.031			-5.303
86404.000			53.031			-5.303
86504.000			53.030			-5.303
86604.000			53.028			-5.303
86704.000			53.027			-5.303
86805.000			53.027			-5.303
86904.000			53.025			-5.303
87004.000			53.024			-5.302
87105.000			53.023			-5.302
87203.000			53.022			-5.302
87304.000			53.020			-5.302
87405.000			53.018			-5.302
87504.000			53.018			-5.302
87604.000			53.017			-5.302
87705.000			53.014			-5.301
87804.000			53.014			-5.301
87903.000			53.013			-5.301
88005.000			53.012			-5.301
88104.000			53.010			-5.301
88204.000			53.009			-5.301
88305.000			53.009			-5.301
88404.000			53.007			-5.301
88504.000			53.006			-5.301
88604.000			53.005			-5.300
88704.000			53.005			-5.300
88804.000			53.004			-5.300
88905.000			53.001			-5.300
89004.000			53.001			-5.300
89104.000			52.998			-5.300
89205.000			52.997			-5.300
89303.000			52.997			-5.300
89405.000			52.996			-5.300
89504.000			52.994			-5.299
89604.000			52.993			-5.299
89705.000			52.993			-5.299
89804.000			52.990			-5.299
89904.000			52.989			-5.299
90005.000			52.989			-5.299
90104.000			52.988			-5.299
90203.000			52.987			-5.299
90305.000			52.986			-5.299
90404.000			52.984			-5.298
90504.000			52.984			-5.298
90605.000			52.981			-5.298
90704.000			52.980			-5.298
90804.000			52.979			-5.298
90904.000			52.978			-5.298
91004.000			52.977			-5.298
91104.000			52.976			-5.298
91205.000			52.976			-5.298
91304.000			52.974			-5.297
91404.000			52.973			-5.297
91505.000			52.972			-5.297
91603.000			52.972			-5.297
91704.000			52.971			-5.297
91805.000			52.969			-5.297
91904.000			52.967			-5.297
92004.000			52.966			-5.297
92105.000			52.966			-5.297
92204.000			52.963			-5.296
92303.000			52.962			-5.296
92405.000			52.961			-5.296
92504.000			52.961			-5.296
92605.000			52.960			-5.296
92704.000			52.958			-5.296
92804.000			52.956			-5.296
92905.000			52.955			-5.296
93003.000			52.955			-5.295
93104.000			52.954			-5.295
93205.000			52.952			-5.295
93304.000			52.951			-5.295
93404.000			52.950			-5.295
93505.000			52.949			-5.295
93604.000			52.948			-5.295
93703.000			52.947			-5.295
93805.000			52.946			-5.295
93903.000			52.946			-5.295
94004.000			52.945			-5.295
94105.000			52.944			-5.294
94204.000			52.941			-5.294
94304.000			52.941			-5.294
94404.000			52.939			-5.294
94504.000			52.939			-5.294
94603.000			52.939			-5.294
94705.000			52.938			-5.294
94804.000			52.936			-5.294
94904.000			52.934			-5.293
95005.000			52.932			-5.293
95104.000			52.930			-5.293
95204.000			52.930			-5.293
95304.000			52.931			-5.293
95404.000			52.929			-5.293
95504.000			52.929			-5.293
95604.000			52.929			-5.293
95704.000			52.925			-5.293
95805.000			52.924			-5.292
95904.000			52.922			-5.292
96003.000			52.922			-5.292
96105.000			52.921			-5.292
96204.000			52.921			-5.292
96304.000			52.919			-5.292
96405.000			52.918			-5.292
96504.000			52.917			-5.292
96604.000			52.915			-5.292
96704.000			52.914			-5.291
96804.000			52.913			-5.291
96904.000			52.912			-5.291
97005.000			52.912			-5.291
97104.000			52.909			-5.291
97204.000			52.908			-5.291
97305.000			52.908			-5.291
97403.000			52.909			-5.291
97504.000			52.907			-5.291
97605.000			52.905			-5.291
97704.000			52.905			-5.290
97804.000			52.902			-5.290
97905.000			52.902			-5.290
98004.000			52.902			-5.290
98103.000			52.900			-5.290
98205.000			52.899			-5.290
98304.000			52.898			-5.290
98404.000			52.897			-5.290
98505.000			52.896			-5.290
98604.000			52.895			-5.290
98704.000			52.894			-5.289
98804.000			52.892			-5.289
98904.000			52.892			-5.289
99003.000			52.891			-5.289
99104.000			52.890			-5.289
99204.000			52.889			-5.289
99305.000			52.887			-5.289
99404.000			52.886			-5.289
99504.000			52.886			-5.289
99605.000			52.884			-5.288
99703.000			52.883			-5.288
99804.000			52.883			-5.288
99905.000			52.882			-5.288
100004.000			52.882			-5.288
100104.000			52.879			-5.288
100205.000			52.878			-5.288
100304.000			52.878			-5.288
100403.000			52.877			-5.288
100505.000			52.876			-5.288
100604.000			52.875			-5.288
100704.000			52.873			-5.287
100805.000			52.872			-5.287
100904.000			52.871			-5.287
101004.000			52.869			-5.287
101105.000			52.869			-5.287
101204.000			52.867			-5.287
101303.000			52.866			-5.287
101405.000			52.865			-5.286
101504.000			52.864			-5.286
101604.000			52.864			-5.286
101705.000			52.863			-5.286
101804.000			52.862			-5.286
101904.000			52.861			-5.286
102003.000			52.860			-5.286
102104.000			52.858			-5.286
102205.000			52.857			-5.286
102304.000			52.857			-5.286
102404.000			52.856			-5.286
102505.000			52.854			-5.285
102604.000			52.853			-5.285
102703.000			52.853			-5.285
102805.000			52.852			-5.285
102904.000			52.851			-5.285
103004.000			52.849			-5.285
103105.000			52.848			-5.285
103204.000			52.847			-5.285
103304.000			52.847			-5.285
103404.000			52.847			-5.285
103504.000			52.846			-5.285
103604.000			52.843			-5.284
103705.000			52.842			-5.284
103804.000			52.840			-5.284
103904.000			52.840			-5.284
104005.000			52.840			-5.284
104104.000			52.838			-5.284
104204.000			52.837			-5.284
104304.000			52.836			-5.284
104404.000			52.835			-5.284
104504.000			52.835			-5.283
104605.000			52.833			-5.283
104704.000			52.832			-5.283
104804.000			52.831			-5.283
104905.000			52.831			-5.283
105003.000			52.829			-5.283
105104.000			52.829			-5.283
105205.000			52.828			-5.283
105304.000			52.826			-5.283
105405.000			52.826			-5.283
105504.000			52.825			-5.283
105604.000			52.824			-5.282
105704.000			52.823			-5.282
105804.000			52.822			-5.282
105904.000			52.820			-5.282
106005.000			52.819			-5.282
106104.000			52.819			-5.282
106204.000			52.817			-5.282
106305.000			52.817			-5.282
106403.000			52.816			-5.282
106504.000			52.817			-5.282
106605.000			52.815			-5.282
106704.000			52.813			-5.281
106804.000			52.812			-5.281
106905.000			52.811			-5.281
107004.000			52.810			-5.281
107104.000			52.810			-5.281
107205.000			52.808			-5.281
107303.000			52.807			-5.281
107404.000			52.805			-5.280
107505.000			52.804			-5.280
107604.000			52.804			-5.280
107704.000			52.805			-5.280
107805.000			52.802			-5.280
107904.000			52.800			-5.280
108003.000			52.799			-5.280
108105.000			52.798			-5.280
108204.000			52.797			-5.280
108304.000			52.797			-5.280
108405.000			52.796			-5.280
108504.000			52.796			-5.280
108605.000			52.796			-5.280
108704.000			52.793			-5.279
108804.000			52.793			-5.279
108904.000			52.792			-5.279
109004.000			52.790			-5.279
109104.000			52.790			-5.279
109205.000			52.789			-5.279
109304.000			52.787			-5.279
109404.000			52.788			-5.279
109505.000			52.787			-5.279
109603.000			52.785			-5.279
109704.000			52.784			-5.278
109805.000			52.782			-5.278
109904.000			52.781			-5.278
110004.000			52.781			-5.278
110105.000			52.781			-5.278
110204.000			52.780			-5.278
110303.000			52.779			-5.278
110405.000			52.778			-5.278
110503.000			52.777			-5.278
110604.000			52.776			-5.278
110705.000			52.776			-5.278
110804.000			52.774			-5.277
110904.000			52.773			-5.277
111005.000			52.771			-5.277
111104.000			52.770			-5.277
111203.000			52.769			-5.277
111305.000			52.769			-5.277
111404.000			52.770			-5.277
111504.000			52.768			-5.277
111605.000			52.766			-5.277
111704.000			52.765			-5.276
111805.000			52.765			-5.276
111903.000			52.763			-5.276
112004.000			52.762			-5.276
112105.000			52.761			-5.276
112204.000			52.761			-5.276
112304.000			52.760			-5.276
112405.000			52.758			-5.276
112504.000			52.757			-5.276
112603.000			52.756			-5.276
112705.000			52.755			-5.276
112804.000			52.754			-5.275
112904.000			52.754			-5.275
113005.000			52.753			-5.275
113104.000			52.752			-5.275
113204.000			52.751			-5.275
113304.000			52.750			-5.275
113404.000			52.751			-5.275
113503.000			52.749			-5.275
113605.000			52.748			-5.275
113704.000			52.746			-5.275
113804.000			52.746			-5.275
113905.000			52.745			-5.274
114004.000			52.744			-5.274
114104.000			52.742			-5.274
114204.000			52.742			-5.274
114304.000			52.742			-5.274
114404.000			52.741			-5.274
114505.000			52.739			-5.274
114604.000			52.738			-5.274
114704.000			52.738			-5.274
114805.000			52.737			-5.274
114903.000			52.736			-5.274
115005.000			52.735			-5.273
115104.000			52.734			-5.273
115204.000			52.733			-5.273
115305.000			52.733			-5.273
115404.000			52.732			-5.273
115504.000			52.731			-5.273
115604.000			52.730			-5.273
115704.000			52.730			-5.273
115804.000			52.729			-5.273
115905.000			52.727			-5.273
116004.000			52.726			-5.273
116104.000			52.725			-5.272
116205.000			52.725			-5.272
116303.000			52.724			-5.272
116404.000			52.722			-5.272
116505.000			52.722			-5.272
116604.000			52.721			-5.272
116704.000			52.719			-5.272
116805.000			52.720			-5.272
116904.000			52.718			-5.272
117004.000			52.717			-5.272
117105.000			52.717			-5.272
117203.000			52.716			-5.272
117304.000			52.714			-5.271
117405.000			52.713			-5.271
117504.000			52.714			-5.271
117604.000			52.713			-5.271
117705.000			52.712			-5.271
117804.000			52.711			-5.271
117903.000			52.710			-5.271
118005.000			52.710			-5.271
118104.000			52.705			-5.271
118205.000			52.706			-5.271
118304.000			52.705			-5.271
118404.000			52.704			-5.270
118505.000			52.704			-5.270
118603.000			52.704			-5.270
118704.000			52.702			-5.270
118805.000			52.701			-5.270
118904.000			52.700			-5.270
119004.000			52.700			-5.270
119105.000			52.698			-5.270
119204.000			52.696			-5.270
119303.000			52.695			-5.270
119405.000			52.696			-5.270
119504.000			52.694			-5.269
119604.000			52.694			-5.269
119705.000			52.693			-5.269
119804.000			52.692			-5.269
119904.000			52.691			-5.269
120005.000			52.690			-5.269
120104.000			52.689			-5.269
120203.000			52.688			-5.269
120305.000			52.688			-5.269
120404.000			52.688			-5.269
120504.000			52.687			-5.269
120605.000			52.686			-5.269
120704.000			52.685			-5.269
120804.000			52.685			-5.268
120904.000			52.683			-5.268
121004.000			52.681			-5.268
121104.000			52.679			-5.268
121204.000			52.680			-5.268
121304.000			52.679			-5.268
121405.000			52.679			-5.268
121504.000			52.679			-5.268
121603.000			52.678			-5.268
121705.000			52.675			-5.268
121804.000			52.674			-5.267
121904.000			52.674			-5.267
122005.000			52.673			-5.267
122104.000			52.673			-5.267
122204.000			52.671			-5.267
122305.000			52.670			-5.267
122404.000			52.670			-5.267
122503.000			52.669			-5.267
122605.000			52.668			-5.267
122704.000			52.668			-5.267
122804.000			52.667			-5.267
122905.000			52.666			-5.267
123004.000			52.664			-5.266
123104.000			52.663			-5.266
123204.000			52.663			-5.266
123304.000			52.662			-5.266
123404.000			52.661			-5.266
123505.000			52.660			-5.266
123604.000			52.659			-5.266
123704.000			52.658			-5.266
123805.000			52.658			-5.266
123903.000			52.655			-5.266
124004.000			52.655			-5.266
124105.000			52.656			-5.266
124204.000			52.655			-5.266
124304.000			52.655			-5.265
124404.000			52.654			-5.265
124504.000			52.653			-5.265
124605.000			52.650			-5.265
124704.000			52.648			-5.265
124803.000			52.649			-5.265
124905.000			52.649			-5.265
125004.000			52.648			-5.265
125104.000			52.648			-5.265
125205.000			52.648			-5.265
125304.000			52.647			-5.265
125404.000			52.644			-5.264
125504.000			52.643			-5.264
125604.000			52.642			-5.264
125704.000			52.642			-5.264
125805.000			52.640			-5.264
125904.000			52.641			-5.264
126004.000			52.640			-5.264
126105.000			52.638			-5.264
126203.000			52.637			-5.264
126304.000			52.636			-5.264
126405.000			52.636			-5.264
126504.000			52.637			-5.264
126604.000			52.636			-5.264
126705.000			52.634			-5.263
126804.000			52.633			-5.263
126903.000			52.631			-5.263
127005.000			52.631			-5.263
127104.000			52.631			-5.263
127204.000			52.629			-5.263
127305.000			52.629			-5.263
127404.000			52.628			-5.263
127504.000			52.626			-5.263
127604.000			52.627			-5.263
127704.000			52.626			-5.263
127803.000			52.625			-5.263
127904.000			52.624			-5.262
128004.000			52.622			-5.262
128105.000			52.622			-5.262
128204.000			52.621			-5.262
128304.000			52.620			-5.262
128405.000			52.620			-5.262
128503.000			52.619			-5.262
128604.000			52.618			-5.262
128705.000			52.618			-5.262
128804.000			52.616			-5.262
128904.000			52.616			-5.262
129005.000			52.615			-5.262
129104.000			52.615			-5.261
129203.000			52.613			-5.261
129305.000			52.613			-5.261
129404.000			52.612			-5.261
129504.000			52.611			-5.261
129605.000			52.611			-5.261
129704.000			52.609			-5.261
129804.000			52.608			-5.261
129904.000			52.608			-5.261
130004.000			52.607			-5.261
130104.000			52.606			-5.261
130205.000			52.606			-5.261
130304.000			52.604			-5.260
130404.000			52.604			-5.260
130505.000			52.602			-5.260
130603.000			52.603			-5.260
130704.000			52.601			-5.260
130805.000			52.600			-5.260
130904.000			52.600			-5.260
131005.000			52.600			-5.260
131104.000			52.598			-5.260
131204.000			52.596			-5.260
131305.000			52.596			-5.260
131404.000			52.596			-5.260
131503.000			52.594			-5.259
131605.000			52.592			-5.259
131704.000			52.592			-5.259
131804.000			52.592			-5.259
131905.000			52.591			-5.259
132004.000			52.590			-5.259
132104.000			52.589			-5.259
132205.000			52.590			-5.259
132304.000			52.588			-5.259
132403.000			52.586			-5.259
132505.000			52.586			-5.259
132604.000			52.586			-5.259
132704.000			52.586			-5.259
132805.000			52.585			-5.258
132904.000			52.584			-5.258
133004.000			52.584			-5.258
133105.000			52.583			-5.258
133204.000			52.583			-5.258
133303.000			52.580			-5.258
133405.000			52.579			-5.258
133504.000			52.579			-5.258
133604.000			52.579			-5.258
133705.000			52.579			-5.258
133804.000			52.577			-5.258
133904.000			52.576			-5.258
134004.000			52.575			-5.258
134104.000			52.574			-5.257
134203.000			52.573			-5.257
134304.000			52.573			-5.257
134404.000			52.572			-5.257
134505.000			52.571			-5.257
134604.000			52.570			-5.257
134704.000			52.571			-5.257
134805.000			52.569			-5.257
134904.000			52.567			-5.257
135004.000			52.565			-5.256
135104.000			52.566			-5.257
135204.000			52.566			-5.257
135304.000			52.566			-5.257
135405.000			52.565			-5.257
135504.000			52.563			-5.256
135604.000			52.563			-5.256
135705.000			52.563			-5.256
135804.000			52.562			-5.256
135904.000			52.560			-5.256
136004.000			52.559			-5.256
136104.000			52.559			-5.256
136204.000			52.558			-5.256
136305.000			52.557			-5.256
136404.000			52.556			-5.256
136504.000			52.554			-5.255
136605.000			52.554			-5.255
136704.000			52.554			-5.255
136804.000			52.553			-5.255
136904.000			52.552			-5.255
137004.000			52.552			-5.255
137104.000			52.550			-5.255
137204.000			52.549			-5.255
137304.000			52.549			-5.255
137405.000			52.549			-5.255
137504.000			52.549			-5.255
137604.000			52.547			-5.255
137705.000			52.546			-5.255
137803.000			52.545			-5.254
137904.000			52.544			-5.254
138005.000			52.544			-5.254
138104.000			52.544			-5.254
138204.000			52.542			-5.254
138305.000			52.542			-5.254
138404.000			52.541			-5.254
138504.000			52.540			-5.254
138605.000			52.539			-5.254
138703.000			52.539			-5.254
138804.000			52.538			-5.254
138905.000			52.537			-5.254
139004.000			52.536			-5.254
139104.000			52.536			-5.254
139205.000			52.536			-5.254
139304.000			52.534			-5.253
139404.000			52.533			-5.253
139505.000			52.532			-5.253
139603.000			52.532			-5.253
139704.000			52.530			-5.253
139804.000			52.530			-5.253
139904.000			52.529			-5.253
140004.000			52.529			-5.253
140105.000			52.528			-5.253
140204.000			52.527			-5.253
140304.000			52.527			-5.253
140405.000			52.525			-5.253
140503.000			52.524			-5.252
140605.000			52.524			-5.252
140704.000			52.523			-5.252
140804.000			52.522			-5.252
140905.000			52.522			-5.252
141004.000			52.522			-5.252
141104.000			52.521			-5.252
141205.000			52.520			-5.252
141304.000			52.518			-5.252
141403.000			52.518			-5.252
141505.000			52.518			-5.252
141604.000			52.517			-5.252
141704.000			52.515			-5.252
141805.000			52.514			-5.251
141904.000			52.514			-5.251
142004.000			52.514			-5.251
142104.000			52.513			-5.251
142204.000			52.512			-5.251
142303.000			52.512			-5.251
142405.000			52.511			-5.251
142504.000			52.509			-5.251
142604.000			52.509			-5.251
142705.000			52.509			-5.251
142804.000			52.507			-5.251
142904.000			52.508			-5.251
143004.000			52.507			-5.251
143104.000			52.506			-5.251
143204.000			52.504			-5.250
143305.000			52.503			-5.250
143404.000			52.504			-5.250
143504.000			52.502			-5.250
143605.000			52.502			-5.250
143704.000			52.502			-5.250
143805.000			52.502			-5.250
143903.000			52.501			-5.250
144004.000			52.499			-5.250
144105.000			52.500			-5.250
144204.000			52.497			-5.250
144304.000			52.498			-5.250
144405.000			52.497			-5.250
144504.000			52.495			-5.250
144604.000			52.494			-5.249
144705.000			52.495			-5.249
144803.000			52.495			-5.249
144904.000			52.493			-5.249
145005.000			52.492			-5.249
145104.000			52.491			-5.249
145204.000			52.490			-5.249
145305.000			52.490			-5.249
145404.000			52.489			-5.249
145504.000			52.488			-5.249
145605.000			52.488			-5.249
145703.000			52.487			-5.249
145804.000			52.485			-5.249
145905.000			52.484			-5.248
146004.000			52.485			-5.249
146104.000			52.484			-5.248
146205.000			52.482			-5.248
146304.000			52.482			-5.248
146404.000			52.480			-5.248
146505.000			52.480			-5.248
146603.000			52.480			-5.248
146704.000			52.480			-5.248
146805.000			52.478			-5.248
146904.000			52.477			-5.248
147005.000			52.477			-5.248
147104.000			52.476			-5.248
147204.000			52.475			-5.248
147305.000			52.474			-5.247
147404.000			52.474			-5.247
147503.000			52.474			-5.247
147605.000			52.472			-5.247
147704.000			52.471			-5.247
147804.000			52.471			-5.247
147905.000			52.470			-5.247
148004.000			52.469			-5.247
148104.000			52.469			-5.247
148205.000			52.469			-5.247
148304.000			52.468			-5.247
148403.000			52.467			-5.247
148505.000			52.467			-5.247
148604.000			52.467			-5.247
148704.000			52.466			-5.247
148805.000			52.465			-5.246
148904.000			52.464			-5.246
149004.000			52.464			-5.246
149105.000			52.463			-5.246
149204.000			52.462			-5.246
149303.000			52.461			-5.246
149405.000			52.460			-5.246
149503.000			52.459			-5.246
149604.000			52.458			-5.246
149705.000			52.458			-5.246
149804.000			52.458			-5.246
149904.000			52.458			-5.246
150004.000			52.457			-5.246
150104.000			52.455			-5.245
150203.000			52.453			-5.245
150304.000			52.454			-5.245
150403.000			52.453			-5.245
150505.000			52.453			-5.245
150604.000			52.453			-5.245
150704.000			52.452			-5.245
150805.000			52.450			-5.245
150904.000			52.449			-5.245
151004.000			52.448			-5.245
151104.000			52.447			-5.245
151204.000			52.447			-5.245
151303.000			52.448			-5.245
151405.000			52.447			-5.245
151504.000			52.445			-5.244
151604.000			52.443			-5.244
151705.000			52.443			-5.244
151804.000			52.443			-5.244
151904.000			52.444			-5.244
152004.000			52.443			-5.244
152104.000			52.441			-5.244
152204.000			52.441			-5.244
152305.000			52.440			-5.244
152404.000			52.439			-5.244
152504.000			52.439			-5.244
152605.000			52.439			-5.244
152704.000			52.437			-5.244
152804.000			52.437			-5.244
152904.000			52.436			-5.244
153004.000			52.434			-5.243
153104.000			52.434			-5.243
153204.000			52.432			-5.243
153304.000			52.432			-5.243
153405.000			52.432			-5.243
153504.000			52.432			-5.243
153604.000			52.432			-5.243
153705.000			52.430			-5.243
153803.000			52.429			-5.243
153904.000			52.428			-5.243
154005.000			52.428			-5.243
154104.000			52.427			-5.243
154204.000			52.427			-5.243
154305.000			52.426			-5.243
154404.000			52.425			-5.243
154503.000			52.424			-5.242
154605.000			52.423			-5.242
154704.000			52.424			-5.242
154804.000			52.424			-5.242
154905.000			52.424			-5.242
155004.000			52.422			-5.242
155104.000			52.420			-5.242
155205.000			52.420			-5.242
155304.000			52.419			-5.242
155403.000			52.419			-5.242
155505.000			52.419			-5.242
155604.000			52.418			-5.242
155704.000			52.416			-5.242
155805.000			52.414			-5.241
155904.000			52.413			-5.241
156004.000			52.414			-5.241
156105.000			52.414			-5.241
156204.000			52.414			-5.241
156303.000			52.413			-5.241
156405.000			52.411			-5.241
156504.000			52.411			-5.241
156605.000			52.409			-5.241
156704.000			52.409			-5.241
156804.000			52.409			-5.241
156905.000			52.408			-5.241
157004.000			52.408			-5.241
157104.000			52.407			-5.241
157204.000			52.406			-5.241
157304.000			52.405			-5.240
157404.000			52.405			-5.241
157505.000			52.404			-5.240
157604.000			52.403			-5.240
157704.000			52.403			-5.240
157805.000			52.403			-5.240
157904.000			52.402			-5.240
158004.000			52.401			-5.240
158104.000			52.400			-5.240
158204.000			52.400			-5.240
158304.000			52.399			-5.240
158405.000			52.398			-5.240
158504.000			52.397			-5.240
158604.000			52.396			-5.240
158705.000			52.395			-5.240
158804.000			52.395			-5.240
158904.000			52.395			-5.239
159004.000			52.395			-5.240
159104.000			52.395			-5.239
159204.000			52.394			-5.239
159305.000			52.392			-5.239
159404.000			52.391			-5.239
159504.000			52.391			-5.239
159605.000			52.390			-5.239
159704.000			52.390			-5.239
159805.000			52.389			-5.239
159903.000			52.389			-5.239
160004.000			52.388			-5.239
160104.000			52.388			-5.239
160204.000			52.386			-5.239
160304.000			52.386			-5.239
160405.000			52.385			-5.239
160504.000			52.384			-5.238
160604.000			52.384			-5.238
160705.000			52.383			-5.238
160803.000			52.382			-5.238
160904.000			52.382			-5.238
161004.000			52.381			-5.238
161104.000			52.381			-5.238
161204.000			52.381			-5.238
161305.000			52.379			-5.238
161404.000			52.378			-5.238
161504.000			52.378			-5.238
161605.000			52.377			-5.238
161703.000			52.376			-5.238
161804.000			52.376			-5.238
161904.000			52.375			-5.238
162004.000			52.374			-5.237
162104.000			52.374			-5.237
162205.000			52.373			-5.237
162304.000			52.372			-5.237
162404.000			52.372			-5.237
162505.000			52.371			-5.237
162603.000			52.370			-5.237
162704.000			52.369			-5.237
162805.000			52.369			-5.237
162904.000			52.369			-5.237
163005.000			52.368			-5.237
163104.000			52.368			-5.237
163204.000			52.367			-5.237
163305.000			52.366			-5.237
163404.000			52.366			-5.237
163503.000			52.364			-5.236
163605.000			52.364			-5.236
163703.000			52.363			-5.236
163804.000			52.361			-5.236
163905.000			52.362			-5.236
164004.000			52.361			-5.236
164104.000			52.359			-5.236
164205.000			52.359			-5.236
164304.000			52.360			-5.236
164403.000			52.359			-5.236
164505.000			52.358			-5.236
164604.000			52.358			-5.236
164704.000			52.357			-5.236
164805.000			52.355			-5.235
164904.000			52.354			-5.235
165004.000			52.355			-5.235
165105.000			52.355			-5.236
165204.000			52.354			-5.235
165303.000			52.354			-5.235
165405.000			52.353			-5.235
165503.000			52.352			-5.235
165604.000			52.351			-5.235
165705.000			52.350			-5.235
165804.000			52.350			-5.235
165904.000			52.349			-5.235
166004.000			52.348			-5.235
166104.000			52.347			-5.235
166203.000			52.346			-5.235
166304.000			52.346			-5.235
166403.000			52.346			-5.235
166505.000			52.345			-5.235
166604.000			52.345			-5.234
166704.000			52.343			-5.234
166805.000			52.343			-5.234
166904.000			52.342			-5.234
167004.000			52.342			-5.234
167104.000			52.341			-5.234
167204.000			52.340			-5.234
167303.000			52.340			-5.234
167405.000			52.339			-5.234
167504.000			52.338			-5.234
167604.000			52.338			-5.234
167705.000			52.338			-5.234
167804.000			52.336			-5.234
167904.000			52.336			-5.234
168004.000			52.337			-5.234
168104.000			52.335			-5.234
168203.000			52.333			-5.233
168305.000			52.334			-5.233
168404.000			52.334			-5.233
168504.000			52.333			-5.233
168605.000			52.331			-5.233
168704.000			52.331			-5.233
168804.000			52.330			-5.233
168904.000			52.328			-5.233
169004.000			52.328			-5.233
169103.000			52.329			-5.233
169205.000			52.329			-5.233
169304.000			52.328			-5.233
169405.000			52.326			-5.233
169504.000			52.326			-5.233
169604.000			52.325			-5.233
169705.000			52.324			-5.232
169803.000			52.323			-5.232
169904.000			52.323			-5.232
170004.000			52.323			-5.232
170104.000			52.323			-5.232
170204.000			52.322			-5.232
170305.000			52.321			-5.232
170404.000			52.320			-5.232
170504.000			52.319			-5.232
170605.000			52.319			-5.232
170703.000			52.318			-5.232
170804.000			52.318			-5.232
170904.000			52.317			-5.232
171004.000			52.316			-5.232
171104.000			52.315			-5.232
171205.000			52.316			-5.232
171304.000			52.315			-5.231
171404.000			52.313			-5.231
171505.000			52.313			-5.231
171603.000			52.312			-5.231
171704.000			52.312			-5.231
171805.000			52.310			-5.231
171904.000			52.310			-5.231
172004.000			52.309			-5.231
172105.000			52.310			-5.231
172204.000			52.310			-5.231
172304.000			52.309			-5.231
172405.000			52.308			-5.231
172503.000			52.307			-5.231
172605.000			52.306			-5.231
172704.000			52.305			-5.230
172804.000			52.304			-5.230
172905.000			52.304			-5.230
173004.000			52.303			-5.230
173104.000			52.303			-5.230
173204.000			52.302			-5.230
173304.000			52.302			-5.230
173403.000			52.302			-5.230
173505.000			52.300			-5.230
173604.000			52.299			-5.230
173704.000			52.298			-5.230
173805.000			52.298			-5.230
173904.000			52.298			-5.230
174004.000			52.297			-5.230
174104.000			52.297			-5.230
174204.000			52.297			-5.230
174303.000			52.296			-5.230
174405.000			52.294			-5.229
174504.000			52.294			-5.229
174604.000			52.294			-5.229
174705.000			52.292			-5.229
174804.000			52.291			-5.229
174904.000			52.291			-5.229
175004.000			52.291			-5.229
175104.000			52.291			-5.229
175203.000			52.291			-5.229
175305.000			52.291			-5.229
175404.000			52.289			-5.229
175504.000			52.289			-5.229
175605.000			52.288			-5.229
175704.000			52.288			-5.229
175805.000			52.287			-5.229
175903.000			52.286			-5.229
176004.000			52.286			-5.229
176104.000			52.284			-5.228
176204.000			52.284			-5.228
176304.000			52.284			-5.228
176405.000			52.284			-5.228
176504.000			52.283			-5.228
176604.000			52.282			-5.228
176705.000			52.281			-5.228
176804.000			52.280			-5.228
176904.000			52.280			-5.228
177004.000			52.280			-5.228
177104.000			52.279			-5.228
177204.000			52.279			-5.228
177305.000			52.279			-5.228
177404.000			52.278			-5.228
177504.000			52.277			-5.228
177605.000			52.276			-5.228
177704.000			52.274			-5.227
177804.000			52.274			-5.227
177904.000			52.274			-5.227
178004.000			52.273			-5.227
178104.000			52.272			-5.227
178205.000			52.273			-5.227
178304.000			52.272			-5.227
178404.000			52.271			-5.227
178505.000			52.270			-5.227
178604.000			52.270			-5.227
178704.000			52.270			-5.227
178803.000			52.269			-5.227
178904.000			52.268			-5.227
179005.000			52.267			-5.227
179104.000			52.267			-5.227
179204.000			52.266			-5.227
179305.000			52.266			-5.227
179404.000			52.266			-5.227
179504.000			52.265			-5.226
179605.000			52.264			-5.226
179703.000			52.263			-5.226
179804.000			52.262			-5.226
179904.000			52.261			-5.226
180004.000			52.260			-5.226
180104.000			52.261			-5.226
180205.000			52.262			-5.226
180304.000			52.260			-5.226
180404.000			52.258			-5.226
180505.000			52.258			-5.226
180603.000			52.258			-5.226
180704.000			52.258			-5.226
180805.000			52.256			-5.226
180904.000			52.256			-5.226
181004.000			52.255			-5.225
181105.000			52.254			-5.225
181204.000			52.254			-5.225
181304.000			52.254			-5.225
181405.000			52.253			-5.225
181503.000			52.253			-5.225
181604.000			52.251			-5.225
181705.000			52.251			-5.225
181804.000			52.251			-5.225
181904.000			52.250			-5.225
182004.000			52.250			-5.225
182104.000			52.249			-5.225
182205.000			52.248			-5.225
182304.000			52.248			-5.225
182403.000			52.247			-5.225
182505.000			52.246			-5.225
182604.000			52.246			-5.225
182704.000			52.245			-5.225
182805.000			52.244			-5.224
182904.000			52.243			-5.224
183004.000			52.243			-5.224
183104.000			52.243			-5.224
183204.000			52.242			-5.224
183303.000			52.242			-5.224
183405.000			52.241			-5.224
183504.000			52.240			-5.224
183604.000			52.240			-5.224
183705.000			52.239			-5.224
183804.000			52.239			-5.224
183904.000			52.239			-5.224
184004.000			52.238			-5.224
184104.000			52.238			-5.224
184203.000			52.238			-5.224
184305.000			52.236			-5.224
184404.000			52.235			-5.224
184504.000			52.234			-5.223
184605.000			52.234			-5.223
184704.000			52.233			-5.223
184804.000			52.233			-5.223
184904.000			52.232			-5.223
185004.000			52.231			-5.223
185104.000			52.231			-5.223
185204.000			52.231			-5.223
185304.000			52.230			-5.223
185405.000			52.230			-5.223
185504.000			52.230			-5.223
185604.000			52.227			-5.223
185705.000			52.227			-5.223
185803.000			52.227			-5.223
185904.000			52.228			-5.223
186005.000			52.226			-5.223
186104.000			52.224			-5.222
186204.000			52.224			-5.222
186305.000			52.225			-5.222
186404.000			52.224			-5.222
186504.000			52.223			-5.222
186605.000			52.223			-5.222
186703.000			52.223			-5.222
186804.000			52.221			-5.222
186905.000			52.220			-5.222
187004.000			52.220			-5.222
187104.000			52.219			-5.222
187205.000			52.219			-5.222
187304.000			52.219			-5.222
187403.000			52.218			-5.222
187505.000			52.217			-5.222
187603.000			52.216			-5.222
187704.000			52.215			-5.222
187805.000			52.216			-5.222
187904.000			52.215			-5.221
188004.000			52.214			-5.221
188105.000			52.214			-5.221
188204.000			52.215			-5.221
188303.000			52.215			-5.221
188405.000			52.214			-5.221
188503.000			52.213			-5.221
188605.000			52.212			-5.221
188704.000			52.210			-5.221
188804.000			52.210			-5.221
188905.000			52.209			-5.221
189004.000			52.208			-5.221
189104.000			52.208			-5.221
189205.000			52.207			-5.221
189304.000			52.207			-5.221
189403.000			52.206			-5.221
189505.000			52.206			-5.221
189604.000			52.205			-5.220
189704.000			52.204			-5.220
189805.000			52.204			-5.220
189904.000			52.204			-5.220
190004.000			52.203			-5.220
190105.000			52.203			-5.220
190204.000			52.202			-5.220
190303.000			52.202			-5.220
190405.000			52.201			-5.220
190504.000			52.201			-5.220
190604.000			52.200			-5.220
190705.000			52.198			-5.220
190804.000			52.198			-5.220
190904.000			52.198			-5.220
191004.000			52.199			-5.220
191104.000			52.197			-5.220
191203.000			52.196			-5.220
191305.000			52.197			-5.220
191404.000			52.195			-5.219
191504.000			52.194			-5.219
191605.000			52.193			-5.219
191704.000			52.193			-5.219
191805.000			52.193			-5.219
191904.000			52.192			-5.219
192004.000			52.192			-5.219
192104.000			52.190			-5.219
192204.000			52.190			-5.219
192304.000			52.190			-5.219
192405.000			52.189			-5.219
192504.000			52.189			-5.219
192604.000			52.189			-5.219
192705.000			52.188			-5.219
192804.000			52.187			-5.219
192904.000			52.187			-5.219
193004.000			52.186			-5.219
193104.000			52.185			-5.219
193204.000			52.184			-5.218
193305.000			52.184			-5.218
193404.000			52.184			-5.218
193504.000			52.184			-5.218
193605.000			52.182			-5.218
193704.000			52.182			-5.218
193804.000			52.182			-5.218
193904.000			52.183			-5.218
194004.000			52.181			-5.218
194104.000			52.180			-5.218
194205.000			52.180			-5.218
194304.000			52.179			-5.218
194404.000			52.178			-5.218
194505.000			52.178			-5.218
194603.000			52.176			-5.218
194704.000			52.176			-5.218
194803.000			52.176			-5.218
194904.000			52.175			-5.217
195005.000			52.175			-5.217
195104.000			52.174			-5.217
195204.000			52.173			-5.217
195305.000			52.173			-5.217
195404.000			52.172			-5.217
195504.000			52.171			-5.217
195605.000			52.172			-5.217
195703.000			52.172			-5.217
195804.000			52.171			-5.217
195905.000			52.170			-5.217
196004.000			52.169			-5.217
196104.000			52.170			-5.217
196205.000			52.169			-5.217
196304.000			52.167			-5.217
196404.000			52.167			-5.217
196505.000			52.167			-5.217
196603.000			52.166			-5.217
196704.000			52.165			-5.217
196805.000			52.165			-5.216
196904.000			52.165			-5.216
197004.000			52.164			-5.216
197105.000			52.163			-5.216
197204.000			52.164			-5.216
197304.000			52.163			-5.216
197405.000			52.162			-5.216
197503.000			52.161			-5.216
197604.000			52.161			-5.216
197705.000			52.160			-5.216
197804.000			52.160			-5.216
197904.000			52.158			-5.216
198004.000			52.157			-5.216
198104.000			52.157			-5.216
198205.000			52.156			-5.216
198304.000			52.156			-5.216
198403.000			52.157			-5.216
198505.000			52.155			-5.216
198604.000			52.154			-5.215
198704.000			52.154			-5.215
198805.000			52.154			-5.215
198904.000			52.153			-5.215
199004.000			52.154			-5.215
199105.000			52.153			-5.215
199204.000			52.153			-5.215
199303.000			52.153			-5.215
199405.000			52.151			-5.215
199503.000			52.151			-5.215
199604.000			52.150			-5.215
199705.000			52.149			-5.215
199804.000			52.149			-5.215
199904.000			52.149			-5.215
200005.000			52.148			-5.215
200104.000			52.147			-5.215
200203.000			52.147			-5.215
200305.000			52.147			-5.215
200403.000			52.146			-5.215
200504.000			52.146			-5.215
200605.000			52.144			-5.214
200704.000			52.143			-5.214
200804.000			52.143			-5.214
200905.000			52.142			-5.214
201004.000			52.142			-5.214
201103.000			52.140			-5.214
201205.000			52.140			-5.214
201304.000			52.140			-5.214
201405.000			52.141			-5.214
201504.000			52.140			-5.214
201604.000			52.139			-5.214
201705.000			52.138			-5.214
201803.000			52.137			-5.214
201904.000			52.138			-5.214
202004.000			52.137			-5.214
202104.000			52.136			-5.214
202204.000			52.135			-5.213
202305.000			52.134			-5.213
202404.000			52.134			-5.213
202504.000			52.134			-5.213
202605.000			52.133			-5.213
202703.000			52.133			-5.213
202804.000			52.133			-5.213
202905.000			52.133			-5.213
203004.000			52.131			-5.213
203104.000			52.131			-5.213
203205.000			52.130			-5.213
203304.000			52.129			-5.213
203404.000			52.129			-5.213
203505.000			52.129			-5.213
203603.000			52.129			-5.213
203704.000			52.129			-5.213
203805.000			52.127			-5.213
203904.000			52.127			-5.213
204004.000			52.127			-5.213
204105.000			52.126			-5.213
204204.000			52.125			-5.212
204303.000			52.124			-5.212
204405.000			52.123			-5.212
204504.000			52.124			-5.212
204605.000			52.123			-5.212
204704.000			52.122			-5.212
204804.000			52.122			-5.212
204905.000			52.121			-5.212
205004.000			52.120			-5.212
205104.000			52.120			-5.212
205204.000			52.119			-5.212
205304.000			52.118			-5.212
205404.000			52.119			-5.212
205505.000			52.119			-5.212
205604.000			52.117			-5.212
205704.000			52.116			-5.212
205805.000			52.116			-5.212
205903.000			52.115			-5.211
206004.000			52.114			-5.211
206105.000			52.114			-5.211
206204.000			52.114			-5.211
206304.000			52.113			-5.211
206405.000			52.112			-5.211
206504.000			52.112			-5.211
206604.000			52.111			-5.211
206705.000			52.111			-5.211
206803.000			52.111			-5.211
206904.000			52.111			-5.211
207005.000			52.110			-5.211
207104.000			52.109			-5.211
207204.000			52.108			-5.211
207305.000			52.109			-5.211
207404.000			52.109			-5.211
207503.000			52.107			-5.211
207605.000			52.107			-5.211
207704.000			52.107			-5.211
207805.000			52.107			-5.211
207904.000			52.105			-5.210
208004.000			52.104			-5.210
208105.000			52.104			-5.210
208204.000			52.104			-5.210
208304.000			52.103			-5.210
208404.000			52.103			-5.210
208504.000			52.104			-5.210
208604.000			52.101			-5.210
208705.000			52.100			-5.210
208804.000			52.101			-5.210
208904.000			52.100			-5.210
209005.000			52.101			-5.210
209103.000			52.099			-5.210
209204.000			52.099			-5.210
209305.000			52.098			-5.210
209404.000			52.098			-5.210
209504.000			52.096			-5.210
209605.000			52.096			-5.210
209704.000			52.096			-5.210
209804.000			52.096			-5.210
209905.000			52.094			-5.209
210003.000			52.094			-5.209
210104.000			52.094			-5.209
210205.000			52.095			-5.209
210304.000			52.093			-5.209
210404.000			52.092			-5.209
210505.000			52.092			-5.209
210604.000			52.092			-5.209
210704.000			52.091			-5.209
210805.000			52.089			-5.209
210903.000			52.090			-5.209
211005.000			52.089			-5.209
211104.000			52.089			-5.209
211204.000			52.088			-5.209
211305.000			52.088			-5.209
211404.000			52.087			-5.209
211504.000			52.086			-5.209
211604.000			52.086			-5.209
211704.000			52.085			-5.208
211803.000			52.085			-5.209
211905.000			52.084			-5.208
212004.000			52.083			-5.208
212104.000			52.083			-5.208
212205.000			52.084			-5.208
212304.000			52.082			-5.208
212404.000			52.082			-5.208
212504.000			52.081			-5.208
212604.000			52.081			-5.208
212704.000			52.080			-5.208
212805.000			52.079			-5.208
212904.000			52.079			-5.208
213004.000			52.080			-5.208
213105.000			52.079			-5.208
213204.000			52.077			-5.208
213304.000			52.077			-5.208
213404.000			52.077			-5.208
213504.000			52.076			-5.208
213604.000			52.076			-5.208
213705.000			52.076			-5.208
213804.000			52.075			-5.208
213904.000			52.074			-5.207
214005.000			52.075			-5.207
214103.000			52.073			-5.207
214205.000			52.072			-5.207
214304.000			52.072			-5.207
214404.000			52.072			-5.207
214505.000			52.071			-5.207
214604.000			52.069			-5.207
214704.000			52.069			-5.207
214805.000			52.069			-5.207
214904.000			52.068			-5.207
215003.000			52.068			-5.207
215105.000			52.068			-5.207
215204.000			52.067			-5.207
215304.000			52.067			-5.207
215405.000			52.067			-5.207
215504.000			52.066			-5.207
215604.000			52.065			-5.206
215705.000			52.065			-5.207
215804.000			52.065			-5.206
215903.000			52.065			-5.206
216005.000			52.064			-5.206
216104.000			52.062			-5.206
216204.000			52.062			-5.206
216305.000			52.062			-5.206
216404.000			52.062			-5.206
216504.000			52.060			-5.206
216605.000			52.061			-5.206
216704.000			52.061			-5.206
216803.000			52.060			-5.206
216905.000			52.059			-5.206
217004.000			52.058			-5.206
217104.000			52.058			-5.206
217205.000			52.058			-5.206
217304.000			52.057			-5.206
217405.000			52.057			-5.206
217504.000			52.054			-5.205
217604.000			52.054			-5.205
217704.000			52.053			-5.205
217804.000			52.053			-5.205
217904.000			52.053			-5.205
218005.000			52.053			-5.205
218104.000			52.053			-5.205
218204.000			52.052			-5.205
218305.000			52.051			-5.205
218403.000			52.051			-5.205
218504.000			52.051			-5.205
218604.000			52.050			-5.205
218704.000			52.049			-5.205
218804.000			52.048			-5.205
218905.000			52.048			-5.205
219004.000			52.047			-5.205
219104.000			52.047			-5.205
219205.000			52.046			-5.205
219303.000			52.046			-5.205
219404.000			52.045			-5.204
219504.000			52.045			-5.205
219604.000			52.046			-5.205
219704.000			52.044			-5.204
219805.000			52.043			-5.204
219904.000			52.042			-5.204
220004.000			52.041			-5.204
220105.000			52.041			-5.204
220203.000			52.041			-5.204
220304.000			52.041			-5.204
220405.000			52.041			-5.204
220504.000			52.040			-5.204
220605.000			52.039			-5.204
220704.000			52.039			-5.204
220804.000			52.039			-5.204
220904.000			52.038			-5.204
221004.000			52.037			-5.204
221103.000			52.036			-5.204
221205.000			52.035			-5.203
221304.000			52.035			-5.204
221404.000			52.035			-5.204
221505.000			52.034			-5.203
221604.000			52.034			-5.203
221704.000			52.035			-5.203
221804.000			52.034			-5.203
221904.000			52.032			-5.203
222004.000			52.032			-5.203
222105.000			52.032			-5.203
222204.000			52.032			-5.203
222304.000			52.031			-5.203
222405.000			52.031			-5.203
222504.000			52.030			-5.203
222604.000			52.029			-5.203
222704.000			52.029			-5.203
222804.000			52.028			-5.203
222904.000			52.028			-5.203
223005.000			52.027			-5.203
223104.000			52.026			-5.203
223204.000			52.026			-5.203
223305.000			52.025			-5.203
223403.000			52.025			-5.202
223504.000			52.024			-5.202
223603.000			52.025			-5.202
223704.000			52.025			-5.202
223805.000			52.023			-5.202
223904.000			52.022			-5.202
224004.000			52.021			-5.202
224105.000			52.021			-5.202
224204.000			52.021			-5.202
224303.000			52.021			-5.202
224405.000			52.021			-5.202
224504.000			52.020			-5.202
224604.000			52.019			-5.202
224705.000			52.018			-5.202
224804.000			52.019			-5.202
224904.000			52.019			-5.202
225004.000			52.018			-5.202
225104.000			52.018			-5.202
225203.000			52.017			-5.202
225305.000			52.016			-5.202
225404.000			52.014			-5.201
225504.000			52.015			-5.201
225605.000			52.015			-5.201
225704.000			52.015			-5.202
225804.000			52.014			-5.201
225904.000			52.014			-5.201
226004.000			52.013			-5.201
226104.000			52.012			-5.201
226205.000			52.011			-5.201
226304.000			52.010			-5.201
226404.000			52.009			-5.201
226505.000			52.010			-5.201
226604.000			52.010			-5.201
226704.000			52.010			-5.201
226803.000			52.010			-5.201
226904.000			52.008			-5.201
227005.000			52.007			-5.201
227104.000			52.006			-5.201
227204.000			52.006			-5.201
227305.000			52.007			-5.201
227404.000			52.006			-5.201
227503.000			52.006			-5.201
227605.000			52.005			-5.201
227704.000			52.005			-5.200
227804.000			52.004			-5.200
227905.000			52.003			-5.200
228004.000			52.004			-5.200
228104.000			52.004			-5.200
228205.000			52.002			-5.200
228304.000			52.001			-5.200
228403.000			52.001			-5.200
228505.000			52.001			-5.200
228604.000			52.001			-5.200
228704.000			51.999			-5.200
228805.000			51.999			-5.200
228904.000			51.999			-5.200
229004.000			51.999			-5.200
229105.000			51.997			-5.200
229204.000			51.997			-5.200
229303.000			51.996			-5.200
229405.000			51.996			-5.200
229504.000			51.997			-5.200
229604.000			51.995			-5.200
229705.000			51.994			-5.199
229804.000			51.993			-5.199
229904.000			51.994			-5.199
230004.000			51.994			-5.199
230104.000			51.993			-5.199
230203.000			51.994			-5.199
230304.000			51.994			-5.199
230403.000			51.993			-5.199
230505.000			51.991			-5.199
230604.000			51.991			-5.199
230704.000			51.991			-5.199
230805.000			51.990			-5.199
230904.000			51.990			-5.199
231004.000			51.989			-5.199
231104.000			51.988			-5.199
231204.000			51.988			-5.199
231303.000			51.987			-5.199
231405.000			51.987			-5.199
231504.000			51.986			-5.199
231604.000			51.986			-5.199
231705.000			51.986			-5.199
231804.000			51.985			-5.198
231904.000			51.985			-5.198
232005.000			51.983			-5.198
232104.000			51.983			-5.198
232203.000			51.983			-5.198
232305.000			51.983			-5.198
232404.000			51.982			-5.198
232504.000			51.981			-5.198
232605.000			51.981			-5.198
232704.000			51.982			-5.198
232804.000			51.981			-5.198
232904.000			51.979			-5.198
233004.000			51.979			-5.198
233103.000			51.979			-5.198
233205.000			51.979			-5.198
233304.000			51.978			-5.198
233405.000			51.978			-5.198
233504.000			51.976			-5.198
233604.000			51.977			-5.198
233705.000			51.976			-5.198
233804.000			51.977			-5.198
233904.000			51.975			-5.198
234004.000			51.975			-5.198
234104.000			51.974			-5.197
234204.000			51.974			-5.197
234305.000			51.973			-5.197
234404.000			51.974			-5.197
234504.000			51.973			-5.197
234605.000			51.971			-5.197
234704.000			51.970			-5.197
234804.000			51.971			-5.197
234904.000			51.971			-5.197
235004.000			51.971			-5.197
235104.000			51.970			-5.197
235205.000			51.969			-5.197
235304.000			51.969			-5.197
235404.000			51.968			-5.197
235505.000			51.967			-5.197
235604.000			51.967			-5.197
235704.000			51.967			-5.197
235804.000			51.967			-5.197
235904.000			51.965			-5.197
236003.000			51.965			-5.196
236105.000			51.965			-5.196
236204.000			51.965			-5.197
236304.000			51.964			-5.196
236405.000			51.963			-5.196
236504.000			51.963			-5.196
236605.000			51.963			-5.196
236703.000			51.962			-5.196
236804.000			51.963			-5.196
236904.000			51.962			-5.196
237004.000			51.961			-5.196
237104.000			51.961			-5.196
237205.000			51.960			-5.196
237304.000			51.959			-5.196
237404.000			51.959			-5.196
237505.000			51.958			-5.196
237604.000			51.958			-5.196
237704.000			51.959			-5.196
237804.000			51.957			-5.196
237904.000			51.957			-5.196
238004.000			51.957			-5.196
238105.000			51.956			-5.196
238204.000			51.955			-5.196
238304.000			51.955			-5.195
238405.000			51.954			-5.195
238504.000			51.954			-5.195
238604.000			51.953			-5.195
238704.000			51.953			-5.195
238804.000			51.952			-5.195
238904.000			51.953			-5.195
239005.000			51.953			-5.195
239104.000			51.952			-5.195
239204.000			51.951			-5.195
239305.000			51.949			-5.195
239404.000			51.948			-5.195
239504.000			51.949			-5.195
239603.000			51.949			-5.195
239704.000			51.949			-5.195
239803.000			51.948			-5.195
239904.000			51.948			-5.195
240004.000			51.945			-5.194
240105.000			51.945			-5.194
240204.000			51.945			-5.195
240304.000			51.946			-5.195
240405.000			51.945			-5.194
240503.000			51.945			-5.194
240604.000			51.944			-5.194
240705.000			51.945			-5.195
240804.000			51.943			-5.194
240904.000			51.943			-5.194
241005.000			51.943			-5.194
241104.000			51.943			-5.194
241204.000			51.942			-5.194
241305.000			51.942			-5.194
241403.000			51.942			-5.194
241504.000			51.940			-5.194
241605.000			51.939			-5.194
241704.000			51.939			-5.194
241804.000			51.938			-5.194
241905.000			51.938			-5.194
242004.000			51.938			-5.194
242104.000			51.939			-5.194
242205.000			51.938			-5.194
242303.000			51.936			-5.194
242404.000			51.936			-5.194
242505.000			51.936			-5.194
242604.000			51.935			-5.194
242704.000			51.934			-5.193
242804.000			51.935			-5.193
242904.000			51.934			-5.193
243005.000			51.933			-5.193
243104.000			51.933			-5.193
243203.000			51.932			-5.193
243305.000			51.930			-5.193
243404.000			51.931			-5.193
243504.000			51.930			-5.193
243605.000			51.931			-5.193
243704.000			51.930			-5.193
243804.000			51.928			-5.193
243905.000			51.929			-5.193
244004.000			51.930			-5.193
244103.000			51.929			-5.193
244205.000			51.928			-5.193
244304.000			51.928			-5.193
244404.000			51.926			-5.193
244505.000			51.926			-5.193
244604.000			51.926			-5.193
244704.000			51.927			-5.193
244805.000			51.926			-5.193
244904.000			51.925			-5.192
245003.000			51.925			-5.192
245105.000			51.924			-5.192
245204.000			51.923			-5.192
245304.000			51.924			-5.192
245405.000			51.922			-5.192
245504.000			51.921			-5.192
245604.000			51.921			-5.192
245705.000			51.920			-5.192
245804.000			51.921			-5.192
245903.000			51.921			-5.192
246005.000			51.920			-5.192
246104.000			51.920			-5.192
246205.000			51.919			-5.192
246304.000			51.918			-5.192
246404.000			51.918			-5.192
246505.000			51.917			-5.192
246604.000			51.917			-5.192
246704.000			51.917			-5.192
246804.000			51.917			-5.192
246904.000			51.914			-5.191
247003.000			51.914			-5.191
247105.000			51.915			-5.192
247204.000			51.915			-5.191
247304.000			51.914			-5.191
247405.000			51.913			-5.191
247504.000			51.913			-5.191
247604.000			51.914			-5.191
247704.000			51.913			-5.191
247804.000			51.913			-5.191
247903.000			51.911			-5.191
248005.000			51.910			-5.191
248104.000			51.909			-5.191
248204.000			51.909			-5.191
248305.000			51.909			-5.191
248404.000			51.909			-5.191
248504.000			51.908			-5.191
248604.000			51.908			-5.191
248704.000			51.908			-5.191
248803.000			51.907			-5.191
248905.000			51.907			-5.191
249004.000			51.907			-5.191
249104.000			51.906			-5.191
249205.000			51.906			-5.191
249304.000			51.905			-5.191
249405.000			51.904			-5.190
249504.000			51.903			-5.190
249604.000			51.904			-5.190
249704.000			51.903			-5.190
249804.000			51.902			-5.190
249904.000			51.902			-5.190
250005.000			51.902			-5.190
250104.000			51.902			-5.190
250204.000			51.901			-5.190
250305.000			51.900			-5.190
250404.000			51.899			-5.190
250504.000			51.899			-5.190
250604.000			51.900			-5.190
250704.000			51.900			-5.190
250804.000			51.899			-5.190
250905.000			51.899			-5.190
251004.000			51.898			-5.190
251104.000			51.898			-5.190
251205.000			51.898			-5.190
251304.000			51.898			-5.190
251404.000			51.897			-5.190
251504.000			51.895			-5.190
251604.000			51.895			-5.189
251704.000			51.894			-5.189
251805.000			51.894			-5.189
251904.000			51.895			-5.189
252004.000			51.894			-5.189
252105.000			51.895			-5.189
252204.000			51.894			-5.189
252304.000			51.893			-5.189
252403.000			51.892			-5.189
252504.000			51.892			-5.189
252605.000			51.892			-5.189
252704.000			51.892			-5.189
252804.000			51.891			-5.189
252905.000			51.889			-5.189
253004.000			51.888			-5.189
253104.000			51.889			-5.189
253205.000			51.888			-5.189
253303.000			51.888			-5.189
253404.000			51.887			-5.189
253504.000			51.887			-5.189
253604.000			51.888			-5.189
253704.000			51.887			-5.189
253805.000			51.884			-5.188
253904.000			51.885			-5.188
254004.000			51.885			-5.189
254105.000			51.884			-5.188
254204.000			51.884			-5.188
254304.000			51.884			-5.188
254404.000			51.883			-5.188
254504.000			51.883			-5.188
254604.000			51.882			-5.188
254705.000			51.882			-5.188
254804.000			51.881			-5.188
254904.000			51.880			-5.188
255005.000			51.880			-5.188
255104.000			51.879			-5.188
255204.000			51.879			-5.188
255304.000			51.879			-5.188
255404.000			51.878			-5.188
255504.000			51.878			-5.188
255604.000			51.877			-5.188
255704.000			51.876			-5.188
255805.000			51.876			-5.188
255904.000			51.876			-5.188
256004.000			51.875			-5.188
256105.000			51.875			-5.188
256203.000			51.875			-5.188
256304.000			51.875			-5.187
256404.000			51.875			-5.188
256504.000			51.875			-5.187
256604.000			51.874			-5.187
256705.000			51.873			-5.187
256804.000			51.872			-5.187
256904.000			51.872			-5.187
257005.000			51.871			-5.187
257104.000			51.871			-5.187
257204.000			51.871			-5.187
257304.000			51.870			-5.187
257404.000			51.870			-5.187
257504.000			51.870			-5.187
257605.000			51.870			-5.187
257704.000			51.870			-5.187
257804.000			51.869			-5.187
257905.000			51.869			-5.187
258004.000			51.867			-5.187
258104.000			51.866			-5.187
258204.000			51.867			-5.187
258304.000			51.867			-5.187
258403.000			51.866			-5.187
258505.000			51.865			-5.186
258604.000			51.865			-5.187
258704.000			51.866			-5.187
258805.000			51.864			-5.186
258904.000			51.863			-5.186
259005.000			51.862			-5.186
259104.000			51.863			-5.186
259204.000			51.862			-5.186
259304.000			51.862			-5.186
259404.000			51.861			-5.186
259504.000			51.861			-5.186
259605.000			51.860			-5.186
259704.000			51.861			-5.186
259804.000			51.860			-5.186
259905.000			51.859			-5.186
260004.000			51.859			-5.186
260104.000			51.859			-5.186
260204.000			51.859			-5.186
260304.000			51.858			-5.186
260404.000			51.857			-5.186
260505.000			51.856			-5.186
260604.000			51.856			-5.186
260704.000			51.855			-5.186
260805.000			51.855			-5.185
260904.000			51.855			-5.185
261004.000			51.854			-5.185
261104.000			51.853			-5.185
261204.000			51.854			-5.185
261304.000			51.854			-5.185
261405.000			51.853			-5.185
261504.000			51.852			-5.185
261604.000			51.852			-5.185
261705.000			51.852			-5.185
261804.000			51.849			-5.185
261904.000			51.849			-5.185
262003.000			51.850			-5.185
262104.000			51.850			-5.185
262205.000			51.851			-5.185
262304.000			51.850			-5.185
262404.000			51.849			-5.185
262505.000			51.848			-5.185
262604.000			51.847			-5.185
262704.000			51.847			-5.185
262805.000			51.847			-5.185
262903.000			51.847			-5.185
263004.000			51.847			-5.185
263105.000			51.847			-5.185
263204.000			51.846			-5.185
263304.000			51.846			-5.185
263405.000			51.846			-5.185
263504.000			51.845			-5.184
263604.000			51.844			-5.184
263705.000			51.843			-5.184
263803.000			51.843			-5.184
263904.000			51.842			-5.184
264004.000			51.842			-5.184
264104.000			51.841			-5.184
264204.000			51.840			-5.184
264305.000			51.840			-5.184
264404.000			51.841			-5.184
264504.000			51.841			-5.184
264605.000			51.839			-5.184
264703.000			51.838			-5.184
264804.000			51.838			-5.184
264905.000			51.838			-5.184
265004.000			51.839			-5.184
265104.000			51.838			-5.184
265204.000			51.838			-5.184
265304.000			51.837			-5.184
265405.000			51.837			-5.184
265504.000			51.835			-5.184
265603.000			51.833			-5.183
265705.000			51.834			-5.183
265804.000			51.834			-5.183
265904.000			51.834			-5.183
266005.000			51.833			-5.183
266104.000			51.834			-5.183
266204.000			51.833			-5.183
266305.000			51.832			-5.183
266404.000			51.831			-5.183
266503.000			51.831			-5.183
266605.000			51.832			-5.183
266704.000			51.832			-5.183
266804.000			51.831			-5.183
266905.000			51.830			-5.183
267004.000			51.830			-5.183
267104.000			51.828			-5.183
267205.000			51.827			-5.183
267304.000			51.828			-5.183
267403.000			51.828			-5.183
267505.000			51.827			-5.183
267604.000			51.826			-5.183
267704.000			51.827			-5.183
267805.000			51.827			-5.183
267904.000			51.825			-5.183
268004.000			51.826			-5.183
268105.000			51.825			-5.183
268204.000			51.824			-5.182
268303.000			51.824			-5.182
268405.000			51.824			-5.182
268504.000			51.823			-5.182
268605.000			51.823			-5.182
268704.000			51.823			-5.182
268804.000			51.822			-5.182
268905.000			51.820			-5.182
269004.000			51.820			-5.182
269104.000			51.821			-5.182
269204.000			51.821			-5.182
269304.000			51.821			-5.182
269404.000			51.820			-5.182
269505.000			51.820			-5.182
269604.000			51.820			-5.182
269704.000			51.819			-5.182
269805.000			51.818			-5.182
269904.000			51.817			-5.182
270004.000			51.816			-5.182
270104.000			51.816			-5.182
270204.000			51.815			-5.181
270304.000			51.815			-5.182
270405.000			51.815			-5.181
270504.000			51.816			-5.182
270604.000			51.815			-5.182
270705.000			51.815			-5.181
270804.000			51.814			-5.181
270904.000			51.813			-5.181
271004.000			51.813			-5.181
271104.000			51.812			-5.181
271204.000			51.812			-5.181
271305.000			51.812			-5.181
271404.000			51.811			-5.181
271504.000			51.811			-5.181
271605.000			51.811			-5.181
271704.000			51.811			-5.181
271805.000			51.810			-5.181
271903.000			51.810			-5.181
272004.000			51.808			-5.181
272105.000			51.809			-5.181
272204.000			51.808			-5.181
272304.000			51.807			-5.181
272405.000			51.807			-5.181
272504.000			51.805			-5.181
272604.000			51.805			-5.181
272705.000			51.805			-5.181
272803.000			51.805			-5.180
272904.000			51.805			-5.180
273005.000			51.805			-5.180
273104.000			51.805			-5.180
273204.000			51.805			-5.180
273305.000			51.804			-5.180
273404.000			51.802			-5.180
273503.000			51.802			-5.180
273605.000			51.802			-5.180
273703.000			51.803			-5.180
273804.000			51.803			-5.180
273905.000			51.802			-5.180
274004.000			51.802			-5.180
274104.000			51.801			-5.180
274205.000			51.800			-5.180
274304.000			51.798			-5.180
274404.000			51.799			-5.180
274505.000			51.799			-5.180
274603.000			51.800			-5.180
274704.000			51.800			-5.180
274805.000			51.798			-5.180
274904.000			51.797			-5.180
275005.000			51.797			-5.180
275104.000			51.796			-5.180
275204.000			51.796			-5.180
275305.000			51.796			-5.180
275404.000			51.795			-5.179
275504.000			51.795			-5.179
275605.000			51.795			-5.179
275703.000			51.795			-5.179
275804.000			51.794			-5.179
275905.000			51.794			-5.179
276004.000			51.794			-5.179
276104.000			51.794			-5.179
276205.000			51.792			-5.179
276304.000			51.792			-5.179
276404.000			51.791			-5.179
276505.000			51.791			-5.179
276603.000			51.791			-5.179
276704.000			51.790			-5.179
276805.000			51.790			-5.179
276904.000			51.788			-5.179
277004.000			51.789			-5.179
277105.000			51.788			-5.179
277204.000			51.787			-5.179
277304.000			51.788			-5.179
277405.000			51.788			-5.179
277503.000			51.787			-5.179
277604.000			51.785			-5.179
277704.000			51.786			-5.179
277804.000			51.785			-5.178
277904.000			51.785			-5.178
278004.000			51.786			-5.179
278104.000			51.785			-5.178
278205.000			51.785			-5.178
278304.000			51.785			-5.178
278404.000			51.784			-5.178
278505.000			51.783			-5.178
278603.000			51.783			-5.178
278704.000			51.781			-5.178
278805.000			51.781			-5.178
278904.000			51.781			-5.178
279004.000			51.780			-5.178
279105.000			51.781			-5.178
279204.000			51.780			-5.178
279304.000			51.780			-5.178
279405.000			51.780			-5.178
279503.000			51.780			-5.178
279604.000			51.779			-5.178
279704.000			51.778			-5.178
279804.000			51.778			-5.178
279904.000			51.778			-5.178
280005.000			51.777			-5.178
280104.000			51.776			-5.178
280204.000			51.776			-5.178
280305.000			51.775			-5.178
280404.000			51.776			-5.178
280504.000			51.776			-5.178
280604.000			51.776			-5.178
280704.000			51.774			-5.177
280804.000			51.773			-5.177
280905.000			51.773			-5.177
281004.000			51.774			-5.177
281104.000			51.772			-5.177
281205.000			51.773			-5.177
281304.000			51.772			-5.177
281405.000			51.771			-5.177
281503.000			51.771			-5.177
281604.000			51.770			-5.177
281705.000			51.769			-5.177
281804.000			51.770			-5.177
281904.000			51.771			-5.177
282005.000			51.770			-5.177
282104.000			51.767			-5.177
282204.000			51.768			-5.177
282305.000			51.767			-5.177
282403.000			51.767			-5.177
282504.000			51.768			-5.177
282605.000			51.768			-5.177
282704.000			51.767			-5.177
282804.000			51.767			-5.177
282905.000			51.765			-5.176
283004.000			51.765			-5.176
283104.000			51.765			-5.177
283205.000			51.764			-5.176
283303.000			51.763			-5.176
283404.000			51.763			-5.176
283505.000			51.764			-5.176
283604.000			51.763			-5.176
283704.000			51.762			-5.176
283805.000			51.762			-5.176
283904.000			51.761			-5.176
284004.000			51.760			-5.176
284105.000			51.760			-5.176
284203.000			51.761			-5.176
284304.000			51.761			-5.176
284405.000			51.760			-5.176
284504.000			51.759			-5.176
284605.000			51.759			-5.176
284704.000			51.759			-5.176
284804.000			51.757			-5.176
284905.000			51.756			-5.176
285004.000			51.756			-5.176
285103.000			51.756			-5.176
285205.000			51.756			-5.176
285303.000			51.756			-5.176
285404.000			51.756			-5.176
285505.000			51.755			-5.176
285604.000			51.754			-5.175
285704.000			51.754			-5.175
285805.000			51.753			-5.175
285904.000			51.753			-5.175
286003.000			51.753			-5.175
286105.000			51.752			-5.175
286203.000			51.752			-5.175
286304.000			51.752			-5.175
286405.000			51.752			-5.175
286504.000			51.750			-5.175
286604.000			51.750			-5.175
286705.000			51.749			-5.175
286804.000			51.750			-5.175
286903.000			51.750			-5.175
287005.000			51.749			-5.175
287103.000			51.750			-5.175
287204.000			51.749			-5.175
287305.000			51.749			-5.175
287404.000			51.748			-5.175
287504.000			51.748			-5.175
287604.000			51.747			-5.175
287704.000			51.747			-5.175
287805.000			51.746			-5.175
287904.000			51.745			-5.175
288003.000			51.746			-5.175
288105.000			51.745			-5.175
288204.000			51.744			-5.174
288304.000			51.743			-5.174
288405.000			51.743			-5.174
288504.000			51.743			-5.174
288604.000			51.743			-5.174
288705.000			51.744			-5.174
288804.000			51.743			-5.174
288903.000			51.742			-5.174
289005.000			51.743			-5.174
289104.000			51.743			-5.174
289204.000			51.741			-5.174
289305.000			51.741			-5.174
289404.000			51.740			-5.174
289504.000			51.739			-5.174
289605.000			51.739			-5.174
289704.000			51.740			-5.174
289803.000			51.739			-5.174
289905.000			51.738			-5.174
290003.000			51.739			-5.174
290104.000			51.738			-5.174
290205.000			51.736			-5.174
290304.000			51.737			-5.174
290404.000			51.737			-5.174
290505.000			51.736			-5.174
290604.000			51.736			-5.174
290703.000			51.736			-5.174
290805.000			51.735			-5.174
290903.000			51.734			-5.173
291005.000			51.733			-5.173
291104.000			51.732			-5.173
291204.000			51.733			-5.173
291305.000			51.734			-5.173
291404.000			51.733			-5.173
291504.000			51.732			-5.173
291604.000			51.733			-5.173
291704.000			51.732			-5.173
291803.000			51.731			-5.173
291905.000			51.731			-5.173
292004.000			51.730			-5.173
292104.000			51.730			-5.173
292205.000			51.729			-5.173
292304.000			51.729			-5.173
292404.000			51.728			-5.173
292504.000			51.728			-5.173
292604.000			51.727			-5.173
292703.000			51.728			-5.173
292805.000			51.727			-5.173
292904.000			51.726			-5.173
293004.000			51.725			-5.173
293105.000			51.726			-5.173
293204.000			51.725			-5.173
293304.000			51.725			-5.173
293404.000			51.725			-5.172
293504.000			51.725			-5.172
293603.000			51.724			-5.172
293705.000			51.724			-5.172
293804.000			51.723			-5.172
293904.000			51.721			-5.172
294005.000			51.720			-5.172
294104.000			51.721			-5.172
294205.000			51.721			-5.172
294303.000			51.722			-5.172
294404.000			51.721			-5.172
294505.000			51.720			-5.172
294604.000			51.720			-5.172
294704.000			51.720			-5.172
294805.000			51.718			-5.172
294904.000			51.718			-5.172
295004.000			51.718			-5.172
295105.000			51.718			-5.172
295203.000			51.718			-5.172
295304.000			51.717			-5.172
295404.000			51.718			-5.172
295504.000			51.717			-5.172
295604.000			51.716			-5.172
295705.000			51.716			-5.172
295804.000			51.716			-5.172
295904.000			51.716			-5.172
296005.000			51.713			-5.171
296104.000			51.713			-5.171
296204.000			51.713			-5.171
296304.000			51.713			-5.171
296404.000			51.713			-5.171
296504.000			51.712			-5.171
296605.000			51.711			-5.171
296704.000			51.711			-5.171
296804.000			51.711			-5.171
296905.000			51.712			-5.171
297004.000			51.711			-5.171
297104.000			51.711			-5.171
297203.000			51.711			-5.171
297304.000			51.711			-5.171
297405.000			51.709			-5.171
297504.000			51.708			-5.171
297604.000			51.708			-5.171
297705.000			51.707			-5.171
297804.000			51.707			-5.171
297904.000			51.707			-5.171
298005.000			51.706			-5.171
298103.000			51.707			-5.171
298204.000			51.707			-5.171
298305.000			51.706			-5.171
298404.000			51.706			-5.171
298504.000			51.705			-5.171
298605.000			51.706			-5.171
298704.000			51.706			-5.171
298804.000			51.705			-5.170
298905.000			51.704			-5.170
299003.000			51.703			-5.170
299104.000			51.703			-5.170
299204.000			51.702			-5.170
299304.000			51.703			-5.170
299404.000			51.703			-5.170
299505.000			51.701			-5.170
299604.000			51.702			-5.170
299704.000			51.701			-5.170
299805.000			51.700			-5.170
299903.000			51.700			-5.170
