# Acquired on 09/01/2024 12:30:53 
# SPIDER: Creep_8mm_07714532B-2
# CREEP MEASUREMENT

# time [ms]		force [N]		stiffness [N/mm]
0.000			-34.338			-4.292
100.000			-36.103			-4.513
201.000			-36.886			-4.611
300.000			-36.669			-4.584
401.000			-36.483			-4.560
501.000			-36.333			-4.542
600.000			-36.208			-4.526
701.000			-36.098			-4.512
800.000			-36.001			-4.500
900.000			-35.915			-4.489
1001.000			-35.765			-4.471
1100.000			-35.699			-4.462
1201.000			-35.638			-4.455
1302.000			-35.580			-4.447
1400.000			-35.526			-4.441
1500.000			-35.477			-4.435
1601.000			-35.429			-4.429
1700.000			-35.342			-4.418
1800.000			-35.301			-4.413
1902.000			-35.262			-4.408
2001.000			-35.226			-4.403
2100.000			-35.191			-4.399
2201.000			-35.157			-4.395
2300.000			-35.125			-4.391
2400.000			-35.064			-4.383
2501.000			-35.035			-4.379
2600.000			-35.007			-4.376
2701.000			-34.980			-4.373
2802.000			-34.955			-4.369
2900.000			-34.930			-4.366
3000.000			-34.904			-4.363
3101.000			-34.880			-4.360
3200.000			-34.835			-4.354
3300.000			-34.812			-4.352
3401.000			-34.791			-4.349
3501.000			-34.770			-4.346
3602.000			-34.749			-4.344
3700.000			-34.730			-4.341
3800.000			-34.712			-4.339
3901.000			-34.673			-4.334
4000.000			-34.655			-4.332
4100.000			-34.638			-4.330
4202.000			-34.620			-4.328
4301.000			-34.604			-4.325
4400.000			-34.586			-4.323
4501.000			-34.571			-4.321
4600.000			-34.539			-4.317
4700.000			-34.525			-4.316
4801.000			-34.510			-4.314
4900.000			-34.493			-4.312
5001.000			-34.478			-4.310
5102.000			-34.465			-4.308
5200.000			-34.451			-4.306
5300.000			-34.423			-4.303
5401.000			-34.409			-4.301
5500.000			-34.397			-4.300
5600.000			-34.385			-4.298
5702.000			-34.372			-4.297
5801.000			-34.359			-4.295
5900.000			-34.347			-4.293
6001.000			-34.335			-4.292
6100.000			-34.312			-4.289
6200.000			-34.300			-4.287
6301.000			-34.289			-4.286
6400.000			-34.276			-4.285
6501.000			-34.265			-4.283
6602.000			-34.255			-4.282
6700.000			-34.245			-4.281
6801.000			-34.223			-4.278
6900.000			-34.213			-4.277
7000.000			-34.202			-4.275
7101.000			-34.191			-4.274
7200.000			-34.181			-4.273
7301.000			-34.172			-4.271
7402.000			-34.163			-4.270
7500.000			-34.145			-4.268
7600.000			-34.135			-4.267
7701.000			-34.124			-4.266
7800.000			-34.115			-4.264
7900.000			-34.107			-4.263
8002.000			-34.098			-4.262
8101.000			-34.089			-4.261
8200.000			-34.071			-4.259
8301.000			-34.063			-4.258
8400.000			-34.055			-4.257
8500.000			-34.047			-4.256
8601.000			-34.039			-4.255
8700.000			-34.031			-4.254
8801.000			-34.023			-4.253
8901.000			-34.014			-4.252
9000.000			-33.997			-4.250
9100.000			-33.989			-4.249
9201.000			-33.982			-4.248
9300.000			-33.975			-4.247
9400.000			-33.967			-4.246
9502.000			-33.959			-4.245
9601.000			-33.953			-4.244
9700.000			-33.937			-4.242
9801.000			-33.929			-4.241
9900.000			-33.922			-4.240
10001.000			-33.916			-4.239
10100.000			-33.908			-4.239
10200.000			-33.901			-4.238
10302.000			-33.894			-4.237
10401.000			-33.881			-4.235
10500.000			-33.874			-4.234
10601.000			-33.867			-4.233
10700.000			-33.861			-4.233
10800.000			-33.855			-4.232
10901.000			-33.848			-4.231
11000.000			-33.841			-4.230
11101.000			-33.835			-4.229
11202.000			-33.822			-4.228
11300.000			-33.814			-4.227
11400.000			-33.809			-4.226
11501.000			-33.803			-4.225
11600.000			-33.797			-4.225
11700.000			-33.791			-4.224
11801.000			-33.784			-4.223
11901.000			-33.772			-4.222
12001.000			-33.766			-4.221
12101.000			-33.760			-4.220
12200.000			-33.754			-4.219
12300.000			-33.749			-4.219
12401.000			-33.744			-4.218
12500.000			-33.739			-4.217
12600.000			-33.728			-4.216
12702.000			-33.722			-4.215
12801.000			-33.716			-4.215
12900.000			-33.710			-4.214
13001.000			-33.705			-4.213
13100.000			-33.699			-4.212
13201.000			-33.694			-4.212
13300.000			-33.684			-4.211
13400.000			-33.678			-4.210
13502.000			-33.673			-4.209
13601.000			-33.667			-4.208
13700.000			-33.663			-4.208
13801.000			-33.659			-4.207
13900.000			-33.653			-4.207
14000.000			-33.648			-4.206
14101.000			-33.637			-4.205
14200.000			-33.632			-4.204
14301.000			-33.627			-4.203
14402.000			-33.622			-4.203
14500.000			-33.617			-4.202
14600.000			-33.612			-4.202
14701.000			-33.608			-4.201
14800.000			-33.598			-4.200
14900.000			-33.594			-4.199
15001.000			-33.588			-4.199
15101.000			-33.584			-4.198
15201.000			-33.579			-4.197
15301.000			-33.574			-4.197
15400.000			-33.569			-4.196
15500.000			-33.561			-4.195
15601.000			-33.557			-4.195
15700.000			-33.552			-4.194
15800.000			-33.548			-4.194
15902.000			-33.544			-4.193
16001.000			-33.538			-4.192
16100.000			-33.534			-4.192
16201.000			-33.525			-4.191
16300.000			-33.520			-4.190
16401.000			-33.516			-4.189
16500.000			-33.512			-4.189
16600.000			-33.508			-4.189
16702.000			-33.504			-4.188
16801.000			-33.500			-4.187
16900.000			-33.496			-4.187
17001.000			-33.487			-4.186
17100.000			-33.483			-4.185
17200.000			-33.480			-4.185
17301.000			-33.476			-4.184
17400.000			-33.471			-4.184
17501.000			-33.467			-4.183
17602.000			-33.464			-4.183
17700.000			-33.456			-4.182
17800.000			-33.452			-4.181
17901.000			-33.447			-4.181
18000.000			-33.443			-4.180
18100.000			-33.439			-4.180
18202.000			-33.436			-4.179
18301.000			-33.432			-4.179
18401.000			-33.426			-4.178
18501.000			-33.420			-4.177
18600.000			-33.415			-4.177
18700.000			-33.412			-4.176
18801.000			-33.408			-4.176
18900.000			-33.404			-4.176
19001.000			-33.401			-4.175
19102.000			-33.394			-4.174
19201.000			-33.391			-4.174
19300.000			-33.386			-4.173
19401.000			-33.384			-4.173
19500.000			-33.380			-4.172
19601.000			-33.376			-4.172
19700.000			-33.372			-4.172
19800.000			-33.368			-4.171
19902.000			-33.361			-4.170
20001.000			-33.358			-4.170
20100.000			-33.354			-4.169
20201.000			-33.351			-4.169
20300.000			-33.349			-4.169
20400.000			-33.345			-4.168
20501.000			-33.342			-4.168
20601.000			-33.335			-4.167
20701.000			-33.331			-4.166
20801.000			-33.328			-4.166
20900.000			-33.324			-4.166
21000.000			-33.321			-4.165
21101.000			-33.318			-4.165
21200.000			-33.315			-4.164
21300.000			-33.308			-4.163
21402.000			-33.305			-4.163
21501.000			-33.301			-4.163
21600.000			-33.298			-4.162
21701.000			-33.294			-4.162
21800.000			-33.291			-4.161
21900.000			-33.288			-4.161
22001.000			-33.285			-4.161
22100.000			-33.280			-4.160
22201.000			-33.277			-4.160
22302.000			-33.273			-4.159
22400.000			-33.269			-4.159
22500.000			-33.266			-4.158
22601.000			-33.263			-4.158
22700.000			-33.259			-4.157
22801.000			-33.254			-4.157
22900.000			-33.251			-4.156
23001.000			-33.248			-4.156
23102.000			-33.244			-4.155
23200.000			-33.241			-4.155
23300.000			-33.239			-4.155
23401.000			-33.236			-4.154
23500.000			-33.229			-4.154
23600.000			-33.228			-4.153
23702.000			-33.225			-4.153
23801.000			-33.221			-4.153
23901.000			-33.218			-4.152
24001.000			-33.215			-4.152
24100.000			-33.212			-4.151
24200.000			-33.206			-4.151
24301.000			-33.204			-4.150
24400.000			-33.201			-4.150
24501.000			-33.197			-4.150
24602.000			-33.194			-4.149
24700.000			-33.192			-4.149
24800.000			-33.190			-4.149
24901.000			-33.187			-4.148
25000.000			-33.180			-4.148
25100.000			-33.177			-4.147
25201.000			-33.175			-4.147
25301.000			-33.174			-4.147
25401.000			-33.171			-4.146
25501.000			-33.167			-4.146
25600.000			-33.164			-4.146
25700.000			-33.159			-4.145
25801.000			-33.156			-4.144
25900.000			-33.154			-4.144
26001.000			-33.151			-4.144
26101.000			-33.148			-4.143
26201.000			-33.145			-4.143
26301.000			-33.143			-4.143
26400.000			-33.138			-4.142
26500.000			-33.134			-4.142
26601.000			-33.131			-4.141
26700.000			-33.129			-4.141
26800.000			-33.126			-4.141
26902.000			-33.124			-4.140
27001.000			-33.121			-4.140
27100.000			-33.116			-4.139
27201.000			-33.113			-4.139
27300.000			-33.111			-4.139
27400.000			-33.108			-4.138
27501.000			-33.106			-4.138
27601.000			-33.104			-4.138
27701.000			-33.101			-4.138
27801.000			-33.098			-4.137
27900.000			-33.093			-4.137
28000.000			-33.090			-4.136
28101.000			-33.088			-4.136
28200.000			-33.086			-4.136
28300.000			-33.084			-4.135
28402.000			-33.081			-4.135
28501.000			-33.078			-4.135
28600.000			-33.072			-4.134
28701.000			-33.070			-4.134
28800.000			-33.067			-4.133
28900.000			-33.065			-4.133
29001.000			-33.064			-4.133
29100.000			-33.061			-4.133
29202.000			-33.058			-4.132
29301.000			-33.054			-4.132
29400.000			-33.052			-4.131
29501.000			-33.049			-4.131
29600.000			-33.046			-4.131
29700.000			-33.043			-4.130
29801.000			-33.041			-4.130
29900.000			-33.039			-4.130
30001.000			-33.034			-4.129
30102.000			-33.033			-4.129
30200.000			-33.031			-4.129
30300.000			-33.028			-4.129
30401.000			-33.025			-4.128
30500.000			-33.022			-4.128
30600.000			-33.020			-4.127
30701.000			-33.017			-4.127
30801.000			-33.014			-4.127
30901.000			-33.013			-4.127
31001.000			-33.010			-4.126
31100.000			-33.007			-4.126
31200.000			-33.005			-4.126
31301.000			-33.003			-4.125
31400.000			-33.001			-4.125
31501.000			-32.997			-4.125
31602.000			-32.995			-4.124
31700.000			-32.992			-4.124
31800.000			-32.989			-4.124
31901.000			-32.988			-4.123
32000.000			-32.986			-4.123
32100.000			-32.983			-4.123
32201.000			-32.979			-4.122
32300.000			-32.976			-4.122
32402.000			-32.974			-4.122
32501.000			-32.972			-4.122
32600.000			-32.970			-4.121
32701.000			-32.968			-4.121
32800.000			-32.966			-4.121
32900.000			-32.963			-4.120
33001.000			-32.959			-4.120
33100.000			-32.958			-4.120
33201.000			-32.956			-4.119
33302.000			-32.953			-4.119
33400.000			-32.952			-4.119
33500.000			-32.950			-4.119
33601.000			-32.948			-4.118
33700.000			-32.943			-4.118
33800.000			-32.940			-4.118
33901.000			-32.940			-4.117
34001.000			-32.937			-4.117
34101.000			-32.934			-4.117
34201.000			-32.933			-4.117
34300.000			-32.931			-4.116
34400.000			-32.927			-4.116
34501.000			-32.924			-4.116
34600.000			-32.922			-4.115
34700.000			-32.920			-4.115
34802.000			-32.918			-4.115
34901.000			-32.917			-4.115
35000.000			-32.915			-4.114
35101.000			-32.910			-4.114
35200.000			-32.907			-4.113
35300.000			-32.906			-4.113
35401.000			-32.904			-4.113
35500.000			-32.902			-4.113
35602.000			-32.900			-4.113
35701.000			-32.899			-4.112
35800.000			-32.896			-4.112
35901.000			-32.892			-4.111
36000.000			-32.890			-4.111
36100.000			-32.889			-4.111
36201.000			-32.887			-4.111
36300.000			-32.885			-4.111
36401.000			-32.883			-4.110
36502.000			-32.881			-4.110
36600.000			-32.878			-4.110
36700.000			-32.876			-4.109
36801.000			-32.874			-4.109
36900.000			-32.871			-4.109
37000.000			-32.869			-4.109
37101.000			-32.868			-4.108
37201.000			-32.866			-4.108
37301.000			-32.862			-4.108
37401.000			-32.860			-4.107
37500.000			-32.858			-4.107
37600.000			-32.856			-4.107
37701.000			-32.855			-4.107
37800.000			-32.853			-4.107
37900.000			-32.851			-4.106
38002.000			-32.848			-4.106
38101.000			-32.846			-4.106
38200.000			-32.845			-4.106
38301.000			-32.843			-4.105
38400.000			-32.841			-4.105
38500.000			-32.838			-4.105
38601.000			-32.836			-4.105
38700.000			-32.834			-4.104
38802.000			-32.831			-4.104
38901.000			-32.829			-4.104
39001.000			-32.827			-4.103
39101.000			-32.827			-4.103
39200.000			-32.825			-4.103
39300.000			-32.823			-4.103
39401.000			-32.820			-4.103
39500.000			-32.817			-4.102
39600.000			-32.816			-4.102
39702.000			-32.813			-4.102
39801.000			-32.811			-4.101
39900.000			-32.810			-4.101
40001.000			-32.808			-4.101
40100.000			-32.806			-4.101
40200.000			-32.802			-4.100
40301.000			-32.801			-4.100
40401.000			-32.799			-4.100
40501.000			-32.797			-4.100
40602.000			-32.795			-4.099
40700.000			-32.794			-4.099
40800.000			-32.792			-4.099
40901.000			-32.789			-4.099
41000.000			-32.788			-4.098
41100.000			-32.786			-4.098
41202.000			-32.784			-4.098
41301.000			-32.781			-4.098
41401.000			-32.780			-4.097
41501.000			-32.778			-4.097
41600.000			-32.778			-4.097
41700.000			-32.773			-4.097
41801.000			-32.771			-4.096
41900.000			-32.770			-4.096
42001.000			-32.769			-4.096
42101.000			-32.767			-4.096
42201.000			-32.765			-4.096
42301.000			-32.764			-4.096
42400.000			-32.760			-4.095
42500.000			-32.758			-4.095
42601.000			-32.757			-4.095
42700.000			-32.755			-4.094
42801.000			-32.753			-4.094
42902.000			-32.752			-4.094
43001.000			-32.751			-4.094
43100.000			-32.748			-4.093
43201.000			-32.745			-4.093
43300.000			-32.743			-4.093
43400.000			-32.742			-4.093
43501.000			-32.742			-4.093
43601.000			-32.740			-4.092
43701.000			-32.737			-4.092
43801.000			-32.734			-4.092
43900.000			-32.733			-4.092
44000.000			-32.731			-4.091
44101.000			-32.729			-4.091
44200.000			-32.726			-4.091
44300.000			-32.725			-4.091
44402.000			-32.724			-4.090
44501.000			-32.723			-4.090
44600.000			-32.720			-4.090
44701.000			-32.717			-4.090
44800.000			-32.716			-4.089
44900.000			-32.714			-4.089
45001.000			-32.714			-4.089
45100.000			-32.712			-4.089
45202.000			-32.710			-4.089
45301.000			-32.707			-4.088
45400.000			-32.706			-4.088
45501.000			-32.704			-4.088
45600.000			-32.702			-4.088
45700.000			-32.701			-4.088
45801.000			-32.699			-4.087
45900.000			-32.698			-4.087
46001.000			-32.696			-4.087
46102.000			-32.693			-4.087
46200.000			-32.692			-4.087
46300.000			-32.691			-4.086
46401.000			-32.690			-4.086
46500.000			-32.689			-4.086
46600.000			-32.687			-4.086
46701.000			-32.686			-4.086
46801.000			-32.682			-4.085
46901.000			-32.681			-4.085
47001.000			-32.680			-4.085
47100.000			-32.678			-4.085
47200.000			-32.676			-4.085
47301.000			-32.674			-4.084
47400.000			-32.673			-4.084
47500.000			-32.671			-4.084
47602.000			-32.670			-4.084
47701.000			-32.667			-4.083
47800.000			-32.665			-4.083
47901.000			-32.664			-4.083
48000.000			-32.663			-4.083
48100.000			-32.661			-4.083
48201.000			-32.659			-4.082
48300.000			-32.657			-4.082
48402.000			-32.655			-4.082
48501.000			-32.653			-4.082
48601.000			-32.654			-4.082
48701.000			-32.653			-4.082
48800.000			-32.650			-4.081
48900.000			-32.648			-4.081
49001.000			-32.647			-4.081
49100.000			-32.645			-4.081
49200.000			-32.643			-4.080
49302.000			-32.640			-4.080
49401.000			-32.640			-4.080
49500.000			-32.638			-4.080
49601.000			-32.637			-4.080
49700.000			-32.634			-4.079
49800.000			-32.633			-4.079
49901.000			-32.633			-4.079
50000.000			-32.631			-4.079
50101.000			-32.629			-4.079
50202.000			-32.628			-4.078
50300.000			-32.627			-4.078
50400.000			-32.623			-4.078
50501.000			-32.622			-4.078
50600.000			-32.621			-4.078
50700.000			-32.621			-4.078
50802.000			-32.618			-4.077
50901.000			-32.616			-4.077
51000.000			-32.616			-4.077
51101.000			-32.614			-4.077
51200.000			-32.612			-4.076
51300.000			-32.611			-4.076
51401.000			-32.610			-4.076
51500.000			-32.608			-4.076
51602.000			-32.607			-4.076
51701.000			-32.605			-4.076
51800.000			-32.601			-4.075
51901.000			-32.600			-4.075
52000.000			-32.598			-4.075
52100.000			-32.597			-4.075
52201.000			-32.596			-4.074
52300.000			-32.595			-4.074
52401.000			-32.595			-4.074
52502.000			-32.593			-4.074
52600.000			-32.590			-4.074
52700.000			-32.588			-4.074
52801.000			-32.587			-4.073
52900.000			-32.586			-4.073
53000.000			-32.584			-4.073
53101.000			-32.582			-4.073
53201.000			-32.581			-4.073
53301.000			-32.580			-4.072
53401.000			-32.579			-4.072
53500.000			-32.577			-4.072
53600.000			-32.575			-4.072
53701.000			-32.575			-4.072
53800.000			-32.573			-4.072
53900.000			-32.571			-4.071
54002.000			-32.569			-4.071
54101.000			-32.568			-4.071
54200.000			-32.566			-4.071
54301.000			-32.566			-4.071
54400.000			-32.565			-4.071
54500.000			-32.563			-4.070
54601.000			-32.562			-4.070
54700.000			-32.559			-4.070
54802.000			-32.559			-4.070
54901.000			-32.558			-4.070
55000.000			-32.557			-4.070
55101.000			-32.555			-4.069
55200.000			-32.553			-4.069
55300.000			-32.551			-4.069
55401.000			-32.550			-4.069
55500.000			-32.547			-4.068
55601.000			-32.545			-4.068
55702.000			-32.545			-4.068
55800.000			-32.543			-4.068
55900.000			-32.544			-4.068
56001.000			-32.544			-4.068
56100.000			-32.542			-4.068
56200.000			-32.538			-4.067
56301.000			-32.537			-4.067
56401.000			-32.536			-4.067
56501.000			-32.535			-4.067
56601.000			-32.533			-4.067
56700.000			-32.531			-4.066
56800.000			-32.531			-4.066
56901.000			-32.527			-4.066
57000.000			-32.526			-4.066
57100.000			-32.525			-4.066
57202.000			-32.524			-4.065
57301.000			-32.521			-4.065
57400.000			-32.522			-4.065
57501.000			-32.521			-4.065
57600.000			-32.518			-4.065
57700.000			-32.517			-4.065
57801.000			-32.515			-4.064
57900.000			-32.515			-4.064
58002.000			-32.514			-4.064
58101.000			-32.511			-4.064
58200.000			-32.511			-4.064
58301.000			-32.510			-4.064
58400.000			-32.507			-4.063
58500.000			-32.506			-4.063
58601.000			-32.505			-4.063
58700.000			-32.504			-4.063
58801.000			-32.502			-4.063
58902.000			-32.502			-4.063
59000.000			-32.500			-4.062
59100.000			-32.497			-4.062
59201.000			-32.497			-4.062
59300.000			-32.495			-4.062
59400.000			-32.493			-4.062
59501.000			-32.492			-4.061
59601.000			-32.491			-4.061
59701.000			-32.490			-4.061
59801.000			-32.487			-4.061
59900.000			-32.487			-4.061
60000.000			-32.485			-4.061
60101.000			-32.485			-4.061
60200.000			-32.484			-4.060
60300.000			-32.482			-4.060
60402.000			-32.481			-4.060
60501.000			-32.478			-4.060
60601.000			-32.477			-4.060
60701.000			-32.476			-4.060
60800.000			-32.475			-4.059
60900.000			-32.474			-4.059
61001.000			-32.473			-4.059
61100.000			-32.472			-4.059
61201.000			-32.470			-4.059
61301.000			-32.469			-4.059
61401.000			-32.468			-4.058
61501.000			-32.466			-4.058
61600.000			-32.464			-4.058
61700.000			-32.463			-4.058
61801.000			-32.463			-4.058
61900.000			-32.460			-4.058
62000.000			-32.459			-4.057
62102.000			-32.458			-4.057
62201.000			-32.456			-4.057
62300.000			-32.455			-4.057
62401.000			-32.454			-4.057
62500.000			-32.453			-4.057
62600.000			-32.451			-4.056
62701.000			-32.450			-4.056
62800.000			-32.449			-4.056
62901.000			-32.447			-4.056
63002.000			-32.446			-4.056
63100.000			-32.446			-4.056
63200.000			-32.445			-4.056
63301.000			-32.444			-4.055
63400.000			-32.443			-4.055
63500.000			-32.441			-4.055
63601.000			-32.439			-4.055
63701.000			-32.437			-4.055
63801.000			-32.437			-4.055
63901.000			-32.436			-4.054
64000.000			-32.434			-4.054
64100.000			-32.434			-4.054
64201.000			-32.432			-4.054
64300.000			-32.431			-4.054
64401.000			-32.430			-4.054
64501.000			-32.429			-4.054
64601.000			-32.427			-4.053
64701.000			-32.426			-4.053
64800.000			-32.425			-4.053
64900.000			-32.423			-4.053
65001.000			-32.421			-4.053
65100.000			-32.420			-4.052
65201.000			-32.419			-4.052
65302.000			-32.419			-4.052
65401.000			-32.418			-4.052
65500.000			-32.417			-4.052
65601.000			-32.415			-4.052
65700.000			-32.414			-4.052
65800.000			-32.412			-4.052
65901.000			-32.410			-4.051
66001.000			-32.410			-4.051
66101.000			-32.409			-4.051
66201.000			-32.407			-4.051
66300.000			-32.406			-4.051
66400.000			-32.404			-4.050
66501.000			-32.402			-4.050
66600.000			-32.400			-4.050
66700.000			-32.399			-4.050
66802.000			-32.399			-4.050
66901.000			-32.399			-4.050
67001.000			-32.397			-4.050
67101.000			-32.395			-4.049
67200.000			-32.395			-4.049
67300.000			-32.394			-4.049
67401.000			-32.393			-4.049
67500.000			-32.392			-4.049
67601.000			-32.390			-4.049
67701.000			-32.388			-4.048
67801.000			-32.387			-4.048
67901.000			-32.386			-4.048
68000.000			-32.385			-4.048
68100.000			-32.385			-4.048
68201.000			-32.384			-4.048
68300.000			-32.382			-4.048
68400.000			-32.381			-4.048
68502.000			-32.379			-4.047
68601.000			-32.377			-4.047
68700.000			-32.376			-4.047
68801.000			-32.376			-4.047
68900.000			-32.375			-4.047
69000.000			-32.372			-4.047
69101.000			-32.373			-4.047
69200.000			-32.372			-4.046
69301.000			-32.370			-4.046
69402.000			-32.369			-4.046
69500.000			-32.367			-4.046
69600.000			-32.367			-4.046
69701.000			-32.366			-4.046
69800.000			-32.364			-4.046
69900.000			-32.364			-4.045
70001.000			-32.362			-4.045
70101.000			-32.360			-4.045
70201.000			-32.359			-4.045
70302.000			-32.360			-4.045
70400.000			-32.359			-4.045
70500.000			-32.358			-4.045
70601.000			-32.356			-4.045
70700.000			-32.354			-4.044
70801.000			-32.353			-4.044
70900.000			-32.351			-4.044
71001.000			-32.350			-4.044
71102.000			-32.350			-4.044
71200.000			-32.349			-4.044
71300.000			-32.348			-4.043
71401.000			-32.345			-4.043
71500.000			-32.345			-4.043
71600.000			-32.344			-4.043
71702.000			-32.343			-4.043
71801.000			-32.342			-4.043
71900.000			-32.341			-4.043
72001.000			-32.340			-4.043
72100.000			-32.339			-4.042
72200.000			-32.338			-4.042
72301.000			-32.337			-4.042
72400.000			-32.335			-4.042
72501.000			-32.334			-4.042
72602.000			-32.333			-4.042
72700.000			-32.332			-4.041
72800.000			-32.331			-4.041
72901.000			-32.330			-4.041
73000.000			-32.328			-4.041
73100.000			-32.327			-4.041
73201.000			-32.327			-4.041
73301.000			-32.326			-4.041
73401.000			-32.324			-4.041
73501.000			-32.324			-4.040
73600.000			-32.322			-4.040
73700.000			-32.321			-4.040
73801.000			-32.320			-4.040
73900.000			-32.319			-4.040
74001.000			-32.319			-4.040
74101.000			-32.318			-4.040
74201.000			-32.317			-4.040
74301.000			-32.316			-4.039
74400.000			-32.315			-4.039
74500.000			-32.313			-4.039
74601.000			-32.311			-4.039
74700.000			-32.312			-4.039
74800.000			-32.311			-4.039
74902.000			-32.310			-4.039
75001.000			-32.309			-4.039
75100.000			-32.307			-4.038
75201.000			-32.306			-4.038
75300.000			-32.304			-4.038
75400.000			-32.303			-4.038
75501.000			-32.303			-4.038
75600.000			-32.302			-4.038
75701.000			-32.301			-4.038
75802.000			-32.298			-4.037
75900.000			-32.297			-4.037
76000.000			-32.297			-4.037
76101.000			-32.296			-4.037
76200.000			-32.296			-4.037
76300.000			-32.294			-4.037
76401.000			-32.294			-4.037
76501.000			-32.291			-4.036
76601.000			-32.291			-4.036
76702.000			-32.290			-4.036
76800.000			-32.288			-4.036
76900.000			-32.288			-4.036
77001.000			-32.288			-4.036
77100.000			-32.286			-4.036
77201.000			-32.284			-4.036
77300.000			-32.282			-4.035
77401.000			-32.282			-4.035
77502.000			-32.281			-4.035
77600.000			-32.280			-4.035
77700.000			-32.280			-4.035
77801.000			-32.279			-4.035
77900.000			-32.278			-4.035
78000.000			-32.277			-4.035
78101.000			-32.276			-4.035
78201.000			-32.274			-4.034
78301.000			-32.273			-4.034
78401.000			-32.272			-4.034
78500.000			-32.271			-4.034
78600.000			-32.270			-4.034
78701.000			-32.269			-4.034
78800.000			-32.268			-4.034
78900.000			-32.267			-4.033
79002.000			-32.265			-4.033
79101.000			-32.264			-4.033
79200.000			-32.263			-4.033
79301.000			-32.263			-4.033
79400.000			-32.259			-4.032
79500.000			-32.258			-4.032
79601.000			-32.259			-4.032
79700.000			-32.259			-4.032
79801.000			-32.258			-4.032
79902.000			-32.256			-4.032
80001.000			-32.257			-4.032
80100.000			-32.253			-4.032
80201.000			-32.252			-4.031
80300.000			-32.251			-4.031
80401.000			-32.251			-4.031
80500.000			-32.251			-4.031
80601.000			-32.250			-4.031
80702.000			-32.249			-4.031
80801.000			-32.248			-4.031
80900.000			-32.246			-4.031
81001.000			-32.245			-4.031
81100.000			-32.244			-4.030
81200.000			-32.243			-4.030
81301.000			-32.243			-4.030
81401.000			-32.241			-4.030
81501.000			-32.240			-4.030
81601.000			-32.239			-4.030
81700.000			-32.238			-4.030
81800.000			-32.237			-4.030
81901.000			-32.236			-4.030
82000.000			-32.236			-4.030
82100.000			-32.235			-4.029
82202.000			-32.234			-4.029
82301.000			-32.232			-4.029
82400.000			-32.231			-4.029
82501.000			-32.230			-4.029
82600.000			-32.229			-4.029
82700.000			-32.229			-4.029
82801.000			-32.228			-4.029
82900.000			-32.229			-4.029
83001.000			-32.225			-4.028
83102.000			-32.224			-4.028
83200.000			-32.223			-4.028
83300.000			-32.223			-4.028
83401.000			-32.224			-4.028
83500.000			-32.222			-4.028
83601.000			-32.222			-4.028
83700.000			-32.220			-4.028
83801.000			-32.219			-4.027
83902.000			-32.216			-4.027
84000.000			-32.216			-4.027
84100.000			-32.216			-4.027
84201.000			-32.216			-4.027
84300.000			-32.214			-4.027
84400.000			-32.214			-4.027
84501.000			-32.210			-4.026
84601.000			-32.209			-4.026
84701.000			-32.210			-4.026
84801.000			-32.209			-4.026
84900.000			-32.209			-4.026
85000.000			-32.207			-4.026
85101.000			-32.206			-4.026
85200.000			-32.205			-4.026
85300.000			-32.204			-4.025
85402.000			-32.203			-4.025
85501.000			-32.203			-4.025
85600.000			-32.202			-4.025
85701.000			-32.200			-4.025
85800.000			-32.199			-4.025
85900.000			-32.199			-4.025
86001.000			-32.199			-4.025
86100.000			-32.198			-4.025
86201.000			-32.196			-4.025
86302.000			-32.196			-4.024
86400.000			-32.195			-4.024
86500.000			-32.194			-4.024
86601.000			-32.193			-4.024
86700.000			-32.192			-4.024
86801.000			-32.191			-4.024
86900.000			-32.190			-4.024
87001.000			-32.189			-4.024
87102.000			-32.189			-4.024
87200.000			-32.187			-4.023
87300.000			-32.186			-4.023
87401.000			-32.184			-4.023
87500.000			-32.183			-4.023
87600.000			-32.183			-4.023
87701.000			-32.183			-4.023
87801.000			-32.182			-4.023
87901.000			-32.182			-4.023
88002.000			-32.180			-4.023
88100.000			-32.178			-4.022
88200.000			-32.178			-4.022
88301.000			-32.178			-4.022
88400.000			-32.176			-4.022
88500.000			-32.176			-4.022
88601.000			-32.175			-4.022
88701.000			-32.174			-4.022
88801.000			-32.172			-4.021
88901.000			-32.171			-4.021
89000.000			-32.171			-4.021
89100.000			-32.171			-4.021
89201.000			-32.170			-4.021
89300.000			-32.169			-4.021
89400.000			-32.169			-4.021
89502.000			-32.168			-4.021
89601.000			-32.166			-4.021
89701.000			-32.166			-4.021
89801.000			-32.164			-4.021
89900.000			-32.163			-4.020
90001.000			-32.162			-4.020
90100.000			-32.161			-4.020
90200.000			-32.161			-4.020
90302.000			-32.159			-4.020
90401.000			-32.158			-4.020
90501.000			-32.158			-4.020
90601.000			-32.158			-4.020
90700.000			-32.158			-4.020
90800.000			-32.156			-4.019
90901.000			-32.154			-4.019
91000.000			-32.153			-4.019
91100.000			-32.152			-4.019
91202.000			-32.152			-4.019
91301.000			-32.151			-4.019
91400.000			-32.151			-4.019
91501.000			-32.150			-4.019
91600.000			-32.148			-4.019
91700.000			-32.147			-4.018
91801.000			-32.146			-4.018
91901.000			-32.144			-4.018
92001.000			-32.143			-4.018
92101.000			-32.143			-4.018
92200.000			-32.143			-4.018
92300.000			-32.142			-4.018
92401.000			-32.141			-4.018
92500.000			-32.140			-4.017
92600.000			-32.139			-4.017
92702.000			-32.138			-4.017
92801.000			-32.138			-4.017
92900.000			-32.136			-4.017
93001.000			-32.135			-4.017
93100.000			-32.134			-4.017
93201.000			-32.133			-4.017
93300.000			-32.133			-4.017
93400.000			-32.132			-4.017
93502.000			-32.131			-4.016
93601.000			-32.130			-4.016
93700.000			-32.129			-4.016
93801.000			-32.128			-4.016
93900.000			-32.127			-4.016
94000.000			-32.126			-4.016
94101.000			-32.125			-4.016
94200.000			-32.125			-4.016
94301.000			-32.125			-4.016
94402.000			-32.124			-4.015
94500.000			-32.123			-4.015
94600.000			-32.121			-4.015
94701.000			-32.120			-4.015
94800.000			-32.119			-4.015
94900.000			-32.119			-4.015
95001.000			-32.118			-4.015
95101.000			-32.118			-4.015
95201.000			-32.117			-4.015
95301.000			-32.116			-4.014
95400.000			-32.115			-4.014
95500.000			-32.113			-4.014
95601.000			-32.113			-4.014
95700.000			-32.112			-4.014
95800.000			-32.112			-4.014
95902.000			-32.111			-4.014
96001.000			-32.110			-4.014
96100.000			-32.109			-4.014
96201.000			-32.107			-4.013
96300.000			-32.107			-4.013
96401.000			-32.106			-4.013
96500.000			-32.105			-4.013
96600.000			-32.104			-4.013
96702.000			-32.104			-4.013
96801.000			-32.104			-4.013
96901.000			-32.103			-4.013
97001.000			-32.103			-4.013
97100.000			-32.101			-4.013
97200.000			-32.100			-4.012
97301.000			-32.100			-4.012
97400.000			-32.099			-4.012
97500.000			-32.097			-4.012
97602.000			-32.096			-4.012
97701.000			-32.096			-4.012
97800.000			-32.096			-4.012
97901.000			-32.095			-4.012
98000.000			-32.093			-4.012
98100.000			-32.093			-4.012
98201.000			-32.093			-4.012
98300.000			-32.092			-4.011
98401.000			-32.091			-4.011
98502.000			-32.091			-4.011
98600.000			-32.089			-4.011
98700.000			-32.088			-4.011
98801.000			-32.088			-4.011
98900.000			-32.086			-4.011
99000.000			-32.085			-4.011
99101.000			-32.086			-4.011
99201.000			-32.084			-4.010
99301.000			-32.083			-4.010
99401.000			-32.084			-4.010
99500.000			-32.083			-4.010
99601.000			-32.081			-4.010
99700.000			-32.079			-4.010
99800.000			-32.079			-4.010
99901.000			-32.078			-4.010
100000.000			-32.077			-4.010
100101.000			-32.078			-4.010
100202.000			-32.077			-4.010
100300.000			-32.076			-4.010
100400.000			-32.074			-4.009
100501.000			-32.073			-4.009
100600.000			-32.073			-4.009
100700.000			-32.073			-4.009
100801.000			-32.071			-4.009
100901.000			-32.070			-4.009
101001.000			-32.069			-4.009
101101.000			-32.070			-4.009
101200.000			-32.069			-4.009
101300.000			-32.068			-4.009
101401.000			-32.067			-4.008
101500.000			-32.066			-4.008
101600.000			-32.065			-4.008
101702.000			-32.065			-4.008
101801.000			-32.064			-4.008
101900.000			-32.063			-4.008
102001.000			-32.062			-4.008
102100.000			-32.061			-4.008
102200.000			-32.061			-4.008
102301.000			-32.060			-4.007
102400.000			-32.058			-4.007
102501.000			-32.058			-4.007
102602.000			-32.057			-4.007
102700.000			-32.056			-4.007
102801.000			-32.055			-4.007
102900.000			-32.056			-4.007
103000.000			-32.055			-4.007
103101.000			-32.055			-4.007
103200.000			-32.054			-4.007
103301.000			-32.051			-4.006
103402.000			-32.051			-4.006
103501.000			-32.051			-4.006
103600.000			-32.050			-4.006
103701.000			-32.049			-4.006
103800.000			-32.049			-4.006
103900.000			-32.047			-4.006
104001.000			-32.047			-4.006
104100.000			-32.046			-4.006
104201.000			-32.047			-4.006
104302.000			-32.044			-4.006
104400.000			-32.043			-4.005
104500.000			-32.043			-4.005
104601.000			-32.042			-4.005
104700.000			-32.042			-4.005
104800.000			-32.041			-4.005
104901.000			-32.039			-4.005
105001.000			-32.038			-4.005
105101.000			-32.038			-4.005
105201.000			-32.038			-4.005
105300.000			-32.037			-4.005
105400.000			-32.036			-4.005
105501.000			-32.034			-4.004
105600.000			-32.034			-4.004
105700.000			-32.034			-4.004
105802.000			-32.034			-4.004
105901.000			-32.032			-4.004
106001.000			-32.030			-4.004
106100.000			-32.031			-4.004
106200.000			-32.030			-4.004
106301.000			-32.028			-4.004
106400.000			-32.027			-4.003
106500.000			-32.027			-4.003
106602.000			-32.026			-4.003
106701.000			-32.025			-4.003
106800.000			-32.024			-4.003
106901.000			-32.023			-4.003
107000.000			-32.023			-4.003
107100.000			-32.022			-4.003
107201.000			-32.022			-4.003
107300.000			-32.021			-4.003
107401.000			-32.023			-4.003
107502.000			-32.022			-4.003
107600.000			-32.021			-4.003
107700.000			-32.018			-4.002
107801.000			-32.017			-4.002
107900.000			-32.016			-4.002
108000.000			-32.016			-4.002
108101.000			-32.016			-4.002
108201.000			-32.015			-4.002
108301.000			-32.014			-4.002
108401.000			-32.014			-4.002
108500.000			-32.014			-4.002
108600.000			-32.012			-4.002
108701.000			-32.011			-4.001
108800.000			-32.011			-4.001
108900.000			-32.010			-4.001
109002.000			-32.009			-4.001
109101.000			-32.009			-4.001
109201.000			-32.008			-4.001
109300.000			-32.006			-4.001
109400.000			-32.005			-4.001
109501.000			-32.004			-4.001
109600.000			-32.004			-4.001
109700.000			-32.004			-4.000
109802.000			-32.003			-4.000
109901.000			-32.002			-4.000
110000.000			-32.001			-4.000
110101.000			-32.000			-4.000
110200.000			-31.999			-4.000
110300.000			-31.999			-4.000
110401.000			-31.998			-4.000
110500.000			-31.999			-4.000
110600.000			-31.998			-4.000
110702.000			-31.998			-4.000
110801.000			-31.997			-4.000
110900.000			-31.995			-3.999
111001.000			-31.994			-3.999
111100.000			-31.993			-3.999
111200.000			-31.994			-3.999
111301.000			-31.991			-3.999
111400.000			-31.991			-3.999
111501.000			-31.991			-3.999
111602.000			-31.990			-3.999
111701.000			-31.989			-3.999
111800.000			-31.989			-3.999
111901.000			-31.988			-3.999
112000.000			-31.987			-3.998
112100.000			-31.985			-3.998
112201.000			-31.985			-3.998
112300.000			-31.985			-3.998
112402.000			-31.985			-3.998
112501.000			-31.985			-3.998
112600.000			-31.984			-3.998
112701.000			-31.982			-3.998
112800.000			-31.981			-3.998
112900.000			-31.981			-3.998
113001.000			-31.980			-3.997
113100.000			-31.979			-3.997
113200.000			-31.979			-3.997
113302.000			-31.978			-3.997
113401.000			-31.977			-3.997
113500.000			-31.977			-3.997
113601.000			-31.976			-3.997
113700.000			-31.975			-3.997
113800.000			-31.975			-3.997
113901.000			-31.974			-3.997
114000.000			-31.973			-3.997
114101.000			-31.972			-3.997
114202.000			-31.971			-3.996
114301.000			-31.969			-3.996
114400.000			-31.969			-3.996
114501.000			-31.970			-3.996
114600.000			-31.969			-3.996
114700.000			-31.967			-3.996
114801.000			-31.966			-3.996
114900.000			-31.966			-3.996
115001.000			-31.966			-3.996
115102.000			-31.966			-3.996
115200.000			-31.965			-3.996
115300.000			-31.964			-3.996
115401.000			-31.964			-3.996
115500.000			-31.963			-3.995
115601.000			-31.963			-3.995
115700.000			-31.960			-3.995
115800.000			-31.960			-3.995
115902.000			-31.959			-3.995
116001.000			-31.958			-3.995
116100.000			-31.959			-3.995
116201.000			-31.957			-3.995
116300.000			-31.956			-3.994
116400.000			-31.956			-3.994
116501.000			-31.956			-3.994
116600.000			-31.955			-3.994
116701.000			-31.954			-3.994
116802.000			-31.953			-3.994
116901.000			-31.953			-3.994
117000.000			-31.953			-3.994
117101.000			-31.951			-3.994
117200.000			-31.951			-3.994
117300.000			-31.951			-3.994
117401.000			-31.949			-3.994
117500.000			-31.949			-3.994
117601.000			-31.948			-3.994
117702.000			-31.948			-3.993
117801.000			-31.946			-3.993
117900.000			-31.946			-3.993
118001.000			-31.946			-3.993
118100.000			-31.945			-3.993
118200.000			-31.944			-3.993
118301.000			-31.943			-3.993
118400.000			-31.943			-3.993
118501.000			-31.943			-3.993
118602.000			-31.941			-3.993
118700.000			-31.940			-3.993
118801.000			-31.939			-3.992
118900.000			-31.939			-3.992
119000.000			-31.939			-3.992
119101.000			-31.938			-3.992
119200.000			-31.937			-3.992
119300.000			-31.937			-3.992
119402.000			-31.936			-3.992
119501.000			-31.936			-3.992
119600.000			-31.935			-3.992
119701.000			-31.934			-3.992
119800.000			-31.934			-3.992
119900.000			-31.933			-3.992
120001.000			-31.932			-3.992
120100.000			-31.930			-3.991
120201.000			-31.929			-3.991
120302.000			-31.929			-3.991
120400.000			-31.930			-3.991
120500.000			-31.929			-3.991
120601.000			-31.928			-3.991
120700.000			-31.927			-3.991
120800.000			-31.926			-3.991
120901.000			-31.925			-3.991
121000.000			-31.924			-3.991
121101.000			-31.924			-3.991
121202.000			-31.924			-3.990
121300.000			-31.922			-3.990
121400.000			-31.922			-3.990
121501.000			-31.921			-3.990
121600.000			-31.922			-3.990
121700.000			-31.921			-3.990
121801.000			-31.920			-3.990
121901.000			-31.920			-3.990
122002.000			-31.919			-3.990
122100.000			-31.918			-3.990
122200.000			-31.917			-3.990
122301.000			-31.916			-3.989
122400.000			-31.915			-3.989
122500.000			-31.915			-3.989
122601.000			-31.915			-3.989
122701.000			-31.914			-3.989
122801.000			-31.914			-3.989
122901.000			-31.913			-3.989
123000.000			-31.911			-3.989
123100.000			-31.911			-3.989
123201.000			-31.910			-3.989
123300.000			-31.910			-3.989
123400.000			-31.909			-3.989
123501.000			-31.909			-3.989
123601.000			-31.909			-3.989
123701.000			-31.907			-3.988
123801.000			-31.907			-3.988
123900.000			-31.906			-3.988
124000.000			-31.905			-3.988
124101.000			-31.904			-3.988
124200.000			-31.903			-3.988
124300.000			-31.903			-3.988
124402.000			-31.902			-3.988
124501.000			-31.902			-3.988
124600.000			-31.900			-3.988
124701.000			-31.899			-3.987
124800.000			-31.899			-3.987
124900.000			-31.899			-3.987
125001.000			-31.899			-3.987
125100.000			-31.898			-3.987
125201.000			-31.898			-3.987
125301.000			-31.896			-3.987
125401.000			-31.895			-3.987
125501.000			-31.895			-3.987
125600.000			-31.894			-3.987
125700.000			-31.893			-3.987
125801.000			-31.893			-3.987
125900.000			-31.892			-3.987
126000.000			-31.891			-3.986
126101.000			-31.890			-3.986
126201.000			-31.890			-3.986
126301.000			-31.890			-3.986
126401.000			-31.890			-3.986
126500.000			-31.888			-3.986
126600.000			-31.888			-3.986
126701.000			-31.888			-3.986
126800.000			-31.887			-3.986
126900.000			-31.886			-3.986
127001.000			-31.886			-3.986
127101.000			-31.885			-3.986
127201.000			-31.885			-3.986
127301.000			-31.884			-3.985
127400.000			-31.883			-3.985
127500.000			-31.882			-3.985
127601.000			-31.882			-3.985
127700.000			-31.881			-3.985
127800.000			-31.881			-3.985
127902.000			-31.880			-3.985
128001.000			-31.879			-3.985
128101.000			-31.878			-3.985
128201.000			-31.878			-3.985
128300.000			-31.877			-3.985
128401.000			-31.877			-3.985
128500.000			-31.877			-3.985
128600.000			-31.876			-3.985
128701.000			-31.875			-3.984
128801.000			-31.875			-3.984
128901.000			-31.874			-3.984
129001.000			-31.873			-3.984
129100.000			-31.873			-3.984
129200.000			-31.872			-3.984
129301.000			-31.872			-3.984
129400.000			-31.872			-3.984
129500.000			-31.869			-3.984
129601.000			-31.869			-3.984
129701.000			-31.870			-3.984
129801.000			-31.869			-3.984
129901.000			-31.868			-3.983
130000.000			-31.868			-3.984
130100.000			-31.867			-3.983
130201.000			-31.866			-3.983
130300.000			-31.865			-3.983
130400.000			-31.864			-3.983
130501.000			-31.864			-3.983
130601.000			-31.864			-3.983
130701.000			-31.863			-3.983
130801.000			-31.862			-3.983
130900.000			-31.862			-3.983
131000.000			-31.861			-3.983
131101.000			-31.860			-3.983
131200.000			-31.861			-3.983
131300.000			-31.859			-3.982
131402.000			-31.860			-3.982
131501.000			-31.860			-3.982
131602.000			-31.858			-3.982
131700.000			-31.857			-3.982
131800.000			-31.857			-3.982
131901.000			-31.856			-3.982
132000.000			-31.855			-3.982
132100.000			-31.854			-3.982
132201.000			-31.853			-3.982
132300.000			-31.852			-3.982
132401.000			-31.852			-3.982
132502.000			-31.852			-3.981
132600.000			-31.851			-3.981
132700.000			-31.851			-3.981
132801.000			-31.850			-3.981
132900.000			-31.850			-3.981
133000.000			-31.849			-3.981
133101.000			-31.847			-3.981
133200.000			-31.847			-3.981
133301.000			-31.847			-3.981
133402.000			-31.846			-3.981
133501.000			-31.846			-3.981
133600.000			-31.845			-3.981
133701.000			-31.844			-3.981
133800.000			-31.844			-3.980
133900.000			-31.843			-3.980
134001.000			-31.842			-3.980
134100.000			-31.841			-3.980
134200.000			-31.840			-3.980
134302.000			-31.840			-3.980
134401.000			-31.839			-3.980
134500.000			-31.840			-3.980
134601.000			-31.837			-3.980
134700.000			-31.838			-3.980
134801.000			-31.838			-3.980
134900.000			-31.837			-3.980
135000.000			-31.836			-3.980
135101.000			-31.836			-3.980
135201.000			-31.836			-3.980
135301.000			-31.835			-3.979
135402.000			-31.834			-3.979
135500.000			-31.833			-3.979
135600.000			-31.833			-3.979
135701.000			-31.833			-3.979
135800.000			-31.832			-3.979
135900.000			-31.832			-3.979
136001.000			-31.830			-3.979
136100.000			-31.830			-3.979
136201.000			-31.830			-3.979
136302.000			-31.828			-3.979
136400.000			-31.829			-3.979
136500.000			-31.829			-3.979
136601.000			-31.828			-3.979
136700.000			-31.828			-3.978
136800.000			-31.826			-3.978
136901.000			-31.825			-3.978
137000.000			-31.825			-3.978
137101.000			-31.825			-3.978
137202.000			-31.824			-3.978
137301.000			-31.823			-3.978
137400.000			-31.824			-3.978
137501.000			-31.823			-3.978
137600.000			-31.822			-3.978
137700.000			-31.821			-3.978
137801.000			-31.821			-3.978
137900.000			-31.820			-3.977
138001.000			-31.820			-3.977
138101.000			-31.819			-3.977
138201.000			-31.817			-3.977
138301.000			-31.816			-3.977
138400.000			-31.817			-3.977
138500.000			-31.817			-3.977
138601.000			-31.816			-3.977
138700.000			-31.815			-3.977
138800.000			-31.814			-3.977
138901.000			-31.813			-3.977
139001.000			-31.813			-3.977
139101.000			-31.812			-3.977
139202.000			-31.812			-3.976
139300.000			-31.811			-3.976
139400.000			-31.809			-3.976
139501.000			-31.809			-3.976
139600.000			-31.809			-3.976
139700.000			-31.808			-3.976
139801.000			-31.808			-3.976
139900.000			-31.807			-3.976
140001.000			-31.806			-3.976
140102.000			-31.806			-3.976
140200.000			-31.806			-3.976
140300.000			-31.805			-3.976
140401.000			-31.805			-3.976
140500.000			-31.805			-3.976
140600.000			-31.805			-3.976
140701.000			-31.804			-3.975
140800.000			-31.803			-3.975
140901.000			-31.802			-3.975
141002.000			-31.802			-3.975
141100.000			-31.802			-3.975
141201.000			-31.801			-3.975
141300.000			-31.799			-3.975
141400.000			-31.799			-3.975
141501.000			-31.799			-3.975
141600.000			-31.799			-3.975
141700.000			-31.797			-3.975
141802.000			-31.796			-3.974
141901.000			-31.796			-3.974
142001.000			-31.796			-3.975
142101.000			-31.795			-3.974
142200.000			-31.794			-3.974
142300.000			-31.794			-3.974
142401.000			-31.794			-3.974
142500.000			-31.794			-3.974
142600.000			-31.792			-3.974
142701.000			-31.791			-3.974
142801.000			-31.791			-3.974
142901.000			-31.791			-3.974
143001.000			-31.790			-3.974
143100.000			-31.790			-3.974
143200.000			-31.789			-3.974
143301.000			-31.788			-3.973
143400.000			-31.788			-3.973
143500.000			-31.787			-3.973
143601.000			-31.786			-3.973
143701.000			-31.786			-3.973
143801.000			-31.787			-3.973
143901.000			-31.786			-3.973
144000.000			-31.785			-3.973
144100.000			-31.784			-3.973
144201.000			-31.783			-3.973
144300.000			-31.783			-3.973
144401.000			-31.783			-3.973
144500.000			-31.782			-3.973
144600.000			-31.781			-3.973
144702.000			-31.781			-3.973
144801.000			-31.781			-3.973
144900.000			-31.781			-3.973
145001.000			-31.779			-3.972
145100.000			-31.779			-3.972
145200.000			-31.778			-3.972
145301.000			-31.778			-3.972
145400.000			-31.777			-3.972
145500.000			-31.776			-3.972
145602.000			-31.776			-3.972
145701.000			-31.776			-3.972
145801.000			-31.776			-3.972
145901.000			-31.776			-3.972
146000.000			-31.775			-3.972
146100.000			-31.774			-3.972
146201.000			-31.772			-3.971
146300.000			-31.773			-3.972
146400.000			-31.772			-3.972
146501.000			-31.772			-3.971
146601.000			-31.771			-3.971
146701.000			-31.771			-3.971
146801.000			-31.770			-3.971
146900.000			-31.769			-3.971
147000.000			-31.769			-3.971
147101.000			-31.769			-3.971
147200.000			-31.767			-3.971
147300.000			-31.767			-3.971
147401.000			-31.766			-3.971
147500.000			-31.764			-3.971
147602.000			-31.764			-3.971
147701.000			-31.764			-3.971
147800.000			-31.764			-3.970
147901.000			-31.763			-3.970
148000.000			-31.763			-3.970
148100.000			-31.762			-3.970
148201.000			-31.762			-3.970
148300.000			-31.762			-3.970
148400.000			-31.759			-3.970
148502.000			-31.758			-3.970
148601.000			-31.760			-3.970
148701.000			-31.759			-3.970
148801.000			-31.757			-3.970
148900.000			-31.757			-3.970
149000.000			-31.758			-3.970
149101.000			-31.756			-3.969
149200.000			-31.756			-3.969
149300.000			-31.756			-3.970
149401.000			-31.755			-3.969
149501.000			-31.754			-3.969
149601.000			-31.754			-3.969
149701.000			-31.753			-3.969
149800.000			-31.752			-3.969
149900.000			-31.752			-3.969
150001.000			-31.752			-3.969
150100.000			-31.752			-3.969
150200.000			-31.751			-3.969
150301.000			-31.750			-3.969
150401.000			-31.750			-3.969
150501.000			-31.748			-3.969
150602.000			-31.747			-3.968
150700.000			-31.747			-3.968
150801.000			-31.747			-3.968
150900.000			-31.746			-3.968
151000.000			-31.745			-3.968
151101.000			-31.746			-3.968
151200.000			-31.746			-3.968
151300.000			-31.744			-3.968
151402.000			-31.743			-3.968
151501.000			-31.744			-3.968
151600.000			-31.743			-3.968
151701.000			-31.741			-3.968
151800.000			-31.741			-3.968
151900.000			-31.742			-3.968
152001.000			-31.741			-3.968
152100.000			-31.740			-3.968
152200.000			-31.739			-3.967
152302.000			-31.739			-3.967
152401.000			-31.739			-3.967
152500.000			-31.738			-3.967
152601.000			-31.738			-3.967
152700.000			-31.737			-3.967
152800.000			-31.737			-3.967
152901.000			-31.735			-3.967
153000.000			-31.734			-3.967
153100.000			-31.735			-3.967
153202.000			-31.734			-3.967
153301.000			-31.734			-3.967
153400.000			-31.734			-3.967
153501.000			-31.733			-3.967
153600.000			-31.732			-3.967
153700.000			-31.732			-3.966
153801.000			-31.732			-3.966
153900.000			-31.730			-3.966
154001.000			-31.731			-3.966
154101.000			-31.730			-3.966
154201.000			-31.730			-3.966
154302.000			-31.729			-3.966
154400.000			-31.728			-3.966
154500.000			-31.728			-3.966
154601.000			-31.728			-3.966
154700.000			-31.727			-3.966
154800.000			-31.727			-3.966
154901.000			-31.725			-3.966
155000.000			-31.725			-3.966
155101.000			-31.724			-3.966
155202.000			-31.724			-3.965
155300.000			-31.724			-3.965
155400.000			-31.724			-3.965
155501.000			-31.723			-3.965
155600.000			-31.722			-3.965
155700.000			-31.721			-3.965
155801.000			-31.720			-3.965
155900.000			-31.720			-3.965
156001.000			-31.719			-3.965
156102.000			-31.719			-3.965
156200.000			-31.719			-3.965
156300.000			-31.719			-3.965
156401.000			-31.718			-3.965
156500.000			-31.718			-3.965
156600.000			-31.718			-3.965
156701.000			-31.717			-3.965
156800.000			-31.716			-3.965
156901.000			-31.716			-3.964
157002.000			-31.715			-3.964
157101.000			-31.714			-3.964
157201.000			-31.715			-3.964
157300.000			-31.714			-3.964
157400.000			-31.712			-3.964
157501.000			-31.712			-3.964
157600.000			-31.711			-3.964
157700.000			-31.710			-3.964
157801.000			-31.710			-3.964
157901.000			-31.710			-3.964
158001.000			-31.709			-3.964
158101.000			-31.708			-3.964
158200.000			-31.709			-3.964
158300.000			-31.709			-3.964
158401.000			-31.708			-3.963
158500.000			-31.706			-3.963
158600.000			-31.705			-3.963
158701.000			-31.706			-3.963
158801.000			-31.705			-3.963
158901.000			-31.705			-3.963
159002.000			-31.705			-3.963
159100.000			-31.704			-3.963
159200.000			-31.703			-3.963
159301.000			-31.702			-3.963
159400.000			-31.701			-3.963
159500.000			-31.700			-3.963
159601.000			-31.700			-3.963
159701.000			-31.700			-3.962
159801.000			-31.700			-3.963
159902.000			-31.700			-3.963
160000.000			-31.700			-3.962
160100.000			-31.700			-3.962
160201.000			-31.698			-3.962
160300.000			-31.697			-3.962
160401.000			-31.696			-3.962
160500.000			-31.696			-3.962
160600.000			-31.695			-3.962
160702.000			-31.695			-3.962
160801.000			-31.695			-3.962
160900.000			-31.694			-3.962
161001.000			-31.693			-3.962
161100.000			-31.693			-3.962
161200.000			-31.693			-3.962
161301.000			-31.691			-3.961
161400.000			-31.691			-3.961
161500.000			-31.691			-3.961
161602.000			-31.690			-3.961
161701.000			-31.690			-3.961
161801.000			-31.690			-3.961
161901.000			-31.690			-3.961
162000.000			-31.690			-3.961
162100.000			-31.689			-3.961
162201.000			-31.686			-3.961
162300.000			-31.687			-3.961
162400.000			-31.686			-3.961
162501.000			-31.686			-3.961
162601.000			-31.685			-3.961
162701.000			-31.685			-3.961
162801.000			-31.685			-3.961
162900.000			-31.683			-3.960
163000.000			-31.683			-3.960
163101.000			-31.682			-3.960
163200.000			-31.683			-3.960
163300.000			-31.682			-3.960
163401.000			-31.681			-3.960
163501.000			-31.680			-3.960
163602.000			-31.680			-3.960
163701.000			-31.680			-3.960
163800.000			-31.679			-3.960
163901.000			-31.679			-3.960
164000.000			-31.679			-3.960
164100.000			-31.678			-3.960
164201.000			-31.677			-3.960
164300.000			-31.676			-3.960
164400.000			-31.677			-3.960
164502.000			-31.678			-3.960
164601.000			-31.677			-3.960
164700.000			-31.676			-3.959
164801.000			-31.674			-3.959
164900.000			-31.673			-3.959
165000.000			-31.674			-3.959
165101.000			-31.674			-3.959
165200.000			-31.673			-3.959
165300.000			-31.672			-3.959
165402.000			-31.672			-3.959
165501.000			-31.672			-3.959
165601.000			-31.672			-3.959
165701.000			-31.671			-3.959
165800.000			-31.670			-3.959
165900.000			-31.669			-3.959
166001.000			-31.669			-3.959
166100.000			-31.669			-3.959
166200.000			-31.668			-3.958
166301.000			-31.669			-3.959
166401.000			-31.669			-3.959
166501.000			-31.668			-3.958
166601.000			-31.668			-3.958
166700.000			-31.667			-3.958
166801.000			-31.666			-3.958
166900.000			-31.667			-3.958
167000.000			-31.666			-3.958
167101.000			-31.665			-3.958
167200.000			-31.664			-3.958
167300.000			-31.664			-3.958
167402.000			-31.663			-3.958
167501.000			-31.663			-3.958
167600.000			-31.663			-3.958
167701.000			-31.662			-3.958
167800.000			-31.661			-3.958
167900.000			-31.661			-3.958
168001.000			-31.660			-3.958
168100.000			-31.660			-3.957
168200.000			-31.660			-3.958
168302.000			-31.659			-3.957
168401.000			-31.658			-3.957
168501.000			-31.659			-3.957
168601.000			-31.659			-3.957
168700.000			-31.656			-3.957
168800.000			-31.656			-3.957
168901.000			-31.657			-3.957
169000.000			-31.656			-3.957
169100.000			-31.655			-3.957
169201.000			-31.654			-3.957
169301.000			-31.654			-3.957
169401.000			-31.654			-3.957
169501.000			-31.652			-3.957
169600.000			-31.653			-3.957
169700.000			-31.652			-3.957
169801.000			-31.652			-3.957
169900.000			-31.652			-3.956
170001.000			-31.651			-3.956
170100.000			-31.651			-3.956
170200.000			-31.650			-3.956
170302.000			-31.647			-3.956
170401.000			-31.647			-3.956
170500.000			-31.647			-3.956
170601.000			-31.648			-3.956
170700.000			-31.647			-3.956
170800.000			-31.647			-3.956
170901.000			-31.647			-3.956
171000.000			-31.647			-3.956
171100.000			-31.646			-3.956
171202.000			-31.645			-3.956
171301.000			-31.645			-3.956
171401.000			-31.644			-3.956
171501.000			-31.644			-3.956
171600.000			-31.644			-3.956
171700.000			-31.644			-3.956
171801.000			-31.643			-3.955
171900.000			-31.642			-3.955
172000.000			-31.642			-3.955
172101.000			-31.641			-3.955
172201.000			-31.641			-3.955
172301.000			-31.640			-3.955
172401.000			-31.639			-3.955
172500.000			-31.639			-3.955
172600.000			-31.639			-3.955
172701.000			-31.639			-3.955
172800.000			-31.639			-3.955
172900.000			-31.639			-3.955
173001.000			-31.636			-3.955
173101.000			-31.637			-3.955
173202.000			-31.636			-3.955
173300.000			-31.635			-3.954
173400.000			-31.635			-3.954
173501.000			-31.635			-3.954
173600.000			-31.635			-3.954
173700.000			-31.635			-3.954
173801.000			-31.634			-3.954
173900.000			-31.634			-3.954
174001.000			-31.632			-3.954
174102.000			-31.632			-3.954
174201.000			-31.631			-3.954
174300.000			-31.631			-3.954
174401.000			-31.632			-3.954
174500.000			-31.630			-3.954
174600.000			-31.630			-3.954
174701.000			-31.630			-3.954
174800.000			-31.628			-3.954
174900.000			-31.628			-3.953
175002.000			-31.628			-3.953
175101.000			-31.627			-3.953
175200.000			-31.627			-3.953
175301.000			-31.626			-3.953
175400.000			-31.625			-3.953
175500.000			-31.626			-3.953
175601.000			-31.626			-3.953
175700.000			-31.624			-3.953
175800.000			-31.623			-3.953
175902.000			-31.624			-3.953
176001.000			-31.624			-3.953
176100.000			-31.623			-3.953
176201.000			-31.622			-3.953
176300.000			-31.622			-3.953
176401.000			-31.622			-3.953
176500.000			-31.621			-3.953
176600.000			-31.622			-3.953
176701.000			-31.620			-3.952
176801.000			-31.619			-3.952
176901.000			-31.619			-3.952
177001.000			-31.619			-3.952
177100.000			-31.619			-3.952
177200.000			-31.618			-3.952
177301.000			-31.618			-3.952
177400.000			-31.617			-3.952
177500.000			-31.617			-3.952
177601.000			-31.615			-3.952
177701.000			-31.614			-3.952
177801.000			-31.615			-3.952
177902.000			-31.615			-3.952
178000.000			-31.614			-3.952
178100.000			-31.613			-3.952
178201.000			-31.613			-3.952
178300.000			-31.612			-3.952
178400.000			-31.611			-3.951
178501.000			-31.612			-3.952
178600.000			-31.612			-3.952
178701.000			-31.611			-3.951
178802.000			-31.611			-3.951
178900.000			-31.610			-3.951
179000.000			-31.609			-3.951
179101.000			-31.608			-3.951
179200.000			-31.608			-3.951
179300.000			-31.608			-3.951
179401.000			-31.608			-3.951
179500.000			-31.607			-3.951
179602.000			-31.605			-3.951
179701.000			-31.605			-3.951
179801.000			-31.605			-3.951
179901.000			-31.604			-3.951
180000.000			-31.604			-3.951
180100.000			-31.605			-3.951
180201.000			-31.604			-3.951
180300.000			-31.604			-3.951
180400.000			-31.603			-3.950
180501.000			-31.603			-3.950
180601.000			-31.602			-3.950
180701.000			-31.603			-3.950
180801.000			-31.601			-3.950
180900.000			-31.601			-3.950
181000.000			-31.601			-3.950
181101.000			-31.599			-3.950
181200.000			-31.599			-3.950
181300.000			-31.600			-3.950
181401.000			-31.599			-3.950
181501.000			-31.598			-3.950
181601.000			-31.598			-3.950
181702.000			-31.597			-3.950
181800.000			-31.596			-3.950
181900.000			-31.596			-3.949
182001.000			-31.596			-3.950
182100.000			-31.596			-3.949
182200.000			-31.595			-3.949
182301.000			-31.595			-3.949
182400.000			-31.596			-3.950
182501.000			-31.596			-3.949
182602.000			-31.594			-3.949
182700.000			-31.593			-3.949
182801.000			-31.592			-3.949
182900.000			-31.592			-3.949
183000.000			-31.592			-3.949
183101.000			-31.592			-3.949
183200.000			-31.591			-3.949
183300.000			-31.590			-3.949
183402.000			-31.590			-3.949
183501.000			-31.589			-3.949
183601.000			-31.589			-3.949
183701.000			-31.590			-3.949
183800.000			-31.589			-3.949
183900.000			-31.587			-3.948
184001.000			-31.587			-3.948
184100.000			-31.587			-3.948
184200.000			-31.586			-3.948
184301.000			-31.586			-3.948
184401.000			-31.586			-3.948
184501.000			-31.586			-3.948
184601.000			-31.584			-3.948
184700.000			-31.584			-3.948
184800.000			-31.582			-3.948
184901.000			-31.582			-3.948
185000.000			-31.582			-3.948
185100.000			-31.582			-3.948
185201.000			-31.581			-3.948
185300.000			-31.582			-3.948
185401.000			-31.580			-3.948
185502.000			-31.580			-3.947
185600.000			-31.579			-3.947
185700.000			-31.579			-3.947
185801.000			-31.580			-3.947
185900.000			-31.579			-3.947
186001.000			-31.578			-3.947
186100.000			-31.577			-3.947
186200.000			-31.576			-3.947
186302.000			-31.577			-3.947
186401.000			-31.575			-3.947
186501.000			-31.575			-3.947
186601.000			-31.577			-3.947
186700.000			-31.575			-3.947
186800.000			-31.574			-3.947
186901.000			-31.575			-3.947
187000.000			-31.574			-3.947
187100.000			-31.573			-3.947
187201.000			-31.573			-3.947
187301.000			-31.573			-3.947
187401.000			-31.572			-3.946
187501.000			-31.572			-3.947
187600.000			-31.572			-3.946
187700.000			-31.570			-3.946
187801.000			-31.570			-3.946
187900.000			-31.569			-3.946
188000.000			-31.569			-3.946
188101.000			-31.569			-3.946
188200.000			-31.569			-3.946
188301.000			-31.568			-3.946
188402.000			-31.568			-3.946
188500.000			-31.567			-3.946
188600.000			-31.566			-3.946
188701.000			-31.567			-3.946
188800.000			-31.567			-3.946
188900.000			-31.566			-3.946
189001.000			-31.566			-3.946
189100.000			-31.566			-3.946
189201.000			-31.565			-3.946
189301.000			-31.564			-3.946
189401.000			-31.563			-3.945
189501.000			-31.562			-3.945
189600.000			-31.563			-3.945
189700.000			-31.562			-3.945
189801.000			-31.561			-3.945
189900.000			-31.562			-3.945
190000.000			-31.561			-3.945
190101.000			-31.560			-3.945
190200.000			-31.560			-3.945
190301.000			-31.560			-3.945
190402.000			-31.561			-3.945
190500.000			-31.559			-3.945
190600.000			-31.559			-3.945
190701.000			-31.559			-3.945
190800.000			-31.559			-3.945
190900.000			-31.558			-3.945
191001.000			-31.558			-3.945
191100.000			-31.556			-3.945
191201.000			-31.556			-3.945
191302.000			-31.557			-3.945
191401.000			-31.556			-3.945
191500.000			-31.555			-3.944
191601.000			-31.556			-3.944
191700.000			-31.556			-3.944
191800.000			-31.554			-3.944
191901.000			-31.553			-3.944
192000.000			-31.552			-3.944
192100.000			-31.551			-3.944
192202.000			-31.551			-3.944
192301.000			-31.553			-3.944
192401.000			-31.553			-3.944
192500.000			-31.551			-3.944
192600.000			-31.551			-3.944
192701.000			-31.550			-3.944
192800.000			-31.550			-3.944
192900.000			-31.550			-3.944
193001.000			-31.549			-3.944
193101.000			-31.548			-3.943
193201.000			-31.548			-3.943
193302.000			-31.548			-3.943
193400.000			-31.547			-3.943
193500.000			-31.547			-3.943
193601.000			-31.547			-3.943
193700.000			-31.547			-3.943
193800.000			-31.547			-3.943
193901.000			-31.547			-3.943
194000.000			-31.546			-3.943
194101.000			-31.545			-3.943
194202.000			-31.544			-3.943
194301.000			-31.543			-3.943
194400.000			-31.542			-3.943
194501.000			-31.542			-3.943
194600.000			-31.541			-3.943
194700.000			-31.541			-3.943
194801.000			-31.541			-3.943
194900.000			-31.541			-3.943
195000.000			-31.541			-3.943
195102.000			-31.539			-3.942
195201.000			-31.540			-3.942
195300.000			-31.539			-3.942
195401.000			-31.538			-3.942
195500.000			-31.538			-3.942
195601.000			-31.537			-3.942
195700.000			-31.537			-3.942
195800.000			-31.537			-3.942
195901.000			-31.536			-3.942
196001.000			-31.536			-3.942
196101.000			-31.536			-3.942
196202.000			-31.535			-3.942
196300.000			-31.534			-3.942
196400.000			-31.534			-3.942
196501.000			-31.535			-3.942
196600.000			-31.534			-3.942
196700.000			-31.534			-3.942
196801.000			-31.534			-3.942
196900.000			-31.533			-3.942
197001.000			-31.533			-3.942
197102.000			-31.531			-3.941
197200.000			-31.531			-3.941
197300.000			-31.531			-3.941
197401.000			-31.531			-3.941
197500.000			-31.531			-3.941
197600.000			-31.530			-3.941
197701.000			-31.529			-3.941
197800.000			-31.529			-3.941
197901.000			-31.529			-3.941
198002.000			-31.529			-3.941
198101.000			-31.528			-3.941
198200.000			-31.527			-3.941
198301.000			-31.528			-3.941
198400.000			-31.527			-3.941
198500.000			-31.526			-3.941
198601.000			-31.526			-3.941
198700.000			-31.526			-3.941
198801.000			-31.525			-3.941
198901.000			-31.524			-3.941
199001.000			-31.524			-3.940
199102.000			-31.524			-3.940
199200.000			-31.524			-3.941
199300.000			-31.522			-3.940
199401.000			-31.522			-3.940
199500.000			-31.523			-3.940
199600.000			-31.522			-3.940
199701.000			-31.521			-3.940
199800.000			-31.521			-3.940
199901.000			-31.520			-3.940
200002.000			-31.519			-3.940
200100.000			-31.520			-3.940
200200.000			-31.519			-3.940
200301.000			-31.519			-3.940
200400.000			-31.519			-3.940
200500.000			-31.518			-3.940
200601.000			-31.518			-3.940
200700.000			-31.517			-3.940
200801.000			-31.516			-3.940
200902.000			-31.517			-3.940
201001.000			-31.516			-3.940
201100.000			-31.516			-3.939
201201.000			-31.515			-3.939
201300.000			-31.514			-3.939
201400.000			-31.513			-3.939
201501.000			-31.513			-3.939
201600.000			-31.512			-3.939
201701.000			-31.511			-3.939
201802.000			-31.512			-3.939
201901.000			-31.513			-3.939
202001.000			-31.512			-3.939
202100.000			-31.512			-3.939
202200.000			-31.511			-3.939
202301.000			-31.510			-3.939
202400.000			-31.510			-3.939
202500.000			-31.509			-3.939
202602.000			-31.508			-3.939
202701.000			-31.509			-3.939
202800.000			-31.509			-3.939
202901.000			-31.508			-3.938
203000.000			-31.507			-3.938
203100.000			-31.508			-3.939
203201.000			-31.507			-3.938
203300.000			-31.506			-3.938
203400.000			-31.504			-3.938
203502.000			-31.504			-3.938
203601.000			-31.504			-3.938
203700.000			-31.504			-3.938
203801.000			-31.503			-3.938
203900.000			-31.503			-3.938
204000.000			-31.503			-3.938
204101.000			-31.503			-3.938
204200.000			-31.503			-3.938
204300.000			-31.501			-3.938
204402.000			-31.501			-3.938
204501.000			-31.501			-3.938
204600.000			-31.501			-3.938
204701.000			-31.500			-3.938
204800.000			-31.500			-3.937
204900.000			-31.500			-3.937
205001.000			-31.499			-3.937
205100.000			-31.499			-3.937
205201.000			-31.499			-3.937
205301.000			-31.498			-3.937
205401.000			-31.497			-3.937
205502.000			-31.497			-3.937
205600.000			-31.497			-3.937
205700.000			-31.496			-3.937
205801.000			-31.496			-3.937
205900.000			-31.495			-3.937
206000.000			-31.495			-3.937
206101.000			-31.495			-3.937
206201.000			-31.494			-3.937
206301.000			-31.495			-3.937
206402.000			-31.494			-3.937
206500.000			-31.493			-3.937
206600.000			-31.493			-3.937
206701.000			-31.492			-3.936
206800.000			-31.492			-3.936
206900.000			-31.491			-3.936
207001.000			-31.491			-3.936
207100.000			-31.491			-3.936
207201.000			-31.492			-3.936
207302.000			-31.490			-3.936
207400.000			-31.489			-3.936
207500.000			-31.490			-3.936
207601.000			-31.489			-3.936
207700.000			-31.489			-3.936
207800.000			-31.489			-3.936
207901.000			-31.487			-3.936
208000.000			-31.487			-3.936
208101.000			-31.487			-3.936
208202.000			-31.487			-3.936
208301.000			-31.487			-3.936
208401.000			-31.487			-3.936
208500.000			-31.487			-3.936
208600.000			-31.486			-3.936
208701.000			-31.484			-3.936
208800.000			-31.484			-3.935
208900.000			-31.484			-3.935
209001.000			-31.484			-3.935
209101.000			-31.483			-3.935
209201.000			-31.482			-3.935
209301.000			-31.483			-3.935
209400.000			-31.482			-3.935
209500.000			-31.482			-3.935
209601.000			-31.482			-3.935
209700.000			-31.482			-3.935
209800.000			-31.480			-3.935
209901.000			-31.480			-3.935
210001.000			-31.479			-3.935
210101.000			-31.480			-3.935
210201.000			-31.478			-3.935
210300.000			-31.477			-3.935
210400.000			-31.478			-3.935
210501.000			-31.478			-3.935
210600.000			-31.478			-3.935
210700.000			-31.476			-3.935
210801.000			-31.475			-3.934
210901.000			-31.475			-3.934
211001.000			-31.476			-3.935
211101.000			-31.477			-3.935
211200.000			-31.477			-3.935
211300.000			-31.475			-3.934
211401.000			-31.474			-3.934
211500.000			-31.475			-3.934
211601.000			-31.474			-3.934
211700.000			-31.473			-3.934
211801.000			-31.474			-3.934
211902.000			-31.473			-3.934
212001.000			-31.472			-3.934
212100.000			-31.471			-3.934
212201.000			-31.470			-3.934
212300.000			-31.469			-3.934
212400.000			-31.470			-3.934
212501.000			-31.470			-3.934
212600.000			-31.469			-3.934
212701.000			-31.469			-3.934
212802.000			-31.469			-3.934
212901.000			-31.469			-3.934
213000.000			-31.468			-3.933
213101.000			-31.467			-3.933
213200.000			-31.467			-3.933
213300.000			-31.466			-3.933
213401.000			-31.465			-3.933
213500.000			-31.465			-3.933
213600.000			-31.466			-3.933
213702.000			-31.465			-3.933
213801.000			-31.466			-3.933
213900.000			-31.465			-3.933
214001.000			-31.465			-3.933
214100.000			-31.464			-3.933
214200.000			-31.464			-3.933
214301.000			-31.463			-3.933
214400.000			-31.462			-3.933
214500.000			-31.462			-3.933
214602.000			-31.461			-3.933
214701.000			-31.461			-3.933
214801.000			-31.460			-3.933
214900.000			-31.461			-3.933
215000.000			-31.461			-3.933
215101.000			-31.460			-3.932
215200.000			-31.460			-3.932
215300.000			-31.460			-3.932
215401.000			-31.458			-3.932
215501.000			-31.458			-3.932
215601.000			-31.458			-3.932
215701.000			-31.457			-3.932
215800.000			-31.457			-3.932
215900.000			-31.456			-3.932
216001.000			-31.456			-3.932
216100.000			-31.456			-3.932
216200.000			-31.456			-3.932
216301.000			-31.455			-3.932
216401.000			-31.455			-3.932
216501.000			-31.455			-3.932
216602.000			-31.454			-3.932
216700.000			-31.453			-3.932
216800.000			-31.454			-3.932
216901.000			-31.454			-3.932
217000.000			-31.453			-3.932
217100.000			-31.453			-3.932
217201.000			-31.452			-3.932
217300.000			-31.451			-3.931
217401.000			-31.451			-3.931
217502.000			-31.449			-3.931
217600.000			-31.449			-3.931
217700.000			-31.450			-3.931
217801.000			-31.449			-3.931
217900.000			-31.449			-3.931
218001.000			-31.449			-3.931
218100.000			-31.448			-3.931
218200.000			-31.448			-3.931
218302.000			-31.448			-3.931
218401.000			-31.447			-3.931
218501.000			-31.447			-3.931
218601.000			-31.446			-3.931
218700.000			-31.446			-3.931
218800.000			-31.445			-3.931
218901.000			-31.446			-3.931
219000.000			-31.446			-3.931
219100.000			-31.444			-3.931
219202.000			-31.444			-3.931
219301.000			-31.444			-3.930
219401.000			-31.443			-3.930
219501.000			-31.442			-3.930
219600.000			-31.442			-3.930
219700.000			-31.442			-3.930
219801.000			-31.442			-3.930
219900.000			-31.441			-3.930
220000.000			-31.441			-3.930
220101.000			-31.441			-3.930
220201.000			-31.441			-3.930
220301.000			-31.440			-3.930
220401.000			-31.440			-3.930
220500.000			-31.440			-3.930
220600.000			-31.438			-3.930
220701.000			-31.439			-3.930
220800.000			-31.438			-3.930
220900.000			-31.437			-3.930
221001.000			-31.437			-3.930
221101.000			-31.438			-3.930
221202.000			-31.437			-3.930
221300.000			-31.436			-3.930
221400.000			-31.436			-3.930
221501.000			-31.436			-3.929
221600.000			-31.436			-3.929
221700.000			-31.436			-3.929
221801.000			-31.435			-3.929
221900.000			-31.435			-3.929
222001.000			-31.435			-3.929
222102.000			-31.434			-3.929
222200.000			-31.433			-3.929
222300.000			-31.433			-3.929
222401.000			-31.433			-3.929
222500.000			-31.433			-3.929
222600.000			-31.432			-3.929
222701.000			-31.431			-3.929
222800.000			-31.432			-3.929
222901.000			-31.432			-3.929
223002.000			-31.431			-3.929
223100.000			-31.430			-3.929
223200.000			-31.429			-3.929
223301.000			-31.429			-3.929
223400.000			-31.430			-3.929
223500.000			-31.429			-3.929
223601.000			-31.428			-3.929
223700.000			-31.428			-3.929
223801.000			-31.428			-3.929
223902.000			-31.428			-3.928
224000.000			-31.427			-3.928
224100.000			-31.426			-3.928
224201.000			-31.426			-3.928
224300.000			-31.426			-3.928
224401.000			-31.425			-3.928
224500.000			-31.425			-3.928
224600.000			-31.424			-3.928
224702.000			-31.424			-3.928
224801.000			-31.424			-3.928
224901.000			-31.424			-3.928
225001.000			-31.424			-3.928
225100.000			-31.423			-3.928
225200.000			-31.422			-3.928
225301.000			-31.423			-3.928
225400.000			-31.421			-3.928
225500.000			-31.421			-3.928
225602.000			-31.421			-3.928
225701.000			-31.420			-3.928
225801.000			-31.420			-3.927
225901.000			-31.421			-3.928
226000.000			-31.421			-3.928
226100.000			-31.419			-3.927
226201.000			-31.419			-3.927
226300.000			-31.419			-3.927
226400.000			-31.418			-3.927
226502.000			-31.418			-3.927
226601.000			-31.418			-3.927
226701.000			-31.417			-3.927
226801.000			-31.417			-3.927
226900.000			-31.417			-3.927
227000.000			-31.416			-3.927
227101.000			-31.416			-3.927
227200.000			-31.416			-3.927
227300.000			-31.415			-3.927
227402.000			-31.415			-3.927
227501.000			-31.415			-3.927
227602.000			-31.414			-3.927
227700.000			-31.413			-3.927
227800.000			-31.411			-3.926
227901.000			-31.411			-3.926
228000.000			-31.412			-3.926
228100.000			-31.412			-3.926
228201.000			-31.412			-3.926
228301.000			-31.411			-3.926
228401.000			-31.410			-3.926
228502.000			-31.410			-3.926
228600.000			-31.410			-3.926
228700.000			-31.410			-3.926
228801.000			-31.409			-3.926
228900.000			-31.409			-3.926
229000.000			-31.409			-3.926
229101.000			-31.408			-3.926
229200.000			-31.407			-3.926
229301.000			-31.408			-3.926
229402.000			-31.408			-3.926
229500.000			-31.407			-3.926
229600.000			-31.406			-3.926
229701.000			-31.407			-3.926
229800.000			-31.406			-3.926
229900.000			-31.405			-3.926
230001.000			-31.406			-3.926
230100.000			-31.405			-3.926
230201.000			-31.405			-3.926
230302.000			-31.406			-3.926
230400.000			-31.403			-3.925
230500.000			-31.404			-3.925
230601.000			-31.403			-3.925
230700.000			-31.401			-3.925
230801.000			-31.402			-3.925
230900.000			-31.402			-3.925
231000.000			-31.401			-3.925
231102.000			-31.401			-3.925
231201.000			-31.400			-3.925
231300.000			-31.400			-3.925
231401.000			-31.400			-3.925
231500.000			-31.399			-3.925
231600.000			-31.400			-3.925
231701.000			-31.399			-3.925
231800.000			-31.398			-3.925
231900.000			-31.398			-3.925
232002.000			-31.396			-3.924
232101.000			-31.396			-3.925
232200.000			-31.396			-3.925
232301.000			-31.396			-3.925
232400.000			-31.396			-3.925
232500.000			-31.396			-3.924
232601.000			-31.396			-3.925
232700.000			-31.396			-3.924
232800.000			-31.396			-3.925
232902.000			-31.395			-3.924
233001.000			-31.394			-3.924
233101.000			-31.394			-3.924
233201.000			-31.394			-3.924
233300.000			-31.393			-3.924
233400.000			-31.393			-3.924
233501.000			-31.392			-3.924
233600.000			-31.392			-3.924
233700.000			-31.392			-3.924
233802.000			-31.392			-3.924
233901.000			-31.391			-3.924
234002.000			-31.391			-3.924
234100.000			-31.390			-3.924
234200.000			-31.390			-3.924
234301.000			-31.390			-3.924
234400.000			-31.390			-3.924
234500.000			-31.390			-3.924
234601.000			-31.389			-3.924
234700.000			-31.388			-3.923
234801.000			-31.388			-3.924
234902.000			-31.388			-3.923
235000.000			-31.386			-3.923
235100.000			-31.386			-3.923
235201.000			-31.387			-3.923
235300.000			-31.387			-3.923
235400.000			-31.386			-3.923
235501.000			-31.385			-3.923
235600.000			-31.384			-3.923
235701.000			-31.384			-3.923
235802.000			-31.384			-3.923
235901.000			-31.384			-3.923
236000.000			-31.384			-3.923
236101.000			-31.384			-3.923
236200.000			-31.384			-3.923
236300.000			-31.384			-3.923
236401.000			-31.384			-3.923
236500.000			-31.382			-3.923
236600.000			-31.382			-3.923
236702.000			-31.382			-3.923
236801.000			-31.381			-3.923
236900.000			-31.381			-3.923
237001.000			-31.380			-3.922
237100.000			-31.378			-3.922
237201.000			-31.379			-3.922
237300.000			-31.379			-3.922
237400.000			-31.379			-3.922
237501.000			-31.378			-3.922
237601.000			-31.379			-3.922
237701.000			-31.378			-3.922
237802.000			-31.377			-3.922
237900.000			-31.376			-3.922
238000.000			-31.376			-3.922
238101.000			-31.376			-3.922
238200.000			-31.377			-3.922
238300.000			-31.376			-3.922
238401.000			-31.375			-3.922
238500.000			-31.375			-3.922
238601.000			-31.375			-3.922
238702.000			-31.375			-3.922
238801.000			-31.375			-3.922
238900.000			-31.374			-3.922
239001.000			-31.373			-3.922
239100.000			-31.373			-3.922
239200.000			-31.373			-3.922
239301.000			-31.372			-3.921
239400.000			-31.371			-3.921
239501.000			-31.371			-3.921
239602.000			-31.371			-3.921
239701.000			-31.372			-3.921
239800.000			-31.372			-3.921
239901.000			-31.371			-3.921
240000.000			-31.371			-3.921
240100.000			-31.370			-3.921
240201.000			-31.370			-3.921
240300.000			-31.369			-3.921
240401.000			-31.368			-3.921
240501.000			-31.368			-3.921
240601.000			-31.368			-3.921
240701.000			-31.368			-3.921
240800.000			-31.368			-3.921
240900.000			-31.367			-3.921
241001.000			-31.367			-3.921
241100.000			-31.366			-3.921
241200.000			-31.366			-3.921
241301.000			-31.366			-3.921
241401.000			-31.367			-3.921
241501.000			-31.365			-3.921
241601.000			-31.365			-3.921
241700.000			-31.365			-3.921
241800.000			-31.364			-3.921
241901.000			-31.363			-3.920
242000.000			-31.363			-3.920
242100.000			-31.364			-3.920
242201.000			-31.364			-3.920
242301.000			-31.363			-3.920
242401.000			-31.362			-3.920
242501.000			-31.362			-3.920
242600.000			-31.363			-3.920
242700.000			-31.362			-3.920
242801.000			-31.361			-3.920
242900.000			-31.361			-3.920
243000.000			-31.360			-3.920
243101.000			-31.360			-3.920
243201.000			-31.359			-3.920
243301.000			-31.359			-3.920
243401.000			-31.359			-3.920
243500.000			-31.358			-3.920
243601.000			-31.357			-3.920
243700.000			-31.358			-3.920
243800.000			-31.357			-3.920
243901.000			-31.356			-3.920
244000.000			-31.357			-3.920
244100.000			-31.358			-3.920
244202.000			-31.356			-3.920
244301.000			-31.355			-3.919
244400.000			-31.356			-3.920
244501.000			-31.356			-3.919
244600.000			-31.354			-3.919
244700.000			-31.354			-3.919
244801.000			-31.353			-3.919
244900.000			-31.353			-3.919
245000.000			-31.353			-3.919
245102.000			-31.353			-3.919
245201.000			-31.353			-3.919
245300.000			-31.353			-3.919
245401.000			-31.352			-3.919
245500.000			-31.353			-3.919
245600.000			-31.353			-3.919
245701.000			-31.351			-3.919
245800.000			-31.351			-3.919
245900.000			-31.350			-3.919
246002.000			-31.351			-3.919
246101.000			-31.350			-3.919
246200.000			-31.350			-3.919
246301.000			-31.349			-3.919
246400.000			-31.349			-3.919
246500.000			-31.348			-3.919
246601.000			-31.348			-3.918
246700.000			-31.348			-3.918
246801.000			-31.348			-3.918
246901.000			-31.348			-3.918
247001.000			-31.347			-3.918
247102.000			-31.347			-3.918
247200.000			-31.345			-3.918
247300.000			-31.345			-3.918
247401.000			-31.345			-3.918
247500.000			-31.346			-3.918
247600.000			-31.345			-3.918
247701.000			-31.343			-3.918
247800.000			-31.343			-3.918
247901.000			-31.344			-3.918
248002.000			-31.343			-3.918
248101.000			-31.343			-3.918
248200.000			-31.343			-3.918
248301.000			-31.343			-3.918
248400.000			-31.343			-3.918
248500.000			-31.342			-3.918
248601.000			-31.341			-3.918
248700.000			-31.342			-3.918
248801.000			-31.341			-3.918
248902.000			-31.341			-3.918
249001.000			-31.341			-3.918
249100.000			-31.340			-3.918
249201.000			-31.339			-3.917
249300.000			-31.339			-3.917
249400.000			-31.339			-3.917
249501.000			-31.339			-3.917
249600.000			-31.338			-3.917
249700.000			-31.338			-3.917
249802.000			-31.338			-3.917
249901.000			-31.338			-3.917
250001.000			-31.337			-3.917
250100.000			-31.336			-3.917
250200.000			-31.335			-3.917
250301.000			-31.335			-3.917
250400.000			-31.334			-3.917
250500.000			-31.335			-3.917
250601.000			-31.336			-3.917
250701.000			-31.334			-3.917
250801.000			-31.333			-3.917
250901.000			-31.335			-3.917
251000.000			-31.334			-3.917
251100.000			-31.333			-3.917
251201.000			-31.333			-3.917
251300.000			-31.332			-3.917
251400.000			-31.332			-3.917
251501.000			-31.332			-3.916
251601.000			-31.332			-3.916
251701.000			-31.331			-3.916
251801.000			-31.331			-3.916
251900.000			-31.331			-3.916
252000.000			-31.330			-3.916
252101.000			-31.330			-3.916
252200.000			-31.329			-3.916
252300.000			-31.329			-3.916
252401.000			-31.329			-3.916
252501.000			-31.328			-3.916
252601.000			-31.329			-3.916
252701.000			-31.328			-3.916
252800.000			-31.327			-3.916
252900.000			-31.327			-3.916
253001.000			-31.327			-3.916
253100.000			-31.326			-3.916
253201.000			-31.326			-3.916
253300.000			-31.326			-3.916
253401.000			-31.326			-3.916
253502.000			-31.325			-3.916
253600.000			-31.326			-3.916
253700.000			-31.326			-3.916
253801.000			-31.324			-3.916
253900.000			-31.324			-3.915
254000.000			-31.323			-3.915
254101.000			-31.323			-3.915
254200.000			-31.324			-3.915
254301.000			-31.322			-3.915
254402.000			-31.322			-3.915
254501.000			-31.322			-3.915
254600.000			-31.322			-3.915
254701.000			-31.322			-3.915
254800.000			-31.320			-3.915
254900.000			-31.321			-3.915
255001.000			-31.321			-3.915
255100.000			-31.321			-3.915
255201.000			-31.320			-3.915
255302.000			-31.320			-3.915
255400.000			-31.320			-3.915
255500.000			-31.319			-3.915
255601.000			-31.318			-3.915
255700.000			-31.318			-3.915
255800.000			-31.317			-3.915
255901.000			-31.317			-3.915
256000.000			-31.317			-3.915
256101.000			-31.317			-3.915
256202.000			-31.316			-3.914
256301.000			-31.316			-3.914
256401.000			-31.316			-3.915
256500.000			-31.315			-3.914
256600.000			-31.315			-3.914
256701.000			-31.314			-3.914
256800.000			-31.315			-3.914
256900.000			-31.316			-3.915
257001.000			-31.316			-3.914
257101.000			-31.315			-3.914
257201.000			-31.313			-3.914
257301.000			-31.313			-3.914
257400.000			-31.313			-3.914
257500.000			-31.312			-3.914
257601.000			-31.313			-3.914
257700.000			-31.313			-3.914
257800.000			-31.312			-3.914
257901.000			-31.312			-3.914
258001.000			-31.311			-3.914
258101.000			-31.310			-3.914
258201.000			-31.310			-3.914
258300.000			-31.310			-3.914
258400.000			-31.309			-3.914
258501.000			-31.309			-3.914
258600.000			-31.309			-3.914
258700.000			-31.309			-3.914
258801.000			-31.309			-3.914
258901.000			-31.308			-3.914
259001.000			-31.309			-3.914
259101.000			-31.309			-3.914
259200.000			-31.309			-3.914
259300.000			-31.307			-3.913
259401.000			-31.306			-3.913
259500.000			-31.307			-3.913
259601.000			-31.307			-3.913
259700.000			-31.307			-3.913
259801.000			-31.305			-3.913
259902.000			-31.305			-3.913
260001.000			-31.305			-3.913
260100.000			-31.305			-3.913
260201.000			-31.305			-3.913
260300.000			-31.303			-3.913
260400.000			-31.303			-3.913
260501.000			-31.302			-3.913
260600.000			-31.302			-3.913
260701.000			-31.303			-3.913
260802.000			-31.302			-3.913
260901.000			-31.302			-3.913
261000.000			-31.302			-3.913
261101.000			-31.302			-3.913
261200.000			-31.301			-3.913
261300.000			-31.300			-3.913
261401.000			-31.300			-3.913
261500.000			-31.300			-3.912
261600.000			-31.299			-3.912
261702.000			-31.299			-3.912
261801.000			-31.299			-3.912
261900.000			-31.299			-3.912
262001.000			-31.299			-3.912
262100.000			-31.298			-3.912
262200.000			-31.298			-3.912
262301.000			-31.296			-3.912
262400.000			-31.296			-3.912
262500.000			-31.297			-3.912
262602.000			-31.297			-3.912
262701.000			-31.296			-3.912
262802.000			-31.296			-3.912
262900.000			-31.296			-3.912
263000.000			-31.295			-3.912
263101.000			-31.295			-3.912
263200.000			-31.295			-3.912
263300.000			-31.295			-3.912
263401.000			-31.295			-3.912
263501.000			-31.295			-3.912
263601.000			-31.295			-3.912
263702.000			-31.294			-3.912
263800.000			-31.294			-3.912
263900.000			-31.293			-3.912
264001.000			-31.292			-3.912
264100.000			-31.291			-3.911
264200.000			-31.291			-3.911
264301.000			-31.290			-3.911
264400.000			-31.290			-3.911
264501.000			-31.291			-3.911
264602.000			-31.289			-3.911
264700.000			-31.289			-3.911
264800.000			-31.289			-3.911
264901.000			-31.290			-3.911
265000.000			-31.289			-3.911
265100.000			-31.288			-3.911
265201.000			-31.288			-3.911
265300.000			-31.289			-3.911
265401.000			-31.288			-3.911
265502.000			-31.288			-3.911
265601.000			-31.288			-3.911
265700.000			-31.286			-3.911
265801.000			-31.286			-3.911
265900.000			-31.287			-3.911
266001.000			-31.286			-3.911
266100.000			-31.285			-3.911
266200.000			-31.285			-3.911
266301.000			-31.285			-3.911
266401.000			-31.284			-3.910
266501.000			-31.284			-3.911
266601.000			-31.284			-3.910
266700.000			-31.283			-3.910
266800.000			-31.284			-3.910
266901.000			-31.284			-3.910
267000.000			-31.283			-3.910
267100.000			-31.283			-3.910
267201.000			-31.283			-3.910
267301.000			-31.283			-3.910
267401.000			-31.282			-3.910
267501.000			-31.282			-3.910
267600.000			-31.282			-3.910
267700.000			-31.281			-3.910
267801.000			-31.280			-3.910
267900.000			-31.280			-3.910
268000.000			-31.280			-3.910
268101.000			-31.279			-3.910
268201.000			-31.279			-3.910
268301.000			-31.280			-3.910
268402.000			-31.279			-3.910
268500.000			-31.278			-3.910
268600.000			-31.278			-3.910
268701.000			-31.277			-3.910
268800.000			-31.277			-3.910
268900.000			-31.276			-3.910
269001.000			-31.276			-3.910
269100.000			-31.277			-3.910
269202.000			-31.276			-3.910
269301.000			-31.275			-3.909
269400.000			-31.276			-3.909
269501.000			-31.275			-3.909
269600.000			-31.276			-3.910
269700.000			-31.276			-3.909
269801.000			-31.274			-3.909
269900.000			-31.274			-3.909
270000.000			-31.273			-3.909
270102.000			-31.273			-3.909
270201.000			-31.274			-3.909
270301.000			-31.273			-3.909
270401.000			-31.273			-3.909
270500.000			-31.272			-3.909
270600.000			-31.271			-3.909
270701.000			-31.271			-3.909
270800.000			-31.272			-3.909
270900.000			-31.271			-3.909
271002.000			-31.270			-3.909
271101.000			-31.270			-3.909
271201.000			-31.270			-3.909
271301.000			-31.270			-3.909
271400.000			-31.269			-3.909
271500.000			-31.269			-3.909
271601.000			-31.269			-3.909
271700.000			-31.267			-3.908
271800.000			-31.267			-3.908
271901.000			-31.267			-3.908
272001.000			-31.267			-3.908
272101.000			-31.268			-3.908
272201.000			-31.267			-3.908
272300.000			-31.265			-3.908
272401.000			-31.265			-3.908
272500.000			-31.265			-3.908
272600.000			-31.264			-3.908
272701.000			-31.265			-3.908
272800.000			-31.265			-3.908
272901.000			-31.264			-3.908
273002.000			-31.265			-3.908
273101.000			-31.265			-3.908
273200.000			-31.263			-3.908
273301.000			-31.263			-3.908
273400.000			-31.262			-3.908
273500.000			-31.262			-3.908
273601.000			-31.262			-3.908
273700.000			-31.262			-3.908
273800.000			-31.262			-3.908
273902.000			-31.261			-3.908
274001.000			-31.260			-3.908
274100.000			-31.260			-3.907
274201.000			-31.260			-3.908
274300.000			-31.260			-3.907
274400.000			-31.260			-3.907
274501.000			-31.260			-3.907
274600.000			-31.259			-3.907
274700.000			-31.257			-3.907
274802.000			-31.259			-3.907
274901.000			-31.260			-3.907
275000.000			-31.259			-3.907
275101.000			-31.258			-3.907
275200.000			-31.258			-3.907
275300.000			-31.258			-3.907
275401.000			-31.258			-3.907
275500.000			-31.257			-3.907
275601.000			-31.257			-3.907
275701.000			-31.256			-3.907
275801.000			-31.255			-3.907
275902.000			-31.256			-3.907
276000.000			-31.255			-3.907
276100.000			-31.255			-3.907
276201.000			-31.255			-3.907
276300.000			-31.255			-3.907
276400.000			-31.255			-3.907
276501.000			-31.254			-3.907
276600.000			-31.253			-3.907
276701.000			-31.254			-3.907
276802.000			-31.254			-3.907
276900.000			-31.253			-3.907
277000.000			-31.252			-3.906
277101.000			-31.253			-3.907
277200.000			-31.252			-3.907
277300.000			-31.251			-3.906
277401.000			-31.250			-3.906
277500.000			-31.251			-3.906
277601.000			-31.252			-3.906
277702.000			-31.251			-3.906
277801.000			-31.250			-3.906
277900.000			-31.250			-3.906
278001.000			-31.250			-3.906
278100.000			-31.249			-3.906
278200.000			-31.248			-3.906
278301.000			-31.248			-3.906
278400.000			-31.248			-3.906
278500.000			-31.247			-3.906
278602.000			-31.248			-3.906
278701.000			-31.247			-3.906
278801.000			-31.246			-3.906
278900.000			-31.246			-3.906
279000.000			-31.245			-3.906
279101.000			-31.246			-3.906
279200.000			-31.246			-3.906
279300.000			-31.245			-3.906
279401.000			-31.245			-3.906
279500.000			-31.245			-3.906
279601.000			-31.244			-3.906
279702.000			-31.243			-3.905
279800.000			-31.244			-3.906
279900.000			-31.244			-3.906
280001.000			-31.243			-3.905
280100.000			-31.243			-3.905
280200.000			-31.243			-3.905
280301.000			-31.243			-3.905
280400.000			-31.242			-3.905
280501.000			-31.242			-3.905
280602.000			-31.241			-3.905
280700.000			-31.242			-3.905
280800.000			-31.239			-3.905
280901.000			-31.239			-3.905
281000.000			-31.240			-3.905
281100.000			-31.240			-3.905
281201.000			-31.239			-3.905
281300.000			-31.240			-3.905
281401.000			-31.240			-3.905
281502.000			-31.240			-3.905
281601.000			-31.239			-3.905
281700.000			-31.238			-3.905
281801.000			-31.238			-3.905
281900.000			-31.237			-3.905
282001.000			-31.236			-3.905
282100.000			-31.236			-3.905
282200.000			-31.237			-3.905
282301.000			-31.237			-3.905
282401.000			-31.237			-3.905
282501.000			-31.237			-3.905
282601.000			-31.236			-3.905
282700.000			-31.236			-3.905
282800.000			-31.235			-3.904
282901.000			-31.235			-3.904
283000.000			-31.235			-3.904
283100.000			-31.235			-3.904
283201.000			-31.235			-3.904
283301.000			-31.234			-3.904
283401.000			-31.234			-3.904
283501.000			-31.232			-3.904
283600.000			-31.233			-3.904
283700.000			-31.234			-3.904
283801.000			-31.233			-3.904
283900.000			-31.233			-3.904
284000.000			-31.233			-3.904
284101.000			-31.232			-3.904
284201.000			-31.233			-3.904
284301.000			-31.232			-3.904
284401.000			-31.232			-3.904
284500.000			-31.232			-3.904
284600.000			-31.231			-3.904
284701.000			-31.231			-3.904
284800.000			-31.230			-3.904
284900.000			-31.229			-3.904
285001.000			-31.229			-3.904
285101.000			-31.229			-3.904
285202.000			-31.230			-3.904
285300.000			-31.229			-3.904
285400.000			-31.229			-3.904
285501.000			-31.229			-3.904
285600.000			-31.229			-3.904
285700.000			-31.228			-3.904
285801.000			-31.228			-3.904
285900.000			-31.229			-3.904
286000.000			-31.228			-3.903
286102.000			-31.227			-3.903
286201.000			-31.227			-3.903
286300.000			-31.227			-3.903
286401.000			-31.226			-3.903
286500.000			-31.226			-3.903
286600.000			-31.227			-3.903
286701.000			-31.226			-3.903
286800.000			-31.226			-3.903
286900.000			-31.224			-3.903
287002.000			-31.224			-3.903
287101.000			-31.224			-3.903
287200.000			-31.224			-3.903
287301.000			-31.224			-3.903
287400.000			-31.223			-3.903
287500.000			-31.222			-3.903
287601.000			-31.221			-3.903
287700.000			-31.221			-3.903
287800.000			-31.220			-3.903
287902.000			-31.221			-3.903
288001.000			-31.221			-3.903
288101.000			-31.221			-3.903
288201.000			-31.220			-3.903
288300.000			-31.220			-3.903
288401.000			-31.219			-3.902
288500.000			-31.219			-3.902
288600.000			-31.219			-3.902
288701.000			-31.218			-3.902
288800.000			-31.219			-3.902
288901.000			-31.220			-3.902
289002.000			-31.218			-3.902
289100.000			-31.218			-3.902
289200.000			-31.218			-3.902
289301.000			-31.217			-3.902
289400.000			-31.216			-3.902
289500.000			-31.217			-3.902
289601.000			-31.216			-3.902
289700.000			-31.215			-3.902
289801.000			-31.216			-3.902
289902.000			-31.216			-3.902
290001.000			-31.215			-3.902
290100.000			-31.216			-3.902
290201.000			-31.216			-3.902
290300.000			-31.215			-3.902
290400.000			-31.214			-3.902
290501.000			-31.215			-3.902
290600.000			-31.214			-3.902
290701.000			-31.213			-3.902
290802.000			-31.213			-3.902
290901.000			-31.213			-3.902
291000.000			-31.212			-3.902
291101.000			-31.212			-3.901
291200.000			-31.211			-3.901
291300.000			-31.211			-3.901
291401.000			-31.212			-3.901
291500.000			-31.212			-3.901
291602.000			-31.211			-3.901
291701.000			-31.210			-3.901
291800.000			-31.210			-3.901
291901.000			-31.210			-3.901
292000.000			-31.210			-3.901
292100.000			-31.209			-3.901
292201.000			-31.210			-3.901
292300.000			-31.210			-3.901
292400.000			-31.209			-3.901
292502.000			-31.209			-3.901
292601.000			-31.209			-3.901
292701.000			-31.207			-3.901
292801.000			-31.208			-3.901
292900.000			-31.207			-3.901
293000.000			-31.207			-3.901
293101.000			-31.207			-3.901
293200.000			-31.206			-3.901
293300.000			-31.207			-3.901
293402.000			-31.205			-3.901
293501.000			-31.205			-3.901
293601.000			-31.205			-3.901
293701.000			-31.205			-3.901
293800.000			-31.204			-3.901
293900.000			-31.204			-3.901
294001.000			-31.205			-3.901
294100.000			-31.204			-3.900
294200.000			-31.203			-3.900
294301.000			-31.204			-3.900
294401.000			-31.203			-3.900
294501.000			-31.203			-3.900
294601.000			-31.202			-3.900
294700.000			-31.202			-3.900
294801.000			-31.203			-3.900
294900.000			-31.201			-3.900
295000.000			-31.201			-3.900
295101.000			-31.201			-3.900
295200.000			-31.200			-3.900
295301.000			-31.201			-3.900
295402.000			-31.200			-3.900
295500.000			-31.199			-3.900
295600.000			-31.199			-3.900
295701.000			-31.199			-3.900
295800.000			-31.200			-3.900
295900.000			-31.199			-3.900
296001.000			-31.199			-3.900
296100.000			-31.198			-3.900
296201.000			-31.197			-3.900
296302.000			-31.198			-3.900
296401.000			-31.197			-3.900
296500.000			-31.196			-3.900
296601.000			-31.196			-3.900
296700.000			-31.197			-3.900
296800.000			-31.197			-3.900
296901.000			-31.196			-3.899
297000.000			-31.194			-3.899
297100.000			-31.195			-3.899
297202.000			-31.195			-3.899
297301.000			-31.194			-3.899
297400.000			-31.194			-3.899
297501.000			-31.195			-3.899
297600.000			-31.194			-3.899
297700.000			-31.193			-3.899
297801.000			-31.193			-3.899
297900.000			-31.193			-3.899
298001.000			-31.193			-3.899
298100.000			-31.194			-3.899
298201.000			-31.192			-3.899
298302.000			-31.191			-3.899
298400.000			-31.191			-3.899
298500.000			-31.191			-3.899
298601.000			-31.191			-3.899
298700.000			-31.191			-3.899
298800.000			-31.190			-3.899
298901.000			-31.190			-3.899
299000.000			-31.190			-3.899
299101.000			-31.190			-3.899
299202.000			-31.189			-3.899
299301.000			-31.189			-3.899
299400.000			-31.189			-3.899
299501.000			-31.189			-3.899
299600.000			-31.188			-3.899
299700.000			-31.187			-3.898
299801.000			-31.188			-3.899
299900.000			-31.187			-3.898
