# Acquired on 08/01/2024 14:19:53 
# SPIDER: Creep_4mm_07714532B-2
# CREEP MEASUREMENT

# time [ms]		force [N]		stiffness [N/mm]
0.000			-11.876			-2.969
101.000			-12.879			-3.220
201.000			-13.267			-3.317
301.000			-13.274			-3.319
400.000			-13.210			-3.303
500.000			-13.160			-3.290
601.000			-13.088			-3.272
700.000			-13.059			-3.265
801.000			-13.035			-3.259
902.000			-13.012			-3.253
1000.000			-12.990			-3.248
1100.000			-12.972			-3.243
1201.000			-12.955			-3.239
1300.000			-12.925			-3.231
1400.000			-12.911			-3.228
1502.000			-12.898			-3.225
1601.000			-12.885			-3.221
1700.000			-12.874			-3.218
1800.000			-12.863			-3.216
1900.000			-12.853			-3.213
2001.000			-12.834			-3.209
2100.000			-12.825			-3.206
2200.000			-12.815			-3.204
2302.000			-12.807			-3.202
2401.000			-12.799			-3.200
2500.000			-12.792			-3.198
2601.000			-12.784			-3.196
2700.000			-12.770			-3.193
2800.000			-12.764			-3.191
2901.000			-12.758			-3.190
3000.000			-12.753			-3.188
3101.000			-12.746			-3.186
3202.000			-12.738			-3.185
3300.000			-12.732			-3.183
3400.000			-12.727			-3.182
3501.000			-12.718			-3.180
3600.000			-12.713			-3.178
3700.000			-12.707			-3.177
3802.000			-12.702			-3.175
3901.000			-12.697			-3.174
4000.000			-12.692			-3.173
4101.000			-12.688			-3.172
4200.000			-12.678			-3.170
4300.000			-12.675			-3.169
4401.000			-12.671			-3.168
4500.000			-12.666			-3.167
4601.000			-12.662			-3.165
4702.000			-12.657			-3.164
4800.000			-12.654			-3.164
4900.000			-12.647			-3.162
5000.000			-12.643			-3.161
5100.000			-12.640			-3.160
5201.000			-12.637			-3.159
5300.000			-12.632			-3.158
5401.000			-12.629			-3.157
5502.000			-12.626			-3.157
5600.000			-12.620			-3.155
5700.000			-12.616			-3.154
5801.000			-12.613			-3.153
5900.000			-12.611			-3.153
6000.000			-12.609			-3.152
6102.000			-12.606			-3.151
6201.000			-12.602			-3.151
6300.000			-12.599			-3.150
6401.000			-12.593			-3.148
6500.000			-12.589			-3.147
6600.000			-12.587			-3.147
6701.000			-12.585			-3.146
6800.000			-12.583			-3.146
6901.000			-12.579			-3.145
7002.000			-12.576			-3.144
7100.000			-12.571			-3.143
7200.000			-12.569			-3.142
7301.000			-12.566			-3.142
7400.000			-12.564			-3.141
7500.000			-12.561			-3.140
7601.000			-12.558			-3.140
7701.000			-12.556			-3.139
7801.000			-12.552			-3.138
7901.000			-12.550			-3.137
8000.000			-12.547			-3.137
8100.000			-12.544			-3.136
8200.000			-12.542			-3.135
8300.000			-12.539			-3.135
8401.000			-12.537			-3.134
8501.000			-12.535			-3.134
8601.000			-12.533			-3.133
8701.000			-12.530			-3.133
8800.000			-12.528			-3.132
8900.000			-12.526			-3.132
9001.000			-12.524			-3.131
9100.000			-12.522			-3.131
9201.000			-12.520			-3.130
9302.000			-12.516			-3.129
9400.000			-12.515			-3.129
9500.000			-12.512			-3.128
9601.000			-12.510			-3.128
9700.000			-12.509			-3.127
9800.000			-12.507			-3.127
9901.000			-12.505			-3.126
10001.000			-12.501			-3.125
10101.000			-12.500			-3.125
10201.000			-12.499			-3.125
10300.000			-12.497			-3.124
10400.000			-12.494			-3.123
10501.000			-12.492			-3.123
10600.000			-12.491			-3.123
10700.000			-12.488			-3.122
10802.000			-12.486			-3.122
10901.000			-12.484			-3.121
11000.000			-12.483			-3.121
11101.000			-12.481			-3.120
11200.000			-12.479			-3.120
11300.000			-12.478			-3.120
11400.000			-12.475			-3.119
11500.000			-12.473			-3.118
11602.000			-12.472			-3.118
11701.000			-12.470			-3.117
11800.000			-12.468			-3.117
11901.000			-12.467			-3.117
12000.000			-12.466			-3.117
12100.000			-12.464			-3.116
12201.000			-12.460			-3.115
12301.000			-12.460			-3.115
12401.000			-12.458			-3.115
12502.000			-12.456			-3.114
12600.000			-12.455			-3.114
12700.000			-12.453			-3.113
12801.000			-12.452			-3.113
12900.000			-12.450			-3.113
13000.000			-12.448			-3.112
13102.000			-12.447			-3.112
13201.000			-12.445			-3.111
13300.000			-12.445			-3.111
13401.000			-12.444			-3.111
13500.000			-12.443			-3.111
13600.000			-12.439			-3.110
13701.000			-12.438			-3.109
13800.000			-12.436			-3.109
13901.000			-12.436			-3.109
14002.000			-12.435			-3.109
14100.000			-12.433			-3.108
14200.000			-12.430			-3.108
14301.000			-12.428			-3.107
14400.000			-12.427			-3.107
14500.000			-12.427			-3.107
14600.000			-12.426			-3.106
14701.000			-12.424			-3.106
14802.000			-12.423			-3.106
14900.000			-12.421			-3.105
15000.000			-12.421			-3.105
15101.000			-12.418			-3.105
15200.000			-12.416			-3.104
15300.000			-12.416			-3.104
15401.000			-12.415			-3.104
15501.000			-12.413			-3.103
15601.000			-12.412			-3.103
15701.000			-12.410			-3.103
15800.000			-12.410			-3.102
15900.000			-12.409			-3.102
16001.000			-12.408			-3.102
16100.000			-12.406			-3.102
16200.000			-12.405			-3.101
16302.000			-12.405			-3.101
16401.000			-12.404			-3.101
16500.000			-12.401			-3.100
16601.000			-12.400			-3.100
16700.000			-12.399			-3.100
16800.000			-12.398			-3.099
16901.000			-12.397			-3.099
17001.000			-12.397			-3.099
17101.000			-12.395			-3.099
17202.000			-12.392			-3.098
17300.000			-12.391			-3.098
17400.000			-12.390			-3.097
17501.000			-12.389			-3.097
17600.000			-12.388			-3.097
17700.000			-12.386			-3.096
17800.000			-12.386			-3.097
17901.000			-12.385			-3.096
18002.000			-12.383			-3.096
18100.000			-12.382			-3.096
18200.000			-12.381			-3.095
18301.000			-12.381			-3.095
18400.000			-12.380			-3.095
18500.000			-12.378			-3.095
18601.000			-12.377			-3.094
18701.000			-12.376			-3.094
18801.000			-12.375			-3.094
18901.000			-12.375			-3.094
19000.000			-12.373			-3.093
19100.000			-12.372			-3.093
19201.000			-12.371			-3.093
19300.000			-12.369			-3.092
19400.000			-12.369			-3.092
19502.000			-12.367			-3.092
19601.000			-12.366			-3.092
19700.000			-12.365			-3.091
19801.000			-12.364			-3.091
19900.000			-12.363			-3.091
20000.000			-12.363			-3.091
20101.000			-12.361			-3.090
20200.000			-12.359			-3.090
20301.000			-12.359			-3.090
20402.000			-12.359			-3.090
20500.000			-12.357			-3.089
20600.000			-12.355			-3.089
20701.000			-12.356			-3.089
20800.000			-12.355			-3.089
20900.000			-12.354			-3.088
21000.000			-12.353			-3.088
21101.000			-12.352			-3.088
21202.000			-12.351			-3.088
21300.000			-12.350			-3.087
21400.000			-12.349			-3.087
21501.000			-12.348			-3.087
21600.000			-12.347			-3.087
21700.000			-12.347			-3.087
21802.000			-12.346			-3.086
21901.000			-12.343			-3.086
22000.000			-12.343			-3.086
22101.000			-12.343			-3.086
22200.000			-12.342			-3.085
22300.000			-12.340			-3.085
22401.000			-12.340			-3.085
22500.000			-12.340			-3.085
22601.000			-12.338			-3.084
22702.000			-12.336			-3.084
22800.000			-12.336			-3.084
22900.000			-12.335			-3.084
23001.000			-12.334			-3.083
23100.000			-12.333			-3.083
23200.000			-12.333			-3.083
23301.000			-12.332			-3.083
23401.000			-12.331			-3.083
23501.000			-12.331			-3.083
23601.000			-12.329			-3.082
23700.000			-12.329			-3.082
23800.000			-12.328			-3.082
23901.000			-12.327			-3.082
24000.000			-12.327			-3.082
24100.000			-12.325			-3.081
24202.000			-12.324			-3.081
24301.000			-12.324			-3.081
24401.000			-12.323			-3.081
24500.000			-12.323			-3.081
24600.000			-12.322			-3.080
24701.000			-12.320			-3.080
24800.000			-12.320			-3.080
24900.000			-12.320			-3.080
25002.000			-12.318			-3.079
25101.000			-12.317			-3.079
25200.000			-12.316			-3.079
25301.000			-12.315			-3.079
25400.000			-12.315			-3.079
25500.000			-12.314			-3.078
25601.000			-12.313			-3.078
25701.000			-12.313			-3.078
25801.000			-12.311			-3.078
25902.000			-12.310			-3.078
26000.000			-12.310			-3.077
26100.000			-12.309			-3.077
26201.000			-12.309			-3.077
26300.000			-12.309			-3.077
26400.000			-12.308			-3.077
26502.000			-12.307			-3.077
26601.000			-12.306			-3.077
26701.000			-12.304			-3.076
26801.000			-12.304			-3.076
26900.000			-12.303			-3.076
27000.000			-12.303			-3.076
27101.000			-12.302			-3.076
27200.000			-12.300			-3.075
27302.000			-12.299			-3.075
27401.000			-12.299			-3.075
27500.000			-12.299			-3.075
27601.000			-12.298			-3.074
27700.000			-12.298			-3.074
27800.000			-12.297			-3.074
27901.000			-12.297			-3.074
28000.000			-12.297			-3.074
28101.000			-12.295			-3.074
28202.000			-12.293			-3.073
28301.000			-12.293			-3.073
28400.000			-12.293			-3.073
28501.000			-12.293			-3.073
28600.000			-12.293			-3.073
28700.000			-12.291			-3.073
28801.000			-12.290			-3.073
28901.000			-12.290			-3.073
29001.000			-12.289			-3.072
29101.000			-12.287			-3.072
29200.000			-12.285			-3.071
29300.000			-12.286			-3.072
29401.000			-12.287			-3.072
29500.000			-12.285			-3.071
29600.000			-12.284			-3.071
29701.000			-12.284			-3.071
29801.000			-12.284			-3.071
29901.000			-12.283			-3.071
30001.000			-12.282			-3.070
30100.000			-12.281			-3.070
30200.000			-12.280			-3.070
30301.000			-12.280			-3.070
30400.000			-12.280			-3.070
30500.000			-12.279			-3.070
30602.000			-12.278			-3.070
30701.000			-12.277			-3.069
30801.000			-12.277			-3.069
30900.000			-12.276			-3.069
31000.000			-12.275			-3.069
31101.000			-12.275			-3.069
31200.000			-12.273			-3.068
31300.000			-12.272			-3.068
31402.000			-12.272			-3.068
31501.000			-12.272			-3.068
31600.000			-12.271			-3.068
31701.000			-12.270			-3.068
31800.000			-12.270			-3.067
31900.000			-12.269			-3.067
32001.000			-12.269			-3.067
32101.000			-12.269			-3.067
32201.000			-12.268			-3.067
32301.000			-12.267			-3.067
32400.000			-12.267			-3.067
32500.000			-12.266			-3.066
32601.000			-12.264			-3.066
32700.000			-12.265			-3.066
32800.000			-12.264			-3.066
32902.000			-12.263			-3.066
33001.000			-12.262			-3.066
33100.000			-12.262			-3.065
33201.000			-12.261			-3.065
33300.000			-12.261			-3.065
33400.000			-12.260			-3.065
33501.000			-12.259			-3.065
33600.000			-12.258			-3.064
33702.000			-12.258			-3.065
33801.000			-12.258			-3.064
33900.000			-12.256			-3.064
34001.000			-12.256			-3.064
34100.000			-12.256			-3.064
34200.000			-12.256			-3.064
34301.000			-12.254			-3.064
34400.000			-12.253			-3.063
34501.000			-12.255			-3.064
34602.000			-12.254			-3.064
34700.000			-12.253			-3.063
34800.000			-12.252			-3.063
34901.000			-12.252			-3.063
35000.000			-12.251			-3.063
35100.000			-12.250			-3.063
35201.000			-12.250			-3.062
35301.000			-12.250			-3.062
35401.000			-12.249			-3.062
35501.000			-12.247			-3.062
35600.000			-12.246			-3.062
35700.000			-12.246			-3.061
35801.000			-12.246			-3.061
35900.000			-12.245			-3.061
36000.000			-12.245			-3.061
36102.000			-12.244			-3.061
36201.000			-12.244			-3.061
36300.000			-12.243			-3.061
36401.000			-12.243			-3.061
36500.000			-12.244			-3.061
36600.000			-12.242			-3.060
36701.000			-12.241			-3.060
36801.000			-12.240			-3.060
36902.000			-12.240			-3.060
37000.000			-12.240			-3.060
37100.000			-12.240			-3.060
37201.000			-12.240			-3.060
37300.000			-12.239			-3.060
37400.000			-12.238			-3.060
37501.000			-12.238			-3.060
37601.000			-12.236			-3.059
37701.000			-12.235			-3.059
37801.000			-12.234			-3.059
37900.000			-12.235			-3.059
38000.000			-12.235			-3.059
38101.000			-12.235			-3.059
38200.000			-12.235			-3.059
38300.000			-12.234			-3.058
38402.000			-12.232			-3.058
38501.000			-12.232			-3.058
38600.000			-12.232			-3.058
38701.000			-12.232			-3.058
38800.000			-12.231			-3.058
38900.000			-12.231			-3.058
39001.000			-12.229			-3.057
39101.000			-12.229			-3.057
39201.000			-12.229			-3.057
39302.000			-12.228			-3.057
39400.000			-12.228			-3.057
39500.000			-12.228			-3.057
39601.000			-12.227			-3.057
39700.000			-12.225			-3.056
39800.000			-12.225			-3.056
39901.000			-12.224			-3.056
40001.000			-12.224			-3.056
40100.000			-12.224			-3.056
40200.000			-12.224			-3.056
40300.000			-12.223			-3.056
40401.000			-12.223			-3.056
40500.000			-12.222			-3.055
40600.000			-12.221			-3.055
40702.000			-12.220			-3.055
40801.000			-12.220			-3.055
40900.000			-12.220			-3.055
41001.000			-12.220			-3.055
41100.000			-12.220			-3.055
41200.000			-12.219			-3.055
41301.000			-12.218			-3.054
41400.000			-12.218			-3.054
41501.000			-12.217			-3.054
41602.000			-12.216			-3.054
41700.000			-12.216			-3.054
41800.000			-12.217			-3.054
41901.000			-12.216			-3.054
42000.000			-12.215			-3.054
42100.000			-12.214			-3.053
42202.000			-12.213			-3.053
42301.000			-12.213			-3.053
42400.000			-12.213			-3.053
42501.000			-12.213			-3.053
42600.000			-12.212			-3.053
42700.000			-12.212			-3.053
42801.000			-12.212			-3.053
42900.000			-12.211			-3.053
43001.000			-12.211			-3.053
43102.000			-12.209			-3.052
43200.000			-12.208			-3.052
43300.000			-12.208			-3.052
43400.000			-12.208			-3.052
43500.000			-12.209			-3.052
43601.000			-12.209			-3.052
43701.000			-12.207			-3.052
43801.000			-12.206			-3.052
43902.000			-12.206			-3.052
44000.000			-12.206			-3.052
44100.000			-12.205			-3.051
44201.000			-12.204			-3.051
44300.000			-12.203			-3.051
44400.000			-12.204			-3.051
44502.000			-12.204			-3.051
44601.000			-12.204			-3.051
44700.000			-12.203			-3.051
44801.000			-12.201			-3.050
44900.000			-12.200			-3.050
45000.000			-12.201			-3.050
45101.000			-12.201			-3.050
45200.000			-12.201			-3.050
45301.000			-12.200			-3.050
45402.000			-12.199			-3.050
45500.000			-12.199			-3.050
45600.000			-12.198			-3.049
45701.000			-12.198			-3.050
45800.000			-12.199			-3.050
45900.000			-12.198			-3.049
46001.000			-12.198			-3.049
46101.000			-12.196			-3.049
46201.000			-12.196			-3.049
46301.000			-12.195			-3.049
46400.000			-12.195			-3.049
46500.000			-12.196			-3.049
46600.000			-12.195			-3.049
46700.000			-12.194			-3.049
46801.000			-12.194			-3.048
46901.000			-12.194			-3.048
47001.000			-12.193			-3.048
47101.000			-12.193			-3.048
47200.000			-12.192			-3.048
47300.000			-12.192			-3.048
47401.000			-12.191			-3.048
47500.000			-12.191			-3.048
47600.000			-12.192			-3.048
47702.000			-12.190			-3.047
47801.000			-12.189			-3.047
47900.000			-12.188			-3.047
48001.000			-12.188			-3.047
48100.000			-12.189			-3.047
48200.000			-12.188			-3.047
48301.000			-12.187			-3.047
48400.000			-12.187			-3.047
48501.000			-12.187			-3.047
48602.000			-12.186			-3.046
48701.000			-12.185			-3.046
48800.000			-12.185			-3.046
48901.000			-12.184			-3.046
49000.000			-12.183			-3.046
49100.000			-12.183			-3.046
49201.000			-12.183			-3.046
49301.000			-12.184			-3.046
49401.000			-12.183			-3.046
49502.000			-12.182			-3.045
49600.000			-12.181			-3.045
49700.000			-12.180			-3.045
49800.000			-12.180			-3.045
49900.000			-12.181			-3.045
50001.000			-12.180			-3.045
50100.000			-12.180			-3.045
50201.000			-12.180			-3.045
50302.000			-12.179			-3.045
50400.000			-12.179			-3.045
50500.000			-12.178			-3.045
50601.000			-12.177			-3.044
50700.000			-12.176			-3.044
50800.000			-12.176			-3.044
50901.000			-12.177			-3.044
51001.000			-12.177			-3.044
51101.000			-12.176			-3.044
51201.000			-12.176			-3.044
51300.000			-12.175			-3.044
51400.000			-12.174			-3.044
51501.000			-12.174			-3.043
51600.000			-12.173			-3.043
51701.000			-12.173			-3.043
51802.000			-12.172			-3.043
51901.000			-12.173			-3.043
52000.000			-12.173			-3.043
52101.000			-12.171			-3.043
52200.000			-12.171			-3.043
52300.000			-12.172			-3.043
52401.000			-12.172			-3.043
52501.000			-12.172			-3.043
52601.000			-12.171			-3.043
52701.000			-12.170			-3.042
52800.000			-12.169			-3.042
52900.000			-12.169			-3.042
53000.000			-12.169			-3.042
53100.000			-12.168			-3.042
53201.000			-12.168			-3.042
53301.000			-12.168			-3.042
53401.000			-12.167			-3.042
53501.000			-12.166			-3.042
53600.000			-12.166			-3.042
53700.000			-12.164			-3.041
53801.000			-12.164			-3.041
53900.000			-12.165			-3.041
54000.000			-12.165			-3.041
54102.000			-12.164			-3.041
54201.000			-12.164			-3.041
54300.000			-12.164			-3.041
54401.000			-12.164			-3.041
54500.000			-12.163			-3.041
54600.000			-12.163			-3.041
54701.000			-12.162			-3.041
54800.000			-12.163			-3.041
54901.000			-12.162			-3.040
55002.000			-12.160			-3.040
55100.000			-12.160			-3.040
55200.000			-12.160			-3.040
55301.000			-12.159			-3.040
55400.000			-12.159			-3.040
55500.000			-12.159			-3.040
55601.000			-12.159			-3.040
55701.000			-12.158			-3.039
55801.000			-12.157			-3.039
55901.000			-12.157			-3.039
56000.000			-12.156			-3.039
56100.000			-12.157			-3.039
56200.000			-12.157			-3.039
56300.000			-12.157			-3.039
56401.000			-12.156			-3.039
56501.000			-12.156			-3.039
56601.000			-12.156			-3.039
56701.000			-12.154			-3.039
56800.000			-12.154			-3.039
56900.000			-12.154			-3.038
57001.000			-12.154			-3.038
57100.000			-12.154			-3.038
57200.000			-12.153			-3.038
57302.000			-12.152			-3.038
57401.000			-12.152			-3.038
57500.000			-12.152			-3.038
57601.000			-12.152			-3.038
57700.000			-12.153			-3.038
57800.000			-12.152			-3.038
57901.000			-12.151			-3.038
58001.000			-12.151			-3.038
58101.000			-12.151			-3.038
58202.000			-12.151			-3.038
58300.000			-12.149			-3.037
58400.000			-12.149			-3.037
58501.000			-12.149			-3.037
58600.000			-12.148			-3.037
58700.000			-12.148			-3.037
58802.000			-12.148			-3.037
58901.000			-12.148			-3.037
59001.000			-12.147			-3.037
59101.000			-12.146			-3.036
59200.000			-12.146			-3.037
59300.000			-12.146			-3.037
59400.000			-12.146			-3.037
59500.000			-12.146			-3.036
59601.000			-12.146			-3.036
59701.000			-12.146			-3.037
59801.000			-12.145			-3.036
59901.000			-12.145			-3.036
60000.000			-12.144			-3.036
60100.000			-12.143			-3.036
60201.000			-12.142			-3.036
60300.000			-12.142			-3.036
60400.000			-12.142			-3.036
60502.000			-12.142			-3.035
60601.000			-12.142			-3.035
60700.000			-12.141			-3.035
60801.000			-12.142			-3.035
60900.000			-12.141			-3.035
61000.000			-12.140			-3.035
61101.000			-12.140			-3.035
61201.000			-12.141			-3.035
61301.000			-12.141			-3.035
61401.000			-12.140			-3.035
61500.000			-12.139			-3.035
61600.000			-12.138			-3.035
61701.000			-12.138			-3.034
61800.000			-12.138			-3.034
61900.000			-12.138			-3.034
62002.000			-12.138			-3.035
62101.000			-12.137			-3.034
62200.000			-12.136			-3.034
62301.000			-12.136			-3.034
62400.000			-12.137			-3.034
62500.000			-12.136			-3.034
62600.000			-12.135			-3.034
62700.000			-12.135			-3.034
62802.000			-12.135			-3.034
62901.000			-12.134			-3.034
63000.000			-12.134			-3.034
63101.000			-12.134			-3.033
63200.000			-12.134			-3.033
63300.000			-12.133			-3.033
63401.000			-12.133			-3.033
63501.000			-12.132			-3.033
63601.000			-12.133			-3.033
63701.000			-12.132			-3.033
63800.000			-12.132			-3.033
63900.000			-12.131			-3.033
64001.000			-12.131			-3.033
64100.000			-12.130			-3.032
64200.000			-12.130			-3.033
64302.000			-12.131			-3.033
64401.000			-12.130			-3.032
64500.000			-12.130			-3.032
64601.000			-12.130			-3.032
64700.000			-12.129			-3.032
64800.000			-12.130			-3.033
64901.000			-12.129			-3.032
65000.000			-12.128			-3.032
65101.000			-12.127			-3.032
65202.000			-12.127			-3.032
65300.000			-12.126			-3.032
65400.000			-12.126			-3.032
65501.000			-12.126			-3.032
65600.000			-12.126			-3.031
65700.000			-12.125			-3.031
65800.000			-12.125			-3.031
65901.000			-12.124			-3.031
66002.000			-12.125			-3.031
66100.000			-12.125			-3.031
66200.000			-12.124			-3.031
66301.000			-12.124			-3.031
66400.000			-12.125			-3.031
66500.000			-12.124			-3.031
66601.000			-12.122			-3.031
66701.000			-12.122			-3.031
66801.000			-12.122			-3.030
66901.000			-12.123			-3.031
67000.000			-12.123			-3.031
67100.000			-12.122			-3.031
67201.000			-12.121			-3.030
67300.000			-12.121			-3.030
67401.000			-12.121			-3.030
67502.000			-12.121			-3.030
67601.000			-12.120			-3.030
67700.000			-12.119			-3.030
67801.000			-12.119			-3.030
67900.000			-12.120			-3.030
68000.000			-12.118			-3.030
68101.000			-12.118			-3.030
68200.000			-12.119			-3.030
68301.000			-12.118			-3.029
68402.000			-12.118			-3.030
68500.000			-12.119			-3.030
68600.000			-12.119			-3.030
68701.000			-12.116			-3.029
68800.000			-12.116			-3.029
68900.000			-12.115			-3.029
69000.000			-12.115			-3.029
69101.000			-12.116			-3.029
69202.000			-12.116			-3.029
69300.000			-12.115			-3.029
69400.000			-12.115			-3.029
69501.000			-12.115			-3.029
69600.000			-12.114			-3.029
69700.000			-12.114			-3.028
69801.000			-12.114			-3.028
69901.000			-12.113			-3.028
70001.000			-12.112			-3.028
70101.000			-12.113			-3.028
70200.000			-12.114			-3.028
70300.000			-12.113			-3.028
70401.000			-12.113			-3.028
70500.000			-12.112			-3.028
70601.000			-12.112			-3.028
70702.000			-12.112			-3.028
70801.000			-12.111			-3.028
70900.000			-12.110			-3.028
71001.000			-12.110			-3.027
71100.000			-12.110			-3.027
71200.000			-12.110			-3.027
71301.000			-12.109			-3.027
71401.000			-12.109			-3.027
71501.000			-12.110			-3.027
71601.000			-12.108			-3.027
71700.000			-12.107			-3.027
71800.000			-12.108			-3.027
71901.000			-12.107			-3.027
72000.000			-12.108			-3.027
72100.000			-12.106			-3.027
72202.000			-12.107			-3.027
72301.000			-12.106			-3.027
72401.000			-12.105			-3.026
72500.000			-12.106			-3.026
72600.000			-12.105			-3.026
72701.000			-12.105			-3.026
72800.000			-12.105			-3.026
72900.000			-12.105			-3.026
73002.000			-12.105			-3.026
73101.000			-12.104			-3.026
73200.000			-12.103			-3.026
73301.000			-12.104			-3.026
73400.000			-12.103			-3.026
73500.000			-12.102			-3.026
73601.000			-12.103			-3.026
73700.000			-12.103			-3.026
73801.000			-12.103			-3.026
73902.000			-12.102			-3.026
74000.000			-12.102			-3.026
74100.000			-12.101			-3.025
74201.000			-12.101			-3.025
74300.000			-12.102			-3.025
74400.000			-12.101			-3.025
74502.000			-12.100			-3.025
74601.000			-12.100			-3.025
74701.000			-12.099			-3.025
74801.000			-12.099			-3.025
74900.000			-12.100			-3.025
75000.000			-12.100			-3.025
75101.000			-12.099			-3.025
75200.000			-12.099			-3.025
75300.000			-12.098			-3.025
75402.000			-12.099			-3.025
75501.000			-12.098			-3.025
75601.000			-12.097			-3.024
75700.000			-12.097			-3.024
75800.000			-12.097			-3.024
75901.000			-12.098			-3.024
76000.000			-12.096			-3.024
76100.000			-12.096			-3.024
76202.000			-12.096			-3.024
76301.000			-12.097			-3.024
76400.000			-12.096			-3.024
76501.000			-12.096			-3.024
76600.000			-12.096			-3.024
76700.000			-12.095			-3.024
76801.000			-12.094			-3.023
76900.000			-12.093			-3.023
77001.000			-12.094			-3.023
77102.000			-12.093			-3.023
77200.000			-12.093			-3.023
77300.000			-12.094			-3.024
77401.000			-12.092			-3.023
77500.000			-12.092			-3.023
77600.000			-12.091			-3.023
77701.000			-12.092			-3.023
77801.000			-12.092			-3.023
77901.000			-12.091			-3.023
78001.000			-12.090			-3.023
78100.000			-12.092			-3.023
78200.000			-12.091			-3.023
78301.000			-12.090			-3.023
78400.000			-12.090			-3.023
78500.000			-12.090			-3.023
78602.000			-12.090			-3.023
78701.000			-12.090			-3.022
78802.000			-12.090			-3.022
78900.000			-12.088			-3.022
79000.000			-12.087			-3.022
79101.000			-12.088			-3.022
79200.000			-12.089			-3.022
79300.000			-12.089			-3.022
79401.000			-12.088			-3.022
79501.000			-12.089			-3.022
79601.000			-12.087			-3.022
79701.000			-12.087			-3.022
79800.000			-12.088			-3.022
79900.000			-12.087			-3.022
80001.000			-12.087			-3.022
80100.000			-12.087			-3.022
80200.000			-12.088			-3.022
80302.000			-12.086			-3.021
80401.000			-12.085			-3.021
80500.000			-12.085			-3.021
80601.000			-12.085			-3.021
80700.000			-12.085			-3.021
80800.000			-12.084			-3.021
80901.000			-12.085			-3.021
81000.000			-12.085			-3.021
81101.000			-12.083			-3.021
81202.000			-12.083			-3.021
81300.000			-12.082			-3.021
81400.000			-12.083			-3.021
81501.000			-12.082			-3.020
81600.000			-12.081			-3.020
81700.000			-12.082			-3.021
81800.000			-12.081			-3.020
81901.000			-12.081			-3.020
82002.000			-12.081			-3.020
82100.000			-12.080			-3.020
82200.000			-12.079			-3.020
82301.000			-12.079			-3.020
82400.000			-12.080			-3.020
82500.000			-12.079			-3.020
82601.000			-12.080			-3.020
82701.000			-12.079			-3.020
82801.000			-12.079			-3.020
82901.000			-12.079			-3.020
83000.000			-12.079			-3.020
83100.000			-12.079			-3.020
83201.000			-12.079			-3.020
83300.000			-12.078			-3.019
83400.000			-12.077			-3.019
83502.000			-12.078			-3.020
83601.000			-12.078			-3.019
83700.000			-12.077			-3.019
83801.000			-12.078			-3.019
83900.000			-12.077			-3.019
84000.000			-12.077			-3.019
84101.000			-12.077			-3.019
84200.000			-12.077			-3.019
84300.000			-12.076			-3.019
84402.000			-12.076			-3.019
84501.000			-12.075			-3.019
84600.000			-12.075			-3.019
84701.000			-12.075			-3.019
84800.000			-12.074			-3.018
84900.000			-12.073			-3.018
85000.000			-12.074			-3.019
85100.000			-12.073			-3.018
85202.000			-12.073			-3.018
85301.000			-12.074			-3.018
85400.000			-12.072			-3.018
85501.000			-12.072			-3.018
85600.000			-12.073			-3.018
85700.000			-12.071			-3.018
85801.000			-12.071			-3.018
85900.000			-12.071			-3.018
86001.000			-12.072			-3.018
86102.000			-12.072			-3.018
86200.000			-12.071			-3.018
86300.000			-12.071			-3.018
86401.000			-12.072			-3.018
86500.000			-12.071			-3.018
86600.000			-12.070			-3.018
86701.000			-12.069			-3.017
86801.000			-12.070			-3.017
86901.000			-12.069			-3.017
87001.000			-12.069			-3.017
87100.000			-12.069			-3.017
87200.000			-12.069			-3.017
87301.000			-12.069			-3.017
87400.000			-12.069			-3.017
87500.000			-12.068			-3.017
87602.000			-12.069			-3.017
87701.000			-12.068			-3.017
87800.000			-12.066			-3.017
87901.000			-12.067			-3.017
88000.000			-12.067			-3.017
88100.000			-12.067			-3.017
88200.000			-12.067			-3.017
88300.000			-12.066			-3.016
88402.000			-12.066			-3.016
88501.000			-12.067			-3.017
88601.000			-12.067			-3.017
88701.000			-12.066			-3.017
88800.000			-12.065			-3.016
88900.000			-12.065			-3.016
89001.000			-12.065			-3.016
89100.000			-12.064			-3.016
89200.000			-12.064			-3.016
89302.000			-12.064			-3.016
89401.000			-12.064			-3.016
89500.000			-12.064			-3.016
89601.000			-12.063			-3.016
89700.000			-12.063			-3.016
89800.000			-12.063			-3.016
89901.000			-12.062			-3.016
90000.000			-12.063			-3.016
90101.000			-12.062			-3.016
90202.000			-12.062			-3.016
90300.000			-12.062			-3.016
90400.000			-12.062			-3.015
90501.000			-12.062			-3.015
90600.000			-12.061			-3.015
90700.000			-12.060			-3.015
90801.000			-12.060			-3.015
90901.000			-12.060			-3.015
91001.000			-12.061			-3.015
91101.000			-12.060			-3.015
91200.000			-12.061			-3.015
91300.000			-12.060			-3.015
91400.000			-12.060			-3.015
91500.000			-12.059			-3.015
91601.000			-12.059			-3.015
91701.000			-12.059			-3.015
91801.000			-12.059			-3.015
91901.000			-12.057			-3.014
92000.000			-12.057			-3.014
92100.000			-12.058			-3.015
92201.000			-12.059			-3.015
92300.000			-12.058			-3.014
92400.000			-12.056			-3.014
92502.000			-12.057			-3.014
92601.000			-12.056			-3.014
92700.000			-12.056			-3.014
92801.000			-12.056			-3.014
92900.000			-12.056			-3.014
93000.000			-12.056			-3.014
93101.000			-12.056			-3.014
93200.000			-12.055			-3.014
93301.000			-12.055			-3.014
93402.000			-12.054			-3.014
93501.000			-12.055			-3.014
93600.000			-12.055			-3.014
93701.000			-12.055			-3.014
93800.000			-12.054			-3.014
93900.000			-12.054			-3.014
94001.000			-12.054			-3.013
94101.000			-12.053			-3.013
94201.000			-12.054			-3.013
94302.000			-12.052			-3.013
94400.000			-12.052			-3.013
94500.000			-12.053			-3.013
94600.000			-12.052			-3.013
94700.000			-12.052			-3.013
94801.000			-12.051			-3.013
94900.000			-12.052			-3.013
95001.000			-12.051			-3.013
95102.000			-12.051			-3.013
95200.000			-12.051			-3.013
95300.000			-12.051			-3.013
95401.000			-12.051			-3.013
95500.000			-12.052			-3.013
95600.000			-12.050			-3.013
95701.000			-12.051			-3.013
95801.000			-12.050			-3.012
95901.000			-12.050			-3.012
96001.000			-12.048			-3.012
96100.000			-12.049			-3.012
96200.000			-12.049			-3.012
96301.000			-12.049			-3.012
96400.000			-12.049			-3.012
96500.000			-12.048			-3.012
96602.000			-12.048			-3.012
96701.000			-12.048			-3.012
96800.000			-12.048			-3.012
96901.000			-12.047			-3.012
97000.000			-12.048			-3.012
97100.000			-12.047			-3.012
97201.000			-12.046			-3.012
97300.000			-12.047			-3.012
97401.000			-12.047			-3.012
97502.000			-12.047			-3.012
97601.000			-12.046			-3.012
97700.000			-12.046			-3.011
97800.000			-12.046			-3.011
97900.000			-12.045			-3.011
98001.000			-12.045			-3.011
98100.000			-12.044			-3.011
98200.000			-12.044			-3.011
98302.000			-12.044			-3.011
98401.000			-12.044			-3.011
98500.000			-12.043			-3.011
98601.000			-12.043			-3.011
98700.000			-12.043			-3.011
98800.000			-12.044			-3.011
98901.000			-12.043			-3.011
99000.000			-12.043			-3.011
99101.000			-12.043			-3.011
99202.000			-12.042			-3.010
99300.000			-12.042			-3.011
99400.000			-12.042			-3.010
99501.000			-12.041			-3.010
99600.000			-12.042			-3.010
99700.000			-12.042			-3.011
99801.000			-12.042			-3.010
99901.000			-12.041			-3.010
100001.000			-12.040			-3.010
100101.000			-12.040			-3.010
100200.000			-12.041			-3.010
100300.000			-12.040			-3.010
100401.000			-12.040			-3.010
100500.000			-12.041			-3.010
100600.000			-12.039			-3.010
100702.000			-12.039			-3.010
100801.000			-12.039			-3.010
100900.000			-12.039			-3.010
101000.000			-12.039			-3.010
101100.000			-12.037			-3.009
101201.000			-12.038			-3.009
101300.000			-12.039			-3.010
101400.000			-12.038			-3.010
101502.000			-12.038			-3.010
101601.000			-12.038			-3.009
101700.000			-12.038			-3.010
101801.000			-12.038			-3.009
101900.000			-12.038			-3.010
102000.000			-12.038			-3.009
102101.000			-12.036			-3.009
102200.000			-12.036			-3.009
102301.000			-12.036			-3.009
102402.000			-12.037			-3.009
102500.000			-12.036			-3.009
102600.000			-12.036			-3.009
102701.000			-12.036			-3.009
102800.000			-12.035			-3.009
102900.000			-12.034			-3.009
103001.000			-12.035			-3.009
103101.000			-12.035			-3.009
103201.000			-12.035			-3.009
103301.000			-12.034			-3.009
103400.000			-12.034			-3.009
103500.000			-12.035			-3.009
103601.000			-12.035			-3.009
103700.000			-12.034			-3.008
103800.000			-12.033			-3.008
103902.000			-12.033			-3.008
104001.000			-12.033			-3.008
104100.000			-12.033			-3.008
104200.000			-12.032			-3.008
104300.000			-12.033			-3.008
104401.000			-12.032			-3.008
104500.000			-12.031			-3.008
104600.000			-12.031			-3.008
104702.000			-12.032			-3.008
104801.000			-12.031			-3.008
104900.000			-12.031			-3.008
105001.000			-12.031			-3.008
105100.000			-12.030			-3.008
105200.000			-12.030			-3.007
105301.000			-12.030			-3.008
105400.000			-12.031			-3.008
105501.000			-12.030			-3.008
105602.000			-12.031			-3.008
105701.000			-12.029			-3.007
105800.000			-12.029			-3.007
105901.000			-12.029			-3.007
106000.000			-12.029			-3.007
106100.000			-12.029			-3.007
106201.000			-12.028			-3.007
106301.000			-12.029			-3.007
106401.000			-12.027			-3.007
106501.000			-12.028			-3.007
106600.000			-12.028			-3.007
106700.000			-12.028			-3.007
106801.000			-12.027			-3.007
106900.000			-12.027			-3.007
107000.000			-12.028			-3.007
107101.000			-12.027			-3.007
107201.000			-12.027			-3.007
107302.000			-12.027			-3.007
107400.000			-12.027			-3.007
107500.000			-12.025			-3.006
107601.000			-12.025			-3.006
107700.000			-12.025			-3.006
107800.000			-12.025			-3.006
107901.000			-12.025			-3.006
108001.000			-12.025			-3.006
108101.000			-12.025			-3.006
108201.000			-12.025			-3.006
108300.000			-12.025			-3.006
108400.000			-12.025			-3.006
108501.000			-12.024			-3.006
108600.000			-12.025			-3.006
108700.000			-12.024			-3.006
108802.000			-12.024			-3.006
108901.000			-12.023			-3.006
109000.000			-12.023			-3.006
109101.000			-12.023			-3.006
109200.000			-12.024			-3.006
109300.000			-12.023			-3.006
109401.000			-12.023			-3.006
109500.000			-12.023			-3.006
109601.000			-12.023			-3.006
109702.000			-12.022			-3.006
109800.000			-12.022			-3.006
109900.000			-12.021			-3.005
110001.000			-12.021			-3.005
110100.000			-12.022			-3.005
110200.000			-12.023			-3.006
110301.000			-12.022			-3.006
110401.000			-12.020			-3.005
110502.000			-12.020			-3.005
110600.000			-12.019			-3.005
110700.000			-12.020			-3.005
110801.000			-12.021			-3.005
110900.000			-12.021			-3.005
111000.000			-12.020			-3.005
111101.000			-12.020			-3.005
111201.000			-12.020			-3.005
111301.000			-12.020			-3.005
111401.000			-12.020			-3.005
111500.000			-12.018			-3.005
111600.000			-12.018			-3.004
111701.000			-12.019			-3.005
111800.000			-12.019			-3.005
111900.000			-12.018			-3.005
112002.000			-12.018			-3.005
112101.000			-12.018			-3.004
112200.000			-12.018			-3.004
112301.000			-12.017			-3.004
112400.000			-12.018			-3.005
112500.000			-12.018			-3.004
112601.000			-12.017			-3.004
112700.000			-12.016			-3.004
112801.000			-12.016			-3.004
112902.000			-12.017			-3.004
113000.000			-12.017			-3.004
113100.000			-12.017			-3.004
113201.000			-12.017			-3.004
113300.000			-12.017			-3.004
113400.000			-12.016			-3.004
113501.000			-12.016			-3.004
113601.000			-12.016			-3.004
113702.000			-12.016			-3.004
113800.000			-12.015			-3.004
113900.000			-12.015			-3.004
114001.000			-12.014			-3.004
114100.000			-12.014			-3.004
114200.000			-12.014			-3.003
114301.000			-12.014			-3.003
114401.000			-12.014			-3.003
114501.000			-12.013			-3.003
114601.000			-12.014			-3.003
114700.000			-12.014			-3.003
114800.000			-12.013			-3.003
114901.000			-12.014			-3.003
115000.000			-12.013			-3.003
115100.000			-12.011			-3.003
115202.000			-12.011			-3.003
115301.000			-12.012			-3.003
115400.000			-12.012			-3.003
115501.000			-12.011			-3.003
115600.000			-12.012			-3.003
115700.000			-12.013			-3.003
115801.000			-12.012			-3.003
115900.000			-12.011			-3.003
116001.000			-12.012			-3.003
116102.000			-12.012			-3.003
116200.000			-12.011			-3.003
116300.000			-12.010			-3.003
116401.000			-12.010			-3.002
116500.000			-12.010			-3.002
116600.000			-12.010			-3.003
116701.000			-12.009			-3.002
116801.000			-12.008			-3.002
116902.000			-12.010			-3.002
117001.000			-12.010			-3.002
117100.000			-12.010			-3.003
117201.000			-12.010			-3.002
117300.000			-12.009			-3.002
117400.000			-12.009			-3.002
117501.000			-12.011			-3.003
117600.000			-12.010			-3.002
117701.000			-12.009			-3.002
117802.000			-12.010			-3.002
117900.000			-12.009			-3.002
118000.000			-12.007			-3.002
118101.000			-12.008			-3.002
118200.000			-12.007			-3.002
118300.000			-12.008			-3.002
118401.000			-12.008			-3.002
118501.000			-12.008			-3.002
118601.000			-12.007			-3.002
118701.000			-12.007			-3.002
118800.000			-12.007			-3.002
118900.000			-12.006			-3.001
119001.000			-12.006			-3.001
119100.000			-12.006			-3.001
119200.000			-12.006			-3.001
119302.000			-12.005			-3.001
119401.000			-12.006			-3.001
119500.000			-12.004			-3.001
119601.000			-12.005			-3.001
119700.000			-12.005			-3.001
119800.000			-12.004			-3.001
119901.000			-12.004			-3.001
120000.000			-12.005			-3.001
120102.000			-12.005			-3.001
120201.000			-12.003			-3.001
120300.000			-12.004			-3.001
120401.000			-12.005			-3.001
120500.000			-12.004			-3.001
120600.000			-12.004			-3.001
120701.000			-12.003			-3.001
120800.000			-12.003			-3.001
120901.000			-12.003			-3.001
121002.000			-12.002			-3.001
121100.000			-12.002			-3.001
121200.000			-12.002			-3.000
121301.000			-12.002			-3.001
121400.000			-12.003			-3.001
121500.000			-12.003			-3.001
121601.000			-12.002			-3.000
121701.000			-12.002			-3.000
121801.000			-12.002			-3.000
121901.000			-12.001			-3.000
122000.000			-12.001			-3.000
122100.000			-12.000			-3.000
122201.000			-12.000			-3.000
122300.000			-12.001			-3.000
122400.000			-12.001			-3.000
122502.000			-12.001			-3.000
122601.000			-12.000			-3.000
122700.000			-12.000			-3.000
122801.000			-12.000			-3.000
122900.000			-12.000			-3.000
123000.000			-12.000			-3.000
123101.000			-12.000			-3.000
123200.000			-11.999			-3.000
123302.000			-11.999			-3.000
123401.000			-11.999			-3.000
123500.000			-11.999			-3.000
123601.000			-11.999			-3.000
123700.000			-11.999			-3.000
123800.000			-11.998			-2.999
123901.000			-11.996			-2.999
124000.000			-11.997			-2.999
124100.000			-11.997			-2.999
124202.000			-11.997			-2.999
124301.000			-11.997			-2.999
124400.000			-11.997			-2.999
124501.000			-11.997			-2.999
124600.000			-11.996			-2.999
124700.000			-11.996			-2.999
124801.000			-11.996			-2.999
124900.000			-11.995			-2.999
125000.000			-11.995			-2.999
125102.000			-11.996			-2.999
125201.000			-11.995			-2.999
125300.000			-11.994			-2.999
125401.000			-11.993			-2.998
125500.000			-11.994			-2.999
125600.000			-11.995			-2.999
125701.000			-11.996			-2.999
125800.000			-11.996			-2.999
125901.000			-11.995			-2.999
126002.000			-11.994			-2.999
126101.000			-11.993			-2.998
126200.000			-11.993			-2.998
126301.000			-11.993			-2.998
126400.000			-11.993			-2.998
126500.000			-11.993			-2.998
126600.000			-11.994			-2.998
126700.000			-11.992			-2.998
126802.000			-11.993			-2.998
126901.000			-11.993			-2.998
127000.000			-11.993			-2.998
127101.000			-11.993			-2.998
127200.000			-11.992			-2.998
127300.000			-11.992			-2.998
127401.000			-11.992			-2.998
127500.000			-11.992			-2.998
127600.000			-11.992			-2.998
127702.000			-11.991			-2.998
127801.000			-11.990			-2.997
127900.000			-11.990			-2.998
128001.000			-11.991			-2.998
128100.000			-11.991			-2.998
128200.000			-11.991			-2.998
128301.000			-11.990			-2.998
128400.000			-11.990			-2.998
128500.000			-11.990			-2.998
128602.000			-11.990			-2.998
128701.000			-11.990			-2.998
128800.000			-11.990			-2.998
128901.000			-11.989			-2.997
129000.000			-11.989			-2.997
129100.000			-11.990			-2.997
129201.000			-11.990			-2.997
129300.000			-11.990			-2.998
129401.000			-11.990			-2.997
129502.000			-11.989			-2.997
129601.000			-11.988			-2.997
129700.000			-11.988			-2.997
129800.000			-11.988			-2.997
129900.000			-11.987			-2.997
130001.000			-11.987			-2.997
130100.000			-11.987			-2.997
130200.000			-11.987			-2.997
130302.000			-11.987			-2.997
130401.000			-11.987			-2.997
130501.000			-11.987			-2.997
130601.000			-11.987			-2.997
130700.000			-11.986			-2.996
130800.000			-11.986			-2.997
130901.000			-11.986			-2.997
131000.000			-11.986			-2.997
131100.000			-11.985			-2.996
131202.000			-11.985			-2.996
131301.000			-11.986			-2.996
131401.000			-11.985			-2.996
131501.000			-11.985			-2.996
131600.000			-11.985			-2.996
131700.000			-11.985			-2.996
131801.000			-11.985			-2.996
131900.000			-11.985			-2.996
132000.000			-11.985			-2.996
132101.000			-11.984			-2.996
132201.000			-11.983			-2.996
132301.000			-11.983			-2.996
132401.000			-11.983			-2.996
132500.000			-11.984			-2.996
132600.000			-11.983			-2.996
132701.000			-11.983			-2.996
132800.000			-11.984			-2.996
132900.000			-11.984			-2.996
133000.000			-11.985			-2.996
133101.000			-11.984			-2.996
133202.000			-11.983			-2.996
133301.000			-11.983			-2.996
133400.000			-11.983			-2.996
133501.000			-11.982			-2.996
133600.000			-11.982			-2.996
133700.000			-11.983			-2.996
133801.000			-11.982			-2.995
133900.000			-11.982			-2.996
134000.000			-11.982			-2.995
134102.000			-11.981			-2.995
134201.000			-11.981			-2.995
134300.000			-11.982			-2.995
134401.000			-11.982			-2.996
134500.000			-11.981			-2.995
134600.000			-11.981			-2.995
134701.000			-11.980			-2.995
134800.000			-11.980			-2.995
134900.000			-11.980			-2.995
135002.000			-11.980			-2.995
135101.000			-11.980			-2.995
135200.000			-11.981			-2.995
135301.000			-11.981			-2.995
135400.000			-11.979			-2.995
135500.000			-11.978			-2.995
135601.000			-11.979			-2.995
135700.000			-11.979			-2.995
135800.000			-11.979			-2.995
135902.000			-11.978			-2.994
136001.000			-11.978			-2.994
136102.000			-11.978			-2.995
136200.000			-11.979			-2.995
136300.000			-11.978			-2.995
136401.000			-11.977			-2.994
136500.000			-11.977			-2.994
136600.000			-11.977			-2.994
136701.000			-11.978			-2.994
136800.000			-11.977			-2.994
136901.000			-11.977			-2.994
137002.000			-11.977			-2.994
137101.000			-11.976			-2.994
137200.000			-11.976			-2.994
137301.000			-11.976			-2.994
137400.000			-11.977			-2.994
137500.000			-11.976			-2.994
137601.000			-11.976			-2.994
137700.000			-11.976			-2.994
137800.000			-11.976			-2.994
137902.000			-11.976			-2.994
138001.000			-11.976			-2.994
138101.000			-11.976			-2.994
138201.000			-11.977			-2.994
138300.000			-11.975			-2.994
138400.000			-11.975			-2.994
138501.000			-11.976			-2.994
138600.000			-11.976			-2.994
138700.000			-11.976			-2.994
138801.000			-11.975			-2.994
138901.000			-11.974			-2.994
139001.000			-11.974			-2.994
139101.000			-11.974			-2.994
139200.000			-11.974			-2.993
139300.000			-11.973			-2.993
139400.000			-11.973			-2.993
139500.000			-11.973			-2.993
139601.000			-11.973			-2.993
139700.000			-11.972			-2.993
139800.000			-11.973			-2.993
139902.000			-11.973			-2.993
140001.000			-11.973			-2.993
140100.000			-11.972			-2.993
140201.000			-11.972			-2.993
140300.000			-11.973			-2.993
140400.000			-11.973			-2.993
140501.000			-11.973			-2.993
140600.000			-11.971			-2.993
140700.000			-11.971			-2.993
140802.000			-11.970			-2.993
140901.000			-11.971			-2.993
141000.000			-11.971			-2.993
141101.000			-11.971			-2.993
141200.000			-11.970			-2.992
141300.000			-11.970			-2.993
141401.000			-11.970			-2.993
141500.000			-11.970			-2.992
141600.000			-11.970			-2.993
141702.000			-11.971			-2.993
141801.000			-11.970			-2.992
141900.000			-11.969			-2.992
142001.000			-11.968			-2.992
142100.000			-11.968			-2.992
142200.000			-11.968			-2.992
142301.000			-11.969			-2.992
142400.000			-11.969			-2.992
142500.000			-11.968			-2.992
142602.000			-11.969			-2.992
142701.000			-11.969			-2.992
142802.000			-11.969			-2.992
142900.000			-11.968			-2.992
143000.000			-11.969			-2.992
143101.000			-11.969			-2.992
143200.000			-11.968			-2.992
143300.000			-11.968			-2.992
143401.000			-11.967			-2.992
143500.000			-11.967			-2.992
143601.000			-11.968			-2.992
143702.000			-11.968			-2.992
143801.000			-11.968			-2.992
143900.000			-11.968			-2.992
144001.000			-11.967			-2.992
144100.000			-11.968			-2.992
144200.000			-11.967			-2.992
144301.000			-11.966			-2.991
144400.000			-11.966			-2.992
144500.000			-11.966			-2.992
144602.000			-11.966			-2.991
144701.000			-11.966			-2.992
144800.000			-11.965			-2.991
144901.000			-11.966			-2.992
145000.000			-11.966			-2.991
145100.000			-11.965			-2.991
145201.000			-11.965			-2.991
145300.000			-11.965			-2.991
145400.000			-11.964			-2.991
145502.000			-11.965			-2.991
145601.000			-11.964			-2.991
145702.000			-11.964			-2.991
145800.000			-11.964			-2.991
145900.000			-11.964			-2.991
146001.000			-11.964			-2.991
146100.000			-11.963			-2.991
146200.000			-11.964			-2.991
146301.000			-11.964			-2.991
146400.000			-11.963			-2.991
146501.000			-11.963			-2.991
146602.000			-11.962			-2.991
146700.000			-11.962			-2.990
146800.000			-11.962			-2.990
146901.000			-11.962			-2.990
147000.000			-11.964			-2.991
147100.000			-11.962			-2.991
147201.000			-11.962			-2.990
147300.000			-11.962			-2.990
147401.000			-11.961			-2.990
147502.000			-11.961			-2.990
147601.000			-11.963			-2.991
147700.000			-11.961			-2.990
147801.000			-11.961			-2.990
147900.000			-11.961			-2.990
148000.000			-11.961			-2.990
148101.000			-11.961			-2.990
148200.000			-11.961			-2.990
148300.000			-11.961			-2.990
148402.000			-11.960			-2.990
148501.000			-11.960			-2.990
148600.000			-11.961			-2.990
148701.000			-11.961			-2.990
148800.000			-11.960			-2.990
148900.000			-11.959			-2.990
149000.000			-11.959			-2.990
149100.000			-11.960			-2.990
149201.000			-11.960			-2.990
149300.000			-11.960			-2.990
149401.000			-11.959			-2.990
149502.000			-11.958			-2.990
149600.000			-11.959			-2.990
149700.000			-11.959			-2.990
149801.000			-11.959			-2.990
149900.000			-11.958			-2.990
150000.000			-11.958			-2.990
150101.000			-11.958			-2.990
150200.000			-11.958			-2.990
150300.000			-11.959			-2.990
150402.000			-11.957			-2.989
150501.000			-11.957			-2.989
150600.000			-11.958			-2.990
150701.000			-11.958			-2.989
150800.000			-11.956			-2.989
150900.000			-11.957			-2.989
151001.000			-11.956			-2.989
151100.000			-11.957			-2.989
151200.000			-11.958			-2.989
151302.000			-11.957			-2.989
151401.000			-11.957			-2.989
151500.000			-11.956			-2.989
151601.000			-11.956			-2.989
151700.000			-11.956			-2.989
151800.000			-11.956			-2.989
151901.000			-11.956			-2.989
152000.000			-11.956			-2.989
152100.000			-11.956			-2.989
152202.000			-11.955			-2.989
152301.000			-11.955			-2.989
152402.000			-11.955			-2.989
152500.000			-11.956			-2.989
152600.000			-11.956			-2.989
152701.000			-11.956			-2.989
152800.000			-11.954			-2.989
152900.000			-11.955			-2.989
153001.000			-11.955			-2.989
153100.000			-11.954			-2.989
153201.000			-11.954			-2.989
153302.000			-11.955			-2.989
153401.000			-11.954			-2.988
153500.000			-11.954			-2.988
153601.000			-11.954			-2.988
153700.000			-11.953			-2.988
153800.000			-11.953			-2.988
153901.000			-11.953			-2.988
154000.000			-11.952			-2.988
154100.000			-11.952			-2.988
154202.000			-11.954			-2.989
154301.000			-11.954			-2.988
154400.000			-11.952			-2.988
154501.000			-11.952			-2.988
154600.000			-11.954			-2.988
154700.000			-11.954			-2.988
154801.000			-11.952			-2.988
154900.000			-11.953			-2.988
155000.000			-11.952			-2.988
155102.000			-11.952			-2.988
155201.000			-11.952			-2.988
155300.000			-11.951			-2.988
155400.000			-11.951			-2.988
155500.000			-11.951			-2.988
155601.000			-11.952			-2.988
155700.000			-11.951			-2.988
155800.000			-11.951			-2.988
155901.000			-11.951			-2.988
156001.000			-11.951			-2.988
156101.000			-11.950			-2.988
156202.000			-11.950			-2.987
156300.000			-11.951			-2.988
156400.000			-11.949			-2.987
156501.000			-11.950			-2.987
156600.000			-11.950			-2.987
156700.000			-11.949			-2.987
156801.000			-11.949			-2.987
156900.000			-11.950			-2.987
157001.000			-11.949			-2.987
157102.000			-11.949			-2.987
157200.000			-11.950			-2.987
157300.000			-11.949			-2.987
157401.000			-11.949			-2.987
157500.000			-11.949			-2.987
157600.000			-11.949			-2.987
157701.000			-11.948			-2.987
157800.000			-11.948			-2.987
157900.000			-11.948			-2.987
158002.000			-11.947			-2.987
158101.000			-11.948			-2.987
158200.000			-11.948			-2.987
158301.000			-11.947			-2.987
158400.000			-11.947			-2.987
158500.000			-11.947			-2.987
158600.000			-11.946			-2.986
158700.000			-11.946			-2.987
158801.000			-11.947			-2.987
158901.000			-11.946			-2.987
159001.000			-11.946			-2.987
159102.000			-11.945			-2.986
159200.000			-11.946			-2.987
159300.000			-11.947			-2.987
159401.000			-11.947			-2.987
159500.000			-11.946			-2.987
159600.000			-11.946			-2.987
159701.000			-11.946			-2.987
159800.000			-11.946			-2.986
159901.000			-11.946			-2.986
160002.000			-11.945			-2.986
160101.000			-11.945			-2.986
160200.000			-11.946			-2.986
160301.000			-11.945			-2.986
160400.000			-11.945			-2.986
160500.000			-11.944			-2.986
160601.000			-11.944			-2.986
160700.000			-11.945			-2.986
160800.000			-11.944			-2.986
160902.000			-11.944			-2.986
161001.000			-11.944			-2.986
161100.000			-11.944			-2.986
161201.000			-11.944			-2.986
161300.000			-11.944			-2.986
161400.000			-11.943			-2.986
161501.000			-11.943			-2.986
161600.000			-11.942			-2.986
161700.000			-11.943			-2.986
161802.000			-11.942			-2.986
161901.000			-11.943			-2.986
162001.000			-11.943			-2.986
162100.000			-11.942			-2.986
162200.000			-11.942			-2.986
162301.000			-11.942			-2.986
162400.000			-11.941			-2.985
162500.000			-11.941			-2.985
162601.000			-11.942			-2.985
162701.000			-11.942			-2.986
162801.000			-11.942			-2.985
162901.000			-11.941			-2.985
163000.000			-11.941			-2.985
163100.000			-11.941			-2.985
163201.000			-11.940			-2.985
163300.000			-11.941			-2.985
163400.000			-11.941			-2.985
163501.000			-11.940			-2.985
163601.000			-11.941			-2.985
163701.000			-11.940			-2.985
163802.000			-11.940			-2.985
163900.000			-11.940			-2.985
164000.000			-11.940			-2.985
164101.000			-11.940			-2.985
164200.000			-11.941			-2.985
164300.000			-11.940			-2.985
164401.000			-11.939			-2.985
164500.000			-11.939			-2.985
164601.000			-11.939			-2.985
164702.000			-11.939			-2.985
164801.000			-11.939			-2.985
164900.000			-11.939			-2.985
165000.000			-11.940			-2.985
165100.000			-11.940			-2.985
165201.000			-11.939			-2.985
165300.000			-11.939			-2.985
165400.000			-11.938			-2.984
165501.000			-11.938			-2.984
165601.000			-11.938			-2.985
165701.000			-11.938			-2.985
165801.000			-11.937			-2.984
165900.000			-11.937			-2.984
166000.000			-11.938			-2.984
166101.000			-11.937			-2.984
166200.000			-11.937			-2.984
166300.000			-11.937			-2.984
166401.000			-11.938			-2.984
166501.000			-11.937			-2.984
166601.000			-11.936			-2.984
166702.000			-11.936			-2.984
166800.000			-11.936			-2.984
166900.000			-11.937			-2.984
167001.000			-11.937			-2.984
167100.000			-11.937			-2.984
167200.000			-11.937			-2.984
167301.000			-11.936			-2.984
167400.000			-11.935			-2.984
167501.000			-11.936			-2.984
167602.000			-11.937			-2.984
167700.000			-11.936			-2.984
167800.000			-11.935			-2.984
167901.000			-11.935			-2.984
168000.000			-11.935			-2.984
168100.000			-11.935			-2.984
168200.000			-11.934			-2.984
168300.000			-11.933			-2.983
168401.000			-11.934			-2.984
168501.000			-11.935			-2.984
168601.000			-11.935			-2.984
168701.000			-11.934			-2.984
168800.000			-11.935			-2.984
168900.000			-11.934			-2.984
169001.000			-11.933			-2.983
169100.000			-11.933			-2.983
169200.000			-11.934			-2.983
169301.000			-11.934			-2.983
169401.000			-11.933			-2.983
169501.000			-11.934			-2.983
169601.000			-11.933			-2.983
169700.000			-11.933			-2.983
169800.000			-11.933			-2.983
169901.000			-11.933			-2.983
170000.000			-11.932			-2.983
170100.000			-11.932			-2.983
170201.000			-11.932			-2.983
170301.000			-11.932			-2.983
170401.000			-11.932			-2.983
170502.000			-11.932			-2.983
170600.000			-11.933			-2.983
170700.000			-11.932			-2.983
170801.000			-11.931			-2.983
170900.000			-11.932			-2.983
171000.000			-11.931			-2.983
171101.000			-11.931			-2.983
171201.000			-11.932			-2.983
171302.000			-11.932			-2.983
171401.000			-11.931			-2.983
171500.000			-11.932			-2.983
171601.000			-11.931			-2.983
171700.000			-11.933			-2.983
171800.000			-11.931			-2.983
171901.000			-11.930			-2.983
172000.000			-11.930			-2.982
172100.000			-11.930			-2.983
172202.000			-11.932			-2.983
172301.000			-11.931			-2.983
172401.000			-11.930			-2.982
172501.000			-11.930			-2.983
172600.000			-11.931			-2.983
172700.000			-11.931			-2.983
172801.000			-11.931			-2.983
172900.000			-11.930			-2.982
173000.000			-11.929			-2.982
173101.000			-11.929			-2.982
173201.000			-11.930			-2.982
173301.000			-11.929			-2.982
173401.000			-11.930			-2.982
173500.000			-11.929			-2.982
173600.000			-11.929			-2.982
173701.000			-11.929			-2.982
173800.000			-11.927			-2.982
173900.000			-11.928			-2.982
174001.000			-11.928			-2.982
174101.000			-11.928			-2.982
174201.000			-11.927			-2.982
174302.000			-11.928			-2.982
174400.000			-11.928			-2.982
174500.000			-11.927			-2.982
174600.000			-11.927			-2.982
174700.000			-11.927			-2.982
174801.000			-11.927			-2.982
174900.000			-11.927			-2.982
175000.000			-11.927			-2.982
175102.000			-11.927			-2.982
175201.000			-11.927			-2.982
175300.000			-11.928			-2.982
175401.000			-11.928			-2.982
175500.000			-11.927			-2.982
175600.000			-11.926			-2.982
175701.000			-11.926			-2.981
175800.000			-11.925			-2.981
175900.000			-11.926			-2.982
176002.000			-11.926			-2.981
176101.000			-11.926			-2.981
176201.000			-11.925			-2.981
176301.000			-11.924			-2.981
176400.000			-11.925			-2.981
176500.000			-11.926			-2.982
176601.000			-11.926			-2.981
176700.000			-11.924			-2.981
176800.000			-11.924			-2.981
176901.000			-11.925			-2.981
177001.000			-11.925			-2.981
177101.000			-11.925			-2.981
177201.000			-11.924			-2.981
177300.000			-11.924			-2.981
177400.000			-11.925			-2.981
177501.000			-11.924			-2.981
177600.000			-11.924			-2.981
177700.000			-11.924			-2.981
177800.000			-11.925			-2.981
177901.000			-11.925			-2.981
178002.000			-11.924			-2.981
178101.000			-11.924			-2.981
178200.000			-11.923			-2.981
178301.000			-11.923			-2.981
178400.000			-11.923			-2.981
178500.000			-11.924			-2.981
178601.000			-11.923			-2.981
178700.000			-11.922			-2.981
178800.000			-11.923			-2.981
178902.000			-11.923			-2.981
179001.000			-11.923			-2.981
179101.000			-11.923			-2.981
179201.000			-11.923			-2.981
179300.000			-11.923			-2.981
179400.000			-11.923			-2.981
179501.000			-11.923			-2.981
179600.000			-11.922			-2.980
179700.000			-11.922			-2.980
179801.000			-11.922			-2.981
179901.000			-11.922			-2.981
180001.000			-11.922			-2.980
180101.000			-11.921			-2.980
180200.000			-11.920			-2.980
180300.000			-11.921			-2.980
180401.000			-11.922			-2.980
180500.000			-11.921			-2.980
180600.000			-11.921			-2.980
180701.000			-11.922			-2.980
180801.000			-11.922			-2.980
180902.000			-11.921			-2.980
181001.000			-11.921			-2.980
181100.000			-11.919			-2.980
181201.000			-11.918			-2.980
181300.000			-11.920			-2.980
181400.000			-11.921			-2.980
181501.000			-11.921			-2.980
181600.000			-11.919			-2.980
181700.000			-11.919			-2.980
181802.000			-11.919			-2.980
181901.000			-11.919			-2.980
182000.000			-11.918			-2.980
182101.000			-11.919			-2.980
182200.000			-11.919			-2.980
182300.000			-11.919			-2.980
182401.000			-11.919			-2.980
182500.000			-11.918			-2.980
182600.000			-11.919			-2.980
182702.000			-11.918			-2.980
182801.000			-11.918			-2.979
182900.000			-11.918			-2.979
183001.000			-11.918			-2.980
183100.000			-11.918			-2.980
183200.000			-11.917			-2.979
183301.000			-11.918			-2.980
183400.000			-11.918			-2.980
183500.000			-11.918			-2.980
183602.000			-11.918			-2.979
183701.000			-11.917			-2.979
183801.000			-11.917			-2.979
183901.000			-11.917			-2.979
184000.000			-11.917			-2.979
184100.000			-11.918			-2.979
184200.000			-11.917			-2.979
184300.000			-11.917			-2.979
184401.000			-11.916			-2.979
184500.000			-11.916			-2.979
184601.000			-11.915			-2.979
184702.000			-11.916			-2.979
184801.000			-11.916			-2.979
184900.000			-11.915			-2.979
185001.000			-11.915			-2.979
185100.000			-11.915			-2.979
185200.000			-11.914			-2.979
185301.000			-11.915			-2.979
185400.000			-11.916			-2.979
185500.000			-11.915			-2.979
185602.000			-11.915			-2.979
185701.000			-11.915			-2.979
185800.000			-11.915			-2.979
185901.000			-11.914			-2.979
186000.000			-11.915			-2.979
186100.000			-11.915			-2.979
186201.000			-11.915			-2.979
186300.000			-11.916			-2.979
186400.000			-11.913			-2.978
186502.000			-11.913			-2.978
186601.000			-11.914			-2.979
186701.000			-11.915			-2.979
186801.000			-11.914			-2.978
186900.000			-11.914			-2.978
187000.000			-11.914			-2.978
187101.000			-11.913			-2.978
187200.000			-11.913			-2.978
187300.000			-11.913			-2.978
187400.000			-11.913			-2.978
187501.000			-11.912			-2.978
187602.000			-11.913			-2.978
187701.000			-11.912			-2.978
187800.000			-11.912			-2.978
187901.000			-11.912			-2.978
188000.000			-11.913			-2.978
188100.000			-11.912			-2.978
188201.000			-11.912			-2.978
188300.000			-11.912			-2.978
188400.000			-11.911			-2.978
188502.000			-11.911			-2.978
188601.000			-11.913			-2.978
188700.000			-11.912			-2.978
188801.000			-11.911			-2.978
188900.000			-11.911			-2.978
189000.000			-11.911			-2.978
189101.000			-11.912			-2.978
189200.000			-11.911			-2.978
189300.000			-11.910			-2.978
189402.000			-11.910			-2.977
189501.000			-11.911			-2.978
189600.000			-11.910			-2.978
189701.000			17.204			4.301
189877.000			-11.909			-2.977
189965.000			-11.909			-2.977
190053.000			-11.909			-2.977
190140.000			-11.910			-2.977
190228.000			-11.908			-2.977
190316.000			-11.909			-2.977
190404.000			-11.909			-2.977
190502.000			-11.910			-2.977
190601.000			-11.910			-2.977
190700.000			-11.909			-2.977
190801.000			-11.909			-2.977
190900.000			-11.909			-2.977
191000.000			-11.910			-2.977
191101.000			-11.909			-2.977
191200.000			-11.910			-2.977
191300.000			-11.910			-2.978
191402.000			-11.909			-2.977
191501.000			-11.909			-2.977
191601.000			-11.908			-2.977
191701.000			-11.909			-2.977
191800.000			-11.909			-2.977
191900.000			-11.908			-2.977
192001.000			-11.907			-2.977
192100.000			-11.907			-2.977
192200.000			-11.907			-2.977
192301.000			-11.907			-2.977
192401.000			-11.907			-2.977
192501.000			-11.907			-2.977
192601.000			-11.908			-2.977
192700.000			-11.908			-2.977
192800.000			-11.908			-2.977
192901.000			-11.907			-2.977
193000.000			-11.907			-2.977
193100.000			-11.906			-2.977
193201.000			-11.906			-2.977
193301.000			-11.906			-2.977
193401.000			-11.906			-2.977
193502.000			-11.906			-2.977
193600.000			-11.905			-2.976
193700.000			-11.907			-2.977
193800.000			-11.907			-2.977
193900.000			-11.906			-2.977
194001.000			-11.906			-2.976
194100.000			-11.906			-2.976
194200.000			-11.905			-2.976
194302.000			-11.906			-2.976
194401.000			-11.905			-2.976
194500.000			-11.904			-2.976
194601.000			-11.905			-2.976
194700.000			-11.904			-2.976
194800.000			-11.906			-2.976
194901.000			-11.905			-2.976
195000.000			-11.905			-2.976
195100.000			-11.904			-2.976
195202.000			-11.904			-2.976
195301.000			-11.904			-2.976
195401.000			-11.904			-2.976
195501.000			-11.904			-2.976
195600.000			-11.903			-2.976
195700.000			-11.903			-2.976
195801.000			-11.903			-2.976
195900.000			-11.904			-2.976
196000.000			-11.904			-2.976
196102.000			-11.903			-2.976
196201.000			-11.903			-2.976
196301.000			-11.904			-2.976
196401.000			-11.904			-2.976
196500.000			-11.903			-2.976
196600.000			-11.903			-2.976
196701.000			-11.903			-2.976
196800.000			-11.902			-2.976
196900.000			-11.902			-2.975
197000.000			-11.902			-2.976
197101.000			-11.902			-2.976
197202.000			-11.901			-2.975
197300.000			-11.901			-2.975
197400.000			-11.902			-2.976
197501.000			-11.902			-2.976
197600.000			-11.901			-2.975
197700.000			-11.901			-2.975
197801.000			-11.901			-2.975
197900.000			-11.902			-2.975
198001.000			-11.901			-2.975
198102.000			-11.901			-2.975
198201.000			-11.902			-2.976
198300.000			-11.903			-2.976
198401.000			-11.901			-2.975
198500.000			-11.901			-2.975
198600.000			-11.901			-2.975
198701.000			-11.901			-2.975
198800.000			-11.900			-2.975
198900.000			-11.901			-2.975
199002.000			-11.901			-2.975
199101.000			-11.900			-2.975
199200.000			-11.900			-2.975
199301.000			-11.901			-2.975
199400.000			-11.900			-2.975
199500.000			-11.899			-2.975
199601.000			-11.899			-2.975
199700.000			-11.899			-2.975
199800.000			-11.899			-2.975
199901.000			-11.899			-2.975
200001.000			-11.900			-2.975
200102.000			-11.900			-2.975
200200.000			-11.899			-2.975
200300.000			-11.899			-2.975
200401.000			-11.899			-2.975
200500.000			-11.900			-2.975
200600.000			-11.900			-2.975
200701.000			-11.899			-2.975
200800.000			-11.898			-2.974
200901.000			-11.897			-2.974
201002.000			-11.898			-2.974
201100.000			-11.898			-2.975
201200.000			-11.898			-2.974
201301.000			-11.900			-2.975
201400.000			-11.899			-2.975
201500.000			-11.898			-2.975
201601.000			-11.898			-2.974
201700.000			-11.898			-2.974
201801.000			-11.898			-2.975
201902.000			-11.897			-2.974
202001.000			-11.897			-2.974
202100.000			-11.898			-2.975
202201.000			-11.898			-2.975
202300.000			-11.898			-2.974
202400.000			-11.898			-2.974
202501.000			-11.898			-2.974
202600.000			-11.897			-2.974
202700.000			-11.897			-2.974
202802.000			-11.896			-2.974
202901.000			-11.897			-2.974
203000.000			-11.898			-2.974
203101.000			-11.897			-2.974
203200.000			-11.896			-2.974
203300.000			-11.895			-2.974
203400.000			-11.895			-2.974
203500.000			-11.896			-2.974
203601.000			-11.896			-2.974
203701.000			-11.896			-2.974
203801.000			-11.896			-2.974
203902.000			-11.896			-2.974
204000.000			-11.895			-2.974
204100.000			-11.895			-2.974
204201.000			-11.896			-2.974
204300.000			-11.897			-2.974
204400.000			-11.896			-2.974
204501.000			-11.895			-2.974
204601.000			-11.895			-2.974
204701.000			-11.895			-2.974
204802.000			-11.894			-2.974
204900.000			-11.894			-2.973
205000.000			-11.894			-2.973
205101.000			-11.893			-2.973
205200.000			-11.894			-2.973
205300.000			-11.894			-2.973
205401.000			-11.893			-2.973
205500.000			-11.894			-2.973
205601.000			-11.894			-2.973
205702.000			-11.894			-2.974
205801.000			-11.894			-2.974
205900.000			-11.894			-2.973
206001.000			-11.893			-2.973
206100.000			-11.893			-2.973
206200.000			-11.894			-2.974
206301.000			-11.893			-2.973
206400.000			-11.893			-2.973
206500.000			-11.893			-2.973
206602.000			-11.893			-2.973
206701.000			-11.894			-2.973
206801.000			-11.893			-2.973
206900.000			-11.892			-2.973
207000.000			-11.892			-2.973
207101.000			-11.893			-2.973
207200.000			-11.894			-2.973
207300.000			-11.892			-2.973
207401.000			-11.892			-2.973
207501.000			-11.893			-2.973
207601.000			-11.892			-2.973
207701.000			-11.892			-2.973
207800.000			-11.892			-2.973
207900.000			-11.892			-2.973
208001.000			-11.891			-2.973
208100.000			-11.892			-2.973
208200.000			-11.892			-2.973
208301.000			-11.891			-2.973
208401.000			-11.892			-2.973
208501.000			-11.892			-2.973
208602.000			-11.891			-2.973
208700.000			-11.891			-2.973
208800.000			-11.891			-2.973
208901.000			-11.891			-2.973
209000.000			-11.892			-2.973
209100.000			-11.892			-2.973
209201.000			-11.891			-2.973
209300.000			-11.891			-2.973
209401.000			-11.892			-2.973
209502.000			-11.892			-2.973
209600.000			-11.891			-2.973
209700.000			-11.890			-2.973
209800.000			-11.890			-2.973
209900.000			-11.890			-2.972
210001.000			-11.889			-2.972
210100.000			-11.889			-2.972
210200.000			-11.889			-2.972
210302.000			-11.889			-2.972
210401.000			-11.889			-2.972
210501.000			-11.890			-2.972
210601.000			-11.890			-2.972
210700.000			-11.889			-2.972
210800.000			-11.890			-2.972
210901.000			-11.889			-2.972
211000.000			-11.889			-2.972
211100.000			-11.890			-2.972
211201.000			-11.890			-2.972
211301.000			-11.890			-2.973
211401.000			-11.889			-2.972
211501.000			-11.888			-2.972
211600.000			-11.888			-2.972
211700.000			-11.888			-2.972
211801.000			-11.888			-2.972
211900.000			-11.888			-2.972
212000.000			-11.889			-2.972
212101.000			-11.888			-2.972
212201.000			-11.889			-2.972
212301.000			-11.888			-2.972
212402.000			-11.888			-2.972
212500.000			-11.888			-2.972
212600.000			-11.887			-2.972
212701.000			-11.887			-2.972
212800.000			-11.888			-2.972
212900.000			-11.887			-2.972
213000.000			-11.887			-2.972
213100.000			-11.888			-2.972
213202.000			-11.888			-2.972
213301.000			-11.887			-2.972
213401.000			-11.887			-2.972
213501.000			-11.887			-2.972
213600.000			-11.886			-2.972
213700.000			-11.887			-2.972
213801.000			-11.887			-2.972
213900.000			-11.886			-2.971
214000.000			-11.886			-2.971
214101.000			-11.886			-2.972
214201.000			-11.887			-2.972
214301.000			-11.886			-2.971
214401.000			-11.885			-2.971
214500.000			-11.886			-2.971
214600.000			-11.886			-2.971
214701.000			-11.885			-2.971
214800.000			-11.885			-2.971
214900.000			-11.884			-2.971
215001.000			-11.884			-2.971
215101.000			-11.885			-2.971
215201.000			-11.885			-2.971
215302.000			-11.885			-2.971
215400.000			-11.884			-2.971
215500.000			-11.884			-2.971
215601.000			-11.884			-2.971
215700.000			-11.884			-2.971
215800.000			-11.885			-2.971
215901.000			-11.884			-2.971
216000.000			-11.884			-2.971
216102.000			-11.884			-2.971
216201.000			-11.884			-2.971
216301.000			-11.884			-2.971
216401.000			-11.884			-2.971
216500.000			-11.883			-2.971
216600.000			-11.884			-2.971
216701.000			-11.883			-2.971
216800.000			-11.883			-2.971
216900.000			-11.884			-2.971
217001.000			-11.883			-2.971
217101.000			-11.882			-2.971
217201.000			-11.882			-2.970
217301.000			-11.882			-2.970
217400.000			-11.882			-2.971
217500.000			-11.883			-2.971
217601.000			-11.883			-2.971
217700.000			-11.883			-2.971
217800.000			-11.882			-2.971
217901.000			-11.881			-2.970
218001.000			-11.882			-2.971
218101.000			-11.882			-2.970
218201.000			-11.882			-2.971
218300.000			-11.883			-2.971
218400.000			-11.883			-2.971
218501.000			-11.881			-2.970
218600.000			-11.880			-2.970
218700.000			-11.882			-2.970
218801.000			-11.881			-2.970
218901.000			-11.881			-2.970
219001.000			-11.881			-2.970
219102.000			-11.880			-2.970
219200.000			-11.880			-2.970
219300.000			-11.881			-2.970
219400.000			-11.880			-2.970
219500.000			-11.880			-2.970
219601.000			-11.880			-2.970
219700.000			-11.881			-2.970
219800.000			-11.880			-2.970
219902.000			-11.880			-2.970
220001.000			-11.880			-2.970
220100.000			-11.880			-2.970
220201.000			-11.880			-2.970
220300.000			-11.879			-2.970
220400.000			-11.879			-2.970
220501.000			-11.879			-2.970
220600.000			-11.880			-2.970
220700.000			-11.879			-2.970
220802.000			-11.878			-2.970
220901.000			-11.881			-2.970
221001.000			-11.880			-2.970
221101.000			-11.880			-2.970
221200.000			-11.880			-2.970
221300.000			-11.879			-2.970
221401.000			-11.878			-2.970
221500.000			-11.879			-2.970
221600.000			-11.879			-2.970
221701.000			-11.878			-2.970
221801.000			-11.879			-2.970
221901.000			-11.879			-2.970
222001.000			-11.879			-2.970
222100.000			-11.879			-2.970
222200.000			-11.879			-2.970
222301.000			-11.879			-2.970
222400.000			-11.878			-2.970
222500.000			-11.878			-2.970
222600.000			-11.878			-2.970
222701.000			-11.878			-2.970
222802.000			-11.879			-2.970
222901.000			-11.878			-2.969
223000.000			-11.876			-2.969
223101.000			-11.878			-2.969
223200.000			-11.877			-2.969
223300.000			-11.878			-2.969
223401.000			-11.878			-2.969
223500.000			-11.877			-2.969
223600.000			-11.878			-2.969
223702.000			-11.877			-2.969
223801.000			-11.877			-2.969
223900.000			-11.877			-2.969
224001.000			-11.876			-2.969
224100.000			-11.878			-2.969
224200.000			-11.878			-2.969
224301.000			-11.877			-2.969
224400.000			-11.877			-2.969
224500.000			-11.877			-2.969
224602.000			-11.878			-2.969
224701.000			-11.877			-2.969
224801.000			-11.877			-2.969
224901.000			-11.878			-2.969
225000.000			-11.877			-2.969
225100.000			-11.875			-2.969
225201.000			-11.876			-2.969
225300.000			-11.876			-2.969
225400.000			-11.876			-2.969
225501.000			-11.876			-2.969
225601.000			-11.877			-2.969
225702.000			-11.877			-2.969
225801.000			-11.875			-2.969
225900.000			-11.875			-2.969
226001.000			-11.876			-2.969
226100.000			-11.875			-2.969
226200.000			-11.874			-2.969
226301.000			-11.874			-2.968
226400.000			-11.875			-2.969
226500.000			-11.875			-2.969
226602.000			-11.874			-2.969
226701.000			-11.874			-2.968
226800.000			-11.874			-2.968
226901.000			-11.875			-2.969
227000.000			-11.875			-2.969
227100.000			-11.875			-2.969
227201.000			-11.874			-2.968
227300.000			-11.874			-2.969
227400.000			-11.875			-2.969
227502.000			-11.875			-2.969
227601.000			-11.874			-2.969
227701.000			-11.873			-2.968
227801.000			-11.873			-2.968
227900.000			-11.874			-2.968
228000.000			-11.874			-2.968
228101.000			-11.873			-2.968
228200.000			-11.874			-2.969
228300.000			-11.873			-2.968
228401.000			-11.874			-2.968
228501.000			-11.874			-2.969
228601.000			-11.873			-2.968
228701.000			-11.874			-2.968
228800.000			-11.874			-2.968
228900.000			-11.873			-2.968
229000.000			-11.874			-2.968
229100.000			-11.873			-2.968
229201.000			-11.873			-2.968
229300.000			-11.873			-2.968
229400.000			-11.873			-2.968
229502.000			-11.874			-2.968
229601.000			-11.872			-2.968
229700.000			-11.872			-2.968
229801.000			-11.873			-2.968
229900.000			-11.872			-2.968
230000.000			-11.871			-2.968
230101.000			-11.872			-2.968
230200.000			-11.872			-2.968
230300.000			-11.873			-2.968
230402.000			-11.872			-2.968
230501.000			-11.871			-2.968
230600.000			-11.871			-2.968
230701.000			-11.872			-2.968
230800.000			-11.872			-2.968
230900.000			-11.872			-2.968
231001.000			-11.871			-2.968
231100.000			-11.871			-2.968
231200.000			-11.870			-2.967
231302.000			-11.870			-2.968
231401.000			-11.871			-2.968
231501.000			-11.871			-2.968
231601.000			-11.870			-2.967
231700.000			-11.869			-2.967
231800.000			-11.870			-2.968
231901.000			-11.871			-2.968
232000.000			-11.870			-2.968
232100.000			-11.870			-2.968
232200.000			-11.870			-2.968
232301.000			-11.870			-2.968
232402.000			-11.869			-2.967
232500.000			-11.870			-2.967
232600.000			-11.871			-2.968
232701.000			-11.870			-2.967
232800.000			-11.869			-2.967
232900.000			-11.869			-2.967
233001.000			-11.869			-2.967
233100.000			-11.869			-2.967
233201.000			-11.869			-2.967
233302.000			-11.869			-2.967
233401.000			-11.869			-2.967
233500.000			-11.870			-2.967
233601.000			-11.868			-2.967
233700.000			-11.868			-2.967
233800.000			-11.868			-2.967
233901.000			-11.868			-2.967
234000.000			-11.868			-2.967
234100.000			-11.868			-2.967
234202.000			-11.868			-2.967
234301.000			-11.867			-2.967
234400.000			-11.867			-2.967
234501.000			-11.867			-2.967
234600.000			-11.867			-2.967
234700.000			-11.868			-2.967
234801.000			-11.867			-2.967
234900.000			-11.867			-2.967
235000.000			-11.867			-2.967
235102.000			-11.866			-2.967
235201.000			-11.867			-2.967
235302.000			-11.867			-2.967
235400.000			-11.867			-2.967
235500.000			-11.866			-2.967
235601.000			-11.867			-2.967
235700.000			-11.867			-2.967
235800.000			-11.866			-2.967
235901.000			-11.866			-2.967
236000.000			-11.867			-2.967
236101.000			-11.866			-2.966
236202.000			-11.865			-2.966
236301.000			-11.866			-2.966
236400.000			-11.866			-2.967
236501.000			-11.866			-2.966
236600.000			-11.866			-2.966
236700.000			-11.866			-2.966
236801.000			-11.866			-2.966
236900.000			-11.865			-2.966
237000.000			-11.866			-2.966
237102.000			-11.865			-2.966
237201.000			-11.864			-2.966
237301.000			-11.865			-2.966
237401.000			-11.866			-2.966
237500.000			-11.865			-2.966
237600.000			-11.864			-2.966
237701.000			-11.865			-2.966
237800.000			-11.865			-2.966
237900.000			-11.864			-2.966
238001.000			-11.863			-2.966
238101.000			-11.864			-2.966
238201.000			-11.865			-2.966
238301.000			-11.863			-2.966
238400.000			-11.863			-2.966
238500.000			-11.863			-2.966
238600.000			-11.863			-2.966
238700.000			-11.863			-2.966
238801.000			-11.863			-2.966
238900.000			-11.863			-2.966
239000.000			-11.863			-2.966
239102.000			-11.862			-2.966
239201.000			-11.862			-2.965
239300.000			-11.862			-2.966
239401.000			-11.863			-2.966
239500.000			-11.864			-2.966
239600.000			-11.863			-2.966
239701.000			-11.863			-2.966
239800.000			-11.863			-2.966
239900.000			-11.862			-2.965
240002.000			-11.861			-2.965
240101.000			-11.861			-2.965
240201.000			-11.862			-2.965
240301.000			-11.862			-2.965
240400.000			-11.862			-2.965
240500.000			-11.861			-2.965
240601.000			-11.862			-2.966
240700.000			-11.862			-2.966
240800.000			-11.862			-2.965
240901.000			-11.862			-2.965
241001.000			-11.861			-2.965
241101.000			-11.863			-2.966
241201.000			-11.862			-2.966
241300.000			-11.861			-2.965
241400.000			-11.861			-2.965
241501.000			-11.861			-2.965
241600.000			-11.861			-2.965
241700.000			-11.861			-2.965
241800.000			-11.861			-2.965
241901.000			-11.860			-2.965
242002.000			-11.861			-2.965
242100.000			-11.860			-2.965
242200.000			-11.861			-2.965
242301.000			-11.860			-2.965
242400.000			-11.860			-2.965
242500.000			-11.861			-2.965
242601.000			-11.860			-2.965
242700.000			-11.859			-2.965
242801.000			-11.860			-2.965
242902.000			-11.860			-2.965
243001.000			-11.860			-2.965
243100.000			-11.861			-2.965
243201.000			-11.860			-2.965
243300.000			-11.861			-2.965
243400.000			-11.859			-2.965
243501.000			-11.860			-2.965
243600.000			-11.860			-2.965
243700.000			-11.860			-2.965
243802.000			-11.859			-2.965
243901.000			-11.859			-2.965
244000.000			-11.859			-2.965
244101.000			-11.858			-2.965
244200.000			-11.858			-2.965
244300.000			-11.859			-2.965
244401.000			-11.858			-2.965
244500.000			-11.858			-2.965
244600.000			-11.859			-2.965
244701.000			-11.859			-2.965
244801.000			-11.859			-2.965
244902.000			-11.858			-2.965
245000.000			-11.858			-2.965
245100.000			-11.858			-2.965
245201.000			-11.859			-2.965
245300.000			-11.858			-2.965
245400.000			-11.858			-2.965
245501.000			-11.858			-2.964
245600.000			-11.857			-2.964
245701.000			-11.857			-2.964
245802.000			-11.857			-2.964
245901.000			-11.857			-2.964
246000.000			-11.858			-2.964
246101.000			-11.858			-2.965
246200.000			-11.857			-2.964
246300.000			-11.858			-2.964
246401.000			-11.856			-2.964
246500.000			-11.857			-2.964
246600.000			-11.857			-2.964
246702.000			-11.857			-2.964
246801.000			-11.857			-2.964
246900.000			-11.857			-2.964
247001.000			-11.857			-2.964
247100.000			-11.856			-2.964
247200.000			-11.857			-2.964
247301.000			-11.857			-2.964
247400.000			-11.857			-2.964
247500.000			-11.856			-2.964
247602.000			-11.856			-2.964
247701.000			-11.856			-2.964
247801.000			-11.856			-2.964
247901.000			-11.856			-2.964
248000.000			-11.856			-2.964
248100.000			-11.856			-2.964
248200.000			-11.856			-2.964
248300.000			-11.855			-2.964
248401.000			-11.856			-2.964
248500.000			-11.856			-2.964
248601.000			-11.855			-2.964
248702.000			-11.856			-2.964
248801.000			-11.856			-2.964
248900.000			-11.856			-2.964
249001.000			-11.856			-2.964
249100.000			-11.855			-2.964
249200.000			-11.856			-2.964
249301.000			-11.855			-2.964
249400.000			-11.855			-2.964
249500.000			-11.854			-2.963
249602.000			-11.854			-2.964
249701.000			-11.855			-2.964
249801.000			-11.854			-2.963
249901.000			-11.853			-2.963
250000.000			-11.853			-2.963
250100.000			-11.853			-2.963
250201.000			-11.854			-2.964
250300.000			-11.855			-2.964
250400.000			-11.854			-2.963
250502.000			-11.854			-2.963
250601.000			-11.854			-2.964
250701.000			-11.854			-2.964
250801.000			-11.854			-2.963
250900.000			-11.854			-2.963
251000.000			-11.853			-2.963
251101.000			-11.852			-2.963
251200.000			-11.852			-2.963
251300.000			-11.853			-2.963
251400.000			-11.853			-2.963
251501.000			-11.853			-2.963
251602.000			-11.852			-2.963
251700.000			-11.852			-2.963
251800.000			-11.853			-2.963
251901.000			-11.853			-2.963
252000.000			-11.852			-2.963
252100.000			-11.852			-2.963
252201.000			-11.851			-2.963
252300.000			-11.851			-2.963
252401.000			-11.852			-2.963
252502.000			-11.852			-2.963
252600.000			-11.851			-2.963
252700.000			-11.851			-2.963
252801.000			-11.850			-2.963
252900.000			-11.851			-2.963
253000.000			-11.851			-2.963
253101.000			-11.851			-2.963
253200.000			-11.851			-2.963
253301.000			-11.851			-2.963
253402.000			-11.851			-2.963
253500.000			-11.852			-2.963
253600.000			-11.851			-2.963
253701.000			-11.851			-2.963
253800.000			-11.851			-2.963
253900.000			-11.850			-2.962
254001.000			-11.850			-2.963
254100.000			-11.851			-2.963
254201.000			-11.850			-2.963
254302.000			-11.851			-2.963
254401.000			-11.851			-2.963
254500.000			-11.850			-2.962
254600.000			-11.848			-2.962
254700.000			-11.848			-2.962
254801.000			-11.848			-2.962
254900.000			-11.849			-2.962
255000.000			-11.849			-2.962
255101.000			-11.849			-2.962
255201.000			-11.850			-2.962
255301.000			-11.850			-2.962
255401.000			-11.849			-2.962
255500.000			-11.849			-2.962
255600.000			-11.849			-2.962
255701.000			-11.849			-2.962
255800.000			-11.849			-2.962
255900.000			-11.848			-2.962
256001.000			-11.849			-2.962
256101.000			-11.850			-2.962
256201.000			-11.848			-2.962
256302.000			-11.849			-2.962
256400.000			-11.848			-2.962
256500.000			-11.848			-2.962
256601.000			-11.847			-2.962
256700.000			-11.847			-2.962
256800.000			-11.847			-2.962
256901.000			-11.848			-2.962
257000.000			-11.849			-2.962
257101.000			-11.848			-2.962
257202.000			-11.847			-2.962
257300.000			-11.848			-2.962
257400.000			-11.848			-2.962
257501.000			-11.847			-2.962
257600.000			-11.845			-2.961
257700.000			-11.845			-2.961
257800.000			-11.845			-2.961
257900.000			-11.847			-2.962
258001.000			-11.847			-2.962
258101.000			-11.846			-2.962
258201.000			-11.847			-2.962
258301.000			-11.846			-2.962
258400.000			-11.846			-2.961
258500.000			-11.846			-2.961
258601.000			-11.846			-2.961
258700.000			-11.846			-2.961
258800.000			-11.846			-2.962
258901.000			-11.846			-2.962
259001.000			-11.846			-2.962
259101.000			-11.846			-2.961
259201.000			-11.847			-2.962
259300.000			-11.847			-2.962
259400.000			-11.847			-2.962
259501.000			-11.845			-2.961
259600.000			-11.845			-2.961
259700.000			-11.845			-2.961
259801.000			-11.845			-2.961
259900.000			-11.846			-2.962
260001.000			-11.846			-2.961
260102.000			-11.845			-2.961
260200.000			-11.844			-2.961
260300.000			-11.844			-2.961
260401.000			-11.844			-2.961
260500.000			-11.844			-2.961
260600.000			-11.844			-2.961
260701.000			-11.844			-2.961
260800.000			-11.844			-2.961
260902.000			-11.844			-2.961
261001.000			-11.845			-2.961
261101.000			-11.844			-2.961
261201.000			-11.843			-2.961
261300.000			-11.844			-2.961
261400.000			-11.845			-2.961
261501.000			-11.843			-2.961
261600.000			-11.844			-2.961
261700.000			-11.844			-2.961
261802.000			-11.843			-2.961
261901.000			-11.843			-2.961
262001.000			-11.843			-2.961
262101.000			-11.843			-2.961
262200.000			-11.843			-2.961
262300.000			-11.842			-2.961
262401.000			-11.842			-2.961
262500.000			-11.844			-2.961
262600.000			-11.843			-2.961
262701.000			-11.843			-2.961
262801.000			-11.842			-2.960
262901.000			-11.842			-2.961
263001.000			-11.842			-2.961
263100.000			-11.843			-2.961
263200.000			-11.843			-2.961
263301.000			-11.843			-2.961
263400.000			-11.842			-2.961
263500.000			-11.841			-2.960
263601.000			-11.842			-2.960
263701.000			-11.841			-2.960
263801.000			-11.841			-2.960
263901.000			-11.842			-2.960
264000.000			-11.841			-2.960
264100.000			-11.842			-2.960
264200.000			-11.842			-2.961
264300.000			-11.842			-2.961
264401.000			-11.842			-2.960
264500.000			-11.841			-2.960
264601.000			-11.841			-2.960
264702.000			-11.841			-2.960
264801.000			-11.841			-2.960
264900.000			-11.841			-2.960
265001.000			-11.841			-2.960
265100.000			-11.841			-2.960
265200.000			-11.841			-2.960
265301.000			-11.841			-2.960
265400.000			-11.840			-2.960
265501.000			-11.841			-2.960
265602.000			-11.840			-2.960
265701.000			-11.841			-2.960
265800.000			-11.842			-2.961
265901.000			-11.841			-2.960
266000.000			-11.840			-2.960
266100.000			-11.841			-2.960
266201.000			-11.842			-2.961
266300.000			-11.842			-2.960
266400.000			-11.841			-2.960
266502.000			-11.841			-2.960
266601.000			-11.841			-2.960
266700.000			-11.842			-2.960
266801.000			-11.841			-2.960
266900.000			-11.842			-2.960
267000.000			-11.842			-2.960
267101.000			-11.840			-2.960
267200.000			-11.839			-2.960
267300.000			-11.840			-2.960
267402.000			-11.839			-2.960
267501.000			-11.840			-2.960
267602.000			-11.840			-2.960
267700.000			-11.840			-2.960
267800.000			-11.840			-2.960
267901.000			-11.840			-2.960
268000.000			-11.839			-2.960
268100.000			-11.840			-2.960
268201.000			-11.839			-2.960
268300.000			-11.840			-2.960
268401.000			-11.840			-2.960
268502.000			-11.840			-2.960
268601.000			-11.839			-2.960
268700.000			-11.839			-2.960
268801.000			-11.838			-2.959
268900.000			-11.838			-2.960
269000.000			-11.839			-2.960
269101.000			-11.838			-2.960
269200.000			-11.838			-2.960
269300.000			-11.838			-2.960
269402.000			-11.838			-2.959
269501.000			-11.838			-2.959
269601.000			-11.838			-2.959
269701.000			-11.837			-2.959
269800.000			-11.838			-2.959
269900.000			-11.839			-2.960
270001.000			-11.838			-2.959
270100.000			-11.838			-2.959
270200.000			-11.840			-2.960
270301.000			-11.839			-2.960
270401.000			-11.838			-2.959
270502.000			-11.838			-2.959
270601.000			-11.838			-2.959
270700.000			-11.838			-2.959
270801.000			-11.837			-2.959
270900.000			-11.837			-2.959
271000.000			-11.838			-2.960
271101.000			-11.838			-2.959
271200.000			-11.837			-2.959
271301.000			-11.836			-2.959
271402.000			-11.836			-2.959
271501.000			-11.837			-2.959
271600.000			-11.837			-2.959
271701.000			-11.836			-2.959
271800.000			-11.836			-2.959
271900.000			-11.837			-2.959
272001.000			-11.836			-2.959
272100.000			-11.837			-2.959
272200.000			-11.837			-2.959
272302.000			-11.836			-2.959
272401.000			-11.836			-2.959
272500.000			-11.836			-2.959
272601.000			-11.834			-2.959
272700.000			-11.835			-2.959
272800.000			-11.836			-2.959
272901.000			-11.836			-2.959
273000.000			-11.837			-2.959
273100.000			-11.835			-2.959
273202.000			-11.835			-2.959
273301.000			-11.834			-2.958
273401.000			-11.836			-2.959
273501.000			-11.835			-2.959
273600.000			-11.835			-2.959
273700.000			-11.836			-2.959
273800.000			-11.835			-2.959
273900.000			-11.835			-2.959
274001.000			-11.834			-2.959
274100.000			-11.835			-2.959
274201.000			-11.836			-2.959
274302.000			-11.834			-2.958
274400.000			-11.834			-2.958
274500.000			-11.835			-2.959
274601.000			-11.835			-2.959
274700.000			-11.834			-2.959
274800.000			-11.835			-2.959
274901.000			-11.835			-2.959
275000.000			-11.834			-2.958
275101.000			-11.834			-2.958
275202.000			-11.834			-2.959
275301.000			-11.834			-2.959
275400.000			-11.834			-2.958
275501.000			-11.834			-2.959
275600.000			-11.834			-2.958
275700.000			-11.833			-2.958
275801.000			-11.834			-2.958
275900.000			-11.833			-2.958
276000.000			-11.833			-2.958
276102.000			-11.833			-2.958
276201.000			-11.834			-2.958
276300.000			-11.834			-2.958
276401.000			-11.833			-2.958
276500.000			-11.834			-2.958
276600.000			-11.833			-2.958
276701.000			-11.832			-2.958
276800.000			-11.833			-2.958
276900.000			-11.833			-2.958
277002.000			-11.833			-2.958
277101.000			-11.834			-2.958
277202.000			-11.833			-2.958
277300.000			-11.832			-2.958
277400.000			-11.833			-2.958
277501.000			-11.831			-2.958
277600.000			-11.832			-2.958
277700.000			-11.832			-2.958
277801.000			-11.832			-2.958
277901.000			-11.832			-2.958
278001.000			-11.832			-2.958
278102.000			-11.833			-2.958
278200.000			-11.830			-2.958
278300.000			-11.830			-2.958
278401.000			-11.832			-2.958
278500.000			-11.831			-2.958
278600.000			-11.831			-2.958
278701.000			-11.832			-2.958
278800.000			-11.832			-2.958
278901.000			-11.831			-2.958
279002.000			-11.831			-2.958
279100.000			-11.830			-2.958
279200.000			-11.831			-2.958
279301.000			-11.831			-2.958
279400.000			-11.831			-2.958
279500.000			-11.831			-2.958
279601.000			-11.831			-2.958
279700.000			-11.829			-2.957
279801.000			-11.830			-2.957
279902.000			-11.830			-2.958
280001.000			-11.830			-2.958
280100.000			-11.830			-2.958
280200.000			-11.830			-2.958
280300.000			-11.830			-2.957
280401.000			-11.829			-2.957
280500.000			-11.829			-2.957
280600.000			-11.829			-2.957
280701.000			-11.829			-2.957
280801.000			-11.829			-2.957
280901.000			-11.829			-2.957
281001.000			-11.830			-2.957
281100.000			-11.831			-2.958
281200.000			-11.831			-2.958
281301.000			-11.830			-2.957
281400.000			-11.830			-2.957
281500.000			-11.830			-2.958
281601.000			-11.829			-2.957
281701.000			-11.830			-2.957
281801.000			-11.829			-2.957
281902.000			-11.829			-2.957
282000.000			-11.829			-2.957
282100.000			-11.829			-2.957
282201.000			-11.829			-2.957
282300.000			-11.829			-2.957
282400.000			-11.828			-2.957
282501.000			-11.829			-2.957
282600.000			-11.828			-2.957
282701.000			-11.828			-2.957
282802.000			-11.828			-2.957
282900.000			-11.828			-2.957
283000.000			-11.827			-2.957
283101.000			-11.827			-2.957
283200.000			-11.828			-2.957
283300.000			-11.829			-2.957
283400.000			-11.828			-2.957
283500.000			-11.827			-2.957
283602.000			-11.827			-2.957
283701.000			-11.827			-2.957
283801.000			-11.827			-2.957
283901.000			-11.827			-2.957
284000.000			-11.827			-2.957
284100.000			-11.826			-2.957
284201.000			-11.827			-2.957
284300.000			-11.828			-2.957
284400.000			-11.828			-2.957
284502.000			-11.828			-2.957
284601.000			-11.827			-2.957
284701.000			-11.827			-2.957
284801.000			-11.825			-2.956
284900.000			-11.826			-2.956
285000.000			-11.826			-2.957
285101.000			-11.826			-2.957
285200.000			-11.827			-2.957
285300.000			-11.827			-2.957
285401.000			-11.828			-2.957
285501.000			-11.826			-2.956
285601.000			-11.826			-2.957
285701.000			-11.827			-2.957
285800.000			-11.826			-2.956
285900.000			-11.825			-2.956
286001.000			-11.825			-2.956
286100.000			-11.826			-2.956
286200.000			-11.826			-2.956
286301.000			-11.825			-2.956
286400.000			-11.824			-2.956
286502.000			-11.825			-2.956
286601.000			-11.825			-2.956
286700.000			-11.825			-2.956
286801.000			-11.825			-2.956
286900.000			-11.825			-2.956
287000.000			-11.825			-2.956
287101.000			-11.825			-2.956
287200.000			-11.824			-2.956
287300.000			-11.824			-2.956
287402.000			-11.825			-2.956
287501.000			-11.824			-2.956
287601.000			-11.825			-2.956
287701.000			-11.825			-2.956
287800.000			-11.825			-2.956
287900.000			-11.825			-2.956
288001.000			-11.826			-2.956
288100.000			-11.825			-2.956
288200.000			-11.825			-2.956
288301.000			-11.824			-2.956
288401.000			-11.826			-2.956
288501.000			-11.825			-2.956
288601.000			-11.824			-2.956
288700.000			-11.824			-2.956
288800.000			-11.824			-2.956
288901.000			-11.824			-2.956
289000.000			-11.823			-2.956
289100.000			-11.823			-2.956
289201.000			-11.824			-2.956
289301.000			-11.824			-2.956
289401.000			-11.823			-2.956
289502.000			-11.823			-2.956
289600.000			-11.824			-2.956
289700.000			-11.825			-2.956
289800.000			-11.824			-2.956
289900.000			-11.823			-2.956
290001.000			-11.823			-2.956
290100.000			-11.822			-2.955
290200.000			-11.822			-2.956
290302.000			-11.823			-2.956
290401.000			-11.823			-2.956
290500.000			-11.822			-2.956
290601.000			-11.822			-2.956
290700.000			-11.823			-2.956
290800.000			-11.823			-2.956
290901.000			-11.823			-2.956
291000.000			-11.823			-2.956
291100.000			-11.822			-2.956
291202.000			-11.822			-2.956
291301.000			-11.822			-2.956
291400.000			-11.822			-2.955
291501.000			-11.821			-2.955
291600.000			-11.821			-2.955
291700.000			-11.821			-2.955
291801.000			-11.821			-2.955
291900.000			-11.820			-2.955
292000.000			-11.821			-2.955
292102.000			-11.821			-2.955
292201.000			-11.821			-2.955
292301.000			-11.822			-2.956
292401.000			-11.822			-2.956
292500.000			-11.821			-2.955
292600.000			-11.821			-2.955
292701.000			-11.822			-2.955
292800.000			-11.821			-2.955
292900.000			-11.821			-2.955
293002.000			-11.822			-2.955
293101.000			-11.821			-2.955
293202.000			-11.821			-2.955
293300.000			-11.821			-2.955
293400.000			-11.821			-2.955
293501.000			-11.821			-2.955
293600.000			-11.820			-2.955
293700.000			-11.821			-2.955
293801.000			-11.820			-2.955
293900.000			-11.819			-2.955
294001.000			-11.819			-2.955
294102.000			-11.820			-2.955
294201.000			-11.819			-2.955
294300.000			-11.819			-2.955
294401.000			-11.820			-2.955
294500.000			-11.819			-2.955
294600.000			-11.819			-2.955
294701.000			-11.820			-2.955
294800.000			-11.820			-2.955
294900.000			-11.820			-2.955
295002.000			-11.820			-2.955
295101.000			-11.819			-2.955
295200.000			-11.820			-2.955
295301.000			-11.820			-2.955
295400.000			-11.819			-2.955
295500.000			-11.819			-2.955
295601.000			-11.819			-2.955
295700.000			-11.819			-2.955
295800.000			-11.819			-2.955
295901.000			-11.819			-2.955
296001.000			-11.819			-2.955
296102.000			-11.818			-2.955
296200.000			-11.818			-2.955
296300.000			-11.819			-2.955
296401.000			-11.819			-2.955
296500.000			-11.819			-2.955
296600.000			-11.818			-2.955
296701.000			-11.817			-2.954
296800.000			-11.819			-2.955
296901.000			-11.819			-2.955
297002.000			-11.819			-2.955
297101.000			-11.818			-2.955
297200.000			-11.817			-2.954
297301.000			-11.818			-2.954
297400.000			-11.817			-2.954
297500.000			-11.817			-2.954
297601.000			-11.818			-2.954
297700.000			-11.818			-2.955
297800.000			-11.817			-2.954
297902.000			-11.816			-2.954
298001.000			-11.818			-2.954
298101.000			-11.818			-2.955
298201.000			-11.818			-2.954
298300.000			-11.818			-2.954
298400.000			-11.817			-2.954
298501.000			-11.816			-2.954
298600.000			-11.816			-2.954
298700.000			-11.817			-2.954
298801.000			-11.817			-2.954
298901.000			-11.817			-2.954
299001.000			-11.817			-2.954
299101.000			-11.818			-2.954
299200.000			-11.817			-2.954
299300.000			-11.816			-2.954
299400.000			-11.815			-2.954
299500.000			-11.816			-2.954
299601.000			-11.816			-2.954
299700.000			-11.816			-2.954
299800.000			-11.816			-2.954
299902.000			-11.816			-2.954
