# Acquired on 21/12/2023 15:11:34 
# SPIDER: Creep_-9mm_07714532B-1
# CREEP MEASUREMENT

# time [ms]		force [N]		stiffness [N/mm]
1.000			40.034			-4.448
101.000			41.639			-4.627
200.000			42.143			-4.683
300.000			41.995			-4.666
400.000			41.788			-4.643
500.000			41.626			-4.625
602.000			41.492			-4.610
701.000			41.275			-4.586
800.000			41.184			-4.576
901.000			41.103			-4.567
1000.000			41.027			-4.559
1100.000			40.960			-4.551
1201.000			40.898			-4.544
1301.000			40.839			-4.538
1401.000			40.733			-4.526
1501.000			40.685			-4.521
1600.000			40.639			-4.515
1700.000			40.595			-4.511
1801.000			40.554			-4.506
1900.000			40.515			-4.502
2000.000			40.478			-4.498
2102.000			40.441			-4.493
2201.000			40.375			-4.486
2300.000			40.343			-4.483
2401.000			40.313			-4.479
2500.000			40.284			-4.476
2600.000			40.255			-4.473
2701.000			40.228			-4.470
2801.000			40.201			-4.467
2901.000			40.152			-4.461
3001.000			40.127			-4.459
3100.000			40.103			-4.456
3200.000			40.080			-4.453
3301.000			40.059			-4.451
3400.000			40.037			-4.449
3500.000			40.016			-4.446
3602.000			39.976			-4.442
3701.000			39.957			-4.440
3801.000			39.937			-4.437
3900.000			39.919			-4.435
4000.000			39.901			-4.433
4101.000			39.884			-4.432
4200.000			39.867			-4.430
4300.000			39.849			-4.428
4402.000			39.817			-4.424
4501.000			39.801			-4.422
4600.000			39.785			-4.421
4701.000			39.770			-4.419
4800.000			39.755			-4.417
4900.000			39.740			-4.416
5001.000			39.725			-4.414
5101.000			39.698			-4.411
5201.000			39.684			-4.409
5302.000			39.670			-4.408
5400.000			39.657			-4.406
5500.000			39.645			-4.405
5601.000			39.633			-4.404
5700.000			39.620			-4.402
5800.000			39.607			-4.401
5902.000			39.582			-4.398
6001.000			39.570			-4.397
6100.000			39.559			-4.395
6201.000			39.548			-4.394
6300.000			39.536			-4.393
6400.000			39.524			-4.392
6501.000			39.513			-4.390
6600.000			39.491			-4.388
6702.000			39.481			-4.387
6801.000			39.472			-4.386
6900.000			39.461			-4.385
7001.000			39.450			-4.383
7100.000			39.441			-4.382
7200.000			39.432			-4.381
7301.000			39.412			-4.379
7400.000			39.403			-4.378
7501.000			39.393			-4.377
7602.000			39.383			-4.376
7700.000			39.375			-4.375
7800.000			39.366			-4.374
7901.000			39.357			-4.373
8000.000			39.347			-4.372
8100.000			39.330			-4.370
8201.000			39.321			-4.369
8301.000			39.312			-4.368
8401.000			39.304			-4.367
8501.000			39.295			-4.366
8600.000			39.288			-4.365
8700.000			39.279			-4.364
8801.000			39.263			-4.363
8900.000			39.256			-4.362
9000.000			39.249			-4.361
9102.000			39.240			-4.360
9201.000			39.233			-4.359
9300.000			39.225			-4.358
9401.000			39.216			-4.357
9500.000			39.203			-4.356
9600.000			39.196			-4.355
9701.000			39.189			-4.354
9800.000			39.181			-4.353
9902.000			39.173			-4.353
10001.000			39.166			-4.352
10100.000			39.159			-4.351
10201.000			39.152			-4.350
10300.000			39.140			-4.349
10400.000			39.133			-4.348
10501.000			39.125			-4.347
10600.000			39.118			-4.346
10701.000			39.113			-4.346
10802.000			39.107			-4.345
10900.000			39.100			-4.344
11000.000			39.087			-4.343
11101.000			39.081			-4.342
11200.000			39.074			-4.342
11300.000			39.066			-4.341
11402.000			39.061			-4.340
11501.000			39.055			-4.339
11601.000			39.050			-4.339
11701.000			39.039			-4.338
11800.000			39.032			-4.337
11900.000			39.025			-4.336
12001.000			39.019			-4.335
12100.000			39.015			-4.335
12201.000			39.009			-4.334
12302.000			39.003			-4.334
12400.000			38.998			-4.333
12500.000			38.986			-4.332
12601.000			38.980			-4.331
12700.000			38.975			-4.331
12800.000			38.969			-4.330
12901.000			38.964			-4.329
13000.000			38.958			-4.329
13102.000			38.953			-4.328
13201.000			38.943			-4.327
13300.000			38.938			-4.326
13401.000			38.932			-4.326
13500.000			38.928			-4.325
13600.000			38.922			-4.325
13701.000			38.916			-4.324
13800.000			38.912			-4.324
13901.000			38.903			-4.323
14002.000			38.898			-4.322
14100.000			38.893			-4.321
14200.000			38.888			-4.321
14301.000			38.883			-4.320
14400.000			38.878			-4.320
14500.000			38.873			-4.319
14601.000			38.868			-4.319
14701.000			38.859			-4.318
14801.000			38.855			-4.317
14901.000			38.850			-4.317
15000.000			38.845			-4.316
15100.000			38.841			-4.316
15201.000			38.836			-4.315
15300.000			38.831			-4.315
15400.000			38.823			-4.314
15501.000			38.818			-4.313
15601.000			38.813			-4.313
15701.000			38.809			-4.312
15801.000			38.805			-4.312
15900.000			38.801			-4.311
16000.000			38.797			-4.311
16101.000			38.788			-4.310
16200.000			38.784			-4.309
16300.000			38.780			-4.309
16402.000			38.776			-4.308
16501.000			38.771			-4.308
16601.000			38.767			-4.307
16700.000			38.764			-4.307
16800.000			38.758			-4.306
16901.000			38.751			-4.306
17000.000			38.746			-4.305
17100.000			38.743			-4.305
17202.000			38.739			-4.304
17301.000			38.734			-4.304
17400.000			38.730			-4.303
17501.000			38.726			-4.303
17600.000			38.718			-4.302
17700.000			38.715			-4.302
17801.000			38.711			-4.301
17900.000			38.706			-4.301
18001.000			38.703			-4.300
18102.000			38.700			-4.300
18200.000			38.696			-4.300
18300.000			38.689			-4.299
18401.000			38.685			-4.298
18500.000			38.681			-4.298
18600.000			38.677			-4.297
18701.000			38.674			-4.297
18801.000			38.671			-4.297
18901.000			38.667			-4.296
19001.000			38.664			-4.296
19100.000			38.656			-4.295
19200.000			38.652			-4.295
19301.000			38.649			-4.294
19400.000			38.645			-4.294
19500.000			38.642			-4.294
19602.000			38.639			-4.293
19701.000			38.635			-4.293
19802.000			38.628			-4.292
19900.000			38.625			-4.292
20000.000			38.622			-4.291
20101.000			38.617			-4.291
20200.000			38.615			-4.291
20300.000			38.611			-4.290
20401.000			38.607			-4.290
20501.000			38.602			-4.289
20601.000			38.599			-4.289
20701.000			38.594			-4.288
20800.000			38.591			-4.288
20900.000			38.588			-4.288
21001.000			38.585			-4.287
21100.000			38.581			-4.287
21200.000			38.580			-4.287
21302.000			38.573			-4.286
21401.000			38.569			-4.285
21500.000			38.566			-4.285
21601.000			38.563			-4.285
21700.000			38.559			-4.284
21800.000			38.556			-4.284
21901.000			38.553			-4.284
22000.000			38.548			-4.283
22101.000			38.544			-4.283
22202.000			38.541			-4.282
22300.000			38.538			-4.282
22400.000			38.536			-4.282
22501.000			38.533			-4.281
22600.000			38.530			-4.281
22700.000			38.527			-4.281
22802.000			38.521			-4.280
22901.000			38.518			-4.280
23002.000			38.515			-4.279
23100.000			38.512			-4.279
23200.000			38.509			-4.279
23301.000			38.506			-4.278
23400.000			38.504			-4.278
23500.000			38.497			-4.277
23602.000			38.495			-4.277
23701.000			38.492			-4.277
23801.000			38.489			-4.277
23901.000			38.486			-4.276
24000.000			38.483			-4.276
24100.000			38.481			-4.276
24201.000			38.474			-4.275
24300.000			38.471			-4.275
24400.000			38.469			-4.274
24502.000			38.466			-4.274
24601.000			38.462			-4.274
24700.000			38.460			-4.273
24801.000			38.459			-4.273
24900.000			38.456			-4.273
25000.000			38.451			-4.272
25101.000			38.447			-4.272
25200.000			38.445			-4.272
25301.000			38.442			-4.271
25402.000			38.439			-4.271
25500.000			38.436			-4.271
25600.000			38.434			-4.270
25701.000			38.429			-4.270
25800.000			38.426			-4.270
25900.000			38.424			-4.269
26000.000			38.422			-4.269
26101.000			38.419			-4.269
26202.000			38.417			-4.269
26300.000			38.414			-4.268
26400.000			38.409			-4.268
26501.000			38.405			-4.267
26600.000			38.402			-4.267
26700.000			38.401			-4.267
26801.000			38.400			-4.267
26901.000			38.396			-4.266
27001.000			38.393			-4.266
27101.000			38.391			-4.266
27200.000			38.385			-4.265
27300.000			38.381			-4.265
27401.000			38.380			-4.264
27500.000			38.378			-4.264
27600.000			38.376			-4.264
27702.000			38.374			-4.264
27801.000			38.372			-4.264
27900.000			38.368			-4.263
28001.000			38.365			-4.263
28100.000			38.362			-4.262
28200.000			38.360			-4.262
28301.000			38.358			-4.262
28400.000			38.355			-4.262
28501.000			38.352			-4.261
28602.000			38.348			-4.261
28701.000			38.347			-4.261
28800.000			38.344			-4.260
28901.000			38.341			-4.260
29000.000			38.339			-4.260
29100.000			38.338			-4.260
29200.000			38.334			-4.259
29300.000			38.332			-4.259
29402.000			38.327			-4.259
29501.000			38.325			-4.258
29600.000			38.323			-4.258
29701.000			38.321			-4.258
29800.000			38.318			-4.258
29900.000			38.317			-4.257
30001.000			38.315			-4.257
30100.000			38.310			-4.257
30201.000			38.308			-4.256
30302.000			38.305			-4.256
30400.000			38.302			-4.256
30500.000			38.300			-4.256
30601.000			38.298			-4.255
30700.000			38.296			-4.255
30800.000			38.293			-4.255
30902.000			38.289			-4.254
31001.000			38.287			-4.254
31100.000			38.286			-4.254
31201.000			38.284			-4.254
31300.000			38.282			-4.254
31400.000			38.279			-4.253
31501.000			38.277			-4.253
31600.000			38.272			-4.252
31701.000			38.270			-4.252
31802.000			38.269			-4.252
31901.000			38.268			-4.252
32000.000			38.266			-4.252
32101.000			38.263			-4.251
32200.000			38.260			-4.251
32300.000			38.257			-4.251
32400.000			38.255			-4.251
32501.000			38.253			-4.250
32602.000			38.250			-4.250
32700.000			38.248			-4.250
32800.000			38.247			-4.250
32901.000			38.245			-4.249
33000.000			38.241			-4.249
33100.000			38.239			-4.249
33201.000			38.237			-4.249
33301.000			38.235			-4.248
33401.000			38.233			-4.248
33501.000			38.230			-4.248
33600.000			38.229			-4.248
33700.000			38.227			-4.247
33801.000			38.222			-4.247
33900.000			38.219			-4.247
34000.000			38.218			-4.246
34102.000			38.217			-4.246
34201.000			38.214			-4.246
34300.000			38.213			-4.246
34401.000			38.211			-4.246
34500.000			38.206			-4.245
34600.000			38.205			-4.245
34701.000			38.203			-4.245
34800.000			38.202			-4.245
34901.000			38.200			-4.244
35002.000			38.198			-4.244
35100.000			38.196			-4.244
35200.000			38.192			-4.244
35301.000			38.190			-4.243
35400.000			38.188			-4.243
35500.000			38.187			-4.243
35600.000			38.185			-4.243
35701.000			38.183			-4.243
35802.000			38.181			-4.242
35901.000			38.179			-4.242
36000.000			38.176			-4.242
36101.000			38.174			-4.242
36200.000			38.171			-4.241
36300.000			38.170			-4.241
36401.000			38.169			-4.241
36501.000			38.167			-4.241
36601.000			38.165			-4.241
36702.000			38.161			-4.240
36800.000			38.159			-4.240
36900.000			38.158			-4.240
37001.000			38.156			-4.240
37100.000			38.155			-4.239
37200.000			38.152			-4.239
37301.000			38.150			-4.239
37401.000			38.149			-4.239
37501.000			38.145			-4.238
37601.000			38.143			-4.238
37700.000			38.141			-4.238
37800.000			38.139			-4.238
37901.000			38.137			-4.237
38000.000			38.135			-4.237
38100.000			38.134			-4.237
38202.000			38.131			-4.237
38301.000			38.128			-4.236
38400.000			38.127			-4.236
38501.000			38.127			-4.236
38600.000			38.124			-4.236
38700.000			38.122			-4.236
38800.000			38.121			-4.236
38900.000			38.117			-4.235
39002.000			38.115			-4.235
39101.000			38.113			-4.235
39200.000			38.113			-4.235
39301.000			38.111			-4.235
39400.000			38.108			-4.234
39500.000			38.107			-4.234
39601.000			38.106			-4.234
39700.000			38.102			-4.234
39801.000			38.101			-4.233
39902.000			38.098			-4.233
40000.000			38.097			-4.233
40100.000			38.097			-4.233
40201.000			38.093			-4.233
40300.000			38.092			-4.232
40400.000			38.090			-4.232
40501.000			38.088			-4.232
40601.000			38.087			-4.232
40701.000			38.085			-4.232
40801.000			38.083			-4.231
40900.000			38.081			-4.231
41000.000			38.080			-4.231
41101.000			38.077			-4.231
41200.000			38.076			-4.231
41300.000			38.074			-4.230
41402.000			38.074			-4.230
41501.000			38.071			-4.230
41600.000			38.068			-4.230
41701.000			38.067			-4.230
41800.000			38.065			-4.229
41900.000			38.063			-4.229
42000.000			38.061			-4.229
42100.000			38.060			-4.229
42202.000			38.057			-4.229
42301.000			38.056			-4.228
42400.000			38.054			-4.228
42501.000			38.051			-4.228
42600.000			38.049			-4.228
42700.000			38.048			-4.228
42801.000			38.046			-4.227
42900.000			38.045			-4.227
43001.000			38.044			-4.227
43102.000			38.042			-4.227
43200.000			38.041			-4.227
43300.000			38.038			-4.226
43401.000			38.036			-4.226
43500.000			38.035			-4.226
43600.000			38.034			-4.226
43702.000			38.032			-4.226
43801.000			38.031			-4.226
43901.000			38.030			-4.226
44001.000			38.027			-4.225
44100.000			38.023			-4.225
44200.000			38.023			-4.225
44301.000			38.021			-4.225
44400.000			38.019			-4.224
44501.000			38.018			-4.224
44602.000			38.018			-4.224
44700.000			38.016			-4.224
44800.000			38.013			-4.224
44901.000			38.012			-4.224
45000.000			38.010			-4.223
45100.000			38.008			-4.223
45200.000			38.006			-4.223
45301.000			38.006			-4.223
45402.000			38.005			-4.223
45500.000			38.001			-4.222
45600.000			38.001			-4.222
45701.000			37.999			-4.222
45800.000			37.997			-4.222
45900.000			37.995			-4.222
46001.000			37.993			-4.221
46101.000			37.991			-4.221
46201.000			37.990			-4.221
46301.000			37.988			-4.221
46400.000			37.987			-4.221
46500.000			37.985			-4.221
46601.000			37.983			-4.220
46700.000			37.982			-4.220
46800.000			37.982			-4.220
46901.000			37.979			-4.220
47001.000			37.977			-4.220
47101.000			37.975			-4.219
47201.000			37.973			-4.219
47300.000			37.973			-4.219
47400.000			37.971			-4.219
47501.000			37.970			-4.219
47600.000			37.968			-4.219
47700.000			37.965			-4.218
47802.000			37.964			-4.218
47901.000			37.963			-4.218
48000.000			37.962			-4.218
48101.000			37.960			-4.218
48200.000			37.958			-4.218
48300.000			37.957			-4.217
48400.000			37.956			-4.217
48500.000			37.953			-4.217
48602.000			37.952			-4.217
48701.000			37.951			-4.217
48801.000			37.950			-4.217
48901.000			37.948			-4.216
49000.000			37.947			-4.216
49100.000			37.945			-4.216
49201.000			37.942			-4.216
49300.000			37.941			-4.216
49400.000			37.939			-4.215
49502.000			37.938			-4.215
49601.000			37.937			-4.215
49700.000			37.935			-4.215
49801.000			37.933			-4.215
49900.000			37.933			-4.215
50000.000			37.931			-4.215
50101.000			37.929			-4.214
50200.000			37.928			-4.214
50301.000			37.926			-4.214
50402.000			37.925			-4.214
50500.000			37.923			-4.214
50600.000			37.922			-4.214
50701.000			37.920			-4.213
50800.000			37.918			-4.213
50900.000			37.917			-4.213
51001.000			37.916			-4.213
51101.000			37.914			-4.213
51201.000			37.913			-4.213
51301.000			37.914			-4.213
51400.000			37.910			-4.212
51500.000			37.908			-4.212
51600.000			37.909			-4.212
51700.000			37.907			-4.212
51801.000			37.904			-4.212
51901.000			37.902			-4.211
52001.000			37.902			-4.211
52102.000			37.900			-4.211
52200.000			37.899			-4.211
52300.000			37.898			-4.211
52401.000			37.896			-4.211
52500.000			37.894			-4.210
52600.000			37.894			-4.210
52701.000			37.892			-4.210
52801.000			37.891			-4.210
52901.000			37.888			-4.210
53001.000			37.886			-4.210
53100.000			37.886			-4.210
53200.000			37.885			-4.209
53301.000			37.883			-4.209
53400.000			37.881			-4.209
53500.000			37.879			-4.209
53602.000			37.880			-4.209
53701.000			37.878			-4.209
53800.000			37.876			-4.208
53901.000			37.875			-4.208
54000.000			37.874			-4.208
54100.000			37.872			-4.208
54201.000			37.871			-4.208
54300.000			37.870			-4.208
54401.000			37.867			-4.207
54502.000			37.866			-4.207
54600.000			37.866			-4.207
54700.000			37.865			-4.207
54800.000			37.863			-4.207
54900.000			37.862			-4.207
55001.000			37.861			-4.207
55100.000			37.859			-4.207
55200.000			37.857			-4.206
55302.000			37.855			-4.206
55401.000			37.855			-4.206
55500.000			37.853			-4.206
55601.000			37.853			-4.206
55700.000			37.852			-4.206
55800.000			37.848			-4.205
55901.000			37.847			-4.205
56000.000			37.847			-4.205
56101.000			37.845			-4.205
56202.000			37.844			-4.205
56300.000			37.844			-4.205
56400.000			37.842			-4.205
56501.000			37.842			-4.205
56600.000			37.838			-4.204
56700.000			37.837			-4.204
56801.000			37.835			-4.204
56901.000			37.835			-4.204
57001.000			37.834			-4.204
57101.000			37.833			-4.204
57200.000			37.832			-4.204
57300.000			37.829			-4.203
57401.000			37.828			-4.203
57500.000			37.827			-4.203
57600.000			37.826			-4.203
57702.000			37.824			-4.203
57801.000			37.823			-4.203
57902.000			37.822			-4.202
58000.000			37.820			-4.202
58100.000			37.820			-4.202
58201.000			37.818			-4.202
58300.000			37.817			-4.202
58400.000			37.816			-4.202
58501.000			37.815			-4.202
58601.000			37.814			-4.202
58701.000			37.812			-4.201
58801.000			37.810			-4.201
58900.000			37.810			-4.201
59000.000			37.809			-4.201
59101.000			37.807			-4.201
59200.000			37.807			-4.201
59300.000			37.805			-4.201
59402.000			37.803			-4.200
59501.000			37.801			-4.200
59600.000			37.800			-4.200
59701.000			37.799			-4.200
59800.000			37.798			-4.200
59900.000			37.796			-4.200
60001.000			37.795			-4.199
60100.000			37.794			-4.199
60201.000			37.792			-4.199
60302.000			37.792			-4.199
60400.000			37.791			-4.199
60500.000			37.789			-4.199
60601.000			37.788			-4.199
60700.000			37.786			-4.198
60800.000			37.785			-4.198
60901.000			37.785			-4.198
61000.000			37.783			-4.198
61102.000			37.782			-4.198
61201.000			37.781			-4.198
61300.000			37.780			-4.198
61401.000			37.779			-4.198
61500.000			37.777			-4.197
61600.000			37.776			-4.197
61701.000			37.774			-4.197
61800.000			37.772			-4.197
61901.000			37.771			-4.197
62002.000			37.771			-4.197
62100.000			37.769			-4.197
62200.000			37.768			-4.196
62301.000			37.767			-4.196
62400.000			37.767			-4.196
62500.000			37.765			-4.196
62601.000			37.764			-4.196
62701.000			37.763			-4.196
62801.000			37.762			-4.196
62901.000			37.761			-4.196
63000.000			37.761			-4.196
63100.000			37.760			-4.196
63201.000			37.756			-4.195
63300.000			37.755			-4.195
63400.000			37.755			-4.195
63502.000			37.753			-4.195
63601.000			37.753			-4.195
63700.000			37.753			-4.195
63801.000			37.751			-4.195
63900.000			37.749			-4.194
64000.000			37.748			-4.194
64101.000			37.747			-4.194
64200.000			37.746			-4.194
64302.000			37.745			-4.194
64401.000			37.743			-4.194
64500.000			37.743			-4.194
64601.000			37.741			-4.193
64700.000			37.740			-4.193
64800.000			37.739			-4.193
64901.000			37.737			-4.193
65000.000			37.736			-4.193
65100.000			37.735			-4.193
65202.000			37.734			-4.193
65301.000			37.733			-4.193
65400.000			37.732			-4.192
65501.000			37.730			-4.192
65600.000			37.729			-4.192
65700.000			37.728			-4.192
65801.000			37.728			-4.192
65900.000			37.726			-4.192
66001.000			37.725			-4.192
66102.000			37.723			-4.191
66200.000			37.722			-4.191
66300.000			37.721			-4.191
66401.000			37.720			-4.191
66500.000			37.719			-4.191
66600.000			37.717			-4.191
66701.000			37.717			-4.191
66801.000			37.715			-4.191
66901.000			37.715			-4.191
67001.000			37.713			-4.190
67100.000			37.713			-4.190
67200.000			37.712			-4.190
67301.000			37.711			-4.190
67400.000			37.710			-4.190
67500.000			37.709			-4.190
67602.000			37.707			-4.190
67701.000			37.706			-4.190
67801.000			37.705			-4.189
67900.000			37.704			-4.189
68000.000			37.703			-4.189
68101.000			37.702			-4.189
68200.000			37.701			-4.189
68300.000			37.699			-4.189
68401.000			37.698			-4.189
68501.000			37.697			-4.189
68601.000			37.696			-4.188
68701.000			37.695			-4.188
68800.000			37.695			-4.188
68900.000			37.693			-4.188
69001.000			37.690			-4.188
69100.000			37.689			-4.188
69200.000			37.688			-4.188
69302.000			37.688			-4.188
69401.000			37.687			-4.187
69501.000			37.686			-4.187
69601.000			37.685			-4.187
69700.000			37.685			-4.187
69800.000			37.682			-4.187
69901.000			37.681			-4.187
70000.000			37.681			-4.187
70100.000			37.679			-4.187
70202.000			37.678			-4.186
70301.000			37.677			-4.186
70400.000			37.677			-4.186
70501.000			37.674			-4.186
70600.000			37.674			-4.186
70700.000			37.673			-4.186
70800.000			37.673			-4.186
70900.000			37.673			-4.186
71002.000			37.670			-4.186
71101.000			37.669			-4.185
71201.000			37.669			-4.185
71301.000			37.668			-4.185
71400.000			37.665			-4.185
71500.000			37.664			-4.185
71601.000			37.664			-4.185
71700.000			37.663			-4.185
71800.000			37.663			-4.185
71902.000			37.662			-4.185
72001.000			37.659			-4.184
72100.000			37.659			-4.184
72201.000			37.658			-4.184
72300.000			37.658			-4.184
72400.000			37.656			-4.184
72501.000			37.654			-4.184
72600.000			37.654			-4.184
72701.000			37.652			-4.184
72802.000			37.652			-4.184
72900.000			37.651			-4.183
73000.000			37.650			-4.183
73101.000			37.649			-4.183
73200.000			37.648			-4.183
73300.000			37.647			-4.183
73401.000			37.645			-4.183
73501.000			37.645			-4.183
73601.000			37.643			-4.183
73701.000			37.642			-4.182
73800.000			37.641			-4.182
73900.000			37.641			-4.182
74000.000			37.640			-4.182
74100.000			37.639			-4.182
74201.000			37.637			-4.182
74300.000			37.636			-4.182
74401.000			37.636			-4.182
74502.000			37.636			-4.182
74600.000			37.635			-4.182
74700.000			37.633			-4.181
74801.000			37.632			-4.181
74900.000			37.630			-4.181
75000.000			37.629			-4.181
75101.000			37.629			-4.181
75201.000			37.628			-4.181
75301.000			37.627			-4.181
75401.000			37.627			-4.181
75500.000			37.626			-4.181
75600.000			37.624			-4.180
75701.000			37.623			-4.180
75800.000			37.621			-4.180
75900.000			37.620			-4.180
76002.000			37.619			-4.180
76101.000			37.618			-4.180
76200.000			37.617			-4.180
76301.000			37.617			-4.180
76400.000			37.615			-4.179
76500.000			37.615			-4.179
76601.000			37.614			-4.179
76700.000			37.613			-4.179
76800.000			37.612			-4.179
76902.000			37.611			-4.179
77001.000			37.610			-4.179
77100.000			37.608			-4.179
77200.000			37.607			-4.179
77300.000			37.606			-4.178
77401.000			37.606			-4.178
77500.000			37.604			-4.178
77600.000			37.604			-4.178
77702.000			37.604			-4.178
77801.000			37.602			-4.178
77900.000			37.601			-4.178
78001.000			37.599			-4.178
78100.000			37.599			-4.178
78200.000			37.599			-4.178
78301.000			37.597			-4.177
78400.000			37.596			-4.177
78500.000			37.596			-4.177
78602.000			37.595			-4.177
78701.000			37.594			-4.177
78800.000			37.592			-4.177
78901.000			37.591			-4.177
79000.000			37.590			-4.177
79100.000			37.589			-4.177
79201.000			37.590			-4.177
79300.000			37.587			-4.176
79401.000			37.586			-4.176
79502.000			37.585			-4.176
79600.000			37.584			-4.176
79700.000			37.583			-4.176
79801.000			37.582			-4.176
79900.000			37.582			-4.176
80000.000			37.581			-4.176
80101.000			37.580			-4.176
80200.000			37.579			-4.175
80302.000			37.578			-4.175
80401.000			37.577			-4.175
80500.000			37.577			-4.175
80601.000			37.576			-4.175
80700.000			37.575			-4.175
80800.000			37.573			-4.175
80901.000			37.573			-4.175
81000.000			37.572			-4.175
81101.000			37.570			-4.174
81202.000			37.570			-4.174
81300.000			37.570			-4.174
81400.000			37.569			-4.174
81501.000			37.566			-4.174
81600.000			37.566			-4.174
81700.000			37.565			-4.174
81801.000			37.564			-4.174
81901.000			37.563			-4.174
82001.000			37.563			-4.174
82101.000			37.562			-4.174
82200.000			37.560			-4.173
82300.000			37.559			-4.173
82401.000			37.559			-4.173
82500.000			37.558			-4.173
82600.000			37.557			-4.173
82702.000			37.556			-4.173
82801.000			37.555			-4.173
82901.000			37.555			-4.173
83001.000			37.553			-4.173
83100.000			37.552			-4.172
83200.000			37.550			-4.172
83301.000			37.551			-4.172
83400.000			37.550			-4.172
83500.000			37.549			-4.172
83602.000			37.548			-4.172
83701.000			37.547			-4.172
83801.000			37.545			-4.172
83900.000			37.543			-4.171
84000.000			37.543			-4.171
84101.000			37.544			-4.172
84200.000			37.543			-4.171
84300.000			37.543			-4.171
84402.000			37.540			-4.171
84501.000			37.540			-4.171
84600.000			37.539			-4.171
84701.000			37.537			-4.171
84800.000			37.537			-4.171
84900.000			37.537			-4.171
85001.000			37.535			-4.171
85100.000			37.535			-4.171
85200.000			37.534			-4.170
85302.000			37.533			-4.170
85401.000			37.532			-4.170
85500.000			37.532			-4.170
85601.000			37.531			-4.170
85700.000			37.530			-4.170
85800.000			37.529			-4.170
85901.000			37.527			-4.170
86000.000			37.527			-4.170
86101.000			37.527			-4.170
86202.000			37.525			-4.169
86300.000			37.525			-4.169
86400.000			37.525			-4.169
86501.000			37.523			-4.169
86600.000			37.522			-4.169
86700.000			37.522			-4.169
86800.000			37.521			-4.169
86901.000			37.519			-4.169
87002.000			37.518			-4.169
87101.000			37.517			-4.169
87200.000			37.516			-4.168
87301.000			37.516			-4.168
87400.000			37.515			-4.168
87500.000			37.513			-4.168
87601.000			37.512			-4.168
87700.000			37.512			-4.168
87801.000			37.513			-4.168
87902.000			37.511			-4.168
88000.000			37.511			-4.168
88100.000			37.510			-4.168
88201.000			37.508			-4.168
88300.000			37.507			-4.167
88400.000			37.506			-4.167
88501.000			37.506			-4.167
88601.000			37.504			-4.167
88701.000			37.503			-4.167
88801.000			37.502			-4.167
88900.000			37.502			-4.167
89000.000			37.502			-4.167
89101.000			37.501			-4.167
89200.000			37.500			-4.167
89300.000			37.499			-4.167
89402.000			37.499			-4.167
89501.000			37.499			-4.167
89601.000			37.497			-4.166
89701.000			37.496			-4.166
89800.000			37.495			-4.166
89900.000			37.494			-4.166
90000.000			37.494			-4.166
90100.000			37.492			-4.166
90201.000			37.492			-4.166
90301.000			37.490			-4.166
90401.000			37.490			-4.166
90501.000			37.490			-4.166
90600.000			37.488			-4.165
90700.000			37.487			-4.165
90801.000			37.487			-4.165
90900.000			37.486			-4.165
91000.000			37.483			-4.165
91101.000			37.483			-4.165
91201.000			37.482			-4.165
91301.000			37.482			-4.165
91401.000			37.481			-4.165
91500.000			37.480			-4.164
91600.000			37.480			-4.164
91701.000			37.480			-4.164
91800.000			37.478			-4.164
91900.000			37.478			-4.164
92002.000			37.477			-4.164
92101.000			37.476			-4.164
92200.000			37.475			-4.164
92301.000			37.474			-4.164
92400.000			37.474			-4.164
92500.000			37.473			-4.164
92601.000			37.472			-4.164
92700.000			37.471			-4.163
92800.000			37.470			-4.163
92902.000			37.469			-4.163
93001.000			37.467			-4.163
93100.000			37.467			-4.163
93200.000			37.467			-4.163
93300.000			37.466			-4.163
93401.000			37.466			-4.163
93500.000			37.465			-4.163
93600.000			37.464			-4.163
93702.000			37.463			-4.163
93801.000			37.463			-4.163
93900.000			37.462			-4.162
94001.000			37.460			-4.162
94100.000			37.460			-4.162
94200.000			37.459			-4.162
94301.000			37.458			-4.162
94400.000			37.457			-4.162
94501.000			37.456			-4.162
94602.000			37.456			-4.162
94701.000			37.456			-4.162
94800.000			37.454			-4.162
94901.000			37.453			-4.161
95000.000			37.453			-4.161
95100.000			37.452			-4.161
95201.000			37.451			-4.161
95301.000			37.450			-4.161
95401.000			37.449			-4.161
95502.000			37.449			-4.161
95600.000			37.448			-4.161
95700.000			37.446			-4.161
95801.000			37.446			-4.161
95900.000			37.446			-4.161
96000.000			37.444			-4.160
96101.000			37.443			-4.160
96201.000			37.442			-4.160
96302.000			37.442			-4.160
96400.000			37.442			-4.160
96500.000			37.440			-4.160
96601.000			37.439			-4.160
96700.000			37.439			-4.160
96800.000			37.438			-4.160
96901.000			37.436			-4.160
97001.000			37.436			-4.160
97101.000			37.436			-4.160
97201.000			37.435			-4.159
97300.000			37.433			-4.159
97400.000			37.433			-4.159
97501.000			37.433			-4.159
97600.000			37.432			-4.159
97700.000			37.431			-4.159
97801.000			37.430			-4.159
97901.000			37.430			-4.159
98001.000			37.429			-4.159
98101.000			37.428			-4.159
98200.000			37.428			-4.159
98300.000			37.427			-4.159
98401.000			37.425			-4.158
98500.000			37.425			-4.158
98600.000			37.425			-4.158
98702.000			37.424			-4.158
98801.000			37.424			-4.158
98900.000			37.422			-4.158
99001.000			37.420			-4.158
99100.000			37.421			-4.158
99200.000			37.421			-4.158
99301.000			37.420			-4.158
99400.000			37.417			-4.157
99502.000			37.417			-4.157
99601.000			37.418			-4.158
99701.000			37.416			-4.157
99801.000			37.414			-4.157
99900.000			37.414			-4.157
100000.000			37.413			-4.157
100101.000			37.412			-4.157
100200.000			37.412			-4.157
100300.000			37.412			-4.157
100402.000			37.411			-4.157
100501.000			37.410			-4.157
100600.000			37.409			-4.157
100701.000			37.408			-4.156
100800.000			37.407			-4.156
100900.000			37.406			-4.156
101001.000			37.405			-4.156
101100.000			37.404			-4.156
101201.000			37.404			-4.156
101302.000			37.404			-4.156
101400.000			37.403			-4.156
101500.000			37.403			-4.156
101601.000			37.402			-4.156
101700.000			37.401			-4.156
101800.000			37.401			-4.156
101901.000			37.399			-4.155
102001.000			37.399			-4.155
102101.000			37.398			-4.155
102201.000			37.397			-4.155
102300.000			37.397			-4.155
102400.000			37.396			-4.155
102501.000			37.397			-4.155
102600.000			37.395			-4.155
102700.000			37.394			-4.155
102800.000			37.394			-4.155
102901.000			37.392			-4.155
103002.000			37.391			-4.155
103100.000			37.391			-4.155
103200.000			37.390			-4.154
103301.000			37.390			-4.154
103400.000			37.389			-4.154
103500.000			37.388			-4.154
103601.000			37.387			-4.154
103701.000			37.387			-4.154
103801.000			37.387			-4.154
103901.000			37.386			-4.154
104000.000			37.385			-4.154
104100.000			37.384			-4.154
104201.000			37.382			-4.154
104300.000			37.381			-4.153
104400.000			37.380			-4.153
104502.000			37.380			-4.153
104601.000			37.378			-4.153
104701.000			37.379			-4.153
104801.000			37.379			-4.153
104900.000			37.379			-4.153
105000.000			37.376			-4.153
105101.000			37.376			-4.153
105200.000			37.376			-4.153
105300.000			37.376			-4.153
105402.000			37.375			-4.153
105501.000			37.374			-4.153
105600.000			37.374			-4.153
105701.000			37.371			-4.152
105800.000			37.372			-4.152
105900.000			37.372			-4.152
106000.000			37.370			-4.152
106100.000			37.368			-4.152
106201.000			37.368			-4.152
106301.000			37.368			-4.152
106401.000			37.367			-4.152
106501.000			37.367			-4.152
106600.000			37.366			-4.152
106700.000			37.365			-4.152
106801.000			37.363			-4.151
106900.000			37.364			-4.152
107000.000			37.364			-4.152
107102.000			37.364			-4.152
107201.000			37.361			-4.151
107300.000			37.361			-4.151
107401.000			37.360			-4.151
107500.000			37.360			-4.151
107600.000			37.360			-4.151
107701.000			37.358			-4.151
107800.000			37.357			-4.151
107900.000			37.356			-4.151
108002.000			37.356			-4.151
108101.000			37.355			-4.151
108200.000			37.355			-4.151
108301.000			37.355			-4.151
108400.000			37.354			-4.150
108500.000			37.354			-4.150
108601.000			37.353			-4.150
108700.000			37.352			-4.150
108801.000			37.351			-4.150
108902.000			37.350			-4.150
109001.000			37.349			-4.150
109100.000			37.349			-4.150
109200.000			37.349			-4.150
109300.000			37.348			-4.150
109401.000			37.347			-4.150
109500.000			37.347			-4.150
109600.000			37.345			-4.149
109702.000			37.344			-4.149
109801.000			37.344			-4.149
109900.000			37.344			-4.149
110001.000			37.344			-4.149
110100.000			37.340			-4.149
110200.000			37.340			-4.149
110301.000			37.341			-4.149
110400.000			37.341			-4.149
110501.000			37.340			-4.149
110602.000			37.338			-4.149
110701.000			37.338			-4.149
110800.000			37.336			-4.148
110901.000			37.336			-4.148
111000.000			37.335			-4.148
111100.000			37.335			-4.148
111201.000			37.335			-4.148
111300.000			37.335			-4.148
111401.000			37.333			-4.148
111502.000			37.332			-4.148
111600.000			37.331			-4.148
111700.000			37.330			-4.148
111801.000			37.329			-4.148
111900.000			37.329			-4.148
112000.000			37.331			-4.148
112101.000			37.330			-4.148
112201.000			37.328			-4.148
112302.000			37.326			-4.147
112400.000			37.326			-4.147
112500.000			37.325			-4.147
112601.000			37.324			-4.147
112700.000			37.326			-4.147
112800.000			37.325			-4.147
112901.000			37.323			-4.147
113001.000			37.323			-4.147
113101.000			37.322			-4.147
113201.000			37.321			-4.147
113300.000			37.319			-4.147
113400.000			37.319			-4.147
113501.000			37.319			-4.147
113600.000			37.318			-4.146
113700.000			37.318			-4.146
113801.000			37.317			-4.146
113901.000			37.317			-4.146
114001.000			37.315			-4.146
114101.000			37.313			-4.146
114200.000			37.313			-4.146
114300.000			37.313			-4.146
114401.000			37.312			-4.146
114500.000			37.311			-4.146
114600.000			37.311			-4.146
114702.000			37.310			-4.146
114801.000			37.311			-4.146
114900.000			37.309			-4.145
115001.000			37.308			-4.145
115100.000			37.308			-4.145
115200.000			37.308			-4.145
115301.000			37.306			-4.145
115400.000			37.306			-4.145
115502.000			37.306			-4.145
115601.000			37.305			-4.145
115701.000			37.305			-4.145
115801.000			37.304			-4.145
115900.000			37.303			-4.145
116000.000			37.302			-4.145
116101.000			37.302			-4.145
116200.000			37.302			-4.145
116300.000			37.301			-4.145
116402.000			37.299			-4.144
116501.000			37.299			-4.144
116600.000			37.298			-4.144
116701.000			37.298			-4.144
116800.000			37.298			-4.144
116900.000			37.298			-4.144
117001.000			37.296			-4.144
117100.000			37.295			-4.144
117201.000			37.294			-4.144
117302.000			37.294			-4.144
117401.000			37.293			-4.144
117500.000			37.293			-4.144
117601.000			37.292			-4.144
117700.000			37.291			-4.143
117800.000			37.291			-4.143
117901.000			37.290			-4.143
118000.000			37.288			-4.143
118101.000			37.288			-4.143
118202.000			37.288			-4.143
118300.000			37.288			-4.143
118400.000			37.287			-4.143
118501.000			37.286			-4.143
118600.000			37.286			-4.143
118700.000			37.285			-4.143
118800.000			37.284			-4.143
118900.000			37.283			-4.143
119002.000			37.283			-4.143
119101.000			37.282			-4.142
119200.000			37.281			-4.142
119301.000			37.281			-4.142
119400.000			37.280			-4.142
119500.000			37.280			-4.142
119601.000			37.280			-4.142
119700.000			37.280			-4.142
119800.000			37.278			-4.142
119902.000			37.278			-4.142
120001.000			37.278			-4.142
120100.000			37.277			-4.142
120201.000			37.276			-4.142
120300.000			37.275			-4.142
120400.000			37.274			-4.142
120501.000			37.273			-4.141
120600.000			37.272			-4.141
120701.000			37.273			-4.141
120802.000			37.273			-4.141
120900.000			37.272			-4.141
121000.000			37.272			-4.141
121101.000			37.270			-4.141
121200.000			37.270			-4.141
121300.000			37.269			-4.141
121401.000			37.268			-4.141
121501.000			37.268			-4.141
121601.000			37.267			-4.141
121701.000			37.266			-4.141
121800.000			37.266			-4.141
121900.000			37.265			-4.141
122000.000			37.264			-4.140
122100.000			37.264			-4.140
122201.000			37.263			-4.140
122300.000			37.263			-4.140
122401.000			37.263			-4.140
122502.000			37.261			-4.140
122600.000			37.260			-4.140
122700.000			37.259			-4.140
122801.000			37.259			-4.140
122900.000			37.258			-4.140
123000.000			37.258			-4.140
123101.000			37.258			-4.140
123201.000			37.257			-4.140
123301.000			37.257			-4.140
123401.000			37.256			-4.140
123500.000			37.255			-4.139
123600.000			37.255			-4.139
123701.000			37.255			-4.139
123800.000			37.254			-4.139
123900.000			37.254			-4.139
124001.000			37.253			-4.139
124101.000			37.252			-4.139
124201.000			37.252			-4.139
124301.000			37.251			-4.139
124400.000			37.250			-4.139
124500.000			37.249			-4.139
124601.000			37.249			-4.139
124700.000			37.249			-4.139
124800.000			37.248			-4.139
124902.000			37.247			-4.139
125001.000			37.245			-4.138
125100.000			37.246			-4.138
125200.000			37.246			-4.138
125300.000			37.244			-4.138
125401.000			37.244			-4.138
125500.000			37.243			-4.138
125600.000			37.242			-4.138
125701.000			37.242			-4.138
125801.000			37.242			-4.138
125901.000			37.241			-4.138
126001.000			37.240			-4.138
126100.000			37.239			-4.138
126200.000			37.240			-4.138
126301.000			37.239			-4.138
126400.000			37.238			-4.138
126500.000			37.238			-4.138
126602.000			37.237			-4.137
126701.000			37.236			-4.137
126801.000			37.236			-4.137
126901.000			37.236			-4.137
127000.000			37.234			-4.137
127100.000			37.233			-4.137
127201.000			37.233			-4.137
127300.000			37.233			-4.137
127400.000			37.233			-4.137
127502.000			37.233			-4.137
127601.000			37.232			-4.137
127700.000			37.230			-4.137
127801.000			37.229			-4.137
127900.000			37.228			-4.136
128000.000			37.228			-4.136
128101.000			37.228			-4.136
128200.000			37.228			-4.136
128302.000			37.227			-4.136
128401.000			37.226			-4.136
128500.000			37.225			-4.136
128601.000			37.225			-4.136
128700.000			37.223			-4.136
128800.000			37.222			-4.136
128901.000			37.222			-4.136
129000.000			37.223			-4.136
129100.000			37.222			-4.136
129202.000			37.222			-4.136
129301.000			37.222			-4.136
129400.000			37.221			-4.136
129501.000			37.220			-4.136
129600.000			37.219			-4.135
129700.000			37.218			-4.135
129801.000			37.217			-4.135
129900.000			37.217			-4.135
130001.000			37.216			-4.135
130102.000			37.217			-4.135
130201.000			37.216			-4.135
130300.000			37.215			-4.135
130401.000			37.215			-4.135
130500.000			37.214			-4.135
130600.000			37.214			-4.135
130701.000			37.213			-4.135
130801.000			37.212			-4.135
130901.000			37.211			-4.135
131002.000			37.212			-4.135
131100.000			37.212			-4.135
131200.000			37.211			-4.135
131301.000			37.209			-4.134
131400.000			37.207			-4.134
131500.000			37.207			-4.134
131600.000			37.208			-4.134
131701.000			37.207			-4.134
131802.000			37.206			-4.134
131901.000			37.206			-4.134
132000.000			37.205			-4.134
132101.000			37.204			-4.134
132200.000			37.203			-4.134
132300.000			37.204			-4.134
132401.000			37.203			-4.134
132500.000			37.203			-4.134
132601.000			37.203			-4.134
132702.000			37.201			-4.133
132800.000			37.200			-4.133
132900.000			37.199			-4.133
133001.000			37.199			-4.133
133100.000			37.199			-4.133
133200.000			37.199			-4.133
133301.000			37.197			-4.133
133400.000			37.197			-4.133
133501.000			37.197			-4.133
133602.000			37.196			-4.133
133701.000			37.196			-4.133
133800.000			37.195			-4.133
133901.000			37.195			-4.133
134000.000			37.193			-4.133
134100.000			37.192			-4.132
134201.000			37.192			-4.132
134300.000			37.192			-4.132
134400.000			37.192			-4.132
134502.000			37.191			-4.132
134601.000			37.190			-4.132
134700.000			37.190			-4.132
134800.000			37.190			-4.132
134900.000			37.189			-4.132
135001.000			37.188			-4.132
135100.000			37.188			-4.132
135200.000			37.188			-4.132
135301.000			37.187			-4.132
135401.000			37.186			-4.132
135501.000			37.185			-4.132
135601.000			37.186			-4.132
135700.000			37.185			-4.132
135800.000			37.184			-4.132
135901.000			37.184			-4.132
136000.000			37.183			-4.131
136100.000			37.182			-4.131
136201.000			37.181			-4.131
136301.000			37.181			-4.131
136401.000			37.181			-4.131
136502.000			37.181			-4.131
136600.000			37.179			-4.131
136700.000			37.178			-4.131
136801.000			37.178			-4.131
136900.000			37.178			-4.131
137000.000			37.177			-4.131
137101.000			37.177			-4.131
137200.000			37.176			-4.131
137301.000			37.176			-4.131
137402.000			37.175			-4.131
137501.000			37.174			-4.130
137600.000			37.172			-4.130
137701.000			37.172			-4.130
137800.000			37.173			-4.130
137900.000			37.173			-4.130
138000.000			37.171			-4.130
138100.000			37.170			-4.130
138201.000			37.170			-4.130
138301.000			37.169			-4.130
138401.000			37.167			-4.130
138501.000			37.167			-4.130
138600.000			37.168			-4.130
138700.000			37.169			-4.130
138801.000			37.166			-4.130
138900.000			37.165			-4.129
139000.000			37.165			-4.129
139101.000			37.165			-4.129
139201.000			37.165			-4.129
139301.000			37.164			-4.129
139402.000			37.164			-4.129
139500.000			37.163			-4.129
139600.000			37.163			-4.129
139701.000			37.162			-4.129
139800.000			37.162			-4.129
139900.000			37.163			-4.129
140001.000			37.161			-4.129
140100.000			37.160			-4.129
140201.000			37.158			-4.129
140302.000			37.158			-4.129
140400.000			37.158			-4.129
140500.000			37.157			-4.129
140601.000			37.157			-4.129
140700.000			37.157			-4.129
140800.000			37.156			-4.128
140901.000			37.156			-4.128
141000.000			37.155			-4.128
141102.000			37.154			-4.128
141201.000			37.154			-4.128
141300.000			37.154			-4.128
141401.000			37.153			-4.128
141500.000			37.152			-4.128
141600.000			37.152			-4.128
141701.000			37.151			-4.128
141800.000			37.152			-4.128
141900.000			37.150			-4.128
142002.000			37.149			-4.128
142101.000			37.149			-4.128
142200.000			37.149			-4.128
142301.000			37.149			-4.128
142400.000			37.148			-4.128
142500.000			37.147			-4.127
142601.000			37.147			-4.127
142700.000			37.145			-4.127
142800.000			37.145			-4.127
142902.000			37.146			-4.127
143001.000			37.145			-4.127
143100.000			37.144			-4.127
143201.000			37.143			-4.127
143300.000			37.142			-4.127
143400.000			37.141			-4.127
143501.000			37.142			-4.127
143600.000			37.143			-4.127
143700.000			37.141			-4.127
143802.000			37.141			-4.127
143901.000			37.140			-4.127
144001.000			37.140			-4.127
144101.000			37.140			-4.127
144200.000			37.139			-4.127
144300.000			37.139			-4.127
144400.000			37.138			-4.126
144500.000			37.137			-4.126
144601.000			37.136			-4.126
144701.000			37.136			-4.126
144801.000			37.136			-4.126
144902.000			37.135			-4.126
145000.000			37.134			-4.126
145100.000			37.133			-4.126
145201.000			37.133			-4.126
145300.000			37.133			-4.126
145400.000			37.132			-4.126
145501.000			37.131			-4.126
145600.000			37.131			-4.126
145701.000			37.131			-4.126
145802.000			37.130			-4.126
145900.000			37.129			-4.125
146000.000			37.129			-4.125
146101.000			37.128			-4.125
146200.000			37.127			-4.125
146300.000			37.128			-4.125
146401.000			37.128			-4.125
146500.000			37.126			-4.125
146601.000			37.126			-4.125
146702.000			37.127			-4.125
146800.000			37.126			-4.125
146900.000			37.124			-4.125
147001.000			37.123			-4.125
147100.000			37.123			-4.125
147200.000			37.124			-4.125
147301.000			37.123			-4.125
147400.000			37.123			-4.125
147502.000			37.122			-4.125
147601.000			37.121			-4.125
147700.000			37.119			-4.124
147801.000			37.119			-4.124
147900.000			37.119			-4.124
148000.000			37.118			-4.124
148101.000			37.118			-4.124
148200.000			37.118			-4.124
148300.000			37.117			-4.124
148402.000			37.117			-4.124
148501.000			37.117			-4.124
148601.000			37.116			-4.124
148701.000			37.115			-4.124
148800.000			37.115			-4.124
148900.000			37.114			-4.124
149001.000			37.114			-4.124
149100.000			37.112			-4.124
149200.000			37.113			-4.124
149301.000			37.112			-4.124
149401.000			37.110			-4.123
149501.000			37.110			-4.123
149601.000			37.111			-4.123
149700.000			37.111			-4.123
149800.000			37.109			-4.123
149901.000			37.108			-4.123
150000.000			37.108			-4.123
150100.000			37.108			-4.123
150201.000			37.108			-4.123
150301.000			37.107			-4.123
150401.000			37.107			-4.123
150501.000			37.107			-4.123
150600.000			37.106			-4.123
150700.000			37.105			-4.123
150800.000			37.105			-4.123
150900.000			37.104			-4.123
151001.000			37.104			-4.123
151100.000			37.103			-4.123
151201.000			37.102			-4.122
151302.000			37.101			-4.122
151400.000			37.102			-4.122
151500.000			37.102			-4.122
151601.000			37.101			-4.122
151700.000			37.100			-4.122
151800.000			37.099			-4.122
151901.000			37.099			-4.122
152000.000			37.098			-4.122
152101.000			37.097			-4.122
152202.000			37.097			-4.122
152301.000			37.097			-4.122
152400.000			37.096			-4.122
152501.000			37.096			-4.122
152600.000			37.096			-4.122
152700.000			37.095			-4.122
152801.000			37.094			-4.122
152900.000			37.093			-4.121
153000.000			37.093			-4.121
153102.000			37.094			-4.122
153201.000			37.093			-4.121
153300.000			37.093			-4.121
153401.000			37.092			-4.121
153500.000			37.090			-4.121
153600.000			37.089			-4.121
153701.000			37.089			-4.121
153800.000			37.090			-4.121
153900.000			37.089			-4.121
154002.000			37.088			-4.121
154101.000			37.088			-4.121
154202.000			37.086			-4.121
154300.000			37.086			-4.121
154400.000			37.086			-4.121
154501.000			37.086			-4.121
154600.000			37.086			-4.121
154700.000			37.086			-4.121
154801.000			37.084			-4.120
154900.000			37.084			-4.120
155001.000			37.084			-4.120
155102.000			37.083			-4.120
155200.000			37.083			-4.120
155300.000			37.082			-4.120
155401.000			37.080			-4.120
155500.000			37.082			-4.120
155600.000			37.082			-4.120
155701.000			37.080			-4.120
155800.000			37.079			-4.120
155901.000			37.079			-4.120
156002.000			37.078			-4.120
156101.000			37.077			-4.120
156200.000			37.077			-4.120
156301.000			37.076			-4.120
156400.000			37.077			-4.120
156500.000			37.077			-4.120
156601.000			37.075			-4.119
156700.000			37.074			-4.119
156800.000			37.075			-4.119
156902.000			37.074			-4.119
157001.000			37.074			-4.119
157100.000			37.071			-4.119
157200.000			37.071			-4.119
157300.000			37.072			-4.119
157401.000			37.072			-4.119
157500.000			37.072			-4.119
157600.000			37.071			-4.119
157701.000			37.070			-4.119
157801.000			37.070			-4.119
157901.000			37.069			-4.119
158001.000			37.069			-4.119
158100.000			37.069			-4.119
158200.000			37.068			-4.119
158301.000			37.068			-4.119
158400.000			37.067			-4.119
158500.000			37.066			-4.118
158601.000			37.065			-4.118
158701.000			37.064			-4.118
158801.000			37.064			-4.118
158902.000			37.064			-4.118
159000.000			37.063			-4.118
159100.000			37.063			-4.118
159201.000			37.064			-4.118
159300.000			37.063			-4.118
159400.000			37.062			-4.118
159501.000			37.062			-4.118
159600.000			37.061			-4.118
159701.000			37.060			-4.118
159802.000			37.060			-4.118
159900.000			37.060			-4.118
160000.000			37.059			-4.118
160101.000			37.059			-4.118
160200.000			37.058			-4.118
160300.000			37.057			-4.117
160400.000			37.058			-4.118
160500.000			37.057			-4.117
160602.000			37.056			-4.117
160701.000			37.055			-4.117
160801.000			37.055			-4.117
160901.000			37.055			-4.117
161000.000			37.054			-4.117
161100.000			37.053			-4.117
161201.000			37.052			-4.117
161300.000			37.053			-4.117
161400.000			37.052			-4.117
161502.000			37.053			-4.117
161601.000			37.052			-4.117
161701.000			37.052			-4.117
161801.000			37.051			-4.117
161900.000			37.050			-4.117
162000.000			37.049			-4.117
162101.000			37.049			-4.117
162200.000			37.049			-4.117
162300.000			37.048			-4.116
162401.000			37.048			-4.116
162501.000			37.048			-4.116
162601.000			37.047			-4.116
162701.000			37.047			-4.116
162800.000			37.047			-4.116
162900.000			37.046			-4.116
163001.000			37.044			-4.116
163100.000			37.044			-4.116
163200.000			37.044			-4.116
163301.000			37.044			-4.116
163401.000			37.044			-4.116
163502.000			37.044			-4.116
163600.000			37.043			-4.116
163700.000			37.041			-4.116
163801.000			37.042			-4.116
163900.000			37.041			-4.116
164000.000			37.041			-4.116
164101.000			37.040			-4.116
164200.000			37.040			-4.116
164301.000			37.038			-4.115
164402.000			37.039			-4.115
164501.000			37.038			-4.115
164600.000			37.037			-4.115
164701.000			37.037			-4.115
164800.000			37.037			-4.115
164900.000			37.037			-4.115
165001.000			37.036			-4.115
165100.000			37.034			-4.115
165200.000			37.034			-4.115
165302.000			37.034			-4.115
165401.000			37.033			-4.115
165500.000			37.034			-4.115
165601.000			37.033			-4.115
165700.000			37.033			-4.115
165800.000			37.032			-4.115
165901.000			37.032			-4.115
166000.000			37.030			-4.114
166100.000			37.031			-4.115
166202.000			37.030			-4.114
166301.000			37.030			-4.114
166400.000			37.030			-4.114
166501.000			37.030			-4.114
166600.000			37.029			-4.114
166700.000			37.029			-4.114
166800.000			37.027			-4.114
166900.000			37.027			-4.114
167001.000			37.026			-4.114
167101.000			37.027			-4.114
167201.000			37.026			-4.114
167302.000			37.026			-4.114
167400.000			37.024			-4.114
167500.000			37.024			-4.114
167601.000			37.025			-4.114
167700.000			37.024			-4.114
167800.000			37.023			-4.114
167901.000			37.021			-4.113
168000.000			37.022			-4.114
168101.000			37.022			-4.114
168202.000			37.019			-4.113
168300.000			37.020			-4.113
168400.000			37.020			-4.113
168501.000			37.020			-4.113
168600.000			37.020			-4.113
168700.000			37.019			-4.113
168801.000			37.018			-4.113
168900.000			37.018			-4.113
169001.000			37.018			-4.113
169102.000			37.018			-4.113
169201.000			37.016			-4.113
169300.000			37.016			-4.113
169401.000			37.015			-4.113
169500.000			37.015			-4.113
169600.000			37.014			-4.113
169701.000			37.015			-4.113
169800.000			37.014			-4.113
169900.000			37.013			-4.113
170002.000			37.013			-4.113
170101.000			37.012			-4.112
170201.000			37.013			-4.113
170300.000			37.013			-4.113
170400.000			37.010			-4.112
170501.000			37.010			-4.112
170600.000			37.010			-4.112
170700.000			37.010			-4.112
170801.000			37.009			-4.112
170901.000			37.008			-4.112
171001.000			37.009			-4.112
171101.000			37.007			-4.112
171200.000			37.006			-4.112
171300.000			37.006			-4.112
171401.000			37.007			-4.112
171500.000			37.006			-4.112
171600.000			37.005			-4.112
171701.000			37.005			-4.112
171801.000			37.004			-4.112
171901.000			37.004			-4.112
172001.000			37.004			-4.112
172100.000			37.004			-4.112
172200.000			37.004			-4.112
172301.000			37.003			-4.111
172400.000			37.003			-4.111
172500.000			37.002			-4.111
172601.000			37.000			-4.111
172701.000			37.000			-4.111
172801.000			37.000			-4.111
172901.000			37.000			-4.111
173000.000			36.999			-4.111
173100.000			36.998			-4.111
173200.000			36.998			-4.111
173300.000			36.997			-4.111
173401.000			36.997			-4.111
173500.000			36.996			-4.111
173600.000			36.996			-4.111
173702.000			36.996			-4.111
173801.000			36.995			-4.111
173900.000			36.994			-4.110
174001.000			36.995			-4.111
174100.000			36.995			-4.111
174200.000			36.994			-4.110
174301.000			36.994			-4.110
174400.000			36.993			-4.110
174500.000			36.993			-4.110
174601.000			36.992			-4.110
174701.000			36.992			-4.110
174801.000			36.991			-4.110
174901.000			36.990			-4.110
175000.000			36.990			-4.110
175100.000			36.990			-4.110
175201.000			36.990			-4.110
175300.000			36.990			-4.110
175400.000			36.989			-4.110
175501.000			36.987			-4.110
175600.000			36.987			-4.110
175701.000			36.987			-4.110
175802.000			36.987			-4.110
175900.000			36.986			-4.110
176000.000			36.985			-4.109
176101.000			36.985			-4.109
176200.000			36.984			-4.109
176300.000			36.984			-4.109
176400.000			36.984			-4.109
176500.000			36.984			-4.109
176601.000			36.983			-4.109
176701.000			36.982			-4.109
176801.000			36.982			-4.109
176902.000			36.981			-4.109
177000.000			36.982			-4.109
177100.000			36.982			-4.109
177201.000			36.980			-4.109
177300.000			36.979			-4.109
177400.000			36.980			-4.109
177501.000			36.979			-4.109
177600.000			36.979			-4.109
177701.000			36.977			-4.109
177802.000			36.978			-4.109
177901.000			36.977			-4.109
178000.000			36.977			-4.109
178101.000			36.978			-4.109
178200.000			36.976			-4.108
178300.000			36.975			-4.108
178401.000			36.975			-4.108
178500.000			36.974			-4.108
178600.000			36.974			-4.108
178702.000			36.974			-4.108
178801.000			36.973			-4.108
178901.000			36.972			-4.108
179001.000			36.973			-4.108
179100.000			36.973			-4.108
179200.000			36.973			-4.108
179301.000			36.972			-4.108
179400.000			36.971			-4.108
179500.000			36.970			-4.108
179600.000			36.970			-4.108
179700.000			36.970			-4.108
179802.000			36.970			-4.108
179901.000			36.969			-4.108
180000.000			36.968			-4.108
180101.000			36.968			-4.108
180200.000			36.968			-4.108
180300.000			36.968			-4.108
180401.000			36.967			-4.107
180500.000			36.966			-4.107
180600.000			36.965			-4.107
180702.000			36.964			-4.107
180801.000			36.963			-4.107
180901.000			36.964			-4.107
181001.000			36.965			-4.107
181100.000			36.964			-4.107
181200.000			36.962			-4.107
181301.000			36.962			-4.107
181400.000			36.963			-4.107
181500.000			36.962			-4.107
181601.000			36.961			-4.107
181701.000			36.961			-4.107
181801.000			36.961			-4.107
181901.000			36.960			-4.107
182000.000			36.960			-4.107
182100.000			36.959			-4.107
182201.000			36.959			-4.107
182300.000			36.958			-4.106
182400.000			36.958			-4.106
182501.000			36.958			-4.106
182600.000			36.957			-4.106
182702.000			36.956			-4.106
182801.000			36.957			-4.106
182901.000			36.956			-4.106
183001.000			36.955			-4.106
183100.000			36.956			-4.106
183200.000			36.955			-4.106
183301.000			36.955			-4.106
183400.000			36.955			-4.106
183500.000			36.954			-4.106
183601.000			36.953			-4.106
183701.000			36.954			-4.106
183801.000			36.953			-4.106
183901.000			36.953			-4.106
184000.000			36.952			-4.106
184100.000			36.951			-4.106
184201.000			36.950			-4.106
184300.000			36.950			-4.106
184400.000			36.950			-4.106
184501.000			36.949			-4.105
184601.000			36.949			-4.105
184701.000			36.949			-4.105
184802.000			36.948			-4.105
184900.000			36.948			-4.105
185000.000			36.948			-4.105
185101.000			36.948			-4.105
185200.000			36.947			-4.105
185300.000			36.946			-4.105
185401.000			36.946			-4.105
185500.000			36.946			-4.105
185600.000			36.946			-4.105
185702.000			36.946			-4.105
185801.000			36.944			-4.105
185900.000			36.945			-4.105
186000.000			36.945			-4.105
186100.000			36.944			-4.105
186201.000			36.942			-4.105
186300.000			36.942			-4.105
186400.000			36.942			-4.105
186501.000			36.940			-4.104
186601.000			36.940			-4.104
186701.000			36.940			-4.104
186802.000			36.940			-4.104
186900.000			36.939			-4.104
187000.000			36.938			-4.104
187101.000			36.940			-4.104
187200.000			36.938			-4.104
187300.000			36.938			-4.104
187401.000			36.937			-4.104
187500.000			36.937			-4.104
187600.000			36.937			-4.104
187702.000			36.938			-4.104
187801.000			36.937			-4.104
187900.000			36.935			-4.104
188001.000			36.935			-4.104
188100.000			36.935			-4.104
188200.000			36.935			-4.104
188301.000			36.934			-4.104
188400.000			36.934			-4.104
188500.000			36.934			-4.104
188601.000			36.934			-4.104
188701.000			36.932			-4.104
188801.000			36.932			-4.104
188901.000			36.931			-4.103
189000.000			36.931			-4.103
189100.000			36.930			-4.103
189200.000			36.930			-4.103
189300.000			36.930			-4.103
189401.000			36.929			-4.103
189500.000			36.929			-4.103
189601.000			36.928			-4.103
189702.000			36.927			-4.103
189801.000			36.928			-4.103
189900.000			36.929			-4.103
190001.000			36.928			-4.103
190100.000			36.928			-4.103
190200.000			36.926			-4.103
190301.000			36.926			-4.103
190400.000			36.925			-4.103
190500.000			36.925			-4.103
190602.000			36.924			-4.103
190701.000			36.924			-4.103
190801.000			36.924			-4.103
190901.000			36.923			-4.103
191000.000			36.923			-4.103
191100.000			36.923			-4.103
191201.000			36.924			-4.103
191300.000			36.923			-4.103
191400.000			36.923			-4.103
191501.000			36.922			-4.102
191601.000			36.922			-4.102
191701.000			36.921			-4.102
191801.000			36.920			-4.102
191900.000			36.920			-4.102
192000.000			36.919			-4.102
192101.000			36.918			-4.102
192200.000			36.918			-4.102
192300.000			36.919			-4.102
192400.000			36.918			-4.102
192501.000			36.918			-4.102
192602.000			36.917			-4.102
192701.000			36.916			-4.102
192800.000			36.916			-4.102
192901.000			36.916			-4.102
193000.000			36.916			-4.102
193100.000			36.915			-4.102
193201.000			36.914			-4.102
193300.000			36.914			-4.102
193400.000			36.914			-4.102
193502.000			36.913			-4.101
193601.000			36.912			-4.101
193700.000			36.912			-4.101
193801.000			36.912			-4.101
193900.000			36.911			-4.101
194000.000			36.910			-4.101
194101.000			36.910			-4.101
194200.000			36.909			-4.101
194300.000			36.910			-4.101
194402.000			36.910			-4.101
194501.000			36.909			-4.101
194601.000			36.909			-4.101
194701.000			36.908			-4.101
194800.000			36.908			-4.101
194900.000			36.907			-4.101
195001.000			36.907			-4.101
195100.000			36.907			-4.101
195200.000			36.907			-4.101
195301.000			36.906			-4.101
195401.000			36.905			-4.101
195502.000			36.905			-4.101
195601.000			36.904			-4.100
195700.000			36.905			-4.101
195801.000			36.904			-4.100
195900.000			36.904			-4.100
196000.000			36.903			-4.100
196101.000			36.904			-4.100
196200.000			36.903			-4.100
196300.000			36.903			-4.100
196402.000			36.903			-4.100
196501.000			36.902			-4.100
196601.000			36.902			-4.100
196701.000			36.901			-4.100
196800.000			36.900			-4.100
196900.000			36.900			-4.100
197001.000			36.900			-4.100
197100.000			36.899			-4.100
197200.000			36.898			-4.100
197301.000			36.897			-4.100
197401.000			36.898			-4.100
197501.000			36.898			-4.100
197602.000			36.898			-4.100
197700.000			36.896			-4.100
197800.000			36.896			-4.100
197901.000			36.896			-4.100
198000.000			36.896			-4.100
198100.000			36.896			-4.100
198201.000			36.895			-4.099
198300.000			36.894			-4.099
198400.000			36.893			-4.099
198502.000			36.894			-4.099
198601.000			36.894			-4.099
198700.000			36.893			-4.099
198800.000			36.892			-4.099
198900.000			36.892			-4.099
199001.000			36.893			-4.099
199100.000			36.892			-4.099
199200.000			36.892			-4.099
199301.000			36.891			-4.099
199400.000			36.890			-4.099
199501.000			36.890			-4.099
199602.000			36.890			-4.099
199701.000			36.889			-4.099
199800.000			36.889			-4.099
199901.000			36.888			-4.099
200000.000			36.888			-4.099
200100.000			36.888			-4.099
200201.000			36.887			-4.099
200300.000			36.887			-4.099
200400.000			36.887			-4.099
200502.000			36.885			-4.098
200601.000			36.885			-4.098
200700.000			36.885			-4.098
200801.000			36.885			-4.098
200900.000			36.884			-4.098
201000.000			36.884			-4.098
201101.000			36.884			-4.098
201200.000			36.884			-4.098
201300.000			36.883			-4.098
201402.000			36.883			-4.098
201501.000			36.883			-4.098
201601.000			36.882			-4.098
201701.000			36.882			-4.098
201800.000			36.882			-4.098
201900.000			36.881			-4.098
202000.000			36.879			-4.098
202100.000			36.879			-4.098
202201.000			36.880			-4.098
202300.000			36.879			-4.098
202401.000			36.878			-4.098
202502.000			36.879			-4.098
202600.000			36.878			-4.098
202700.000			36.879			-4.098
202801.000			36.877			-4.097
202900.000			36.877			-4.097
203000.000			36.877			-4.097
203101.000			36.876			-4.097
203200.000			36.876			-4.097
203301.000			36.876			-4.097
203402.000			36.875			-4.097
203501.000			36.875			-4.097
203600.000			36.874			-4.097
203701.000			36.874			-4.097
203800.000			36.874			-4.097
203900.000			36.874			-4.097
204001.000			36.873			-4.097
204100.000			36.873			-4.097
204200.000			36.873			-4.097
204302.000			36.872			-4.097
204401.000			36.871			-4.097
204500.000			36.870			-4.097
204601.000			36.871			-4.097
204700.000			36.871			-4.097
204800.000			36.870			-4.097
204901.000			36.869			-4.097
205000.000			36.870			-4.097
205100.000			36.869			-4.097
205200.000			36.868			-4.096
205301.000			36.868			-4.096
205402.000			36.868			-4.096
205500.000			36.867			-4.096
205600.000			36.867			-4.096
205701.000			36.867			-4.096
205800.000			36.866			-4.096
205900.000			36.865			-4.096
206001.000			36.866			-4.096
206100.000			36.866			-4.096
206201.000			36.866			-4.096
206302.000			36.865			-4.096
206401.000			36.865			-4.096
206500.000			36.864			-4.096
206601.000			36.863			-4.096
206700.000			36.862			-4.096
206800.000			36.862			-4.096
206901.000			36.861			-4.096
207000.000			36.860			-4.096
207100.000			36.861			-4.096
207202.000			36.861			-4.096
207301.000			36.859			-4.095
207401.000			36.859			-4.095
207501.000			36.859			-4.095
207600.000			36.859			-4.095
207700.000			36.859			-4.095
207801.000			36.858			-4.095
207900.000			36.858			-4.095
208000.000			36.857			-4.095
208101.000			36.857			-4.095
208201.000			36.857			-4.095
208302.000			36.856			-4.095
208400.000			36.856			-4.095
208500.000			36.857			-4.095
208601.000			36.856			-4.095
208700.000			36.855			-4.095
208800.000			36.854			-4.095
208901.000			36.854			-4.095
209000.000			36.854			-4.095
209100.000			36.854			-4.095
209202.000			36.854			-4.095
209301.000			36.852			-4.095
209400.000			36.853			-4.095
209501.000			36.853			-4.095
209600.000			36.851			-4.095
209700.000			36.851			-4.095
209801.000			36.852			-4.095
209900.000			36.851			-4.095
210000.000			36.851			-4.095
210102.000			36.850			-4.094
210201.000			36.849			-4.094
210300.000			36.849			-4.094
210401.000			36.849			-4.094
210500.000			36.849			-4.094
210600.000			36.848			-4.094
210701.000			36.847			-4.094
210800.000			36.847			-4.094
210900.000			36.846			-4.094
211002.000			36.846			-4.094
211101.000			36.846			-4.094
211201.000			36.846			-4.094
211301.000			36.845			-4.094
211400.000			36.845			-4.094
211500.000			36.844			-4.094
211600.000			36.844			-4.094
211700.000			36.845			-4.094
211801.000			36.844			-4.094
211901.000			36.843			-4.094
212001.000			36.842			-4.094
212102.000			36.843			-4.094
212200.000			36.841			-4.093
212300.000			36.842			-4.094
212401.000			36.841			-4.093
212500.000			36.840			-4.093
212600.000			36.840			-4.093
212701.000			36.840			-4.093
212800.000			36.839			-4.093
212901.000			36.839			-4.093
213002.000			36.838			-4.093
213100.000			36.837			-4.093
213200.000			36.838			-4.093
213301.000			36.838			-4.093
213400.000			36.838			-4.093
213500.000			36.837			-4.093
213601.000			36.837			-4.093
213700.000			36.836			-4.093
213801.000			36.836			-4.093
213902.000			36.835			-4.093
214001.000			36.836			-4.093
214100.000			36.836			-4.093
214201.000			36.835			-4.093
214300.000			36.835			-4.093
214400.000			36.833			-4.093
214501.000			36.833			-4.093
214600.000			36.834			-4.093
214700.000			36.834			-4.093
214802.000			36.834			-4.093
214901.000			36.834			-4.093
215001.000			36.833			-4.093
215100.000			36.832			-4.092
215200.000			36.831			-4.092
215301.000			36.830			-4.092
215400.000			36.830			-4.092
215500.000			36.830			-4.092
215601.000			36.831			-4.092
215701.000			36.829			-4.092
215801.000			36.829			-4.092
215901.000			36.829			-4.092
216000.000			36.829			-4.092
216100.000			36.828			-4.092
216201.000			36.828			-4.092
216300.000			36.828			-4.092
216400.000			36.827			-4.092
216501.000			36.826			-4.092
216601.000			36.826			-4.092
216701.000			36.825			-4.092
216802.000			36.825			-4.092
216900.000			36.825			-4.092
217000.000			36.825			-4.092
217101.000			36.826			-4.092
217200.000			36.825			-4.092
217300.000			36.824			-4.092
217401.000			36.823			-4.091
217500.000			36.822			-4.091
217601.000			36.822			-4.091
217702.000			36.822			-4.091
217801.000			36.823			-4.091
217900.000			36.822			-4.091
218000.000			36.822			-4.091
218100.000			36.821			-4.091
218201.000			36.821			-4.091
218300.000			36.820			-4.091
218400.000			36.819			-4.091
218502.000			36.820			-4.091
218601.000			36.819			-4.091
218701.000			36.818			-4.091
218801.000			36.818			-4.091
218900.000			36.818			-4.091
219000.000			36.818			-4.091
219101.000			36.817			-4.091
219200.000			36.817			-4.091
219300.000			36.817			-4.091
219401.000			36.815			-4.091
219501.000			36.814			-4.090
219601.000			36.815			-4.091
219701.000			36.814			-4.090
219800.000			36.815			-4.091
219900.000			36.815			-4.091
220001.000			36.814			-4.090
220100.000			36.813			-4.090
220200.000			36.813			-4.090
220301.000			36.813			-4.090
220401.000			36.813			-4.090
220501.000			36.813			-4.090
220602.000			36.813			-4.090
220700.000			36.812			-4.090
220800.000			36.811			-4.090
220901.000			36.811			-4.090
221000.000			36.810			-4.090
221100.000			36.809			-4.090
221200.000			36.809			-4.090
221300.000			36.809			-4.090
221402.000			36.808			-4.090
221501.000			36.809			-4.090
221600.000			36.808			-4.090
221701.000			36.809			-4.090
221800.000			36.808			-4.090
221900.000			36.808			-4.090
222001.000			36.808			-4.090
222100.000			36.807			-4.090
222200.000			36.806			-4.090
222302.000			36.806			-4.090
222401.000			36.806			-4.090
222501.000			36.806			-4.090
222601.000			36.806			-4.090
222700.000			36.805			-4.089
222800.000			36.804			-4.089
222901.000			36.804			-4.089
223000.000			36.804			-4.089
223100.000			36.803			-4.089
223202.000			36.803			-4.089
223301.000			36.803			-4.089
223401.000			36.803			-4.089
223501.000			36.802			-4.089
223600.000			36.802			-4.089
223700.000			36.803			-4.089
223801.000			36.802			-4.089
223900.000			36.801			-4.089
224000.000			36.801			-4.089
224102.000			36.800			-4.089
224201.000			36.800			-4.089
224302.000			36.800			-4.089
224400.000			36.800			-4.089
224500.000			36.799			-4.089
224601.000			36.799			-4.089
224700.000			36.798			-4.089
224800.000			36.797			-4.089
224901.000			36.796			-4.088
225000.000			36.797			-4.089
225101.000			36.796			-4.088
225202.000			36.796			-4.088
225301.000			36.796			-4.088
225400.000			36.795			-4.088
225501.000			36.796			-4.088
225600.000			36.795			-4.088
225700.000			36.794			-4.088
225801.000			36.794			-4.088
225900.000			36.794			-4.088
226000.000			36.794			-4.088
226102.000			36.794			-4.088
226201.000			36.794			-4.088
226301.000			36.792			-4.088
226401.000			36.791			-4.088
226500.000			36.792			-4.088
226600.000			36.791			-4.088
226701.000			36.792			-4.088
226800.000			36.792			-4.088
226900.000			36.790			-4.088
227001.000			36.789			-4.088
227101.000			36.789			-4.088
227201.000			36.789			-4.088
227301.000			36.789			-4.088
227400.000			36.789			-4.088
227500.000			36.788			-4.088
227600.000			36.787			-4.087
227700.000			36.787			-4.087
227801.000			36.786			-4.087
227900.000			36.787			-4.087
228000.000			36.787			-4.087
228102.000			36.786			-4.087
228201.000			36.785			-4.087
228300.000			36.785			-4.087
228401.000			36.785			-4.087
228500.000			36.785			-4.087
228600.000			36.786			-4.087
228701.000			36.785			-4.087
228800.000			36.784			-4.087
228900.000			36.784			-4.087
229001.000			36.784			-4.087
229101.000			36.782			-4.087
229201.000			36.782			-4.087
229301.000			36.782			-4.087
229400.000			36.782			-4.087
229500.000			36.782			-4.087
229601.000			36.782			-4.087
229700.000			36.781			-4.087
229800.000			36.781			-4.087
229901.000			36.781			-4.087
230000.000			36.781			-4.087
230101.000			36.780			-4.087
230202.000			36.780			-4.087
230300.000			36.779			-4.087
230400.000			36.778			-4.086
230501.000			36.778			-4.086
230600.000			36.779			-4.087
230700.000			36.777			-4.086
230800.000			36.777			-4.086
230900.000			36.777			-4.086
231002.000			36.777			-4.086
231101.000			36.776			-4.086
231201.000			36.776			-4.086
231301.000			36.776			-4.086
231400.000			36.775			-4.086
231500.000			36.775			-4.086
231601.000			36.774			-4.086
231700.000			36.774			-4.086
231800.000			36.774			-4.086
231901.000			36.774			-4.086
232001.000			36.773			-4.086
232101.000			36.773			-4.086
232201.000			36.773			-4.086
232300.000			36.773			-4.086
232400.000			36.772			-4.086
232501.000			36.771			-4.086
232600.000			36.770			-4.086
232700.000			36.770			-4.086
232801.000			36.770			-4.086
232901.000			36.770			-4.086
233001.000			36.770			-4.086
233102.000			36.770			-4.086
233200.000			36.770			-4.086
233300.000			36.769			-4.085
233401.000			36.768			-4.085
233500.000			36.768			-4.085
233600.000			36.767			-4.085
233701.000			36.766			-4.085
233800.000			36.767			-4.085
233902.000			36.767			-4.085
234001.000			36.766			-4.085
234101.000			36.765			-4.085
234201.000			36.765			-4.085
234300.000			36.764			-4.085
234400.000			36.765			-4.085
234501.000			36.765			-4.085
234600.000			36.764			-4.085
234700.000			36.764			-4.085
234801.000			36.764			-4.085
234901.000			36.764			-4.085
235001.000			36.764			-4.085
235101.000			36.763			-4.085
235200.000			36.762			-4.085
235300.000			36.762			-4.085
235401.000			36.762			-4.085
235500.000			36.762			-4.085
235600.000			36.761			-4.085
235701.000			36.761			-4.085
235801.000			36.761			-4.085
235901.000			36.761			-4.085
236002.000			36.759			-4.084
236100.000			36.759			-4.084
236200.000			36.760			-4.084
236301.000			36.759			-4.084
236400.000			36.759			-4.084
236500.000			36.758			-4.084
236601.000			36.758			-4.084
236700.000			36.758			-4.084
236801.000			36.756			-4.084
236902.000			36.757			-4.084
237001.000			36.756			-4.084
237100.000			36.756			-4.084
237200.000			36.756			-4.084
237300.000			36.756			-4.084
237401.000			36.755			-4.084
237500.000			36.755			-4.084
237600.000			36.754			-4.084
237701.000			36.754			-4.084
237801.000			36.754			-4.084
237901.000			36.755			-4.084
238001.000			36.753			-4.084
238100.000			36.753			-4.084
238200.000			36.753			-4.084
238301.000			36.752			-4.084
238400.000			36.751			-4.083
238500.000			36.751			-4.083
238601.000			36.751			-4.083
238701.000			36.750			-4.083
238801.000			36.751			-4.083
238902.000			36.751			-4.083
239000.000			36.751			-4.083
239100.000			36.750			-4.083
239201.000			36.750			-4.083
239300.000			36.750			-4.083
239400.000			36.749			-4.083
239501.000			36.748			-4.083
239600.000			36.748			-4.083
239701.000			36.748			-4.083
239802.000			36.747			-4.083
239901.000			36.747			-4.083
240000.000			36.747			-4.083
240101.000			36.747			-4.083
240200.000			36.746			-4.083
240300.000			36.746			-4.083
240400.000			36.744			-4.083
240500.000			36.744			-4.083
240602.000			36.745			-4.083
240701.000			36.745			-4.083
240801.000			36.744			-4.083
240901.000			36.744			-4.083
241000.000			36.745			-4.083
241100.000			36.743			-4.083
241201.000			36.742			-4.082
241300.000			36.741			-4.082
241400.000			36.742			-4.082
241502.000			36.742			-4.082
241601.000			36.741			-4.082
241701.000			36.740			-4.082
241801.000			36.740			-4.082
241900.000			36.741			-4.082
242000.000			36.741			-4.082
242101.000			36.741			-4.082
242200.000			36.740			-4.082
242300.000			36.740			-4.082
242401.000			36.738			-4.082
242501.000			36.738			-4.082
242601.000			36.738			-4.082
242701.000			36.738			-4.082
242800.000			36.737			-4.082
242900.000			36.736			-4.082
243001.000			36.737			-4.082
243100.000			36.738			-4.082
243200.000			36.738			-4.082
243301.000			36.737			-4.082
243401.000			36.736			-4.082
243502.000			36.736			-4.082
243601.000			36.735			-4.082
243700.000			36.735			-4.082
243801.000			36.734			-4.082
243900.000			36.734			-4.082
244000.000			36.734			-4.082
244101.000			36.734			-4.082
244200.000			36.732			-4.081
244300.000			36.732			-4.081
244402.000			36.732			-4.081
244501.000			36.732			-4.081
244600.000			36.731			-4.081
244701.000			36.731			-4.081
244800.000			36.731			-4.081
244900.000			36.730			-4.081
245001.000			36.729			-4.081
245100.000			36.730			-4.081
245200.000			36.730			-4.081
245302.000			36.729			-4.081
245401.000			36.729			-4.081
245500.000			36.729			-4.081
245601.000			36.728			-4.081
245700.000			36.727			-4.081
245800.000			36.727			-4.081
245901.000			36.728			-4.081
246000.000			36.728			-4.081
246100.000			36.727			-4.081
246201.000			36.727			-4.081
246301.000			36.727			-4.081
246401.000			36.726			-4.081
246501.000			36.726			-4.081
246600.000			36.725			-4.081
246700.000			36.725			-4.081
246800.000			36.724			-4.080
246900.000			36.722			-4.080
247001.000			36.723			-4.080
247100.000			36.724			-4.080
247201.000			36.724			-4.080
247302.000			36.722			-4.080
247401.000			36.722			-4.080
247500.000			36.722			-4.080
247601.000			36.722			-4.080
247700.000			36.723			-4.080
247800.000			36.721			-4.080
247901.000			36.721			-4.080
248000.000			36.720			-4.080
248100.000			36.720			-4.080
248202.000			36.720			-4.080
248301.000			36.721			-4.080
248400.000			36.719			-4.080
248501.000			36.719			-4.080
248600.000			36.720			-4.080
248700.000			36.719			-4.080
248801.000			36.718			-4.080
248900.000			36.718			-4.080
249000.000			36.719			-4.080
249101.000			36.718			-4.080
249201.000			36.717			-4.080
249301.000			36.715			-4.079
249401.000			36.716			-4.080
249500.000			36.716			-4.080
249600.000			36.715			-4.079
249701.000			36.715			-4.079
249800.000			36.716			-4.080
249900.000			36.716			-4.080
250000.000			36.714			-4.079
250101.000			36.714			-4.079
250202.000			36.714			-4.079
250301.000			36.713			-4.079
250400.000			36.713			-4.079
250501.000			36.713			-4.079
250600.000			36.713			-4.079
250700.000			36.712			-4.079
250801.000			36.712			-4.079
250900.000			36.711			-4.079
251001.000			36.711			-4.079
251102.000			36.712			-4.079
251201.000			36.710			-4.079
251300.000			36.710			-4.079
251401.000			36.710			-4.079
251500.000			36.709			-4.079
251600.000			36.709			-4.079
251701.000			36.709			-4.079
251800.000			36.709			-4.079
251900.000			36.708			-4.079
252002.000			36.708			-4.079
252101.000			36.709			-4.079
252200.000			36.707			-4.079
252301.000			36.707			-4.079
252400.000			36.707			-4.079
252500.000			36.706			-4.078
252601.000			36.706			-4.078
252700.000			36.706			-4.078
252800.000			36.705			-4.078
252902.000			36.706			-4.078
253001.000			36.705			-4.078
253102.000			36.704			-4.078
253200.000			36.704			-4.078
253300.000			36.704			-4.078
253401.000			36.703			-4.078
253500.000			36.704			-4.078
253600.000			36.703			-4.078
253701.000			36.703			-4.078
253801.000			36.704			-4.078
253901.000			36.703			-4.078
254002.000			36.703			-4.078
254100.000			36.702			-4.078
254200.000			36.701			-4.078
254301.000			36.700			-4.078
254400.000			36.700			-4.078
254500.000			36.700			-4.078
254601.000			36.701			-4.078
254700.000			36.700			-4.078
254801.000			36.700			-4.078
254902.000			36.698			-4.078
255000.000			36.699			-4.078
255100.000			36.698			-4.078
255201.000			36.698			-4.078
255300.000			36.697			-4.077
255400.000			36.698			-4.078
255501.000			36.698			-4.078
255600.000			36.697			-4.077
255700.000			36.696			-4.077
255802.000			36.697			-4.077
255901.000			36.696			-4.077
256000.000			36.695			-4.077
256101.000			36.695			-4.077
256200.000			36.695			-4.077
256300.000			36.695			-4.077
256400.000			36.695			-4.077
256500.000			36.695			-4.077
256601.000			36.695			-4.077
256701.000			36.695			-4.077
256801.000			36.695			-4.077
256902.000			36.694			-4.077
257000.000			36.693			-4.077
257100.000			36.693			-4.077
257201.000			36.692			-4.077
257300.000			36.691			-4.077
257400.000			36.691			-4.077
257501.000			36.691			-4.077
257600.000			36.691			-4.077
257701.000			36.691			-4.077
257802.000			36.689			-4.077
257901.000			36.689			-4.077
258000.000			36.690			-4.077
258101.000			36.690			-4.077
258200.000			36.689			-4.077
258300.000			36.689			-4.077
258401.000			36.689			-4.077
258500.000			36.687			-4.076
258600.000			36.687			-4.076
258702.000			36.686			-4.076
258801.000			36.687			-4.076
258901.000			36.687			-4.076
259001.000			36.687			-4.076
259100.000			36.687			-4.076
259200.000			36.686			-4.076
259301.000			36.685			-4.076
259400.000			36.686			-4.076
259500.000			36.685			-4.076
259600.000			36.685			-4.076
259700.000			36.685			-4.076
259802.000			36.684			-4.076
259901.000			36.683			-4.076
260000.000			36.683			-4.076
260101.000			36.683			-4.076
260200.000			36.682			-4.076
260300.000			36.682			-4.076
260401.000			36.681			-4.076
260500.000			36.682			-4.076
260600.000			36.682			-4.076
260702.000			36.681			-4.076
260801.000			36.681			-4.076
260901.000			36.681			-4.076
261001.000			36.681			-4.076
261100.000			36.680			-4.076
261200.000			36.680			-4.076
261301.000			36.680			-4.076
261400.000			36.680			-4.076
261500.000			36.679			-4.075
261602.000			36.679			-4.075
261701.000			36.679			-4.075
261801.000			36.678			-4.075
261901.000			36.677			-4.075
262000.000			36.678			-4.075
262100.000			36.678			-4.075
262201.000			36.676			-4.075
262300.000			36.676			-4.075
262400.000			36.675			-4.075
262501.000			36.675			-4.075
262601.000			36.676			-4.075
262702.000			36.676			-4.075
262801.000			36.675			-4.075
262900.000			36.674			-4.075
263001.000			36.675			-4.075
263100.000			36.674			-4.075
263200.000			36.673			-4.075
263301.000			36.673			-4.075
263400.000			36.673			-4.075
263500.000			36.673			-4.075
263602.000			36.672			-4.075
263701.000			36.672			-4.075
263800.000			36.671			-4.075
263901.000			36.671			-4.075
264000.000			36.670			-4.074
264100.000			36.670			-4.074
264201.000			36.671			-4.075
264300.000			36.671			-4.075
264400.000			36.671			-4.075
264502.000			36.670			-4.074
264601.000			36.669			-4.074
264701.000			36.669			-4.074
264801.000			36.669			-4.074
264900.000			36.668			-4.074
265000.000			36.668			-4.074
265101.000			36.669			-4.074
265200.000			36.667			-4.074
265300.000			36.667			-4.074
265401.000			36.668			-4.074
265501.000			36.667			-4.074
265601.000			36.666			-4.074
265701.000			36.666			-4.074
265800.000			36.666			-4.074
265900.000			36.665			-4.074
266000.000			36.665			-4.074
266100.000			36.664			-4.074
266201.000			36.663			-4.074
266300.000			36.664			-4.074
266400.000			36.664			-4.074
266502.000			36.664			-4.074
266601.000			36.664			-4.074
266700.000			36.664			-4.074
266801.000			36.662			-4.074
266900.000			36.663			-4.074
267000.000			36.662			-4.074
267101.000			36.663			-4.074
267200.000			36.663			-4.074
267300.000			36.662			-4.074
267402.000			36.661			-4.073
267501.000			36.660			-4.073
267601.000			36.660			-4.073
267701.000			36.660			-4.073
267800.000			36.660			-4.073
267900.000			36.660			-4.073
268001.000			36.660			-4.073
268100.000			36.658			-4.073
268200.000			36.658			-4.073
268301.000			36.658			-4.073
268401.000			36.658			-4.073
268501.000			36.658			-4.073
268602.000			36.657			-4.073
268700.000			36.657			-4.073
268800.000			36.657			-4.073
268901.000			36.657			-4.073
269000.000			36.657			-4.073
269100.000			36.657			-4.073
269200.000			36.656			-4.073
269300.000			36.656			-4.073
269402.000			36.655			-4.073
269501.000			36.655			-4.073
269601.000			36.654			-4.073
269701.000			36.653			-4.073
269800.000			36.653			-4.073
269900.000			36.653			-4.073
270001.000			36.653			-4.073
270100.000			36.653			-4.073
270200.000			36.653			-4.073
270301.000			36.652			-4.072
270401.000			36.652			-4.072
270501.000			36.652			-4.072
270601.000			36.652			-4.072
270700.000			36.651			-4.072
270800.000			36.651			-4.072
270901.000			36.650			-4.072
271000.000			36.649			-4.072
271100.000			36.649			-4.072
271201.000			36.649			-4.072
271301.000			36.649			-4.072
271401.000			36.650			-4.072
271501.000			36.650			-4.072
271600.000			36.648			-4.072
271700.000			36.648			-4.072
271801.000			36.649			-4.072
271900.000			36.648			-4.072
272000.000			36.648			-4.072
272101.000			36.648			-4.072
272200.000			36.647			-4.072
272302.000			36.646			-4.072
272401.000			36.646			-4.072
272500.000			36.647			-4.072
272601.000			36.646			-4.072
272700.000			36.646			-4.072
272800.000			36.646			-4.072
272901.000			36.646			-4.072
273000.000			36.645			-4.072
273100.000			36.644			-4.072
273202.000			36.644			-4.072
273301.000			36.644			-4.072
273401.000			36.644			-4.072
273501.000			36.644			-4.072
273600.000			36.643			-4.071
273700.000			36.643			-4.071
273801.000			36.642			-4.071
273900.000			36.643			-4.071
274000.000			36.642			-4.071
274102.000			36.641			-4.071
274201.000			36.641			-4.071
274301.000			36.640			-4.071
274401.000			36.640			-4.071
274500.000			36.640			-4.071
274600.000			36.641			-4.071
274701.000			36.639			-4.071
274800.000			36.639			-4.071
274900.000			36.639			-4.071
275001.000			36.637			-4.071
275101.000			36.637			-4.071
275201.000			36.638			-4.071
275301.000			36.638			-4.071
275400.000			36.637			-4.071
275500.000			36.637			-4.071
275600.000			36.637			-4.071
275700.000			36.637			-4.071
275801.000			36.637			-4.071
275900.000			36.636			-4.071
276000.000			36.636			-4.071
276102.000			36.636			-4.071
276201.000			36.636			-4.071
276300.000			36.636			-4.071
276401.000			36.636			-4.071
276500.000			36.635			-4.071
276600.000			36.634			-4.070
276701.000			36.633			-4.070
276800.000			36.633			-4.070
276900.000			36.633			-4.070
277002.000			36.633			-4.070
277101.000			36.633			-4.070
277201.000			36.632			-4.070
277301.000			36.632			-4.070
277400.000			36.632			-4.070
277500.000			36.632			-4.070
277601.000			36.630			-4.070
277700.000			36.631			-4.070
277800.000			36.631			-4.070
277901.000			36.630			-4.070
278001.000			36.629			-4.070
278101.000			36.629			-4.070
278201.000			36.630			-4.070
278300.000			36.629			-4.070
278400.000			36.630			-4.070
278501.000			36.629			-4.070
278600.000			36.629			-4.070
278700.000			36.628			-4.070
278800.000			36.627			-4.070
278900.000			36.627			-4.070
279002.000			36.628			-4.070
279101.000			36.626			-4.070
279200.000			36.627			-4.070
279301.000			36.626			-4.070
279400.000			36.625			-4.069
279500.000			36.627			-4.070
279601.000			36.626			-4.070
279700.000			36.626			-4.070
279800.000			36.625			-4.069
279901.000			36.624			-4.069
280001.000			36.624			-4.069
280101.000			36.624			-4.069
280201.000			36.623			-4.069
280300.000			36.623			-4.069
280400.000			36.623			-4.069
280501.000			36.623			-4.069
280600.000			36.624			-4.069
280700.000			36.623			-4.069
280801.000			36.623			-4.069
280901.000			36.622			-4.069
281001.000			36.622			-4.069
281101.000			36.621			-4.069
281200.000			36.622			-4.069
281300.000			36.622			-4.069
281401.000			36.622			-4.069
281500.000			36.622			-4.069
281600.000			36.621			-4.069
281701.000			36.620			-4.069
281801.000			36.619			-4.069
281902.000			36.619			-4.069
282000.000			36.619			-4.069
282100.000			36.619			-4.069
282201.000			36.619			-4.069
282300.000			36.618			-4.069
282400.000			36.619			-4.069
282501.000			36.618			-4.069
282600.000			36.618			-4.069
282701.000			36.617			-4.069
282802.000			36.617			-4.069
282901.000			36.617			-4.069
283000.000			36.616			-4.068
283101.000			36.616			-4.068
283200.000			36.616			-4.068
283300.000			36.616			-4.068
283401.000			36.615			-4.068
283500.000			36.614			-4.068
283600.000			36.613			-4.068
283702.000			36.614			-4.068
283801.000			36.614			-4.068
283900.000			36.613			-4.068
284001.000			36.613			-4.068
284100.000			36.612			-4.068
284200.000			36.612			-4.068
284301.000			36.613			-4.068
284400.000			36.612			-4.068
284500.000			36.612			-4.068
284602.000			36.612			-4.068
284701.000			36.612			-4.068
284800.000			36.611			-4.068
284901.000			36.611			-4.068
285000.000			36.610			-4.068
285100.000			36.610			-4.068
285200.000			36.610			-4.068
285300.000			36.610			-4.068
285401.000			36.609			-4.068
285501.000			36.609			-4.068
285601.000			36.608			-4.068
285702.000			36.608			-4.068
285800.000			36.608			-4.068
285900.000			36.607			-4.067
286001.000			36.607			-4.067
286100.000			36.607			-4.067
286200.000			36.607			-4.067
286301.000			36.607			-4.067
286400.000			36.607			-4.067
286501.000			36.606			-4.067
286602.000			36.605			-4.067
286700.000			36.605			-4.067
286800.000			36.605			-4.067
286901.000			36.604			-4.067
287000.000			36.604			-4.067
287100.000			36.605			-4.067
287201.000			36.604			-4.067
287300.000			36.604			-4.067
287401.000			36.604			-4.067
287502.000			36.604			-4.067
287601.000			36.603			-4.067
287700.000			36.602			-4.067
287801.000			36.602			-4.067
287900.000			36.603			-4.067
288000.000			36.602			-4.067
288101.000			36.602			-4.067
288200.000			36.602			-4.067
288300.000			36.601			-4.067
288402.000			36.600			-4.067
288501.000			36.601			-4.067
288601.000			36.601			-4.067
288700.000			36.600			-4.067
288800.000			36.600			-4.067
288901.000			36.600			-4.067
289000.000			36.601			-4.067
289100.000			36.600			-4.067
289201.000			36.599			-4.067
289300.000			36.600			-4.067
289401.000			36.598			-4.066
289502.000			36.598			-4.066
289600.000			36.598			-4.066
289700.000			36.597			-4.066
289801.000			36.597			-4.066
289900.000			36.597			-4.066
290000.000			36.597			-4.066
290101.000			36.597			-4.066
290200.000			36.597			-4.066
290300.000			36.596			-4.066
290402.000			36.596			-4.066
290501.000			36.595			-4.066
290600.000			36.595			-4.066
290701.000			36.595			-4.066
290800.000			36.594			-4.066
290900.000			36.594			-4.066
291001.000			36.594			-4.066
291100.000			36.594			-4.066
291200.000			36.593			-4.066
291302.000			36.593			-4.066
291401.000			36.593			-4.066
291502.000			36.593			-4.066
291600.000			36.592			-4.066
291700.000			36.591			-4.066
291801.000			36.592			-4.066
291900.000			36.592			-4.066
292000.000			36.591			-4.066
292101.000			36.591			-4.066
292200.000			36.590			-4.066
292301.000			36.590			-4.066
292402.000			36.591			-4.066
292501.000			36.590			-4.066
292600.000			36.589			-4.065
292701.000			36.588			-4.065
292800.000			36.587			-4.065
292900.000			36.588			-4.065
293001.000			36.588			-4.065
293100.000			36.587			-4.065
293200.000			36.587			-4.065
293302.000			36.587			-4.065
293401.000			36.588			-4.065
293501.000			36.588			-4.065
293601.000			36.587			-4.065
293700.000			36.586			-4.065
293800.000			36.585			-4.065
293901.000			36.586			-4.065
294000.000			36.586			-4.065
294100.000			36.585			-4.065
294201.000			36.585			-4.065
294301.000			36.585			-4.065
294401.000			36.584			-4.065
294501.000			36.582			-4.065
294600.000			36.583			-4.065
294700.000			36.584			-4.065
294800.000			36.583			-4.065
294900.000			36.582			-4.065
295001.000			36.583			-4.065
295100.000			36.583			-4.065
295200.000			36.582			-4.065
295302.000			36.582			-4.065
295401.000			36.581			-4.065
295500.000			36.581			-4.065
295601.000			36.581			-4.065
295700.000			36.581			-4.065
295800.000			36.581			-4.065
295901.000			36.580			-4.064
296000.000			36.580			-4.064
296100.000			36.579			-4.064
296202.000			36.579			-4.064
296301.000			36.580			-4.064
296401.000			36.579			-4.064
296501.000			36.580			-4.064
296600.000			36.579			-4.064
296700.000			36.579			-4.064
296801.000			36.578			-4.064
296900.000			36.578			-4.064
297000.000			36.578			-4.064
297101.000			36.577			-4.064
297201.000			36.577			-4.064
297301.000			36.577			-4.064
297402.000			36.577			-4.064
297500.000			36.576			-4.064
297600.000			36.575			-4.064
297701.000			36.574			-4.064
297800.000			36.575			-4.064
297900.000			36.575			-4.064
298000.000			36.574			-4.064
298100.000			36.575			-4.064
298202.000			36.574			-4.064
298301.000			36.574			-4.064
298401.000			36.574			-4.064
298501.000			36.573			-4.064
298600.000			36.573			-4.064
298700.000			36.573			-4.064
298801.000			36.572			-4.064
298900.000			36.571			-4.063
299000.000			36.571			-4.063
299101.000			36.572			-4.064
299201.000			36.572			-4.064
299301.000			36.572			-4.064
299402.000			36.571			-4.063
299500.000			36.570			-4.063
299600.000			36.571			-4.063
299701.000			36.570			-4.063
299800.000			36.569			-4.063
299900.000			36.568			-4.063
