# Acquired on 26/01/2024 15:57:03 
# SPIDER: Creep_9mm_GRPCNT1454A-3
# CREEP MEASUREMENT

# time [ms]		force [N]		stiffness [N/mm]
1.000			-40.115			-4.457
104.000			-40.591			-4.510
205.000			-40.433			-4.493
304.000			-40.001			-4.445
404.000			-39.698			-4.411
505.000			-39.473			-4.386
604.000			-39.115			-4.346
704.000			-38.968			-4.330
805.000			-38.837			-4.315
903.000			-38.717			-4.302
1004.000			-38.607			-4.290
1105.000			-38.506			-4.278
1204.000			-38.413			-4.268
1304.000			-38.245			-4.249
1404.000			-38.170			-4.241
1504.000			-38.096			-4.233
1604.000			-38.027			-4.225
1705.000			-37.963			-4.218
1804.000			-37.901			-4.211
1904.000			-37.843			-4.205
2005.000			-37.733			-4.193
2103.000			-37.683			-4.187
2204.000			-37.633			-4.181
2305.000			-37.585			-4.176
2404.000			-37.540			-4.171
2504.000			-37.497			-4.166
2604.000			-37.455			-4.162
2704.000			-37.374			-4.153
2805.000			-37.335			-4.148
2904.000			-37.299			-4.144
3004.000			-37.263			-4.140
3105.000			-37.227			-4.136
3204.000			-37.194			-4.133
3303.000			-37.160			-4.129
3405.000			-37.096			-4.122
3504.000			-37.067			-4.119
3604.000			-37.036			-4.115
3705.000			-37.007			-4.112
3804.000			-36.979			-4.109
3904.000			-36.950			-4.106
4004.000			-36.924			-4.103
4104.000			-36.897			-4.100
4204.000			-36.846			-4.094
4305.000			-36.821			-4.091
4404.000			-36.795			-4.088
4503.000			-36.771			-4.086
4605.000			-36.749			-4.083
4704.000			-36.726			-4.081
4804.000			-36.704			-4.078
4905.000			-36.660			-4.073
5004.000			-36.639			-4.071
5104.000			-36.618			-4.069
5204.000			-36.597			-4.066
5304.000			-36.576			-4.064
5404.000			-36.557			-4.062
5505.000			-36.537			-4.060
5604.000			-36.499			-4.055
5704.000			-36.481			-4.053
5805.000			-36.462			-4.051
5903.000			-36.443			-4.049
6005.000			-36.425			-4.047
6104.000			-36.407			-4.045
6204.000			-36.392			-4.044
6305.000			-36.357			-4.040
6404.000			-36.340			-4.038
6504.000			-36.324			-4.036
6604.000			-36.308			-4.034
6704.000			-36.292			-4.032
6804.000			-36.278			-4.031
6905.000			-36.262			-4.029
7004.000			-36.247			-4.027
7103.000			-36.216			-4.024
7205.000			-36.201			-4.022
7304.000			-36.187			-4.021
7404.000			-36.173			-4.019
7505.000			-36.158			-4.018
7604.000			-36.144			-4.016
7704.000			-36.130			-4.014
7804.000			-36.104			-4.012
7904.000			-36.091			-4.010
8004.000			-36.078			-4.009
8105.000			-36.065			-4.007
8204.000			-36.052			-4.006
8303.000			-36.038			-4.004
8405.000			-36.026			-4.003
8504.000			-36.002			-4.000
8604.000			-35.988			-3.999
8705.000			-35.976			-3.997
8804.000			-35.963			-3.996
8904.000			-35.951			-3.995
9004.000			-35.940			-3.993
9104.000			-35.929			-3.992
9205.000			-35.906			-3.990
9304.000			-35.896			-3.988
9404.000			-35.885			-3.987
9505.000			-35.873			-3.986
9604.000			-35.862			-3.985
9703.000			-35.851			-3.983
9805.000			-35.841			-3.982
9904.000			-35.830			-3.981
10004.000			-35.808			-3.979
10105.000			-35.797			-3.977
10204.000			-35.788			-3.976
10304.000			-35.777			-3.975
10404.000			-35.768			-3.974
10504.000			-35.757			-3.973
10604.000			-35.747			-3.972
10705.000			-35.728			-3.970
10804.000			-35.717			-3.969
10903.000			-35.708			-3.968
11005.000			-35.699			-3.967
11104.000			-35.690			-3.966
11204.000			-35.679			-3.964
11305.000			-35.671			-3.963
11404.000			-35.652			-3.961
11504.000			-35.643			-3.960
11604.000			-35.634			-3.959
11704.000			-35.626			-3.958
11804.000			-35.617			-3.957
11905.000			-35.609			-3.957
12004.000			-35.599			-3.955
12104.000			-35.582			-3.954
12205.000			-35.573			-3.953
12303.000			-35.565			-3.952
12405.000			-35.556			-3.951
12504.000			-35.548			-3.950
12604.000			-35.540			-3.949
12705.000			-35.531			-3.948
12804.000			-35.524			-3.947
12904.000			-35.508			-3.945
13004.000			-35.500			-3.944
13104.000			-35.491			-3.943
13204.000			-35.483			-3.943
13305.000			-35.476			-3.942
13404.000			-35.468			-3.941
13504.000			-35.461			-3.940
13605.000			-35.443			-3.938
13703.000			-35.437			-3.937
13804.000			-35.430			-3.937
13905.000			-35.423			-3.936
14004.000			-35.415			-3.935
14104.000			-35.408			-3.934
14205.000			-35.401			-3.933
14304.000			-35.387			-3.932
14403.000			-35.379			-3.931
14505.000			-35.372			-3.930
14604.000			-35.365			-3.929
14704.000			-35.358			-3.929
14805.000			-35.351			-3.928
14904.000			-35.344			-3.927
15004.000			-35.330			-3.926
15104.000			-35.323			-3.925
15204.000			-35.317			-3.924
15304.000			-35.310			-3.923
15405.000			-35.303			-3.923
15504.000			-35.295			-3.922
15603.000			-35.289			-3.921
15704.000			-35.284			-3.920
15804.000			-35.270			-3.919
15905.000			-35.261			-3.918
16004.000			-35.256			-3.917
16104.000			-35.251			-3.917
16205.000			-35.245			-3.916
16303.000			-35.239			-3.915
16404.000			-35.232			-3.915
16505.000			-35.220			-3.913
16604.000			-35.214			-3.913
16704.000			-35.207			-3.912
16805.000			-35.202			-3.911
16904.000			-35.196			-3.911
17003.000			-35.189			-3.910
17105.000			-35.183			-3.909
17204.000			-35.170			-3.908
17304.000			-35.165			-3.907
17405.000			-35.160			-3.907
17504.000			-35.153			-3.906
17604.000			-35.147			-3.905
17704.000			-35.142			-3.905
17804.000			-35.135			-3.904
17904.000			-35.124			-3.903
18005.000			-35.118			-3.902
18104.000			-35.114			-3.902
18203.000			-35.108			-3.901
18305.000			-35.102			-3.900
18404.000			-35.097			-3.900
18504.000			-35.092			-3.899
18605.000			-35.085			-3.898
18704.000			-35.074			-3.897
18805.000			-35.069			-3.897
18903.000			-35.063			-3.896
19004.000			-35.058			-3.895
19105.000			-35.052			-3.895
19204.000			-35.047			-3.894
19304.000			-35.042			-3.894
19405.000			-35.031			-3.892
19504.000			-35.026			-3.892
19603.000			-35.022			-3.891
19705.000			-35.017			-3.891
19804.000			-35.011			-3.890
19904.000			-35.006			-3.890
20005.000			-35.002			-3.889
20104.000			-34.990			-3.888
20204.000			-34.986			-3.887
20304.000			-34.981			-3.887
20404.000			-34.977			-3.886
20504.000			-34.971			-3.886
20605.000			-34.965			-3.885
20704.000			-34.960			-3.884
20804.000			-34.951			-3.883
20905.000			-34.945			-3.883
21003.000			-34.942			-3.882
21104.000			-34.937			-3.882
21205.000			-34.933			-3.881
21304.000			-34.927			-3.881
21404.000			-34.922			-3.880
21504.000			-34.918			-3.880
21604.000			-34.909			-3.879
21703.000			-34.904			-3.878
21805.000			-34.899			-3.878
21904.000			-34.894			-3.877
22005.000			-34.890			-3.877
22104.000			-34.886			-3.876
22203.000			-34.881			-3.876
22305.000			-34.871			-3.875
22404.000			-34.868			-3.874
22504.000			-34.863			-3.874
22605.000			-34.859			-3.873
22704.000			-34.853			-3.873
22804.000			-34.849			-3.872
22904.000			-34.845			-3.872
23004.000			-34.837			-3.871
23104.000			-34.832			-3.870
23205.000			-34.828			-3.870
23304.000			-34.823			-3.869
23404.000			-34.820			-3.869
23505.000			-34.815			-3.868
23603.000			-34.810			-3.868
23704.000			-34.802			-3.867
23805.000			-34.797			-3.866
23904.000			-34.794			-3.866
24004.000			-34.790			-3.866
24105.000			-34.785			-3.865
24204.000			-34.781			-3.865
24303.000			-34.776			-3.864
24405.000			-34.773			-3.864
24504.000			-34.764			-3.863
24604.000			-34.760			-3.862
24705.000			-34.756			-3.862
24804.000			-34.751			-3.861
24904.000			-34.747			-3.861
25004.000			-34.744			-3.860
25104.000			-34.740			-3.860
25205.000			-34.732			-3.859
25304.000			-34.728			-3.859
25404.000			-34.724			-3.858
25505.000			-34.721			-3.858
25604.000			-34.716			-3.857
25703.000			-34.711			-3.857
25805.000			-34.707			-3.856
25904.000			-34.701			-3.856
26004.000			-34.698			-3.855
26105.000			-34.693			-3.855
26204.000			-34.690			-3.854
26304.000			-34.686			-3.854
26404.000			-34.681			-3.853
26504.000			-34.677			-3.853
26604.000			-34.670			-3.852
26705.000			-34.666			-3.852
26804.000			-34.663			-3.851
26903.000			-34.659			-3.851
27005.000			-34.654			-3.850
27104.000			-34.650			-3.850
27204.000			-34.647			-3.850
27305.000			-34.644			-3.849
27404.000			-34.636			-3.848
27504.000			-34.632			-3.848
27604.000			-34.629			-3.848
27704.000			-34.627			-3.847
27804.000			-34.623			-3.847
27905.000			-34.619			-3.847
28004.000			-34.615			-3.846
28104.000			-34.607			-3.845
28205.000			-34.603			-3.845
28303.000			-34.599			-3.844
28405.000			-34.597			-3.844
28504.000			-34.594			-3.844
28604.000			-34.590			-3.843
28705.000			-34.586			-3.843
28804.000			-34.579			-3.842
28904.000			-34.576			-3.842
29004.000			-34.572			-3.841
29104.000			-34.569			-3.841
29204.000			-34.566			-3.841
29305.000			-34.562			-3.840
29404.000			-34.558			-3.840
29504.000			-34.553			-3.839
29605.000			-34.549			-3.839
29703.000			-34.546			-3.838
29804.000			-34.542			-3.838
29905.000			-34.538			-3.838
30004.000			-34.534			-3.837
30104.000			-34.532			-3.837
30205.000			-34.528			-3.836
30304.000			-34.521			-3.836
30403.000			-34.518			-3.835
30505.000			-34.515			-3.835
30604.000			-34.511			-3.835
30704.000			-34.507			-3.834
30805.000			-34.504			-3.834
30904.000			-34.503			-3.834
31004.000			-34.495			-3.833
31104.000			-34.492			-3.832
31204.000			-34.488			-3.832
31304.000			-34.485			-3.832
31405.000			-34.482			-3.831
31504.000			-34.479			-3.831
31603.000			-34.477			-3.831
31704.000			-34.470			-3.830
31803.000			-34.466			-3.830
31905.000			-34.463			-3.829
32004.000			-34.460			-3.829
32104.000			-34.457			-3.829
32205.000			-34.454			-3.828
32303.000			-34.451			-3.828
32404.000			-34.445			-3.827
32505.000			-34.442			-3.827
32604.000			-34.439			-3.827
32704.000			-34.437			-3.826
32805.000			-34.434			-3.826
32904.000			-34.430			-3.826
33003.000			-34.427			-3.825
33105.000			-34.424			-3.825
33204.000			-34.417			-3.824
33304.000			-34.414			-3.824
33405.000			-34.412			-3.824
33504.000			-34.409			-3.823
33604.000			-34.406			-3.823
33704.000			-34.402			-3.822
33804.000			-34.400			-3.822
33904.000			-34.394			-3.822
34005.000			-34.391			-3.821
34104.000			-34.389			-3.821
34203.000			-34.385			-3.821
34305.000			-34.382			-3.820
34404.000			-34.378			-3.820
34504.000			-34.376			-3.820
34605.000			-34.371			-3.819
34704.000			-34.368			-3.819
34805.000			-34.364			-3.818
34903.000			-34.362			-3.818
35004.000			-34.360			-3.818
35105.000			-34.357			-3.817
35204.000			-34.353			-3.817
35304.000			-34.348			-3.816
35405.000			-34.346			-3.816
35504.000			-34.342			-3.816
35603.000			-34.340			-3.816
35705.000			-34.337			-3.815
35804.000			-34.334			-3.815
35904.000			-34.331			-3.815
36005.000			-34.328			-3.814
36104.000			-34.322			-3.814
36204.000			-34.320			-3.813
36304.000			-34.317			-3.813
36404.000			-34.315			-3.813
36504.000			-34.312			-3.812
36605.000			-34.309			-3.812
36704.000			-34.307			-3.812
36803.000			-34.300			-3.811
36905.000			-34.298			-3.811
37003.000			-34.295			-3.811
37104.000			-34.291			-3.810
37205.000			-34.288			-3.810
37304.000			-34.287			-3.810
37404.000			-34.286			-3.810
37504.000			-34.280			-3.809
37604.000			-34.277			-3.809
37704.000			-34.273			-3.808
37805.000			-34.270			-3.808
37904.000			-34.269			-3.808
38005.000			-34.266			-3.807
38104.000			-34.263			-3.807
38203.000			-34.258			-3.806
38305.000			-34.255			-3.806
38404.000			-34.252			-3.806
38504.000			-34.250			-3.806
38605.000			-34.249			-3.805
38704.000			-34.246			-3.805
38804.000			-34.243			-3.805
38904.000			-34.241			-3.805
39004.000			-34.234			-3.804
39104.000			-34.232			-3.804
39205.000			-34.231			-3.803
39304.000			-34.228			-3.803
39404.000			-34.225			-3.803
39505.000			-34.223			-3.803
39603.000			-34.220			-3.802
39704.000			-34.215			-3.802
39805.000			-34.213			-3.801
39904.000			-34.210			-3.801
40004.000			-34.207			-3.801
40105.000			-34.205			-3.801
40204.000			-34.203			-3.800
40303.000			-34.200			-3.800
40405.000			-34.196			-3.800
40504.000			-34.192			-3.799
40604.000			-34.190			-3.799
40705.000			-34.188			-3.799
40803.000			-34.186			-3.798
40904.000			-34.184			-3.798
41005.000			-34.181			-3.798
41104.000			-34.177			-3.797
41205.000			-34.174			-3.797
41304.000			-34.171			-3.797
41404.000			-34.169			-3.797
41504.000			-34.166			-3.796
41604.000			-34.164			-3.796
41704.000			-34.161			-3.796
41805.000			-34.158			-3.795
41904.000			-34.155			-3.795
42004.000			-34.152			-3.795
42105.000			-34.149			-3.794
42203.000			-34.147			-3.794
42304.000			-34.145			-3.794
42405.000			-34.142			-3.794
42504.000			-34.140			-3.793
42604.000			-34.135			-3.793
42704.000			-34.133			-3.793
42804.000			-34.131			-3.792
42904.000			-34.128			-3.792
43005.000			-34.126			-3.792
43104.000			-34.125			-3.792
43204.000			-34.122			-3.791
43305.000			-34.118			-3.791
43403.000			-34.115			-3.791
43504.000			-34.113			-3.790
43605.000			-34.111			-3.790
43704.000			-34.108			-3.790
43804.000			-34.105			-3.789
43905.000			-34.103			-3.789
44004.000			-34.099			-3.789
44103.000			-34.096			-3.788
44205.000			-34.094			-3.788
44304.000			-34.092			-3.788
44405.000			-34.090			-3.788
44504.000			-34.088			-3.788
44604.000			-34.086			-3.787
44705.000			-34.084			-3.787
44803.000			-34.080			-3.787
44904.000			-34.078			-3.786
45005.000			-34.074			-3.786
45104.000			-34.073			-3.786
45204.000			-34.071			-3.786
45304.000			-34.068			-3.785
45404.000			-34.065			-3.785
45504.000			-34.060			-3.784
45605.000			-34.059			-3.784
45704.000			-34.057			-3.784
45804.000			-34.054			-3.784
45905.000			-34.052			-3.784
46003.000			-34.051			-3.783
46104.000			-34.049			-3.783
46205.000			-34.044			-3.783
46304.000			-34.043			-3.783
46404.000			-34.041			-3.782
46505.000			-34.038			-3.782
46604.000			-34.035			-3.782
46703.000			-34.034			-3.782
46805.000			-34.032			-3.781
46904.000			-34.025			-3.781
47004.000			-34.024			-3.780
47105.000			-34.023			-3.780
47204.000			-34.020			-3.780
47304.000			-34.018			-3.780
47404.000			-34.016			-3.780
47504.000			-34.015			-3.779
47605.000			-34.013			-3.779
47704.000			-34.008			-3.779
47804.000			-34.005			-3.778
47904.000			-34.003			-3.778
48004.000			-34.002			-3.778
48104.000			-34.000			-3.778
48205.000			-33.998			-3.778
48304.000			-33.996			-3.777
48404.000			-33.992			-3.777
48505.000			-33.990			-3.777
48603.000			-33.988			-3.776
48704.000			-33.986			-3.776
48804.000			-33.983			-3.776
48904.000			-33.982			-3.776
49004.000			-33.980			-3.776
49105.000			-33.975			-3.775
49204.000			-33.973			-3.775
49303.000			-33.972			-3.775
49405.000			-33.970			-3.774
49504.000			-33.967			-3.774
49604.000			-33.964			-3.774
49705.000			-33.964			-3.774
49804.000			-33.960			-3.773
49904.000			-33.958			-3.773
50004.000			-33.956			-3.773
50104.000			-33.953			-3.773
50204.000			-33.951			-3.772
50305.000			-33.948			-3.772
50404.000			-33.947			-3.772
50504.000			-33.946			-3.772
50605.000			-33.942			-3.771
50703.000			-33.940			-3.771
50805.000			-33.938			-3.771
50904.000			-33.936			-3.771
51004.000			-33.934			-3.770
51105.000			-33.931			-3.770
51204.000			-33.930			-3.770
51304.000			-33.926			-3.770
51404.000			-33.924			-3.769
51504.000			-33.922			-3.769
51604.000			-33.920			-3.769
51705.000			-33.918			-3.769
51804.000			-33.917			-3.769
51904.000			-33.915			-3.768
52005.000			-33.911			-3.768
52103.000			-33.909			-3.768
52204.000			-33.908			-3.768
52305.000			-33.906			-3.767
52404.000			-33.904			-3.767
52504.000			-33.903			-3.767
52604.000			-33.900			-3.767
52704.000			-33.896			-3.766
52804.000			-33.895			-3.766
52905.000			-33.893			-3.766
53004.000			-33.891			-3.766
53104.000			-33.889			-3.765
53205.000			-33.887			-3.765
53303.000			-33.885			-3.765
53404.000			-33.884			-3.765
53505.000			-33.879			-3.764
53604.000			-33.877			-3.764
53704.000			-33.875			-3.764
53805.000			-33.874			-3.764
53904.000			-33.871			-3.763
54003.000			-33.870			-3.763
54104.000			-33.869			-3.763
54204.000			-33.864			-3.763
54305.000			-33.863			-3.763
54404.000			-33.860			-3.762
54504.000			-33.859			-3.762
54605.000			-33.858			-3.762
54703.000			-33.857			-3.762
54804.000			-33.855			-3.762
54905.000			-33.850			-3.761
55004.000			-33.849			-3.761
55104.000			-33.847			-3.761
55205.000			-33.845			-3.761
55304.000			-33.843			-3.760
55403.000			-33.842			-3.760
55505.000			-33.840			-3.760
55604.000			-33.837			-3.760
55704.000			-33.834			-3.759
55805.000			-33.831			-3.759
55904.000			-33.829			-3.759
56004.000			-33.828			-3.759
56104.000			-33.826			-3.758
56204.000			-33.825			-3.758
56304.000			-33.824			-3.758
56405.000			-33.820			-3.758
56504.000			-33.818			-3.758
56604.000			-33.817			-3.757
56705.000			-33.815			-3.757
56803.000			-33.814			-3.757
56904.000			-33.811			-3.757
57005.000			-33.809			-3.757
57104.000			-33.807			-3.756
57205.000			-33.804			-3.756
57304.000			-33.803			-3.756
57404.000			-33.800			-3.756
57504.000			-33.798			-3.755
57604.000			-33.797			-3.755
57704.000			-33.796			-3.755
57805.000			-33.793			-3.755
57904.000			-33.791			-3.755
58004.000			-33.788			-3.754
58105.000			-33.787			-3.754
58203.000			-33.785			-3.754
58304.000			-33.784			-3.754
58405.000			-33.782			-3.754
58504.000			-33.778			-3.753
58604.000			-33.777			-3.753
58705.000			-33.775			-3.753
58804.000			-33.774			-3.753
58903.000			-33.772			-3.752
59005.000			-33.771			-3.752
59104.000			-33.770			-3.752
59204.000			-33.768			-3.752
59305.000			-33.764			-3.752
59404.000			-33.762			-3.751
59504.000			-33.760			-3.751
59604.000			-33.759			-3.751
59704.000			-33.758			-3.751
59804.000			-33.756			-3.751
59905.000			-33.755			-3.751
60004.000			-33.749			-3.750
60104.000			-33.748			-3.750
60205.000			-33.747			-3.750
60303.000			-33.746			-3.750
60405.000			-33.745			-3.749
60504.000			-33.742			-3.749
60604.000			-33.741			-3.749
60705.000			-33.737			-3.749
60804.000			-33.735			-3.748
60904.000			-33.734			-3.748
61004.000			-33.732			-3.748
61104.000			-33.731			-3.748
61204.000			-33.730			-3.748
61305.000			-33.728			-3.748
61404.000			-33.725			-3.747
61504.000			-33.723			-3.747
61605.000			-33.721			-3.747
61704.000			-33.719			-3.747
61804.000			-33.717			-3.746
61905.000			-33.716			-3.746
62004.000			-33.715			-3.746
62104.000			-33.713			-3.746
62204.000			-33.710			-3.746
62304.000			-33.708			-3.745
62404.000			-33.706			-3.745
62505.000			-33.704			-3.745
62604.000			-33.702			-3.745
62704.000			-33.701			-3.745
62805.000			-33.700			-3.744
62903.000			-33.697			-3.744
63004.000			-33.696			-3.744
63105.000			-33.695			-3.744
63204.000			-33.693			-3.744
63304.000			-33.691			-3.743
63405.000			-33.689			-3.743
63504.000			-33.688			-3.743
63603.000			-33.685			-3.743
63704.000			-33.683			-3.743
63804.000			-33.682			-3.742
63905.000			-33.681			-3.742
64004.000			-33.679			-3.742
64104.000			-33.678			-3.742
64205.000			-33.676			-3.742
64303.000			-33.673			-3.741
64404.000			-33.671			-3.741
64505.000			-33.670			-3.741
64604.000			-33.668			-3.741
64704.000			-33.667			-3.741
64805.000			-33.665			-3.741
64904.000			-33.664			-3.740
65003.000			-33.662			-3.740
65105.000			-33.659			-3.740
65204.000			-33.657			-3.740
65304.000			-33.656			-3.740
65405.000			-33.655			-3.739
65504.000			-33.653			-3.739
65604.000			-33.650			-3.739
65704.000			-33.649			-3.739
65804.000			-33.646			-3.738
65904.000			-33.645			-3.738
66005.000			-33.644			-3.738
66104.000			-33.642			-3.738
66204.000			-33.641			-3.738
66305.000			-33.640			-3.738
66403.000			-33.639			-3.738
66504.000			-33.635			-3.737
66605.000			-33.633			-3.737
66704.000			-33.632			-3.737
66805.000			-33.631			-3.737
66904.000			-33.628			-3.736
67004.000			-33.627			-3.736
67104.000			-33.625			-3.736
67204.000			-33.622			-3.736
67304.000			-33.622			-3.736
67405.000			-33.621			-3.736
67504.000			-33.619			-3.735
67604.000			-33.618			-3.735
67705.000			-33.617			-3.735
67803.000			-33.614			-3.735
67904.000			-33.613			-3.735
68005.000			-33.611			-3.735
68104.000			-33.610			-3.734
68204.000			-33.607			-3.734
68305.000			-33.606			-3.734
68404.000			-33.605			-3.734
68503.000			-33.603			-3.734
68605.000			-33.602			-3.734
68704.000			-33.598			-3.733
68804.000			-33.596			-3.733
68905.000			-33.595			-3.733
69004.000			-33.594			-3.733
69104.000			-33.593			-3.733
69204.000			-33.591			-3.732
69304.000			-33.591			-3.732
69404.000			-33.587			-3.732
69505.000			-33.586			-3.732
69604.000			-33.584			-3.732
69704.000			-33.582			-3.731
69805.000			-33.580			-3.731
69903.000			-33.579			-3.731
70005.000			-33.578			-3.731
70104.000			-33.576			-3.731
70204.000			-33.574			-3.730
70305.000			-33.573			-3.730
70404.000			-33.571			-3.730
70504.000			-33.571			-3.730
70604.000			-33.569			-3.730
70704.000			-33.567			-3.730
70804.000			-33.566			-3.730
70905.000			-33.563			-3.729
71004.000			-33.562			-3.729
71104.000			-33.561			-3.729
71205.000			-33.559			-3.729
71303.000			-33.557			-3.729
71404.000			-33.555			-3.728
71505.000			-33.555			-3.728
71604.000			-33.552			-3.728
71704.000			-33.551			-3.728
71805.000			-33.550			-3.728
71904.000			-33.549			-3.728
72003.000			-33.546			-3.727
72105.000			-33.545			-3.727
72204.000			-33.542			-3.727
72304.000			-33.540			-3.727
72405.000			-33.539			-3.727
72504.000			-33.538			-3.726
72604.000			-33.538			-3.726
72704.000			-33.535			-3.726
72804.000			-33.534			-3.726
72904.000			-33.531			-3.726
73005.000			-33.530			-3.726
73104.000			-33.528			-3.725
73205.000			-33.527			-3.725
73304.000			-33.526			-3.725
73403.000			-33.525			-3.725
73505.000			-33.523			-3.725
73604.000			-33.522			-3.725
73704.000			-33.521			-3.725
73805.000			-33.518			-3.724
73904.000			-33.518			-3.724
74004.000			-33.515			-3.724
74104.000			-33.513			-3.724
74204.000			-33.512			-3.724
74304.000			-33.512			-3.724
74405.000			-33.510			-3.723
74504.000			-33.508			-3.723
74603.000			-33.506			-3.723
74705.000			-33.505			-3.723
74804.000			-33.504			-3.723
74904.000			-33.503			-3.723
75005.000			-33.502			-3.722
75104.000			-33.499			-3.722
75204.000			-33.497			-3.722
75304.000			-33.496			-3.722
75404.000			-33.495			-3.722
75503.000			-33.494			-3.722
75605.000			-33.492			-3.721
75704.000			-33.491			-3.721
75804.000			-33.489			-3.721
75905.000			-33.487			-3.721
76004.000			-33.486			-3.721
76104.000			-33.484			-3.720
76204.000			-33.483			-3.720
76304.000			-33.482			-3.720
76405.000			-33.480			-3.720
76504.000			-33.479			-3.720
76604.000			-33.478			-3.720
76705.000			-33.476			-3.720
76804.000			-33.474			-3.719
76903.000			-33.472			-3.719
77005.000			-33.472			-3.719
77104.000			-33.471			-3.719
77204.000			-33.470			-3.719
77305.000			-33.469			-3.719
77404.000			-33.466			-3.718
77504.000			-33.465			-3.718
77604.000			-33.464			-3.718
77704.000			-33.463			-3.718
77804.000			-33.461			-3.718
77905.000			-33.460			-3.718
78004.000			-33.458			-3.718
78104.000			-33.456			-3.717
78205.000			-33.453			-3.717
78303.000			-33.453			-3.717
78404.000			-33.452			-3.717
78505.000			-33.450			-3.717
78604.000			-33.449			-3.717
78704.000			-33.448			-3.716
78805.000			-33.445			-3.716
78904.000			-33.444			-3.716
79003.000			-33.442			-3.716
79105.000			-33.441			-3.716
79204.000			-33.441			-3.716
79304.000			-33.440			-3.716
79405.000			-33.438			-3.715
79504.000			-33.436			-3.715
79605.000			-33.434			-3.715
79703.000			-33.433			-3.715
79804.000			-33.431			-3.715
79905.000			-33.430			-3.714
80004.000			-33.429			-3.714
80104.000			-33.427			-3.714
80205.000			-33.427			-3.714
80304.000			-33.425			-3.714
80403.000			-33.423			-3.714
80505.000			-33.423			-3.714
80604.000			-33.421			-3.713
80704.000			-33.420			-3.713
80805.000			-33.418			-3.713
80903.000			-33.416			-3.713
81004.000			-33.415			-3.713
81105.000			-33.413			-3.713
81204.000			-33.412			-3.712
81304.000			-33.411			-3.712
81405.000			-33.410			-3.712
81504.000			-33.409			-3.712
81603.000			-33.407			-3.712
81705.000			-33.405			-3.712
81804.000			-33.404			-3.712
81904.000			-33.402			-3.711
82005.000			-33.401			-3.711
82104.000			-33.399			-3.711
82204.000			-33.398			-3.711
82304.000			-33.398			-3.711
82404.000			-33.396			-3.711
82504.000			-33.394			-3.710
82605.000			-33.392			-3.710
82704.000			-33.392			-3.710
82805.000			-33.391			-3.710
82904.000			-33.389			-3.710
83003.000			-33.388			-3.710
83105.000			-33.386			-3.710
83204.000			-33.384			-3.709
83304.000			-33.383			-3.709
83405.000			-33.383			-3.709
83504.000			-33.381			-3.709
83604.000			-33.380			-3.709
83704.000			-33.379			-3.709
83804.000			-33.378			-3.709
83904.000			-33.375			-3.708
84005.000			-33.374			-3.708
84104.000			-33.373			-3.708
84204.000			-33.372			-3.708
84305.000			-33.372			-3.708
84403.000			-33.370			-3.708
84504.000			-33.368			-3.708
84605.000			-33.367			-3.707
84704.000			-33.364			-3.707
84804.000			-33.363			-3.707
84905.000			-33.363			-3.707
85004.000			-33.362			-3.707
85103.000			-33.360			-3.707
85205.000			-33.360			-3.707
85304.000			-33.359			-3.707
85404.000			-33.356			-3.706
85505.000			-33.355			-3.706
85604.000			-33.353			-3.706
85704.000			-33.352			-3.706
85804.000			-33.352			-3.706
85904.000			-33.350			-3.706
86005.000			-33.349			-3.705
86104.000			-33.346			-3.705
86204.000			-33.345			-3.705
86305.000			-33.345			-3.705
86404.000			-33.344			-3.705
86503.000			-33.342			-3.705
86605.000			-33.340			-3.704
86704.000			-33.339			-3.704
86804.000			-33.337			-3.704
86905.000			-33.335			-3.704
87004.000			-33.335			-3.704
87104.000			-33.334			-3.704
87204.000			-33.334			-3.704
87304.000			-33.332			-3.704
87404.000			-33.330			-3.703
87505.000			-33.329			-3.703
87604.000			-33.328			-3.703
87704.000			-33.327			-3.703
87805.000			-33.325			-3.703
87903.000			-33.323			-3.703
88004.000			-33.323			-3.703
88105.000			-33.322			-3.702
88204.000			-33.321			-3.702
88304.000			-33.319			-3.702
88405.000			-33.317			-3.702
88504.000			-33.317			-3.702
88603.000			-33.316			-3.702
88705.000			-33.315			-3.702
88804.000			-33.314			-3.702
88904.000			-33.312			-3.701
89005.000			-33.310			-3.701
89103.000			-33.307			-3.701
89205.000			-33.307			-3.701
89304.000			-33.306			-3.701
89404.000			-33.305			-3.701
89505.000			-33.305			-3.701
89604.000			-33.303			-3.700
89704.000			-33.302			-3.700
89804.000			-33.301			-3.700
89904.000			-33.299			-3.700
90003.000			-33.298			-3.700
90105.000			-33.297			-3.700
90204.000			-33.296			-3.700
90304.000			-33.295			-3.699
90405.000			-33.292			-3.699
90504.000			-33.290			-3.699
90604.000			-33.290			-3.699
90704.000			-33.289			-3.699
90804.000			-33.288			-3.699
90904.000			-33.287			-3.699
91005.000			-33.287			-3.699
91104.000			-33.286			-3.698
91204.000			-33.283			-3.698
91305.000			-33.282			-3.698
91403.000			-33.281			-3.698
91504.000			-33.279			-3.698
91605.000			-33.279			-3.698
91704.000			-33.279			-3.698
91804.000			-33.277			-3.697
91905.000			-33.276			-3.697
92004.000			-33.274			-3.697
92103.000			-33.273			-3.697
92205.000			-33.273			-3.697
92304.000			-33.271			-3.697
92405.000			-33.269			-3.697
92504.000			-33.268			-3.696
92603.000			-33.266			-3.696
92705.000			-33.265			-3.696
92804.000			-33.263			-3.696
92904.000			-33.262			-3.696
93005.000			-33.261			-3.696
93104.000			-33.261			-3.696
93204.000			-33.258			-3.695
93304.000			-33.257			-3.695
93404.000			-33.256			-3.695
93504.000			-33.255			-3.695
93605.000			-33.255			-3.695
93704.000			-33.253			-3.695
93804.000			-33.252			-3.695
93905.000			-33.251			-3.695
94003.000			-33.250			-3.694
94104.000			-33.248			-3.694
94205.000			-33.246			-3.694
94304.000			-33.245			-3.694
94404.000			-33.244			-3.694
94505.000			-33.243			-3.694
94604.000			-33.244			-3.694
94703.000			-33.242			-3.694
94805.000			-33.239			-3.693
94904.000			-33.238			-3.693
95004.000			-33.238			-3.693
95105.000			-33.237			-3.693
95204.000			-33.236			-3.693
95304.000			-33.235			-3.693
95404.000			-33.234			-3.693
95504.000			-33.233			-3.693
95605.000			-33.231			-3.692
95704.000			-33.231			-3.692
95804.000			-33.229			-3.692
95905.000			-33.227			-3.692
96004.000			-33.227			-3.692
96103.000			-33.225			-3.692
96205.000			-33.222			-3.691
96304.000			-33.223			-3.691
96404.000			-33.223			-3.691
96505.000			-33.222			-3.691
96604.000			-33.222			-3.691
96704.000			-33.219			-3.691
96804.000			-33.218			-3.691
96904.000			-33.218			-3.691
97004.000			-33.215			-3.691
97105.000			-33.213			-3.690
97204.000			-33.213			-3.690
97304.000			-33.212			-3.690
97405.000			-33.211			-3.690
97503.000			-33.210			-3.690
97604.000			-33.209			-3.690
97705.000			-33.208			-3.690
97804.000			-33.206			-3.690
97904.000			-33.205			-3.689
98005.000			-33.204			-3.689
98104.000			-33.203			-3.689
98203.000			-33.203			-3.689
98305.000			-33.202			-3.689
98404.000			-33.200			-3.689
98504.000			-33.198			-3.689
98605.000			-33.196			-3.688
98704.000			-33.197			-3.689
98805.000			-33.195			-3.688
98903.000			-33.195			-3.688
99004.000			-33.194			-3.688
99105.000			-33.192			-3.688
99204.000			-33.189			-3.688
99304.000			-33.188			-3.688
99405.000			-33.188			-3.688
99504.000			-33.187			-3.687
99603.000			-33.186			-3.687
99705.000			-33.185			-3.687
99804.000			-33.183			-3.687
99904.000			-33.183			-3.687
100005.000			-33.181			-3.687
100104.000			-33.180			-3.687
100204.000			-33.180			-3.687
100304.000			-33.179			-3.687
100404.000			-33.177			-3.686
100504.000			-33.176			-3.686
100605.000			-33.174			-3.686
100704.000			-33.173			-3.686
100804.000			-33.172			-3.686
100905.000			-33.172			-3.686
101003.000			-33.171			-3.686
101104.000			-33.170			-3.686
101205.000			-33.168			-3.685
101304.000			-33.167			-3.685
101404.000			-33.167			-3.685
101505.000			-33.166			-3.685
101604.000			-33.165			-3.685
101703.000			-33.164			-3.685
101805.000			-33.161			-3.685
101904.000			-33.160			-3.684
102005.000			-33.159			-3.684
102104.000			-33.157			-3.684
102204.000			-33.157			-3.684
102305.000			-33.157			-3.684
102403.000			-33.155			-3.684
102504.000			-33.154			-3.684
102605.000			-33.154			-3.684
102704.000			-33.153			-3.684
102804.000			-33.151			-3.683
102905.000			-33.150			-3.683
103004.000			-33.148			-3.683
103103.000			-33.147			-3.683
103205.000			-33.147			-3.683
103304.000			-33.145			-3.683
103404.000			-33.146			-3.683
103505.000			-33.143			-3.683
103604.000			-33.142			-3.682
103704.000			-33.141			-3.682
103804.000			-33.140			-3.682
103904.000			-33.139			-3.682
104004.000			-33.138			-3.682
104105.000			-33.137			-3.682
104204.000			-33.135			-3.682
104303.000			-33.134			-3.682
104405.000			-33.133			-3.681
104504.000			-33.132			-3.681
104604.000			-33.132			-3.681
104705.000			-33.130			-3.681
104804.000			-33.129			-3.681
104904.000			-33.127			-3.681
105004.000			-33.126			-3.681
105104.000			-33.125			-3.681
105203.000			-33.124			-3.680
105304.000			-33.124			-3.680
105404.000			-33.123			-3.680
105505.000			-33.122			-3.680
105604.000			-33.120			-3.680
105703.000			-33.119			-3.680
105805.000			-33.118			-3.680
105904.000			-33.117			-3.680
106004.000			-33.117			-3.680
106105.000			-33.117			-3.680
106204.000			-33.114			-3.679
106304.000			-33.112			-3.679
106404.000			-33.112			-3.679
106504.000			-33.112			-3.679
106604.000			-33.111			-3.679
106705.000			-33.108			-3.679
106804.000			-33.106			-3.678
106904.000			-33.106			-3.678
107005.000			-33.106			-3.678
107103.000			-33.106			-3.678
107204.000			-33.104			-3.678
107305.000			-33.102			-3.678
107404.000			-33.101			-3.678
107504.000			-33.100			-3.678
107605.000			-33.100			-3.678
107704.000			-33.100			-3.678
107803.000			-33.098			-3.678
107905.000			-33.097			-3.677
108004.000			-33.095			-3.677
108104.000			-33.095			-3.677
108205.000			-33.094			-3.677
108304.000			-33.093			-3.677
108405.000			-33.092			-3.677
108503.000			-33.091			-3.677
108604.000			-33.090			-3.677
108705.000			-33.088			-3.676
108804.000			-33.087			-3.676
108904.000			-33.085			-3.676
109005.000			-33.085			-3.676
109104.000			-33.084			-3.676
109203.000			-33.083			-3.676
109305.000			-33.081			-3.676
109404.000			-33.079			-3.675
109504.000			-33.080			-3.676
109605.000			-33.080			-3.676
109704.000			-33.079			-3.675
109804.000			-33.078			-3.675
109905.000			-33.077			-3.675
110004.000			-33.076			-3.675
110103.000			-33.074			-3.675
110205.000			-33.073			-3.675
110304.000			-33.072			-3.675
110404.000			-33.071			-3.675
110505.000			-33.071			-3.675
110604.000			-33.070			-3.674
110704.000			-33.068			-3.674
110804.000			-33.067			-3.674
110904.000			-33.066			-3.674
111004.000			-33.065			-3.674
111105.000			-33.064			-3.674
111204.000			-33.063			-3.674
111304.000			-33.062			-3.674
111405.000			-33.062			-3.674
111503.000			-33.060			-3.673
111605.000			-33.059			-3.673
111704.000			-33.058			-3.673
111804.000			-33.056			-3.673
111905.000			-33.056			-3.673
112004.000			-33.055			-3.673
112104.000			-33.054			-3.673
112204.000			-33.053			-3.673
112304.000			-33.052			-3.672
112404.000			-33.052			-3.672
112505.000			-33.051			-3.672
112604.000			-33.049			-3.672
112703.000			-33.048			-3.672
112805.000			-33.048			-3.672
112904.000			-33.046			-3.672
113004.000			-33.045			-3.672
113105.000			-33.044			-3.672
113204.000			-33.044			-3.672
113304.000			-33.043			-3.671
113404.000			-33.043			-3.671
113504.000			-33.041			-3.671
113604.000			-33.039			-3.671
113705.000			-33.038			-3.671
113804.000			-33.038			-3.671
113904.000			-33.037			-3.671
114005.000			-33.036			-3.671
114104.000			-33.036			-3.671
114204.000			-33.034			-3.670
114304.000			-33.033			-3.670
114404.000			-33.032			-3.670
114504.000			-33.031			-3.670
114605.000			-33.031			-3.670
114704.000			-33.030			-3.670
114803.000			-33.029			-3.670
114904.000			-33.027			-3.670
115003.000			-33.025			-3.669
115105.000			-33.025			-3.669
115204.000			-33.025			-3.669
115304.000			-33.022			-3.669
115405.000			-33.022			-3.669
115503.000			-33.022			-3.669
115604.000			-33.021			-3.669
115705.000			-33.020			-3.669
115804.000			-33.018			-3.669
115904.000			-33.017			-3.669
116005.000			-33.016			-3.668
116104.000			-33.015			-3.668
116203.000			-33.013			-3.668
116305.000			-33.013			-3.668
116404.000			-33.012			-3.668
116504.000			-33.012			-3.668
116605.000			-33.011			-3.668
116704.000			-33.010			-3.668
116804.000			-33.010			-3.668
116904.000			-33.008			-3.668
117004.000			-33.007			-3.667
117104.000			-33.006			-3.667
117205.000			-33.005			-3.667
117304.000			-33.004			-3.667
117404.000			-33.004			-3.667
117505.000			-33.003			-3.667
117603.000			-33.001			-3.667
117704.000			-33.000			-3.667
117805.000			-32.999			-3.667
117904.000			-32.998			-3.666
118005.000			-32.997			-3.666
118104.000			-32.996			-3.666
118204.000			-32.995			-3.666
118304.000			-32.995			-3.666
118404.000			-32.994			-3.666
118504.000			-32.993			-3.666
118605.000			-32.992			-3.666
118704.000			-32.991			-3.666
118804.000			-32.990			-3.666
118905.000			-32.988			-3.665
119004.000			-32.987			-3.665
119104.000			-32.987			-3.665
119204.000			-32.987			-3.665
119304.000			-32.986			-3.665
119404.000			-32.983			-3.665
119505.000			-32.983			-3.665
119604.000			-32.983			-3.665
119704.000			-32.982			-3.665
119805.000			-32.981			-3.665
119903.000			-32.981			-3.665
120004.000			-32.979			-3.664
120105.000			-32.977			-3.664
120204.000			-32.977			-3.664
120304.000			-32.977			-3.664
120405.000			-32.975			-3.664
120504.000			-32.974			-3.664
120603.000			-32.973			-3.664
120705.000			-32.973			-3.664
120804.000			-32.972			-3.664
120904.000			-32.972			-3.664
121005.000			-32.970			-3.663
121104.000			-32.969			-3.663
121205.000			-32.968			-3.663
121304.000			-32.967			-3.663
121404.000			-32.967			-3.663
121504.000			-32.966			-3.663
121604.000			-32.964			-3.663
121704.000			-32.963			-3.663
121805.000			-32.962			-3.662
121904.000			-32.960			-3.662
122004.000			-32.959			-3.662
122105.000			-32.959			-3.662
122203.000			-32.959			-3.662
122304.000			-32.957			-3.662
122405.000			-32.957			-3.662
122504.000			-32.956			-3.662
122604.000			-32.955			-3.662
122705.000			-32.954			-3.662
122804.000			-32.954			-3.662
122903.000			-32.953			-3.661
123005.000			-32.951			-3.661
123104.000			-32.950			-3.661
123204.000			-32.950			-3.661
123305.000			-32.949			-3.661
123404.000			-32.948			-3.661
123504.000			-32.947			-3.661
123604.000			-32.947			-3.661
123704.000			-32.946			-3.661
123804.000			-32.944			-3.660
123905.000			-32.943			-3.660
124004.000			-32.942			-3.660
124104.000			-32.941			-3.660
124205.000			-32.942			-3.660
124304.000			-32.940			-3.660
124405.000			-32.940			-3.660
124503.000			-32.938			-3.660
124604.000			-32.938			-3.660
124705.000			-32.936			-3.660
124804.000			-32.935			-3.659
124904.000			-32.936			-3.660
125005.000			-32.934			-3.659
125104.000			-32.933			-3.659
125203.000			-32.932			-3.659
125305.000			-32.930			-3.659
125404.000			-32.928			-3.659
125504.000			-32.929			-3.659
125605.000			-32.928			-3.659
125704.000			-32.927			-3.659
125804.000			-32.926			-3.658
125904.000			-32.926			-3.658
126004.000			-32.925			-3.658
126104.000			-32.923			-3.658
126205.000			-32.922			-3.658
126304.000			-32.922			-3.658
126404.000			-32.922			-3.658
126505.000			-32.920			-3.658
126603.000			-32.919			-3.658
126704.000			-32.918			-3.658
126805.000			-32.917			-3.657
126904.000			-32.917			-3.657
127004.000			-32.916			-3.657
127105.000			-32.915			-3.657
127204.000			-32.914			-3.657
127304.000			-32.913			-3.657
127405.000			-32.913			-3.657
127503.000			-32.912			-3.657
127605.000			-32.910			-3.657
127704.000			-32.910			-3.657
127804.000			-32.909			-3.657
127905.000			-32.909			-3.657
128004.000			-32.907			-3.656
128104.000			-32.905			-3.656
128204.000			-32.906			-3.656
128304.000			-32.905			-3.656
128404.000			-32.904			-3.656
128505.000			-32.903			-3.656
128604.000			-32.901			-3.656
128704.000			-32.901			-3.656
128805.000			-32.901			-3.656
128903.000			-32.900			-3.656
129004.000			-32.898			-3.655
129105.000			-32.897			-3.655
129204.000			-32.896			-3.655
129304.000			-32.895			-3.655
129405.000			-32.893			-3.655
129504.000			-32.895			-3.655
129604.000			-32.893			-3.655
129705.000			-32.893			-3.655
129803.000			-32.892			-3.655
129904.000			-32.891			-3.655
130005.000			-32.890			-3.654
130104.000			-32.890			-3.654
130204.000			-32.889			-3.654
130305.000			-32.886			-3.654
130404.000			-32.885			-3.654
130503.000			-32.884			-3.654
130605.000			-32.885			-3.654
130704.000			-32.885			-3.654
130805.000			-32.883			-3.654
130904.000			-32.882			-3.654
131004.000			-32.882			-3.654
131105.000			-32.881			-3.653
131203.000			-32.880			-3.653
131304.000			-32.880			-3.653
131405.000			-32.879			-3.653
131504.000			-32.877			-3.653
131604.000			-32.877			-3.653
131705.000			-32.876			-3.653
131804.000			-32.874			-3.653
131904.000			-32.873			-3.653
132005.000			-32.872			-3.652
132103.000			-32.872			-3.652
132204.000			-32.872			-3.652
132305.000			-32.871			-3.652
132404.000			-32.870			-3.652
132504.000			-32.868			-3.652
132605.000			-32.867			-3.652
132704.000			-32.868			-3.652
132804.000			-32.866			-3.652
132905.000			-32.865			-3.652
133003.000			-32.864			-3.652
133104.000			-32.863			-3.651
133205.000			-32.863			-3.651
133304.000			-32.861			-3.651
133404.000			-32.860			-3.651
133505.000			-32.859			-3.651
133604.000			-32.860			-3.651
133704.000			-32.859			-3.651
133805.000			-32.859			-3.651
133903.000			-32.857			-3.651
134005.000			-32.856			-3.651
134104.000			-32.856			-3.651
134204.000			-32.855			-3.651
134305.000			-32.854			-3.650
134404.000			-32.854			-3.650
134504.000			-32.852			-3.650
134605.000			-32.852			-3.650
134704.000			-32.852			-3.650
134803.000			-32.851			-3.650
134905.000			-32.850			-3.650
135004.000			-32.848			-3.650
135104.000			-32.848			-3.650
135205.000			-32.847			-3.650
135304.000			-32.847			-3.650
135404.000			-32.845			-3.649
135505.000			-32.844			-3.649
135604.000			-32.843			-3.649
135703.000			-32.842			-3.649
135805.000			-32.841			-3.649
135904.000			-32.841			-3.649
136004.000			-32.841			-3.649
136105.000			-32.839			-3.649
136204.000			-32.839			-3.649
136304.000			-32.839			-3.649
136404.000			-32.837			-3.649
136504.000			-32.836			-3.648
136603.000			-32.835			-3.648
136705.000			-32.834			-3.648
136804.000			-32.833			-3.648
136904.000			-32.833			-3.648
137005.000			-32.832			-3.648
137104.000			-32.830			-3.648
137205.000			-32.830			-3.648
137303.000			-32.830			-3.648
137404.000			-32.829			-3.648
137504.000			-32.828			-3.648
137604.000			-32.827			-3.647
137704.000			-32.827			-3.647
137805.000			-32.826			-3.647
137904.000			-32.826			-3.647
138004.000			-32.825			-3.647
138105.000			-32.823			-3.647
138203.000			-32.822			-3.647
138304.000			-32.822			-3.647
138404.000			-32.820			-3.647
138504.000			-32.820			-3.647
138604.000			-32.819			-3.647
138705.000			-32.819			-3.647
138804.000			-32.818			-3.646
138904.000			-32.818			-3.646
139005.000			-32.816			-3.646
139103.000			-32.814			-3.646
139204.000			-32.814			-3.646
139304.000			-32.812			-3.646
139404.000			-32.812			-3.646
139504.000			-32.813			-3.646
139605.000			-32.811			-3.646
139704.000			-32.809			-3.645
139804.000			-32.810			-3.646
139905.000			-32.809			-3.645
140003.000			-32.809			-3.645
140104.000			-32.809			-3.645
140205.000			-32.808			-3.645
140304.000			-32.807			-3.645
140405.000			-32.804			-3.645
140504.000			-32.805			-3.645
140604.000			-32.804			-3.645
140705.000			-32.802			-3.645
140804.000			-32.803			-3.645
140903.000			-32.802			-3.645
141005.000			-32.801			-3.645
141104.000			-32.798			-3.644
141204.000			-32.798			-3.644
141305.000			-32.798			-3.644
141404.000			-32.797			-3.644
141504.000			-32.796			-3.644
141605.000			-32.796			-3.644
141704.000			-32.796			-3.644
141803.000			-32.795			-3.644
141905.000			-32.793			-3.644
142004.000			-32.792			-3.644
142104.000			-32.792			-3.644
142205.000			-32.792			-3.644
142304.000			-32.790			-3.643
142404.000			-32.789			-3.643
142504.000			-32.789			-3.643
142604.000			-32.787			-3.643
142703.000			-32.787			-3.643
142805.000			-32.786			-3.643
142904.000			-32.785			-3.643
143004.000			-32.783			-3.643
143105.000			-32.783			-3.643
143204.000			-32.783			-3.643
143304.000			-32.782			-3.642
143404.000			-32.782			-3.642
143504.000			-32.780			-3.642
143603.000			-32.780			-3.642
143704.000			-32.779			-3.642
143804.000			-32.778			-3.642
143905.000			-32.777			-3.642
144004.000			-32.777			-3.642
144104.000			-32.776			-3.642
144205.000			-32.776			-3.642
144303.000			-32.777			-3.642
144404.000			-32.776			-3.642
144504.000			-32.774			-3.642
144604.000			-32.773			-3.641
144704.000			-32.773			-3.641
144805.000			-32.771			-3.641
144904.000			-32.769			-3.641
145004.000			-32.768			-3.641
145105.000			-32.768			-3.641
145203.000			-32.768			-3.641
145304.000			-32.768			-3.641
145404.000			-32.767			-3.641
145504.000			-32.765			-3.641
145604.000			-32.764			-3.640
145705.000			-32.764			-3.640
145804.000			-32.764			-3.640
145904.000			-32.763			-3.640
146005.000			-32.762			-3.640
146103.000			-32.761			-3.640
146204.000			-32.760			-3.640
146305.000			-32.759			-3.640
146404.000			-32.759			-3.640
146504.000			-32.758			-3.640
146605.000			-32.757			-3.640
146704.000			-32.757			-3.640
146805.000			-32.755			-3.639
146904.000			-32.754			-3.639
147003.000			-32.755			-3.639
147105.000			-32.754			-3.639
147204.000			-32.752			-3.639
147304.000			-32.751			-3.639
147405.000			-32.751			-3.639
147504.000			-32.750			-3.639
147604.000			-32.750			-3.639
147705.000			-32.748			-3.639
147804.000			-32.748			-3.639
147903.000			-32.747			-3.639
148005.000			-32.747			-3.639
148104.000			-32.746			-3.638
148204.000			-32.744			-3.638
148305.000			-32.743			-3.638
148404.000			-32.742			-3.638
148504.000			-32.741			-3.638
148605.000			-32.742			-3.638
148704.000			-32.741			-3.638
148803.000			-32.740			-3.638
148905.000			-32.740			-3.638
149003.000			-32.739			-3.638
149104.000			-32.739			-3.638
149205.000			-32.739			-3.638
149304.000			-32.738			-3.638
149404.000			-32.736			-3.637
149505.000			-32.736			-3.637
149604.000			-32.736			-3.637
149703.000			-32.735			-3.637
149805.000			-32.734			-3.637
149903.000			-32.732			-3.637
150005.000			-32.731			-3.637
150104.000			-32.731			-3.637
150204.000			-32.730			-3.637
150305.000			-32.729			-3.637
150404.000			-32.729			-3.637
150504.000			-32.728			-3.636
150604.000			-32.728			-3.636
150704.000			-32.727			-3.636
150803.000			-32.726			-3.636
150905.000			-32.725			-3.636
151004.000			-32.725			-3.636
151104.000			-32.724			-3.636
151205.000			-32.725			-3.636
151304.000			-32.723			-3.636
151404.000			-32.723			-3.636
151504.000			-32.722			-3.636
151604.000			-32.721			-3.636
151704.000			-32.721			-3.636
151805.000			-32.719			-3.635
151904.000			-32.719			-3.635
152004.000			-32.717			-3.635
152105.000			-32.717			-3.635
152203.000			-32.716			-3.635
152304.000			-32.715			-3.635
152404.000			-32.715			-3.635
152504.000			-32.714			-3.635
152604.000			-32.714			-3.635
152705.000			-32.711			-3.635
152804.000			-32.712			-3.635
152904.000			-32.712			-3.635
153005.000			-32.712			-3.635
153103.000			-32.709			-3.634
153205.000			-32.709			-3.634
153304.000			-32.709			-3.634
153404.000			-32.708			-3.634
153505.000			-32.706			-3.634
153604.000			-32.705			-3.634
153704.000			-32.705			-3.634
153804.000			-32.704			-3.634
153904.000			-32.703			-3.634
154003.000			-32.703			-3.634
154105.000			-32.702			-3.634
154204.000			-32.701			-3.633
154304.000			-32.700			-3.633
154405.000			-32.700			-3.633
154504.000			-32.699			-3.633
154604.000			-32.699			-3.633
154704.000			-32.698			-3.633
154804.000			-32.697			-3.633
154903.000			-32.696			-3.633
155005.000			-32.695			-3.633
155104.000			-32.694			-3.633
155204.000			-32.693			-3.633
155305.000			-32.693			-3.633
155404.000			-32.692			-3.632
155504.000			-32.692			-3.632
155604.000			-32.691			-3.632
155704.000			-32.691			-3.632
155803.000			-32.689			-3.632
155905.000			-32.688			-3.632
156004.000			-32.689			-3.632
156104.000			-32.688			-3.632
156205.000			-32.688			-3.632
156304.000			-32.688			-3.632
156405.000			-32.685			-3.632
156504.000			-32.685			-3.632
156604.000			-32.684			-3.632
156704.000			-32.684			-3.632
156804.000			-32.683			-3.631
156904.000			-32.682			-3.631
157005.000			-32.681			-3.631
157104.000			-32.680			-3.631
157204.000			-32.679			-3.631
157305.000			-32.679			-3.631
157404.000			-32.678			-3.631
157504.000			-32.678			-3.631
157604.000			-32.677			-3.631
157704.000			-32.677			-3.631
157804.000			-32.676			-3.631
157905.000			-32.674			-3.630
158004.000			-32.673			-3.630
158104.000			-32.673			-3.630
158205.000			-32.672			-3.630
158304.000			-32.672			-3.630
158404.000			-32.672			-3.630
158504.000			-32.671			-3.630
158604.000			-32.671			-3.630
158704.000			-32.670			-3.630
158805.000			-32.669			-3.630
158904.000			-32.668			-3.630
159004.000			-32.667			-3.630
159105.000			-32.667			-3.630
159204.000			-32.666			-3.630
159304.000			-32.666			-3.630
159404.000			-32.665			-3.629
159504.000			-32.665			-3.629
159603.000			-32.664			-3.629
159704.000			-32.663			-3.629
159804.000			-32.662			-3.629
159905.000			-32.661			-3.629
160004.000			-32.660			-3.629
160104.000			-32.659			-3.629
160205.000			-32.660			-3.629
160303.000			-32.660			-3.629
160404.000			-32.659			-3.629
160504.000			-32.658			-3.629
160604.000			-32.657			-3.629
160704.000			-32.655			-3.628
160805.000			-32.654			-3.628
160904.000			-32.654			-3.628
161004.000			-32.653			-3.628
161105.000			-32.653			-3.628
161203.000			-32.653			-3.628
161304.000			-32.652			-3.628
161405.000			-32.652			-3.628
161504.000			-32.651			-3.628
161604.000			-32.649			-3.628
161705.000			-32.648			-3.628
161804.000			-32.648			-3.628
161904.000			-32.648			-3.628
162005.000			-32.649			-3.628
162103.000			-32.648			-3.628
162204.000			-32.644			-3.627
162305.000			-32.645			-3.627
162404.000			-32.645			-3.627
162504.000			-32.643			-3.627
162605.000			-32.642			-3.627
162704.000			-32.642			-3.627
162805.000			-32.641			-3.627
162904.000			-32.639			-3.627
163003.000			-32.639			-3.627
163105.000			-32.638			-3.626
163204.000			-32.637			-3.626
163304.000			-32.637			-3.626
163405.000			-32.637			-3.626
163504.000			-32.637			-3.626
163604.000			-32.635			-3.626
163705.000			-32.634			-3.626
163804.000			-32.633			-3.626
163903.000			-32.632			-3.626
164005.000			-32.632			-3.626
164104.000			-32.631			-3.626
164204.000			-32.631			-3.626
164305.000			-32.627			-3.625
164404.000			-32.628			-3.625
164504.000			-32.629			-3.625
164604.000			-32.627			-3.625
164704.000			-32.626			-3.625
164803.000			-32.626			-3.625
164905.000			-32.625			-3.625
165004.000			-32.624			-3.625
165104.000			-32.623			-3.625
165205.000			-32.622			-3.625
165304.000			-32.621			-3.625
165404.000			-32.621			-3.625
165504.000			-32.620			-3.624
165604.000			-32.619			-3.624
165704.000			-32.618			-3.624
165805.000			-32.618			-3.624
165904.000			-32.617			-3.624
166005.000			-32.616			-3.624
166104.000			-32.615			-3.624
166204.000			-32.615			-3.624
166305.000			-32.614			-3.624
166403.000			-32.613			-3.624
166504.000			-32.613			-3.624
166605.000			-32.612			-3.624
166704.000			-32.612			-3.624
166804.000			-32.612			-3.624
166905.000			-32.612			-3.624
167004.000			-32.610			-3.623
167104.000			-32.610			-3.623
167205.000			-32.609			-3.623
167303.000			-32.608			-3.623
167404.000			-32.608			-3.623
167505.000			-32.608			-3.623
167604.000			-32.608			-3.623
167704.000			-32.608			-3.623
167805.000			-32.606			-3.623
167904.000			-32.606			-3.623
168004.000			-32.604			-3.623
168105.000			-32.605			-3.623
168203.000			-32.604			-3.623
168304.000			-32.603			-3.623
168405.000			-32.603			-3.623
168504.000			-32.602			-3.622
168604.000			-32.601			-3.622
168705.000			-32.601			-3.622
168804.000			-32.600			-3.622
168904.000			-32.599			-3.622
169005.000			-32.599			-3.622
169103.000			-32.598			-3.622
169205.000			-32.598			-3.622
169304.000			-32.598			-3.622
169404.000			-32.596			-3.622
169505.000			-32.595			-3.622
169604.000			-32.596			-3.622
169704.000			-32.596			-3.622
169805.000			-32.594			-3.622
169904.000			-32.594			-3.622
170003.000			-32.593			-3.621
170105.000			-32.592			-3.621
170204.000			-32.591			-3.621
170304.000			-32.591			-3.621
170405.000			-32.591			-3.621
170504.000			-32.590			-3.621
170604.000			-32.589			-3.621
170705.000			-32.589			-3.621
170804.000			-32.589			-3.621
170903.000			-32.588			-3.621
171005.000			-32.587			-3.621
171104.000			-32.586			-3.621
171204.000			-32.586			-3.621
171305.000			-32.585			-3.621
171404.000			-32.584			-3.620
171504.000			-32.584			-3.620
171605.000			-32.583			-3.620
171704.000			-32.583			-3.620
171803.000			-32.582			-3.620
171905.000			-32.581			-3.620
172004.000			-32.580			-3.620
172104.000			-32.580			-3.620
172205.000			-32.578			-3.620
172304.000			-32.579			-3.620
172405.000			-32.578			-3.620
172504.000			-32.576			-3.620
172604.000			-32.576			-3.620
172704.000			-32.577			-3.620
172804.000			-32.576			-3.620
172904.000			-32.574			-3.619
173005.000			-32.575			-3.619
173104.000			-32.573			-3.619
173204.000			-32.573			-3.619
173305.000			-32.573			-3.619
173404.000			-32.572			-3.619
173504.000			-32.571			-3.619
173604.000			-32.571			-3.619
173704.000			-32.570			-3.619
173804.000			-32.570			-3.619
173905.000			-32.568			-3.619
174004.000			-32.568			-3.619
174104.000			-32.568			-3.619
174205.000			-32.566			-3.618
174303.000			-32.566			-3.618
174404.000			-32.566			-3.618
174504.000			-32.565			-3.618
174604.000			-32.564			-3.618
174704.000			-32.564			-3.618
174805.000			-32.564			-3.618
174904.000			-32.562			-3.618
175004.000			-32.562			-3.618
175105.000			-32.562			-3.618
175204.000			-32.560			-3.618
175304.000			-32.560			-3.618
175404.000			-32.560			-3.618
175504.000			-32.559			-3.618
175605.000			-32.558			-3.618
175704.000			-32.557			-3.617
175804.000			-32.557			-3.617
175905.000			-32.557			-3.617
176004.000			-32.556			-3.617
176104.000			-32.555			-3.617
176205.000			-32.555			-3.617
176303.000			-32.555			-3.617
176404.000			-32.555			-3.617
176505.000			-32.552			-3.617
176604.000			-32.551			-3.617
176704.000			-32.550			-3.617
176805.000			-32.550			-3.617
176904.000			-32.548			-3.616
177004.000			-32.548			-3.616
177105.000			-32.548			-3.616
177203.000			-32.548			-3.616
177304.000			-32.548			-3.616
177405.000			-32.546			-3.616
177504.000			-32.546			-3.616
177604.000			-32.545			-3.616
177705.000			-32.544			-3.616
177804.000			-32.544			-3.616
177904.000			-32.544			-3.616
178005.000			-32.543			-3.616
178103.000			-32.542			-3.616
178204.000			-32.542			-3.616
178305.000			-32.542			-3.616
178404.000			-32.540			-3.616
178504.000			-32.540			-3.616
178605.000			-32.540			-3.616
178704.000			-32.537			-3.615
178805.000			-32.537			-3.615
178904.000			-32.537			-3.615
179003.000			-32.537			-3.615
179105.000			-32.536			-3.615
179204.000			-32.535			-3.615
179304.000			-32.535			-3.615
179405.000			-32.535			-3.615
179504.000			-32.533			-3.615
179604.000			-32.533			-3.615
179705.000			-32.531			-3.615
179804.000			-32.530			-3.614
179903.000			-32.530			-3.614
180005.000			-32.530			-3.614
180104.000			-32.531			-3.615
180204.000			-32.530			-3.614
180305.000			-32.529			-3.614
180404.000			-32.529			-3.614
180504.000			-32.528			-3.614
180604.000			-32.528			-3.614
180704.000			-32.527			-3.614
180803.000			-32.526			-3.614
180905.000			-32.525			-3.614
181004.000			-32.525			-3.614
181104.000			-32.524			-3.614
181205.000			-32.524			-3.614
181304.000			-32.523			-3.614
181404.000			-32.524			-3.614
181504.000			-32.523			-3.614
181604.000			-32.521			-3.613
181704.000			-32.519			-3.613
181805.000			-32.520			-3.613
181904.000			-32.520			-3.613
182005.000			-32.519			-3.613
182104.000			-32.517			-3.613
182204.000			-32.518			-3.613
182305.000			-32.517			-3.613
182403.000			-32.517			-3.613
182504.000			-32.515			-3.613
182605.000			-32.514			-3.613
182704.000			-32.514			-3.613
182804.000			-32.514			-3.613
182905.000			-32.513			-3.613
183004.000			-32.513			-3.613
183104.000			-32.512			-3.612
183205.000			-32.511			-3.612
183303.000			-32.510			-3.612
183404.000			-32.510			-3.612
183505.000			-32.510			-3.612
183604.000			-32.510			-3.612
183704.000			-32.510			-3.612
183805.000			-32.507			-3.612
183904.000			-32.507			-3.612
184003.000			-32.506			-3.612
184105.000			-32.504			-3.612
184203.000			-32.504			-3.612
184304.000			-32.505			-3.612
184405.000			-32.504			-3.612
184504.000			-32.503			-3.611
184604.000			-32.502			-3.611
184705.000			-32.501			-3.611
184804.000			-32.501			-3.611
184903.000			-32.500			-3.611
185005.000			-32.500			-3.611
185104.000			-32.499			-3.611
185205.000			-32.498			-3.611
185304.000			-32.498			-3.611
185404.000			-32.497			-3.611
185505.000			-32.497			-3.611
185604.000			-32.497			-3.611
185704.000			-32.496			-3.611
185804.000			-32.495			-3.611
185904.000			-32.494			-3.610
186003.000			-32.494			-3.610
186105.000			-32.493			-3.610
186204.000			-32.492			-3.610
186304.000			-32.493			-3.610
186405.000			-32.492			-3.610
186504.000			-32.491			-3.610
186604.000			-32.490			-3.610
186704.000			-32.490			-3.610
186804.000			-32.489			-3.610
186903.000			-32.488			-3.610
187005.000			-32.489			-3.610
187104.000			-32.488			-3.610
187204.000			-32.487			-3.610
187305.000			-32.486			-3.610
187404.000			-32.485			-3.609
187504.000			-32.484			-3.609
187605.000			-32.484			-3.609
187704.000			-32.484			-3.609
187803.000			-32.482			-3.609
187905.000			-32.482			-3.609
188004.000			-32.481			-3.609
188104.000			-32.481			-3.609
188205.000			-32.480			-3.609
188304.000			-32.480			-3.609
188405.000			-32.479			-3.609
188504.000			-32.478			-3.609
188604.000			-32.478			-3.609
188704.000			-32.477			-3.609
188804.000			-32.476			-3.608
188904.000			-32.476			-3.608
189005.000			-32.475			-3.608
189104.000			-32.474			-3.608
189204.000			-32.474			-3.608
189305.000			-32.473			-3.608
189404.000			-32.473			-3.608
189504.000			-32.473			-3.608
189604.000			-32.473			-3.608
189704.000			-32.472			-3.608
189803.000			-32.471			-3.608
189905.000			-32.471			-3.608
190004.000			-32.471			-3.608
190104.000			-32.470			-3.608
190205.000			-32.469			-3.608
190304.000			-32.468			-3.608
190404.000			-32.467			-3.607
190504.000			-32.468			-3.608
190604.000			-32.467			-3.607
190703.000			-32.465			-3.607
190805.000			-32.464			-3.607
190904.000			-32.465			-3.607
191004.000			-32.464			-3.607
191105.000			-32.463			-3.607
191204.000			-32.463			-3.607
191304.000			-32.462			-3.607
191404.000			-32.462			-3.607
191504.000			-32.461			-3.607
191603.000			-32.461			-3.607
191704.000			-32.461			-3.607
191804.000			-32.459			-3.607
191905.000			-32.459			-3.607
192004.000			-32.459			-3.607
192104.000			-32.458			-3.606
192205.000			-32.458			-3.606
192303.000			-32.457			-3.606
192404.000			-32.458			-3.606
192505.000			-32.456			-3.606
192604.000			-32.456			-3.606
192704.000			-32.455			-3.606
192805.000			-32.455			-3.606
192904.000			-32.454			-3.606
193004.000			-32.453			-3.606
193105.000			-32.454			-3.606
193203.000			-32.453			-3.606
193304.000			-32.451			-3.606
193405.000			-32.451			-3.606
193504.000			-32.451			-3.606
193604.000			-32.450			-3.606
193705.000			-32.449			-3.605
193804.000			-32.448			-3.605
193904.000			-32.448			-3.605
194005.000			-32.447			-3.605
194103.000			-32.447			-3.605
194204.000			-32.447			-3.605
194305.000			-32.446			-3.605
194404.000			-32.445			-3.605
194504.000			-32.445			-3.605
194605.000			-32.444			-3.605
194704.000			-32.445			-3.605
194805.000			-32.443			-3.605
194904.000			-32.442			-3.605
195003.000			-32.442			-3.605
195105.000			-32.442			-3.605
195204.000			-32.442			-3.605
195304.000			-32.441			-3.605
195405.000			-32.440			-3.604
195504.000			-32.440			-3.604
195604.000			-32.438			-3.604
195705.000			-32.438			-3.604
195804.000			-32.437			-3.604
195903.000			-32.437			-3.604
196005.000			-32.437			-3.604
196104.000			-32.437			-3.604
196204.000			-32.435			-3.604
196305.000			-32.435			-3.604
196404.000			-32.435			-3.604
196504.000			-32.435			-3.604
196605.000			-32.434			-3.604
196704.000			-32.433			-3.604
196803.000			-32.432			-3.604
196905.000			-32.431			-3.603
197004.000			-32.430			-3.603
197104.000			-32.430			-3.603
197205.000			-32.430			-3.603
197304.000			-32.429			-3.603
197404.000			-32.428			-3.603
197505.000			-32.428			-3.603
197604.000			-32.428			-3.603
197703.000			-32.427			-3.603
197805.000			-32.427			-3.603
197904.000			-32.426			-3.603
198005.000			-32.426			-3.603
198104.000			-32.425			-3.603
198204.000			-32.426			-3.603
198305.000			-32.425			-3.603
198404.000			-32.424			-3.603
198504.000			-32.422			-3.602
198604.000			-32.421			-3.602
198704.000			-32.421			-3.602
198804.000			-32.421			-3.602
198905.000			-32.421			-3.602
199004.000			-32.421			-3.602
199104.000			-32.419			-3.602
199205.000			-32.419			-3.602
199304.000			-32.418			-3.602
199404.000			-32.418			-3.602
199504.000			-32.417			-3.602
199604.000			-32.416			-3.602
199704.000			-32.416			-3.602
199805.000			-32.416			-3.602
199904.000			-32.415			-3.602
200004.000			-32.414			-3.602
200105.000			-32.413			-3.601
200204.000			-32.413			-3.601
200304.000			-32.413			-3.601
200404.000			-32.412			-3.601
200504.000			-32.412			-3.601
200604.000			-32.411			-3.601
200705.000			-32.411			-3.601
200804.000			-32.411			-3.601
200904.000			-32.409			-3.601
201005.000			-32.408			-3.601
201103.000			-32.407			-3.601
201205.000			-32.407			-3.601
201304.000			-32.407			-3.601
201404.000			-32.406			-3.601
201505.000			-32.405			-3.601
201604.000			-32.405			-3.601
201704.000			-32.405			-3.601
201804.000			-32.405			-3.601
201904.000			-32.404			-3.600
202003.000			-32.402			-3.600
202105.000			-32.402			-3.600
202204.000			-32.403			-3.600
202304.000			-32.402			-3.600
202405.000			-32.401			-3.600
202504.000			-32.401			-3.600
202604.000			-32.401			-3.600
202704.000			-32.400			-3.600
202804.000			-32.399			-3.600
202904.000			-32.398			-3.600
203005.000			-32.397			-3.600
203104.000			-32.396			-3.600
203204.000			-32.395			-3.599
203305.000			-32.395			-3.599
203404.000			-32.396			-3.600
203504.000			-32.394			-3.599
203604.000			-32.393			-3.599
203704.000			-32.393			-3.599
203804.000			-32.393			-3.599
203905.000			-32.393			-3.599
204004.000			-32.392			-3.599
204104.000			-32.392			-3.599
204205.000			-32.390			-3.599
204303.000			-32.390			-3.599
204405.000			-32.388			-3.599
204504.000			-32.389			-3.599
204604.000			-32.388			-3.599
204705.000			-32.389			-3.599
204804.000			-32.388			-3.599
204904.000			-32.387			-3.599
205005.000			-32.387			-3.599
205104.000			-32.385			-3.598
205203.000			-32.385			-3.598
205305.000			-32.386			-3.598
205404.000			-32.385			-3.598
205504.000			-32.384			-3.598
205605.000			-32.383			-3.598
205704.000			-32.382			-3.598
205804.000			-32.382			-3.598
205905.000			-32.381			-3.598
206004.000			-32.381			-3.598
206103.000			-32.381			-3.598
206205.000			-32.381			-3.598
206304.000			-32.379			-3.598
206404.000			-32.379			-3.598
206505.000			-32.379			-3.598
206604.000			-32.378			-3.598
206704.000			-32.378			-3.598
206804.000			-32.378			-3.598
206904.000			-32.377			-3.597
207003.000			-32.376			-3.597
207105.000			-32.375			-3.597
207204.000			-32.374			-3.597
207304.000			-32.373			-3.597
207405.000			-32.373			-3.597
207504.000			-32.373			-3.597
207605.000			-32.372			-3.597
207703.000			-32.371			-3.597
207804.000			-32.372			-3.597
207905.000			-32.370			-3.597
208004.000			-32.370			-3.597
208104.000			-32.369			-3.597
208205.000			-32.369			-3.597
208304.000			-32.368			-3.596
208404.000			-32.368			-3.596
208505.000			-32.367			-3.596
208603.000			-32.366			-3.596
208704.000			-32.366			-3.596
208805.000			-32.366			-3.596
208904.000			-32.367			-3.596
209004.000			-32.367			-3.596
209105.000			-32.365			-3.596
209204.000			-32.363			-3.596
209304.000			-32.363			-3.596
209405.000			-32.363			-3.596
209503.000			-32.362			-3.596
209604.000			-32.363			-3.596
209705.000			-32.362			-3.596
209804.000			-32.362			-3.596
209904.000			-32.359			-3.595
210005.000			-32.358			-3.595
210104.000			-32.359			-3.595
210204.000			-32.357			-3.595
210305.000			-32.357			-3.595
210403.000			-32.357			-3.595
210504.000			-32.358			-3.595
210605.000			-32.357			-3.595
210704.000			-32.356			-3.595
210805.000			-32.355			-3.595
210904.000			-32.354			-3.595
211004.000			-32.354			-3.595
211104.000			-32.354			-3.595
211204.000			-32.353			-3.595
211304.000			-32.353			-3.595
211405.000			-32.351			-3.595
211504.000			-32.352			-3.595
211604.000			-32.351			-3.595
211705.000			-32.350			-3.594
211804.000			-32.350			-3.594
211904.000			-32.349			-3.594
212004.000			-32.349			-3.594
212104.000			-32.348			-3.594
212204.000			-32.347			-3.594
212305.000			-32.347			-3.594
212404.000			-32.347			-3.594
212504.000			-32.347			-3.594
212605.000			-32.347			-3.594
212703.000			-32.347			-3.594
212804.000			-32.345			-3.594
212904.000			-32.345			-3.594
213004.000			-32.344			-3.594
213104.000			-32.344			-3.594
213205.000			-32.344			-3.594
213304.000			-32.343			-3.594
213404.000			-32.342			-3.594
213505.000			-32.341			-3.593
213603.000			-32.340			-3.593
213704.000			-32.340			-3.593
213805.000			-32.339			-3.593
213904.000			-32.340			-3.593
214005.000			-32.339			-3.593
214104.000			-32.339			-3.593
214204.000			-32.337			-3.593
214305.000			-32.337			-3.593
214404.000			-32.336			-3.593
214503.000			-32.337			-3.593
214605.000			-32.336			-3.593
214704.000			-32.336			-3.593
214804.000			-32.335			-3.593
214905.000			-32.335			-3.593
215004.000			-32.334			-3.593
215104.000			-32.333			-3.593
215204.000			-32.333			-3.593
215304.000			-32.332			-3.592
215403.000			-32.332			-3.592
215505.000			-32.331			-3.592
215604.000			-32.331			-3.592
215704.000			-32.330			-3.592
215805.000			-32.329			-3.592
215904.000			-32.329			-3.592
216004.000			-32.329			-3.592
216104.000			-32.328			-3.592
216204.000			-32.328			-3.592
216304.000			-32.327			-3.592
216405.000			-32.327			-3.592
216504.000			-32.326			-3.592
216604.000			-32.325			-3.592
216705.000			-32.324			-3.592
216803.000			-32.324			-3.592
216904.000			-32.323			-3.591
217004.000			-32.322			-3.591
217104.000			-32.322			-3.591
217205.000			-32.324			-3.592
217304.000			-32.322			-3.591
217404.000			-32.320			-3.591
217505.000			-32.320			-3.591
217604.000			-32.319			-3.591
217703.000			-32.319			-3.591
217805.000			-32.318			-3.591
217904.000			-32.319			-3.591
218004.000			-32.318			-3.591
218105.000			-32.318			-3.591
218204.000			-32.317			-3.591
218304.000			-32.316			-3.591
218405.000			-32.316			-3.591
218504.000			-32.316			-3.591
218603.000			-32.315			-3.591
218705.000			-32.315			-3.591
218804.000			-32.314			-3.590
218904.000			-32.313			-3.590
219005.000			-32.312			-3.590
219104.000			-32.313			-3.590
219204.000			-32.313			-3.590
219304.000			-32.312			-3.590
219404.000			-32.311			-3.590
219503.000			-32.312			-3.590
219605.000			-32.310			-3.590
219704.000			-32.309			-3.590
219804.000			-32.309			-3.590
219905.000			-32.309			-3.590
220004.000			-32.309			-3.590
220104.000			-32.307			-3.590
220204.000			-32.308			-3.590
220304.000			-32.306			-3.590
220405.000			-32.306			-3.590
220504.000			-32.306			-3.590
220604.000			-32.305			-3.589
220705.000			-32.304			-3.589
220804.000			-32.304			-3.589
220904.000			-32.304			-3.589
221005.000			-32.303			-3.589
221103.000			-32.302			-3.589
221204.000			-32.303			-3.589
221305.000			-32.302			-3.589
221404.000			-32.301			-3.589
221504.000			-32.300			-3.589
221605.000			-32.300			-3.589
221704.000			-32.298			-3.589
221803.000			-32.299			-3.589
221905.000			-32.298			-3.589
222004.000			-32.298			-3.589
222104.000			-32.297			-3.589
222205.000			-32.297			-3.589
222304.000			-32.296			-3.588
222404.000			-32.296			-3.588
222505.000			-32.296			-3.588
222604.000			-32.295			-3.588
222703.000			-32.295			-3.588
222805.000			-32.294			-3.588
222904.000			-32.294			-3.588
223004.000			-32.294			-3.588
223105.000			-32.293			-3.588
223204.000			-32.292			-3.588
223304.000			-32.291			-3.588
223404.000			-32.291			-3.588
223504.000			-32.291			-3.588
223603.000			-32.290			-3.588
223704.000			-32.289			-3.588
223804.000			-32.289			-3.588
223905.000			-32.289			-3.588
224004.000			-32.288			-3.588
224104.000			-32.287			-3.587
224205.000			-32.286			-3.587
224303.000			-32.287			-3.587
224404.000			-32.285			-3.587
224504.000			-32.285			-3.587
224604.000			-32.285			-3.587
224704.000			-32.285			-3.587
224805.000			-32.283			-3.587
224904.000			-32.283			-3.587
225004.000			-32.283			-3.587
225105.000			-32.282			-3.587
225203.000			-32.282			-3.587
225304.000			-32.281			-3.587
225405.000			-32.280			-3.587
225504.000			-32.280			-3.587
225604.000			-32.281			-3.587
225705.000			-32.281			-3.587
225804.000			-32.279			-3.587
225904.000			-32.278			-3.586
226005.000			-32.277			-3.586
226103.000			-32.277			-3.586
226204.000			-32.277			-3.586
226305.000			-32.276			-3.586
226404.000			-32.276			-3.586
226504.000			-32.276			-3.586
226605.000			-32.274			-3.586
226704.000			-32.274			-3.586
226805.000			-32.273			-3.586
226904.000			-32.273			-3.586
227003.000			-32.272			-3.586
227105.000			-32.272			-3.586
227204.000			-32.273			-3.586
227304.000			-32.272			-3.586
227405.000			-32.272			-3.586
227504.000			-32.271			-3.586
227604.000			-32.270			-3.586
227705.000			-32.270			-3.586
227804.000			-32.270			-3.586
227903.000			-32.269			-3.585
228005.000			-32.269			-3.585
228104.000			-32.269			-3.585
228204.000			-32.268			-3.585
228305.000			-32.268			-3.585
228404.000			-32.266			-3.585
228504.000			-32.265			-3.585
228604.000			-32.266			-3.585
228704.000			-32.266			-3.585
228803.000			-32.264			-3.585
228905.000			-32.264			-3.585
229004.000			-32.263			-3.585
229104.000			-32.263			-3.585
229205.000			-32.262			-3.585
229304.000			-32.262			-3.585
229404.000			-32.263			-3.585
229504.000			-32.261			-3.585
229604.000			-32.260			-3.584
229703.000			-32.259			-3.584
229805.000			-32.260			-3.584
229904.000			-32.259			-3.584
230005.000			-32.260			-3.584
230104.000			-32.259			-3.584
230204.000			-32.257			-3.584
230305.000			-32.257			-3.584
230403.000			-32.256			-3.584
230504.000			-32.256			-3.584
230605.000			-32.256			-3.584
230704.000			-32.255			-3.584
230804.000			-32.255			-3.584
230905.000			-32.255			-3.584
231004.000			-32.255			-3.584
231104.000			-32.254			-3.584
231205.000			-32.253			-3.584
231303.000			-32.252			-3.584
231404.000			-32.252			-3.584
231505.000			-32.251			-3.583
231604.000			-32.251			-3.583
231704.000			-32.250			-3.583
231805.000			-32.250			-3.583
231904.000			-32.249			-3.583
232003.000			-32.248			-3.583
232105.000			-32.247			-3.583
232204.000			-32.247			-3.583
232304.000			-32.248			-3.583
232405.000			-32.246			-3.583
232504.000			-32.245			-3.583
232604.000			-32.245			-3.583
232705.000			-32.245			-3.583
232804.000			-32.245			-3.583
232903.000			-32.244			-3.583
233005.000			-32.245			-3.583
233104.000			-32.244			-3.583
233205.000			-32.242			-3.582
233304.000			-32.241			-3.582
233404.000			-32.241			-3.582
233505.000			-32.241			-3.582
233603.000			-32.241			-3.582
233704.000			-32.241			-3.582
233805.000			-32.241			-3.582
233904.000			-32.239			-3.582
234004.000			-32.238			-3.582
234105.000			-32.238			-3.582
234204.000			-32.239			-3.582
234304.000			-32.237			-3.582
234405.000			-32.236			-3.582
234503.000			-32.235			-3.582
234604.000			-32.237			-3.582
234705.000			-32.236			-3.582
234804.000			-32.235			-3.582
234904.000			-32.234			-3.582
235005.000			-32.234			-3.582
235104.000			-32.234			-3.582
235204.000			-32.233			-3.581
235305.000			-32.233			-3.581
235403.000			-32.231			-3.581
235504.000			-32.232			-3.581
235605.000			-32.232			-3.581
235704.000			-32.230			-3.581
235804.000			-32.230			-3.581
235905.000			-32.230			-3.581
236004.000			-32.229			-3.581
236103.000			-32.228			-3.581
236205.000			-32.228			-3.581
236304.000			-32.227			-3.581
236405.000			-32.227			-3.581
236504.000			-32.227			-3.581
236604.000			-32.227			-3.581
236705.000			-32.225			-3.581
236804.000			-32.224			-3.580
236904.000			-32.224			-3.580
237004.000			-32.224			-3.580
237104.000			-32.223			-3.580
237204.000			-32.223			-3.580
237305.000			-32.223			-3.580
237404.000			-32.223			-3.580
237504.000			-32.222			-3.580
237605.000			-32.222			-3.580
237703.000			-32.221			-3.580
237804.000			-32.221			-3.580
237904.000			-32.220			-3.580
238004.000			-32.220			-3.580
238104.000			-32.220			-3.580
238205.000			-32.218			-3.580
238304.000			-32.218			-3.580
238404.000			-32.219			-3.580
238505.000			-32.218			-3.580
238603.000			-32.217			-3.580
238704.000			-32.217			-3.580
238805.000			-32.216			-3.580
238904.000			-32.215			-3.579
239004.000			-32.215			-3.579
239105.000			-32.215			-3.579
239204.000			-32.215			-3.579
239304.000			-32.215			-3.579
239405.000			-32.214			-3.579
239503.000			-32.212			-3.579
239605.000			-32.211			-3.579
239704.000			-32.211			-3.579
239804.000			-32.212			-3.579
239905.000			-32.211			-3.579
240004.000			-32.211			-3.579
240104.000			-32.209			-3.579
240204.000			-32.209			-3.579
240304.000			-32.208			-3.579
240403.000			-32.208			-3.579
240505.000			-32.207			-3.579
240604.000			-32.207			-3.579
240704.000			-32.208			-3.579
240805.000			-32.207			-3.579
240904.000			-32.206			-3.578
241004.000			-32.206			-3.578
241104.000			-32.206			-3.578
241204.000			-32.205			-3.578
241304.000			-32.205			-3.578
241405.000			-32.205			-3.578
241504.000			-32.204			-3.578
241604.000			-32.204			-3.578
241705.000			-32.205			-3.578
241804.000			-32.201			-3.578
241904.000			-32.202			-3.578
242004.000			-32.201			-3.578
242104.000			-32.201			-3.578
242204.000			-32.201			-3.578
242305.000			-32.201			-3.578
242404.000			-32.199			-3.578
242504.000			-32.199			-3.578
242605.000			-32.199			-3.578
242703.000			-32.199			-3.578
242805.000			-32.197			-3.577
242904.000			-32.198			-3.578
243004.000			-32.197			-3.577
243105.000			-32.196			-3.577
243204.000			-32.196			-3.577
243304.000			-32.196			-3.577
243405.000			-32.195			-3.577
243504.000			-32.196			-3.577
243603.000			-32.195			-3.577
243705.000			-32.193			-3.577
243804.000			-32.194			-3.577
243904.000			-32.192			-3.577
244005.000			-32.192			-3.577
244104.000			-32.192			-3.577
244204.000			-32.192			-3.577
244305.000			-32.192			-3.577
244404.000			-32.191			-3.577
244503.000			-32.190			-3.577
244605.000			-32.190			-3.577
244704.000			-32.189			-3.577
244804.000			-32.188			-3.576
244905.000			-32.187			-3.576
245004.000			-32.187			-3.576
245104.000			-32.188			-3.576
245204.000			-32.188			-3.576
245304.000			-32.187			-3.576
245403.000			-32.187			-3.576
245505.000			-32.187			-3.576
245604.000			-32.187			-3.576
245704.000			-32.186			-3.576
245805.000			-32.185			-3.576
245904.000			-32.184			-3.576
246005.000			-32.184			-3.576
246104.000			-32.184			-3.576
246204.000			-32.183			-3.576
246304.000			-32.183			-3.576
246404.000			-32.183			-3.576
246504.000			-32.182			-3.576
246605.000			-32.182			-3.576
246704.000			-32.182			-3.576
246804.000			-32.181			-3.576
246905.000			-32.179			-3.575
247003.000			-32.180			-3.576
247104.000			-32.180			-3.576
247204.000			-32.179			-3.575
247304.000			-32.178			-3.575
247404.000			-32.178			-3.575
247505.000			-32.178			-3.575
247604.000			-32.177			-3.575
247704.000			-32.176			-3.575
247805.000			-32.175			-3.575
247903.000			-32.176			-3.575
248004.000			-32.175			-3.575
248104.000			-32.174			-3.575
248204.000			-32.174			-3.575
248304.000			-32.174			-3.575
248405.000			-32.173			-3.575
248504.000			-32.174			-3.575
248604.000			-32.173			-3.575
248705.000			-32.171			-3.575
248803.000			-32.171			-3.575
248904.000			-32.172			-3.575
249005.000			-32.173			-3.575
249104.000			-32.169			-3.574
249205.000			-32.170			-3.574
249304.000			-32.169			-3.574
249404.000			-32.169			-3.574
249505.000			-32.168			-3.574
249604.000			-32.167			-3.574
249703.000			-32.167			-3.574
249805.000			-32.167			-3.574
249904.000			-32.167			-3.574
250004.000			-32.166			-3.574
250105.000			-32.167			-3.574
250204.000			-32.165			-3.574
250304.000			-32.164			-3.574
250405.000			-32.164			-3.574
250504.000			-32.164			-3.574
250603.000			-32.164			-3.574
250705.000			-32.164			-3.574
250804.000			-32.163			-3.574
250904.000			-32.163			-3.574
251005.000			-32.162			-3.574
251104.000			-32.161			-3.573
251204.000			-32.160			-3.573
251304.000			-32.160			-3.573
251404.000			-32.160			-3.573
251503.000			-32.159			-3.573
251605.000			-32.159			-3.573
251704.000			-32.159			-3.573
251804.000			-32.159			-3.573
251905.000			-32.157			-3.573
252004.000			-32.158			-3.573
252104.000			-32.157			-3.573
252204.000			-32.156			-3.573
252304.000			-32.155			-3.573
252403.000			-32.154			-3.573
252504.000			-32.154			-3.573
252604.000			-32.155			-3.573
252705.000			-32.155			-3.573
252804.000			-32.154			-3.573
252904.000			-32.154			-3.573
253005.000			-32.152			-3.572
253103.000			-32.151			-3.572
253204.000			-32.151			-3.572
253305.000			-32.152			-3.572
253404.000			-32.151			-3.572
253504.000			-32.151			-3.572
253605.000			-32.151			-3.572
253704.000			-32.150			-3.572
253803.000			-32.149			-3.572
253905.000			-32.149			-3.572
254003.000			-32.148			-3.572
254104.000			-32.148			-3.572
254205.000			-32.148			-3.572
254304.000			-32.147			-3.572
254404.000			-32.147			-3.572
254505.000			-32.146			-3.572
254604.000			-32.146			-3.572
254703.000			-32.145			-3.572
254805.000			-32.146			-3.572
254904.000			-32.145			-3.572
255004.000			-32.145			-3.572
255105.000			-32.143			-3.571
255204.000			-32.144			-3.572
255304.000			-32.144			-3.572
255405.000			-32.143			-3.571
255504.000			-32.141			-3.571
255603.000			-32.141			-3.571
255704.000			-32.140			-3.571
255804.000			-32.141			-3.571
255905.000			-32.141			-3.571
256004.000			-32.140			-3.571
256104.000			-32.139			-3.571
256205.000			-32.139			-3.571
256304.000			-32.138			-3.571
256404.000			-32.139			-3.571
256504.000			-32.138			-3.571
256604.000			-32.138			-3.571
256704.000			-32.136			-3.571
256805.000			-32.137			-3.571
256904.000			-32.137			-3.571
257004.000			-32.136			-3.571
257105.000			-32.135			-3.571
257204.000			-32.134			-3.570
257304.000			-32.134			-3.570
257404.000			-32.134			-3.570
257504.000			-32.133			-3.570
257604.000			-32.133			-3.570
257705.000			-32.133			-3.570
257804.000			-32.131			-3.570
257904.000			-32.130			-3.570
258005.000			-32.130			-3.570
258103.000			-32.130			-3.570
258204.000			-32.131			-3.570
258305.000			-32.131			-3.570
258404.000			-32.131			-3.570
258504.000			-32.130			-3.570
258605.000			-32.130			-3.570
258704.000			-32.129			-3.570
258805.000			-32.128			-3.570
258904.000			-32.127			-3.570
259003.000			-32.127			-3.570
259105.000			-32.127			-3.570
259204.000			-32.126			-3.570
259304.000			-32.125			-3.569
259405.000			-32.126			-3.570
259504.000			-32.126			-3.570
259604.000			-32.125			-3.569
259705.000			-32.123			-3.569
259804.000			-32.123			-3.569
259903.000			-32.124			-3.569
260005.000			-32.122			-3.569
260104.000			-32.122			-3.569
260204.000			-32.122			-3.569
260305.000			-32.123			-3.569
260404.000			-32.122			-3.569
260504.000			-32.121			-3.569
260604.000			-32.121			-3.569
260704.000			-32.120			-3.569
260803.000			-32.120			-3.569
260905.000			-32.119			-3.569
261004.000			-32.118			-3.569
261104.000			-32.118			-3.569
261205.000			-32.119			-3.569
261304.000			-32.118			-3.569
261404.000			-32.116			-3.568
261504.000			-32.116			-3.568
261604.000			-32.116			-3.568
261704.000			-32.116			-3.568
261805.000			-32.116			-3.568
261904.000			-32.114			-3.568
262005.000			-32.114			-3.568
262104.000			-32.114			-3.568
262204.000			-32.114			-3.568
262305.000			-32.114			-3.568
262403.000			-32.113			-3.568
262504.000			-32.113			-3.568
262605.000			-32.113			-3.568
262704.000			-32.113			-3.568
262804.000			-32.111			-3.568
262905.000			-32.110			-3.568
263004.000			-32.110			-3.568
263103.000			-32.110			-3.568
263205.000			-32.109			-3.568
263304.000			-32.109			-3.568
263404.000			-32.109			-3.568
263505.000			-32.107			-3.567
263604.000			-32.108			-3.568
263704.000			-32.108			-3.568
263805.000			-32.107			-3.567
263904.000			-32.108			-3.568
264003.000			-32.108			-3.568
264105.000			-32.106			-3.567
264204.000			-32.105			-3.567
264304.000			-32.106			-3.567
264405.000			-32.105			-3.567
264504.000			-32.104			-3.567
264604.000			-32.104			-3.567
264704.000			-32.104			-3.567
264804.000			-32.104			-3.567
264904.000			-32.104			-3.567
265005.000			-32.102			-3.567
265104.000			-32.101			-3.567
265205.000			-32.101			-3.567
265304.000			-32.100			-3.567
265404.000			-32.100			-3.567
265505.000			-32.099			-3.567
265603.000			-32.098			-3.566
265704.000			-32.099			-3.567
265805.000			-32.099			-3.567
265904.000			-32.098			-3.566
266004.000			-32.098			-3.566
266105.000			-32.097			-3.566
266204.000			-32.097			-3.566
266304.000			-32.096			-3.566
266405.000			-32.097			-3.566
266503.000			-32.096			-3.566
266604.000			-32.096			-3.566
266705.000			-32.095			-3.566
266804.000			-32.095			-3.566
266904.000			-32.095			-3.566
267005.000			-32.094			-3.566
267104.000			-32.092			-3.566
267204.000			-32.093			-3.566
267305.000			-32.093			-3.566
267403.000			-32.092			-3.566
267504.000			-32.092			-3.566
267605.000			-32.091			-3.566
267704.000			-32.091			-3.566
267804.000			-32.090			-3.566
267905.000			-32.089			-3.565
268004.000			-32.089			-3.565
268104.000			-32.089			-3.565
268205.000			-32.089			-3.565
268303.000			-32.089			-3.565
268405.000			-32.089			-3.565
268504.000			-32.088			-3.565
268604.000			-32.087			-3.565
268705.000			-32.086			-3.565
268804.000			-32.086			-3.565
268904.000			-32.086			-3.565
269005.000			-32.085			-3.565
269104.000			-32.085			-3.565
269203.000			-32.085			-3.565
269305.000			-32.084			-3.565
269404.000			-32.085			-3.565
269504.000			-32.084			-3.565
269605.000			-32.083			-3.565
269704.000			-32.083			-3.565
269804.000			-32.083			-3.565
269905.000			-32.082			-3.565
270004.000			-32.082			-3.565
270103.000			-32.080			-3.564
270205.000			-32.080			-3.564
270304.000			-32.079			-3.564
270404.000			-32.078			-3.564
270505.000			-32.079			-3.564
270604.000			-32.079			-3.564
270704.000			-32.079			-3.564
270805.000			-32.078			-3.564
270904.000			-32.077			-3.564
271003.000			-32.077			-3.564
271105.000			-32.076			-3.564
271204.000			-32.076			-3.564
271304.000			-32.076			-3.564
271405.000			-32.075			-3.564
271504.000			-32.075			-3.564
271605.000			-32.075			-3.564
271703.000			-32.074			-3.564
271804.000			-32.073			-3.564
271905.000			-32.073			-3.564
272004.000			-32.073			-3.564
272104.000			-32.072			-3.564
272205.000			-32.071			-3.563
272304.000			-32.072			-3.564
272404.000			-32.071			-3.563
272505.000			-32.071			-3.563
272603.000			-32.071			-3.563
272704.000			-32.071			-3.563
272805.000			-32.069			-3.563
272904.000			-32.069			-3.563
273004.000			-32.068			-3.563
273105.000			-32.068			-3.563
273204.000			-32.068			-3.563
273303.000			-32.068			-3.563
273405.000			-32.068			-3.563
273503.000			-32.067			-3.563
273604.000			-32.066			-3.563
273705.000			-32.066			-3.563
273804.000			-32.066			-3.563
273904.000			-32.066			-3.563
274005.000			-32.065			-3.563
274104.000			-32.064			-3.563
274203.000			-32.063			-3.563
274305.000			-32.063			-3.563
274404.000			-32.063			-3.563
274504.000			-32.062			-3.562
274605.000			-32.062			-3.562
274704.000			-32.061			-3.562
274805.000			-32.061			-3.562
274904.000			-32.061			-3.562
275004.000			-32.061			-3.562
275104.000			-32.060			-3.562
275204.000			-32.060			-3.562
275304.000			-32.061			-3.562
275405.000			-32.061			-3.562
275504.000			-32.060			-3.562
275604.000			-32.058			-3.562
275705.000			-32.057			-3.562
275804.000			-32.057			-3.562
275904.000			-32.057			-3.562
276004.000			-32.057			-3.562
276104.000			-32.057			-3.562
276204.000			-32.056			-3.562
276305.000			-32.055			-3.562
276404.000			-32.055			-3.562
276504.000			-32.056			-3.562
276605.000			-32.054			-3.562
276704.000			-32.054			-3.562
276804.000			-32.054			-3.562
276904.000			-32.054			-3.562
277004.000			-32.053			-3.561
277104.000			-32.052			-3.561
277205.000			-32.053			-3.561
277304.000			-32.053			-3.561
277404.000			-32.051			-3.561
277505.000			-32.051			-3.561
277603.000			-32.052			-3.561
277704.000			-32.051			-3.561
277804.000			-32.050			-3.561
277904.000			-32.049			-3.561
278005.000			-32.050			-3.561
278104.000			-32.049			-3.561
278204.000			-32.048			-3.561
278305.000			-32.047			-3.561
278404.000			-32.047			-3.561
278503.000			-32.047			-3.561
278605.000			-32.046			-3.561
278703.000			-32.046			-3.561
278804.000			-32.045			-3.561
278905.000			-32.044			-3.560
279004.000			-32.044			-3.560
279104.000			-32.044			-3.560
279205.000			-32.044			-3.560
279304.000			-32.044			-3.560
279403.000			-32.044			-3.560
279505.000			-32.042			-3.560
279604.000			-32.042			-3.560
279704.000			-32.042			-3.560
279805.000			-32.041			-3.560
279904.000			-32.040			-3.560
280004.000			-32.041			-3.560
280105.000			-32.041			-3.560
280204.000			-32.040			-3.560
280303.000			-32.040			-3.560
280405.000			-32.040			-3.560
280504.000			-32.040			-3.560
280604.000			-32.040			-3.560
280705.000			-32.040			-3.560
280804.000			-32.039			-3.560
280904.000			-32.037			-3.560
281004.000			-32.036			-3.560
281104.000			-32.036			-3.560
281203.000			-32.035			-3.559
281304.000			-32.035			-3.559
281404.000			-32.035			-3.559
281505.000			-32.035			-3.559
281604.000			-32.035			-3.559
281704.000			-32.034			-3.559
281805.000			-32.034			-3.559
281903.000			-32.033			-3.559
282004.000			-32.033			-3.559
282105.000			-32.034			-3.559
282204.000			-32.033			-3.559
282304.000			-32.033			-3.559
282405.000			-32.030			-3.559
282504.000			-32.031			-3.559
282604.000			-32.032			-3.559
282705.000			-32.030			-3.559
282803.000			-32.029			-3.559
282904.000			-32.030			-3.559
283005.000			-32.030			-3.559
283104.000			-32.029			-3.559
283204.000			-32.029			-3.559
283305.000			-32.028			-3.559
283404.000			-32.028			-3.559
283503.000			-32.028			-3.559
283605.000			-32.028			-3.559
283704.000			-32.028			-3.559
283804.000			-32.026			-3.558
283905.000			-32.026			-3.558
284004.000			-32.025			-3.558
284104.000			-32.025			-3.558
284205.000			-32.025			-3.558
284304.000			-32.025			-3.558
284403.000			-32.025			-3.558
284504.000			-32.024			-3.558
284604.000			-32.022			-3.558
284705.000			-32.022			-3.558
284804.000			-32.022			-3.558
284904.000			-32.021			-3.558
285005.000			-32.021			-3.558
285103.000			-32.021			-3.558
285204.000			-32.021			-3.558
285305.000			-32.020			-3.558
285404.000			-32.020			-3.558
285504.000			-32.019			-3.558
285605.000			-32.018			-3.558
285704.000			-32.018			-3.558
285804.000			-32.018			-3.558
285905.000			-32.018			-3.558
286003.000			-32.019			-3.558
286104.000			-32.018			-3.558
286205.000			-32.017			-3.557
286304.000			-32.017			-3.557
286404.000			-32.017			-3.557
286505.000			-32.017			-3.557
286604.000			-32.015			-3.557
286704.000			-32.015			-3.557
286805.000			-32.014			-3.557
286903.000			-32.013			-3.557
287004.000			-32.013			-3.557
287105.000			-32.013			-3.557
287204.000			-32.013			-3.557
287304.000			-32.012			-3.557
287405.000			-32.012			-3.557
287504.000			-32.011			-3.557
287603.000			-32.012			-3.557
287704.000			-32.012			-3.557
287803.000			-32.010			-3.557
287905.000			-32.010			-3.557
288004.000			-32.011			-3.557
288104.000			-32.010			-3.557
288205.000			-32.009			-3.557
288304.000			-32.009			-3.557
288404.000			-32.009			-3.557
288504.000			-32.009			-3.557
288604.000			-32.009			-3.557
288704.000			-32.008			-3.556
288805.000			-32.008			-3.556
288904.000			-32.007			-3.556
289004.000			-32.006			-3.556
289105.000			-32.006			-3.556
289204.000			-32.005			-3.556
289304.000			-32.005			-3.556
289404.000			-32.005			-3.556
289504.000			-32.005			-3.556
289604.000			-32.004			-3.556
289705.000			-32.004			-3.556
289804.000			-32.003			-3.556
289904.000			-32.003			-3.556
290005.000			-32.003			-3.556
290103.000			-32.002			-3.556
290204.000			-32.002			-3.556
290304.000			-32.002			-3.556
290404.000			-32.001			-3.556
290504.000			-32.001			-3.556
290605.000			-32.000			-3.556
290704.000			-32.000			-3.556
290805.000			-31.999			-3.555
290904.000			-32.000			-3.556
291003.000			-32.000			-3.556
291105.000			-31.999			-3.555
291204.000			-31.998			-3.555
291304.000			-31.998			-3.555
291405.000			-31.998			-3.555
291504.000			-31.996			-3.555
291604.000			-31.996			-3.555
291705.000			-31.996			-3.555
291804.000			-31.996			-3.555
291903.000			-31.995			-3.555
292005.000			-31.994			-3.555
292103.000			-31.993			-3.555
292204.000			-31.994			-3.555
292305.000			-31.994			-3.555
292404.000			-31.992			-3.555
292504.000			-31.992			-3.555
292605.000			-31.992			-3.555
292704.000			-31.992			-3.555
292804.000			-31.992			-3.555
292905.000			-31.991			-3.555
293003.000			-31.990			-3.554
293104.000			-31.990			-3.554
293205.000			-31.990			-3.554
293304.000			-31.990			-3.554
293404.000			-31.990			-3.554
293505.000			-31.989			-3.554
293604.000			-31.989			-3.554
293704.000			-31.988			-3.554
293805.000			-31.988			-3.554
293903.000			-31.988			-3.554
294005.000			-31.987			-3.554
294103.000			-31.986			-3.554
294204.000			-31.986			-3.554
294305.000			-31.986			-3.554
294404.000			-31.986			-3.554
294504.000			-31.985			-3.554
294605.000			-31.984			-3.554
294704.000			-31.986			-3.554
294804.000			-31.984			-3.554
294905.000			-31.984			-3.554
295003.000			-31.983			-3.554
295104.000			-31.983			-3.554
295205.000			-31.983			-3.554
295304.000			-31.983			-3.554
295404.000			-31.982			-3.554
295505.000			-31.983			-3.554
295604.000			-31.982			-3.554
295704.000			-31.980			-3.553
295805.000			-31.981			-3.553
295903.000			-31.981			-3.553
296004.000			-31.980			-3.553
296104.000			-31.980			-3.553
296204.000			-31.979			-3.553
296304.000			-31.979			-3.553
296405.000			-31.978			-3.553
296504.000			-31.978			-3.553
296604.000			-31.978			-3.553
296705.000			-31.978			-3.553
296804.000			-31.977			-3.553
296904.000			-31.976			-3.553
297004.000			-31.976			-3.553
297104.000			-31.976			-3.553
297205.000			-31.975			-3.553
297304.000			-31.974			-3.553
297404.000			-31.975			-3.553
297505.000			-31.974			-3.553
297604.000			-31.974			-3.553
297704.000			-31.974			-3.553
297805.000			-31.974			-3.553
297903.000			-31.972			-3.552
298004.000			-31.971			-3.552
298104.000			-31.971			-3.552
298204.000			-31.971			-3.552
298304.000			-31.972			-3.552
298405.000			-31.972			-3.552
298504.000			-31.971			-3.552
298604.000			-31.970			-3.552
298705.000			-31.969			-3.552
298804.000			-31.969			-3.552
298904.000			-31.968			-3.552
299004.000			-31.967			-3.552
299104.000			-31.968			-3.552
299203.000			-31.968			-3.552
299305.000			-31.967			-3.552
299404.000			-31.966			-3.552
299504.000			-31.966			-3.552
299605.000			-31.966			-3.552
299704.000			-31.966			-3.552
299804.000			-31.966			-3.552
299905.000			-31.965			-3.552
