# Acquired on 26/01/2024 10:19:13 
# SPIDER: Creep_8mm_GRPCNT1454A-1
# CREEP MEASUREMENT

# time [ms]		force [N]		stiffness [N/mm]
1.000			-24.166			-3.021
104.000			-24.823			-3.103
205.000			-24.958			-3.120
304.000			-24.631			-3.079
403.000			-24.496			-3.062
505.000			-24.383			-3.048
604.000			-24.286			-3.036
704.000			-24.200			-3.025
805.000			-24.123			-3.015
904.000			-24.054			-3.007
1004.000			-23.936			-2.992
1105.000			-23.883			-2.985
1204.000			-23.832			-2.979
1304.000			-23.785			-2.973
1404.000			-23.741			-2.968
1504.000			-23.701			-2.963
1603.000			-23.661			-2.958
1704.000			-23.625			-2.953
1804.000			-23.558			-2.945
1905.000			-23.528			-2.941
2004.000			-23.499			-2.937
2104.000			-23.470			-2.934
2205.000			-23.442			-2.930
2303.000			-23.416			-2.927
2404.000			-23.390			-2.924
2505.000			-23.342			-2.918
2604.000			-23.319			-2.915
2704.000			-23.298			-2.912
2804.000			-23.277			-2.910
2904.000			-23.256			-2.907
3004.000			-23.236			-2.904
3105.000			-23.217			-2.902
3204.000			-23.180			-2.898
3304.000			-23.162			-2.895
3405.000			-23.145			-2.893
3503.000			-23.127			-2.891
3604.000			-23.111			-2.889
3705.000			-23.095			-2.887
3804.000			-23.080			-2.885
3904.000			-23.050			-2.881
4004.000			-23.036			-2.880
4104.000			-23.022			-2.878
4204.000			-23.008			-2.876
4305.000			-22.993			-2.874
4404.000			-22.981			-2.873
4504.000			-22.967			-2.871
4605.000			-22.954			-2.869
4703.000			-22.929			-2.866
4805.000			-22.917			-2.865
4904.000			-22.906			-2.863
5004.000			-22.895			-2.862
5105.000			-22.883			-2.860
5203.000			-22.872			-2.859
5304.000			-22.861			-2.858
5405.000			-22.840			-2.855
5504.000			-22.829			-2.854
5604.000			-22.819			-2.852
5705.000			-22.808			-2.851
5804.000			-22.800			-2.850
5903.000			-22.791			-2.849
6005.000			-22.780			-2.847
6104.000			-22.762			-2.845
6204.000			-22.752			-2.844
6305.000			-22.743			-2.843
6404.000			-22.734			-2.842
6504.000			-22.725			-2.841
6604.000			-22.716			-2.840
6704.000			-22.707			-2.838
6804.000			-22.699			-2.837
6905.000			-22.682			-2.835
7004.000			-22.675			-2.834
7103.000			-22.667			-2.833
7205.000			-22.659			-2.832
7304.000			-22.651			-2.831
7404.000			-22.644			-2.831
7505.000			-22.636			-2.830
7604.000			-22.621			-2.828
7704.000			-22.614			-2.827
7803.000			-22.607			-2.826
7904.000			-22.600			-2.825
8005.000			-22.592			-2.824
8104.000			-22.585			-2.823
8204.000			-22.577			-2.822
8304.000			-22.565			-2.821
8404.000			-22.559			-2.820
8504.000			-22.552			-2.819
8605.000			-22.545			-2.818
8704.000			-22.538			-2.817
8804.000			-22.531			-2.816
8905.000			-22.525			-2.816
9003.000			-22.520			-2.815
9104.000			-22.507			-2.813
9205.000			-22.502			-2.813
9304.000			-22.495			-2.812
9404.000			-22.488			-2.811
9505.000			-22.483			-2.810
9604.000			-22.477			-2.810
9703.000			-22.471			-2.809
9805.000			-22.459			-2.807
9904.000			-22.453			-2.807
10004.000			-22.448			-2.806
10105.000			-22.443			-2.805
10204.000			-22.437			-2.805
10304.000			-22.431			-2.804
10405.000			-22.426			-2.803
10504.000			-22.416			-2.802
10604.000			-22.410			-2.801
10705.000			-22.405			-2.801
10804.000			-22.399			-2.800
10903.000			-22.394			-2.799
11005.000			-22.389			-2.799
11104.000			-22.384			-2.798
11205.000			-22.375			-2.797
11304.000			-22.369			-2.796
11404.000			-22.364			-2.795
11505.000			-22.359			-2.795
11603.000			-22.354			-2.794
11704.000			-22.350			-2.794
11805.000			-22.345			-2.793
11904.000			-22.339			-2.792
12004.000			-22.329			-2.791
12105.000			-22.325			-2.791
12204.000			-22.320			-2.790
12303.000			-22.314			-2.789
12405.000			-22.310			-2.789
12504.000			-22.306			-2.788
12604.000			-22.301			-2.788
12705.000			-22.293			-2.787
12803.000			-22.288			-2.786
12904.000			-22.284			-2.785
13005.000			-22.280			-2.785
13104.000			-22.276			-2.784
13204.000			-22.271			-2.784
13305.000			-22.266			-2.783
13404.000			-22.259			-2.782
13503.000			-22.254			-2.782
13605.000			-22.250			-2.781
13704.000			-22.246			-2.781
13804.000			-22.242			-2.780
13905.000			-22.238			-2.780
14004.000			-22.233			-2.779
14104.000			-22.225			-2.778
14203.000			-22.221			-2.778
14304.000			-22.218			-2.777
14405.000			-22.214			-2.777
14504.000			-22.209			-2.776
14604.000			-22.206			-2.776
14704.000			-22.203			-2.775
14804.000			-22.199			-2.775
14904.000			-22.191			-2.774
15005.000			-22.187			-2.773
15104.000			-22.183			-2.773
15204.000			-22.180			-2.773
15305.000			-22.177			-2.772
15403.000			-22.173			-2.772
15504.000			-22.170			-2.771
15605.000			-22.164			-2.770
15704.000			-22.160			-2.770
15804.000			-22.156			-2.770
15905.000			-22.154			-2.769
16004.000			-22.152			-2.769
16103.000			-22.148			-2.768
16205.000			-22.144			-2.768
16304.000			-22.138			-2.767
16404.000			-22.133			-2.767
16505.000			-22.129			-2.766
16603.000			-22.125			-2.766
16704.000			-22.123			-2.765
16805.000			-22.119			-2.765
16904.000			-22.116			-2.764
17004.000			-22.110			-2.764
17105.000			-22.107			-2.763
17204.000			-22.103			-2.763
17303.000			-22.101			-2.763
17405.000			-22.099			-2.762
17504.000			-22.095			-2.762
17605.000			-22.091			-2.761
17704.000			-22.089			-2.761
17804.000			-22.083			-2.760
17905.000			-22.080			-2.760
18003.000			-22.077			-2.760
18104.000			-22.075			-2.759
18205.000			-22.071			-2.759
18304.000			-22.067			-2.758
18404.000			-22.063			-2.758
18504.000			-22.056			-2.757
18604.000			-22.055			-2.757
18704.000			-22.052			-2.757
18805.000			-22.049			-2.756
18904.000			-22.046			-2.756
19004.000			-22.044			-2.756
19105.000			-22.042			-2.755
19203.000			-22.037			-2.755
19304.000			-22.036			-2.755
19405.000			-22.033			-2.754
19504.000			-22.030			-2.754
19604.000			-22.027			-2.753
19705.000			-22.024			-2.753
19804.000			-22.022			-2.753
19903.000			-22.019			-2.752
20005.000			-22.014			-2.752
20104.000			-22.009			-2.751
20204.000			-22.006			-2.751
20305.000			-22.004			-2.750
20403.000			-22.001			-2.750
20504.000			-22.000			-2.750
20605.000			-21.997			-2.750
20704.000			-21.991			-2.749
20805.000			-21.990			-2.749
20904.000			-21.987			-2.748
21004.000			-21.984			-2.748
21104.000			-21.981			-2.748
21204.000			-21.979			-2.747
21304.000			-21.977			-2.747
21405.000			-21.972			-2.746
21504.000			-21.969			-2.746
21604.000			-21.965			-2.746
21705.000			-21.962			-2.745
21803.000			-21.960			-2.745
21904.000			-21.958			-2.745
22005.000			-21.954			-2.744
22104.000			-21.950			-2.744
22204.000			-21.947			-2.743
22305.000			-21.946			-2.743
22404.000			-21.942			-2.743
22503.000			-21.940			-2.743
22605.000			-21.939			-2.742
22704.000			-21.937			-2.742
22804.000			-21.935			-2.742
22905.000			-21.929			-2.741
23004.000			-21.926			-2.741
23104.000			-21.924			-2.741
23204.000			-21.922			-2.740
23304.000			-21.920			-2.740
23404.000			-21.918			-2.740
23505.000			-21.916			-2.739
23604.000			-21.913			-2.739
23703.000			-21.911			-2.739
23805.000			-21.908			-2.739
23904.000			-21.906			-2.738
24005.000			-21.904			-2.738
24104.000			-21.902			-2.738
24204.000			-21.900			-2.738
24305.000			-21.894			-2.737
24403.000			-21.892			-2.736
24504.000			-21.889			-2.736
24605.000			-21.888			-2.736
24704.000			-21.886			-2.736
24804.000			-21.883			-2.735
24905.000			-21.882			-2.735
25004.000			-21.880			-2.735
25103.000			-21.874			-2.734
25205.000			-21.872			-2.734
25304.000			-21.870			-2.734
25404.000			-21.867			-2.733
25505.000			-21.865			-2.733
25604.000			-21.863			-2.733
25704.000			-21.861			-2.733
25804.000			-21.856			-2.732
25904.000			-21.854			-2.732
26004.000			-21.852			-2.732
26105.000			-21.850			-2.731
26204.000			-21.849			-2.731
26304.000			-21.846			-2.731
26405.000			-21.844			-2.730
26503.000			-21.838			-2.730
26604.000			-21.836			-2.730
26705.000			-21.835			-2.729
26804.000			-21.833			-2.729
26904.000			-21.832			-2.729
27004.000			-21.829			-2.729
27104.000			-21.827			-2.728
27203.000			-21.822			-2.728
27304.000			-21.821			-2.728
27404.000			-21.819			-2.727
27505.000			-21.817			-2.727
27604.000			-21.815			-2.727
27703.000			-21.814			-2.727
27805.000			-21.812			-2.727
27904.000			-21.809			-2.726
28004.000			-21.806			-2.726
28105.000			-21.804			-2.726
28204.000			-21.801			-2.725
28304.000			-21.799			-2.725
28404.000			-21.798			-2.725
28504.000			-21.796			-2.725
28604.000			-21.794			-2.724
28705.000			-21.790			-2.724
28804.000			-21.788			-2.724
28904.000			-21.787			-2.723
29005.000			-21.785			-2.723
29103.000			-21.784			-2.723
29204.000			-21.781			-2.723
29305.000			-21.779			-2.722
29404.000			-21.776			-2.722
29504.000			-21.773			-2.722
29605.000			-21.772			-2.721
29704.000			-21.770			-2.721
29803.000			-21.769			-2.721
29905.000			-21.766			-2.721
30004.000			-21.765			-2.721
30104.000			-21.761			-2.720
30205.000			-21.760			-2.720
30304.000			-21.758			-2.720
30405.000			-21.757			-2.720
30503.000			-21.754			-2.719
30604.000			-21.751			-2.719
30705.000			-21.751			-2.719
30804.000			-21.749			-2.719
30904.000			-21.745			-2.718
31005.000			-21.745			-2.718
31104.000			-21.743			-2.718
31203.000			-21.740			-2.718
31305.000			-21.740			-2.717
31404.000			-21.737			-2.717
31504.000			-21.735			-2.717
31605.000			-21.733			-2.717
31703.000			-21.732			-2.716
31804.000			-21.730			-2.716
31905.000			-21.728			-2.716
32004.000			-21.727			-2.716
32104.000			-21.724			-2.716
32205.000			-21.722			-2.715
32304.000			-21.719			-2.715
32403.000			-21.718			-2.715
32505.000			-21.716			-2.714
32604.000			-21.714			-2.714
32704.000			-21.712			-2.714
32805.000			-21.710			-2.714
32904.000			-21.709			-2.714
33004.000			-21.708			-2.714
33104.000			-21.705			-2.713
33204.000			-21.703			-2.713
33304.000			-21.701			-2.713
33404.000			-21.700			-2.712
33504.000			-21.698			-2.712
33605.000			-21.695			-2.712
33704.000			-21.694			-2.712
33803.000			-21.692			-2.711
33905.000			-21.689			-2.711
34004.000			-21.689			-2.711
34104.000			-21.687			-2.711
34205.000			-21.685			-2.711
34303.000			-21.684			-2.711
34404.000			-21.683			-2.710
34505.000			-21.681			-2.710
34604.000			-21.677			-2.710
34704.000			-21.676			-2.709
34805.000			-21.675			-2.709
34904.000			-21.673			-2.709
35003.000			-21.672			-2.709
35105.000			-21.671			-2.709
35204.000			-21.669			-2.709
35304.000			-21.665			-2.708
35405.000			-21.663			-2.708
35504.000			-21.663			-2.708
35604.000			-21.662			-2.708
35704.000			-21.660			-2.708
35804.000			-21.659			-2.707
35904.000			-21.657			-2.707
36005.000			-21.656			-2.707
36104.000			-21.654			-2.707
36204.000			-21.652			-2.706
36305.000			-21.651			-2.706
36403.000			-21.649			-2.706
36504.000			-21.647			-2.706
36605.000			-21.645			-2.706
36704.000			-21.642			-2.705
36805.000			-21.641			-2.705
36904.000			-21.640			-2.705
37004.000			-21.639			-2.705
37104.000			-21.638			-2.705
37204.000			-21.636			-2.704
37304.000			-21.634			-2.704
37405.000			-21.631			-2.704
37504.000			-21.630			-2.704
37603.000			-21.628			-2.704
37705.000			-21.628			-2.703
37804.000			-21.626			-2.703
37904.000			-21.624			-2.703
38005.000			-21.623			-2.703
38104.000			-21.621			-2.703
38204.000			-21.619			-2.702
38304.000			-21.617			-2.702
38404.000			-21.617			-2.702
38504.000			-21.616			-2.702
38605.000			-21.615			-2.702
38704.000			-21.612			-2.702
38804.000			-21.611			-2.701
38905.000			-21.609			-2.701
39003.000			-21.608			-2.701
39104.000			-21.606			-2.701
39205.000			-21.603			-2.700
39304.000			-21.602			-2.700
39404.000			-21.602			-2.700
39505.000			-21.600			-2.700
39604.000			-21.597			-2.700
39703.000			-21.596			-2.700
39805.000			-21.595			-2.699
39904.000			-21.593			-2.699
40005.000			-21.592			-2.699
40104.000			-21.592			-2.699
40204.000			-21.590			-2.699
40305.000			-21.589			-2.699
40403.000			-21.586			-2.698
40504.000			-21.585			-2.698
40605.000			-21.584			-2.698
40704.000			-21.583			-2.698
40804.000			-21.582			-2.698
40904.000			-21.581			-2.698
41004.000			-21.579			-2.697
41104.000			-21.577			-2.697
41205.000			-21.576			-2.697
41304.000			-21.573			-2.697
41404.000			-21.572			-2.697
41505.000			-21.571			-2.696
41603.000			-21.570			-2.696
41704.000			-21.568			-2.696
41805.000			-21.567			-2.696
41904.000			-21.566			-2.696
42004.000			-21.564			-2.696
42105.000			-21.563			-2.695
42204.000			-21.561			-2.695
42303.000			-21.560			-2.695
42405.000			-21.560			-2.695
42504.000			-21.558			-2.695
42604.000			-21.557			-2.695
42705.000			-21.554			-2.694
42803.000			-21.553			-2.694
42904.000			-21.552			-2.694
43005.000			-21.551			-2.694
43104.000			-21.549			-2.694
43205.000			-21.547			-2.693
43304.000			-21.546			-2.693
43404.000			-21.545			-2.693
43504.000			-21.543			-2.693
43604.000			-21.543			-2.693
43704.000			-21.542			-2.693
43805.000			-21.540			-2.692
43904.000			-21.537			-2.692
44004.000			-21.535			-2.692
44105.000			-21.535			-2.692
44203.000			-21.533			-2.692
44304.000			-21.533			-2.692
44405.000			-21.531			-2.691
44504.000			-21.530			-2.691
44604.000			-21.529			-2.691
44705.000			-21.526			-2.691
44804.000			-21.525			-2.691
44903.000			-21.524			-2.690
45005.000			-21.523			-2.690
45104.000			-21.522			-2.690
45204.000			-21.520			-2.690
45305.000			-21.519			-2.690
45403.000			-21.518			-2.690
45504.000			-21.517			-2.690
45605.000			-21.515			-2.689
45704.000			-21.514			-2.689
45804.000			-21.512			-2.689
45905.000			-21.511			-2.689
46004.000			-21.510			-2.689
46103.000			-21.509			-2.689
46205.000			-21.508			-2.688
46304.000			-21.507			-2.688
46405.000			-21.506			-2.688
46504.000			-21.503			-2.688
46604.000			-21.502			-2.688
46705.000			-21.501			-2.688
46803.000			-21.501			-2.688
46904.000			-21.497			-2.687
47005.000			-21.497			-2.687
47104.000			-21.496			-2.687
47204.000			-21.494			-2.687
47305.000			-21.494			-2.687
47404.000			-21.493			-2.687
47503.000			-21.491			-2.686
47605.000			-21.491			-2.686
47704.000			-21.487			-2.686
47804.000			-21.485			-2.686
47905.000			-21.485			-2.686
48004.000			-21.484			-2.685
48104.000			-21.483			-2.685
48204.000			-21.482			-2.685
48304.000			-21.482			-2.685
48404.000			-21.480			-2.685
48505.000			-21.479			-2.685
48604.000			-21.477			-2.685
48703.000			-21.476			-2.685
48805.000			-21.476			-2.684
48904.000			-21.474			-2.684
49004.000			-21.473			-2.684
49105.000			-21.471			-2.684
49204.000			-21.469			-2.684
49304.000			-21.468			-2.683
49404.000			-21.466			-2.683
49504.000			-21.466			-2.683
49603.000			-21.465			-2.683
49704.000			-21.464			-2.683
49804.000			-21.463			-2.683
49905.000			-21.461			-2.683
50004.000			-21.460			-2.683
50103.000			-21.459			-2.682
50205.000			-21.458			-2.682
50304.000			-21.458			-2.682
50404.000			-21.456			-2.682
50505.000			-21.455			-2.682
50604.000			-21.454			-2.682
50704.000			-21.453			-2.682
50804.000			-21.452			-2.681
50904.000			-21.451			-2.681
51004.000			-21.449			-2.681
51105.000			-21.447			-2.681
51204.000			-21.447			-2.681
51304.000			-21.444			-2.681
51405.000			-21.444			-2.680
51503.000			-21.442			-2.680
51604.000			-21.442			-2.680
51705.000			-21.440			-2.680
51804.000			-21.439			-2.680
51904.000			-21.438			-2.680
52005.000			-21.437			-2.680
52104.000			-21.436			-2.680
52203.000			-21.435			-2.679
52305.000			-21.434			-2.679
52404.000			-21.432			-2.679
52504.000			-21.430			-2.679
52605.000			-21.430			-2.679
52703.000			-21.429			-2.679
52805.000			-21.427			-2.678
52904.000			-21.426			-2.678
53004.000			-21.425			-2.678
53105.000			-21.424			-2.678
53204.000			-21.423			-2.678
53304.000			-21.421			-2.678
53404.000			-21.420			-2.678
53504.000			-21.419			-2.677
53604.000			-21.419			-2.677
53705.000			-21.417			-2.677
53804.000			-21.416			-2.677
53904.000			-21.416			-2.677
54005.000			-21.415			-2.677
54103.000			-21.414			-2.677
54204.000			-21.411			-2.676
54305.000			-21.411			-2.676
54404.000			-21.411			-2.676
54504.000			-21.410			-2.676
54604.000			-21.409			-2.676
54704.000			-21.408			-2.676
54804.000			-21.406			-2.676
54905.000			-21.405			-2.676
55004.000			-21.403			-2.675
55104.000			-21.403			-2.675
55205.000			-21.402			-2.675
55303.000			-21.400			-2.675
55404.000			-21.400			-2.675
55505.000			-21.399			-2.675
55604.000			-21.398			-2.675
55704.000			-21.397			-2.675
55804.000			-21.396			-2.675
55904.000			-21.393			-2.674
56003.000			-21.392			-2.674
56104.000			-21.392			-2.674
56204.000			-21.392			-2.674
56305.000			-21.391			-2.674
56404.000			-21.388			-2.674
56504.000			-21.388			-2.674
56605.000			-21.387			-2.673
56703.000			-21.385			-2.673
56804.000			-21.384			-2.673
56905.000			-21.385			-2.673
57004.000			-21.383			-2.673
57104.000			-21.381			-2.673
57205.000			-21.381			-2.673
57304.000			-21.380			-2.672
57403.000			-21.379			-2.672
57505.000			-21.378			-2.672
57604.000			-21.377			-2.672
57704.000			-21.377			-2.672
57805.000			-21.375			-2.672
57904.000			-21.372			-2.671
58004.000			-21.370			-2.671
58104.000			-21.369			-2.671
58204.000			-21.368			-2.671
58304.000			-21.366			-2.671
58405.000			-21.365			-2.671
58504.000			-21.364			-2.671
58603.000			-21.364			-2.670
58705.000			-21.363			-2.670
58804.000			-21.362			-2.670
58904.000			-21.361			-2.670
59005.000			-21.360			-2.670
59104.000			-21.360			-2.670
59205.000			-21.359			-2.670
59303.000			-21.358			-2.670
59404.000			-21.357			-2.670
59505.000			-21.356			-2.670
59604.000			-21.355			-2.669
59704.000			-21.354			-2.669
59805.000			-21.353			-2.669
59904.000			-21.352			-2.669
60003.000			-21.352			-2.669
60105.000			-21.350			-2.669
60204.000			-21.349			-2.669
60304.000			-21.348			-2.669
60405.000			-21.348			-2.669
60504.000			-21.347			-2.668
60604.000			-21.347			-2.668
60704.000			-21.346			-2.668
60804.000			-21.345			-2.668
60904.000			-21.344			-2.668
61005.000			-21.342			-2.668
61104.000			-21.341			-2.668
61204.000			-21.340			-2.667
61305.000			-21.340			-2.668
61403.000			-21.338			-2.667
61504.000			-21.336			-2.667
61605.000			-21.336			-2.667
61704.000			-21.336			-2.667
61804.000			-21.334			-2.667
61904.000			-21.333			-2.667
62004.000			-21.333			-2.667
62104.000			-21.332			-2.666
62204.000			-21.332			-2.666
62304.000			-21.329			-2.666
62405.000			-21.328			-2.666
62504.000			-21.329			-2.666
62603.000			-21.328			-2.666
62705.000			-21.327			-2.666
62804.000			-21.325			-2.666
62904.000			-21.324			-2.666
63005.000			-21.323			-2.665
63104.000			-21.322			-2.665
63204.000			-21.322			-2.665
63304.000			-21.321			-2.665
63404.000			-21.320			-2.665
63504.000			-21.319			-2.665
63605.000			-21.317			-2.665
63704.000			-21.316			-2.664
63803.000			-21.315			-2.664
63905.000			-21.314			-2.664
64004.000			-21.314			-2.664
64104.000			-21.314			-2.664
64205.000			-21.312			-2.664
64304.000			-21.312			-2.664
64404.000			-21.309			-2.664
64504.000			-21.309			-2.664
64604.000			-21.309			-2.664
64704.000			-21.308			-2.664
64805.000			-21.307			-2.663
64904.000			-21.307			-2.663
65004.000			-21.306			-2.663
65105.000			-21.306			-2.663
65203.000			-21.304			-2.663
65304.000			-21.302			-2.663
65405.000			-21.301			-2.663
65504.000			-21.300			-2.663
65605.000			-21.300			-2.663
65703.000			-21.300			-2.662
65804.000			-21.299			-2.662
65904.000			-21.296			-2.662
66004.000			-21.296			-2.662
66104.000			-21.296			-2.662
66205.000			-21.296			-2.662
66304.000			-21.295			-2.662
66403.000			-21.293			-2.662
66505.000			-21.292			-2.661
66604.000			-21.292			-2.661
66704.000			-21.292			-2.661
66805.000			-21.291			-2.661
66904.000			-21.288			-2.661
67004.000			-21.288			-2.661
67104.000			-21.289			-2.661
67204.000			-21.288			-2.661
67304.000			-21.287			-2.661
67405.000			-21.286			-2.661
67504.000			-21.285			-2.661
67604.000			-21.284			-2.660
67705.000			-21.283			-2.660
67803.000			-21.283			-2.660
67904.000			-21.283			-2.660
68004.000			-21.281			-2.660
68104.000			-21.280			-2.660
68204.000			-21.279			-2.660
68305.000			-21.279			-2.660
68404.000			-21.278			-2.660
68503.000			-21.277			-2.660
68605.000			-21.277			-2.660
68704.000			-21.276			-2.660
68805.000			-21.274			-2.659
68904.000			-21.273			-2.659
69004.000			-21.272			-2.659
69105.000			-21.272			-2.659
69203.000			-21.272			-2.659
69304.000			-21.272			-2.659
69405.000			-21.270			-2.659
69504.000			-21.269			-2.659
69604.000			-21.268			-2.658
69705.000			-21.267			-2.658
69804.000			-21.267			-2.658
69903.000			-21.266			-2.658
70005.000			-21.265			-2.658
70104.000			-21.264			-2.658
70204.000			-21.264			-2.658
70305.000			-21.263			-2.658
70404.000			-21.262			-2.658
70504.000			-21.261			-2.658
70604.000			-21.260			-2.658
70704.000			-21.260			-2.658
70804.000			-21.258			-2.657
70905.000			-21.257			-2.657
71004.000			-21.257			-2.657
71104.000			-21.256			-2.657
71205.000			-21.255			-2.657
71303.000			-21.255			-2.657
71404.000			-21.254			-2.657
71505.000			-21.254			-2.657
71604.000			-21.253			-2.657
71704.000			-21.252			-2.656
71804.000			-21.251			-2.656
71904.000			-21.248			-2.656
72003.000			-21.248			-2.656
72104.000			-21.248			-2.656
72204.000			-21.248			-2.656
72305.000			-21.246			-2.656
72404.000			-21.245			-2.656
72503.000			-21.245			-2.656
72605.000			-21.244			-2.656
72704.000			-21.243			-2.655
72804.000			-21.241			-2.655
72905.000			-21.242			-2.655
73004.000			-21.242			-2.655
73104.000			-21.240			-2.655
73204.000			-21.239			-2.655
73304.000			-21.238			-2.655
73404.000			-21.238			-2.655
73505.000			-21.237			-2.655
73604.000			-21.236			-2.654
73704.000			-21.236			-2.654
73805.000			-21.235			-2.654
73903.000			-21.233			-2.654
74004.000			-21.232			-2.654
74105.000			-21.232			-2.654
74204.000			-21.232			-2.654
74304.000			-21.231			-2.654
74405.000			-21.229			-2.654
74504.000			-21.229			-2.654
74603.000			-21.228			-2.653
74705.000			-21.227			-2.653
74804.000			-21.227			-2.653
74904.000			-21.226			-2.653
75005.000			-21.226			-2.653
75104.000			-21.225			-2.653
75205.000			-21.224			-2.653
75303.000			-21.224			-2.653
75404.000			-21.222			-2.653
75505.000			-21.222			-2.653
75604.000			-21.220			-2.653
75704.000			-21.220			-2.653
75804.000			-21.220			-2.653
75904.000			-21.218			-2.652
76004.000			-21.217			-2.652
76105.000			-21.216			-2.652
76204.000			-21.215			-2.652
76304.000			-21.216			-2.652
76405.000			-21.214			-2.652
76503.000			-21.213			-2.652
76604.000			-21.213			-2.652
76705.000			-21.213			-2.652
76804.000			-21.212			-2.651
76904.000			-21.211			-2.651
77005.000			-21.210			-2.651
77104.000			-21.210			-2.651
77203.000			-21.209			-2.651
77305.000			-21.208			-2.651
77404.000			-21.207			-2.651
77504.000			-21.207			-2.651
77605.000			-21.206			-2.651
77704.000			-21.203			-2.650
77804.000			-21.202			-2.650
77904.000			-21.203			-2.650
78004.000			-21.202			-2.650
78104.000			-21.203			-2.650
78204.000			-21.202			-2.650
78304.000			-21.200			-2.650
78403.000			-21.199			-2.650
78504.000			-21.199			-2.650
78603.000			-21.199			-2.650
78705.000			-21.198			-2.650
78804.000			-21.197			-2.650
78904.000			-21.196			-2.650
79005.000			-21.194			-2.649
79104.000			-21.194			-2.649
79204.000			-21.193			-2.649
79304.000			-21.192			-2.649
79404.000			-21.192			-2.649
79504.000			-21.191			-2.649
79605.000			-21.190			-2.649
79704.000			-21.189			-2.649
79804.000			-21.189			-2.649
79905.000			-21.189			-2.649
80003.000			-21.188			-2.649
80104.000			-21.187			-2.648
80205.000			-21.187			-2.648
80304.000			-21.186			-2.648
80404.000			-21.184			-2.648
80505.000			-21.183			-2.648
80604.000			-21.183			-2.648
80703.000			-21.183			-2.648
80805.000			-21.182			-2.648
80904.000			-21.180			-2.648
81004.000			-21.180			-2.648
81105.000			-21.180			-2.647
81203.000			-21.178			-2.647
81304.000			-21.178			-2.647
81405.000			-21.177			-2.647
81504.000			-21.177			-2.647
81605.000			-21.176			-2.647
81704.000			-21.175			-2.647
81804.000			-21.175			-2.647
81904.000			-21.174			-2.647
82004.000			-21.173			-2.647
82104.000			-21.171			-2.646
82205.000			-21.171			-2.646
82304.000			-21.171			-2.646
82404.000			-21.170			-2.646
82505.000			-21.168			-2.646
82603.000			-21.169			-2.646
82704.000			-21.167			-2.646
82805.000			-21.167			-2.646
82904.000			-21.167			-2.646
83004.000			-21.166			-2.646
83105.000			-21.166			-2.646
83204.000			-21.165			-2.646
83303.000			-21.164			-2.646
83405.000			-21.163			-2.645
83504.000			-21.162			-2.645
83604.000			-21.162			-2.645
83705.000			-21.161			-2.645
83804.000			-21.160			-2.645
83904.000			-21.159			-2.645
84004.000			-21.158			-2.645
84104.000			-21.157			-2.645
84204.000			-21.157			-2.645
84305.000			-21.157			-2.645
84404.000			-21.157			-2.645
84504.000			-21.156			-2.644
84605.000			-21.155			-2.644
84703.000			-21.155			-2.644
84805.000			-21.154			-2.644
84904.000			-21.152			-2.644
85004.000			-21.152			-2.644
85105.000			-21.152			-2.644
85204.000			-21.151			-2.644
85304.000			-21.149			-2.644
85404.000			-21.149			-2.644
85504.000			-21.149			-2.644
85604.000			-21.148			-2.643
85705.000			-21.147			-2.643
85804.000			-21.147			-2.643
85903.000			-21.147			-2.643
86005.000			-21.146			-2.643
86103.000			-21.144			-2.643
86204.000			-21.143			-2.643
86305.000			-21.143			-2.643
86404.000			-21.143			-2.643
86504.000			-21.142			-2.643
86604.000			-21.140			-2.642
86704.000			-21.140			-2.642
86803.000			-21.140			-2.642
86905.000			-21.140			-2.642
87004.000			-21.139			-2.642
87104.000			-21.137			-2.642
87205.000			-21.137			-2.642
87304.000			-21.137			-2.642
87404.000			-21.136			-2.642
87504.000			-21.135			-2.642
87604.000			-21.133			-2.642
87704.000			-21.133			-2.642
87804.000			-21.133			-2.642
87904.000			-21.132			-2.641
88005.000			-21.132			-2.641
88104.000			-21.132			-2.641
88203.000			-21.132			-2.641
88305.000			-21.131			-2.641
88404.000			-21.129			-2.641
88504.000			-21.129			-2.641
88605.000			-21.128			-2.641
88704.000			-21.127			-2.641
88804.000			-21.126			-2.641
88904.000			-21.125			-2.641
89004.000			-21.124			-2.641
89104.000			-21.125			-2.641
89205.000			-21.123			-2.640
89304.000			-21.122			-2.640
89403.000			-21.122			-2.640
89505.000			-21.122			-2.640
89604.000			-21.121			-2.640
89704.000			-21.120			-2.640
89805.000			-21.121			-2.640
89904.000			-21.119			-2.640
90004.000			-21.119			-2.640
90104.000			-21.119			-2.640
90204.000			-21.118			-2.640
90304.000			-21.118			-2.640
90405.000			-21.117			-2.640
90504.000			-21.116			-2.640
90604.000			-21.115			-2.639
90705.000			-21.114			-2.639
90803.000			-21.113			-2.639
90904.000			-21.112			-2.639
91005.000			-21.113			-2.639
91104.000			-21.112			-2.639
91205.000			-21.111			-2.639
91304.000			-21.110			-2.639
91404.000			-21.109			-2.639
91504.000			-21.109			-2.639
91604.000			-21.108			-2.639
91704.000			-21.108			-2.639
91805.000			-21.108			-2.638
91904.000			-21.106			-2.638
92003.000			-21.106			-2.638
92105.000			-21.105			-2.638
92204.000			-21.105			-2.638
92304.000			-21.104			-2.638
92405.000			-21.104			-2.638
92504.000			-21.102			-2.638
92604.000			-21.102			-2.638
92704.000			-21.102			-2.638
92804.000			-21.102			-2.638
92904.000			-21.102			-2.638
93005.000			-21.101			-2.638
93104.000			-21.099			-2.637
93204.000			-21.098			-2.637
93305.000			-21.097			-2.637
93403.000			-21.097			-2.637
93504.000			-21.097			-2.637
93605.000			-21.096			-2.637
93704.000			-21.096			-2.637
93804.000			-21.095			-2.637
93905.000			-21.094			-2.637
94004.000			-21.094			-2.637
94103.000			-21.093			-2.637
94205.000			-21.092			-2.637
94304.000			-21.090			-2.636
94405.000			-21.091			-2.636
94504.000			-21.092			-2.636
94604.000			-21.091			-2.636
94705.000			-21.090			-2.636
94803.000			-21.088			-2.636
94904.000			-21.088			-2.636
95005.000			-21.088			-2.636
95104.000			-21.087			-2.636
95204.000			-21.086			-2.636
95305.000			-21.085			-2.636
95404.000			-21.085			-2.636
95503.000			-21.085			-2.636
95605.000			-21.084			-2.636
95704.000			-21.082			-2.635
95804.000			-21.082			-2.635
95905.000			-21.082			-2.635
96004.000			-21.082			-2.635
96104.000			-21.081			-2.635
96204.000			-21.080			-2.635
96304.000			-21.080			-2.635
96404.000			-21.079			-2.635
96505.000			-21.078			-2.635
96604.000			-21.078			-2.635
96704.000			-21.077			-2.635
96805.000			-21.076			-2.635
96903.000			-21.076			-2.635
97004.000			-21.076			-2.634
97105.000			-21.075			-2.634
97204.000			-21.074			-2.634
97304.000			-21.073			-2.634
97404.000			-21.073			-2.634
97504.000			-21.072			-2.634
97603.000			-21.071			-2.634
97704.000			-21.070			-2.634
97804.000			-21.070			-2.634
97905.000			-21.069			-2.634
98004.000			-21.069			-2.634
98104.000			-21.069			-2.634
98205.000			-21.068			-2.633
98303.000			-21.067			-2.633
98404.000			-21.066			-2.633
98505.000			-21.066			-2.633
98604.000			-21.066			-2.633
98704.000			-21.064			-2.633
98805.000			-21.063			-2.633
98904.000			-21.062			-2.633
99003.000			-21.063			-2.633
99105.000			-21.063			-2.633
99204.000			-21.062			-2.633
99304.000			-21.061			-2.633
99405.000			-21.060			-2.633
99504.000			-21.059			-2.632
99604.000			-21.060			-2.632
99704.000			-21.059			-2.632
99804.000			-21.058			-2.632
99904.000			-21.058			-2.632
100005.000			-21.056			-2.632
100104.000			-21.056			-2.632
100204.000			-21.056			-2.632
100305.000			-21.055			-2.632
100403.000			-21.054			-2.632
100504.000			-21.055			-2.632
100605.000			-21.055			-2.632
100704.000			-21.053			-2.632
100805.000			-21.053			-2.632
100904.000			-21.052			-2.631
101004.000			-21.051			-2.631
101104.000			-21.052			-2.631
101204.000			-21.051			-2.631
101304.000			-21.050			-2.631
101405.000			-21.050			-2.631
101504.000			-21.049			-2.631
101603.000			-21.047			-2.631
101705.000			-21.047			-2.631
101804.000			-21.047			-2.631
101904.000			-21.046			-2.631
102005.000			-21.046			-2.631
102104.000			-21.046			-2.631
102204.000			-21.045			-2.631
102304.000			-21.044			-2.630
102404.000			-21.044			-2.631
102504.000			-21.044			-2.630
102605.000			-21.042			-2.630
102704.000			-21.041			-2.630
102804.000			-21.041			-2.630
102905.000			-21.041			-2.630
103003.000			-21.040			-2.630
103104.000			-21.040			-2.630
103205.000			-21.039			-2.630
103304.000			-21.037			-2.630
103404.000			-21.038			-2.630
103505.000			-21.037			-2.630
103604.000			-21.037			-2.630
103703.000			-21.036			-2.630
103805.000			-21.035			-2.629
103904.000			-21.036			-2.629
104005.000			-21.034			-2.629
104104.000			-21.034			-2.629
104204.000			-21.034			-2.629
104305.000			-21.034			-2.629
104403.000			-21.033			-2.629
104504.000			-21.032			-2.629
104605.000			-21.031			-2.629
104704.000			-21.030			-2.629
104804.000			-21.029			-2.629
104905.000			-21.028			-2.629
105004.000			-21.028			-2.629
105103.000			-21.029			-2.629
105205.000			-21.028			-2.628
105304.000			-21.027			-2.628
105404.000			-21.027			-2.628
105505.000			-21.026			-2.628
105604.000			-21.025			-2.628
105704.000			-21.025			-2.628
105804.000			-21.024			-2.628
105904.000			-21.023			-2.628
106004.000			-21.021			-2.628
106105.000			-21.020			-2.628
106204.000			-21.021			-2.628
106303.000			-21.020			-2.628
106405.000			-21.020			-2.627
106504.000			-21.020			-2.627
106604.000			-21.018			-2.627
106705.000			-21.018			-2.627
106804.000			-21.017			-2.627
106904.000			-21.017			-2.627
107003.000			-21.016			-2.627
107104.000			-21.015			-2.627
107205.000			-21.016			-2.627
107304.000			-21.016			-2.627
107404.000			-21.015			-2.627
107505.000			-21.015			-2.627
107604.000			-21.014			-2.627
107703.000			-21.013			-2.627
107805.000			-21.012			-2.627
107904.000			-21.012			-2.627
108004.000			-21.012			-2.626
108105.000			-21.010			-2.626
108204.000			-21.011			-2.626
108304.000			-21.010			-2.626
108404.000			-21.008			-2.626
108504.000			-21.008			-2.626
108604.000			-21.008			-2.626
108705.000			-21.007			-2.626
108804.000			-21.007			-2.626
108904.000			-21.007			-2.626
109005.000			-21.006			-2.626
109103.000			-21.004			-2.626
109204.000			-21.004			-2.626
109305.000			-21.004			-2.625
109404.000			-21.004			-2.625
109504.000			-21.003			-2.625
109605.000			-21.002			-2.625
109704.000			-21.001			-2.625
109803.000			-21.001			-2.625
109905.000			-21.001			-2.625
110004.000			-21.000			-2.625
110104.000			-21.000			-2.625
110205.000			-20.999			-2.625
110304.000			-20.999			-2.625
110405.000			-20.998			-2.625
110503.000			-20.998			-2.625
110604.000			-20.998			-2.625
110705.000			-20.997			-2.625
110804.000			-20.997			-2.625
110904.000			-20.996			-2.625
111005.000			-20.996			-2.624
111104.000			-20.996			-2.624
111203.000			-20.996			-2.624
111305.000			-20.995			-2.624
111404.000			-20.994			-2.624
111504.000			-20.994			-2.624
111605.000			-20.993			-2.624
111704.000			-20.992			-2.624
111804.000			-20.992			-2.624
111904.000			-20.991			-2.624
112004.000			-20.991			-2.624
112104.000			-20.991			-2.624
112205.000			-20.991			-2.624
112304.000			-20.990			-2.624
112404.000			-20.989			-2.624
112505.000			-20.987			-2.623
112603.000			-20.988			-2.624
112704.000			-20.987			-2.623
112805.000			-20.987			-2.623
112904.000			-20.986			-2.623
113004.000			-20.985			-2.623
113105.000			-20.985			-2.623
113204.000			-20.983			-2.623
113303.000			-20.982			-2.623
113405.000			-20.982			-2.623
113504.000			-20.981			-2.623
113605.000			-20.981			-2.623
113704.000			-20.981			-2.623
113804.000			-20.980			-2.623
113905.000			-20.978			-2.622
114004.000			-20.978			-2.622
114104.000			-20.977			-2.622
114204.000			-20.976			-2.622
114304.000			-20.975			-2.622
114404.000			-20.974			-2.622
114505.000			-20.975			-2.622
114604.000			-20.975			-2.622
114704.000			-20.974			-2.622
114805.000			-20.973			-2.622
114903.000			-20.972			-2.621
115004.000			-20.972			-2.621
115105.000			-20.971			-2.621
115204.000			-20.970			-2.621
115304.000			-20.970			-2.621
115405.000			-20.969			-2.621
115504.000			-20.968			-2.621
115603.000			-20.967			-2.621
115705.000			-20.967			-2.621
115804.000			-20.967			-2.621
115904.000			-20.967			-2.621
116005.000			-20.967			-2.621
116104.000			-20.967			-2.621
116204.000			-20.966			-2.621
116304.000			-20.965			-2.621
116404.000			-20.964			-2.621
116503.000			-20.964			-2.620
116605.000			-20.963			-2.620
116704.000			-20.963			-2.620
116805.000			-20.962			-2.620
116904.000			-20.962			-2.620
117004.000			-20.962			-2.620
117105.000			-20.960			-2.620
117203.000			-20.961			-2.620
117304.000			-20.962			-2.620
117405.000			-20.960			-2.620
117504.000			-20.959			-2.620
117604.000			-20.957			-2.620
117705.000			-20.956			-2.620
117804.000			-20.956			-2.620
117903.000			-20.957			-2.620
118005.000			-20.957			-2.620
118104.000			-20.957			-2.620
118204.000			-20.956			-2.619
118305.000			-20.955			-2.619
118404.000			-20.954			-2.619
118504.000			-20.954			-2.619
118604.000			-20.953			-2.619
118704.000			-20.954			-2.619
118804.000			-20.953			-2.619
118905.000			-20.952			-2.619
119004.000			-20.952			-2.619
119104.000			-20.951			-2.619
119205.000			-20.951			-2.619
119303.000			-20.951			-2.619
119404.000			-20.951			-2.619
119505.000			-20.949			-2.619
119604.000			-20.949			-2.619
119704.000			-20.949			-2.619
119804.000			-20.947			-2.618
119904.000			-20.947			-2.618
120005.000			-20.947			-2.618
120104.000			-20.946			-2.618
120203.000			-20.946			-2.618
120305.000			-20.945			-2.618
120404.000			-20.944			-2.618
120504.000			-20.943			-2.618
120605.000			-20.943			-2.618
120704.000			-20.944			-2.618
120804.000			-20.943			-2.618
120904.000			-20.941			-2.618
121004.000			-20.941			-2.618
121104.000			-20.941			-2.618
121205.000			-20.941			-2.618
121304.000			-20.940			-2.618
121404.000			-20.939			-2.617
121505.000			-20.939			-2.617
121603.000			-20.939			-2.617
121704.000			-20.938			-2.617
121805.000			-20.937			-2.617
121904.000			-20.937			-2.617
122004.000			-20.937			-2.617
122105.000			-20.938			-2.617
122204.000			-20.936			-2.617
122303.000			-20.935			-2.617
122405.000			-20.934			-2.617
122504.000			-20.934			-2.617
122604.000			-20.933			-2.617
122705.000			-20.933			-2.617
122804.000			-20.932			-2.617
122904.000			-20.933			-2.617
123003.000			-20.933			-2.617
123104.000			-20.933			-2.617
123205.000			-20.932			-2.617
123304.000			-20.931			-2.616
123404.000			-20.931			-2.616
123505.000			-20.931			-2.616
123604.000			-20.930			-2.616
123703.000			-20.930			-2.616
123805.000			-20.930			-2.616
123904.000			-20.930			-2.616
124004.000			-20.930			-2.616
124105.000			-20.930			-2.616
124204.000			-20.929			-2.616
124304.000			-20.928			-2.616
124404.000			-20.928			-2.616
124504.000			-20.929			-2.616
124604.000			-20.928			-2.616
124705.000			-20.927			-2.616
124804.000			-20.928			-2.616
124904.000			-20.927			-2.616
125005.000			-20.926			-2.616
125103.000			-20.925			-2.616
125204.000			-20.925			-2.616
125305.000			-20.925			-2.616
125404.000			-20.925			-2.616
125504.000			-20.924			-2.616
125605.000			-20.924			-2.615
125704.000			-20.923			-2.615
125803.000			-20.923			-2.615
125905.000			-20.923			-2.615
126004.000			-20.923			-2.615
126104.000			-20.922			-2.615
126205.000			-20.921			-2.615
126304.000			-20.921			-2.615
126405.000			-20.920			-2.615
126503.000			-20.920			-2.615
126604.000			-20.919			-2.615
126705.000			-20.920			-2.615
126804.000			-20.919			-2.615
126904.000			-20.918			-2.615
127005.000			-20.919			-2.615
127104.000			-20.918			-2.615
127203.000			-20.918			-2.615
127305.000			-20.917			-2.615
127404.000			-20.917			-2.615
127504.000			-20.917			-2.615
127605.000			-20.917			-2.615
127704.000			-20.915			-2.614
127804.000			-20.916			-2.614
127905.000			-20.914			-2.614
128004.000			-20.913			-2.614
128103.000			-20.913			-2.614
128205.000			-20.913			-2.614
128304.000			-20.913			-2.614
128404.000			-20.911			-2.614
128505.000			-20.911			-2.614
128604.000			-20.911			-2.614
128704.000			-20.911			-2.614
128804.000			-20.911			-2.614
128904.000			-20.911			-2.614
129004.000			-20.909			-2.614
129105.000			-20.910			-2.614
129204.000			-20.909			-2.614
129304.000			-20.908			-2.613
129405.000			-20.908			-2.614
129503.000			-20.907			-2.613
129605.000			-20.907			-2.613
129704.000			-20.907			-2.613
129804.000			-20.906			-2.613
129905.000			-20.906			-2.613
130004.000			-20.905			-2.613
130104.000			-20.904			-2.613
130204.000			-20.903			-2.613
130304.000			-20.903			-2.613
130404.000			-20.903			-2.613
130505.000			-20.903			-2.613
130604.000			-20.903			-2.613
130704.000			-20.902			-2.613
130805.000			-20.902			-2.613
130903.000			-20.902			-2.613
131004.000			-20.903			-2.613
131105.000			-20.901			-2.613
131204.000			-20.900			-2.612
131304.000			-20.900			-2.613
131405.000			-20.900			-2.612
131504.000			-20.900			-2.613
131603.000			-20.899			-2.612
131705.000			-20.898			-2.612
131804.000			-20.898			-2.612
131904.000			-20.898			-2.612
132005.000			-20.898			-2.612
132104.000			-20.896			-2.612
132204.000			-20.895			-2.612
132305.000			-20.895			-2.612
132404.000			-20.896			-2.612
132503.000			-20.895			-2.612
132605.000			-20.894			-2.612
132704.000			-20.894			-2.612
132805.000			-20.893			-2.612
132904.000			-20.893			-2.612
133004.000			-20.893			-2.612
133105.000			-20.892			-2.611
133204.000			-20.890			-2.611
133304.000			-20.890			-2.611
133404.000			-20.891			-2.611
133504.000			-20.891			-2.611
133604.000			-20.890			-2.611
133705.000			-20.890			-2.611
133804.000			-20.890			-2.611
133904.000			-20.889			-2.611
134005.000			-20.889			-2.611
134104.000			-20.888			-2.611
134204.000			-20.888			-2.611
134304.000			-20.887			-2.611
134404.000			-20.887			-2.611
134504.000			-20.887			-2.611
134605.000			-20.887			-2.611
134704.000			-20.886			-2.611
134804.000			-20.886			-2.611
134905.000			-20.886			-2.611
135004.000			-20.884			-2.610
135104.000			-20.883			-2.610
135204.000			-20.883			-2.610
135304.000			-20.883			-2.610
135404.000			-20.883			-2.610
135505.000			-20.882			-2.610
135604.000			-20.882			-2.610
135704.000			-20.882			-2.610
135805.000			-20.881			-2.610
135904.000			-20.881			-2.610
136005.000			-20.880			-2.610
136103.000			-20.880			-2.610
136204.000			-20.880			-2.610
136305.000			-20.880			-2.610
136404.000			-20.878			-2.610
136504.000			-20.878			-2.610
136605.000			-20.877			-2.610
136704.000			-20.876			-2.610
136804.000			-20.876			-2.610
136905.000			-20.875			-2.609
137003.000			-20.875			-2.609
137104.000			-20.876			-2.609
137205.000			-20.874			-2.609
137304.000			-20.874			-2.609
137404.000			-20.874			-2.609
137505.000			-20.873			-2.609
137604.000			-20.873			-2.609
137704.000			-20.872			-2.609
137805.000			-20.872			-2.609
137903.000			-20.872			-2.609
138004.000			-20.873			-2.609
138105.000			-20.872			-2.609
138204.000			-20.871			-2.609
138304.000			-20.871			-2.609
138405.000			-20.870			-2.609
138504.000			-20.869			-2.609
138604.000			-20.869			-2.609
138705.000			-20.868			-2.608
138803.000			-20.868			-2.608
138904.000			-20.868			-2.608
139005.000			-20.868			-2.609
139104.000			-20.868			-2.609
139205.000			-20.867			-2.608
139304.000			-20.866			-2.608
139404.000			-20.866			-2.608
139505.000			-20.866			-2.608
139604.000			-20.866			-2.608
139703.000			-20.865			-2.608
139805.000			-20.864			-2.608
139904.000			-20.864			-2.608
140004.000			-20.863			-2.608
140105.000			-20.863			-2.608
140204.000			-20.862			-2.608
140304.000			-20.862			-2.608
140405.000			-20.862			-2.608
140504.000			-20.861			-2.608
140603.000			-20.861			-2.608
140705.000			-20.861			-2.608
140804.000			-20.860			-2.607
140904.000			-20.859			-2.607
141005.000			-20.859			-2.607
141104.000			-20.859			-2.607
141204.000			-20.858			-2.607
141305.000			-20.857			-2.607
141404.000			-20.857			-2.607
141503.000			-20.856			-2.607
141605.000			-20.857			-2.607
141704.000			-20.856			-2.607
141804.000			-20.855			-2.607
141905.000			-20.855			-2.607
142004.000			-20.854			-2.607
142104.000			-20.854			-2.607
142204.000			-20.854			-2.607
142304.000			-20.854			-2.607
142403.000			-20.853			-2.607
142504.000			-20.854			-2.607
142604.000			-20.854			-2.607
142705.000			-20.852			-2.607
142804.000			-20.852			-2.606
142904.000			-20.852			-2.606
143005.000			-20.850			-2.606
143103.000			-20.850			-2.606
143204.000			-20.849			-2.606
143304.000			-20.849			-2.606
143404.000			-20.848			-2.606
143504.000			-20.847			-2.606
143605.000			-20.847			-2.606
143704.000			-20.846			-2.606
143804.000			-20.846			-2.606
143905.000			-20.846			-2.606
144003.000			-20.845			-2.606
144104.000			-20.844			-2.606
144205.000			-20.843			-2.605
144304.000			-20.845			-2.606
144404.000			-20.844			-2.606
144505.000			-20.843			-2.605
144604.000			-20.842			-2.605
144704.000			-20.841			-2.605
144805.000			-20.841			-2.605
144903.000			-20.841			-2.605
145004.000			-20.841			-2.605
145105.000			-20.840			-2.605
145204.000			-20.839			-2.605
145304.000			-20.839			-2.605
145404.000			-20.839			-2.605
145504.000			-20.838			-2.605
145605.000			-20.838			-2.605
145704.000			-20.838			-2.605
145803.000			-20.837			-2.605
145905.000			-20.836			-2.604
146004.000			-20.836			-2.604
146104.000			-20.835			-2.604
146205.000			-20.835			-2.604
146304.000			-20.834			-2.604
146404.000			-20.835			-2.604
146505.000			-20.834			-2.604
146604.000			-20.834			-2.604
146703.000			-20.833			-2.604
146805.000			-20.833			-2.604
146904.000			-20.833			-2.604
147004.000			-20.833			-2.604
147105.000			-20.832			-2.604
147204.000			-20.832			-2.604
147304.000			-20.831			-2.604
147404.000			-20.831			-2.604
147504.000			-20.831			-2.604
147603.000			-20.831			-2.604
147705.000			-20.830			-2.604
147804.000			-20.831			-2.604
147904.000			-20.831			-2.604
148005.000			-20.830			-2.604
148104.000			-20.830			-2.604
148204.000			-20.829			-2.604
148304.000			-20.828			-2.604
148404.000			-20.828			-2.604
148503.000			-20.829			-2.604
148605.000			-20.828			-2.604
148704.000			-20.828			-2.603
148805.000			-20.827			-2.603
148904.000			-20.826			-2.603
149004.000			-20.826			-2.603
149105.000			-20.826			-2.603
149204.000			-20.825			-2.603
149304.000			-20.825			-2.603
149404.000			-20.825			-2.603
149504.000			-20.825			-2.603
149604.000			-20.824			-2.603
149705.000			-20.823			-2.603
149804.000			-20.824			-2.603
149904.000			-20.824			-2.603
150005.000			-20.822			-2.603
150103.000			-20.822			-2.603
150204.000			-20.822			-2.603
150305.000			-20.821			-2.603
150404.000			-20.821			-2.603
150504.000			-20.821			-2.603
150605.000			-20.821			-2.603
150704.000			-20.820			-2.603
150804.000			-20.820			-2.603
150905.000			-20.820			-2.602
151003.000			-20.818			-2.602
151104.000			-20.818			-2.602
151205.000			-20.817			-2.602
151304.000			-20.818			-2.602
151404.000			-20.818			-2.602
151505.000			-20.818			-2.602
151604.000			-20.817			-2.602
151703.000			-20.816			-2.602
151805.000			-20.816			-2.602
151904.000			-20.815			-2.602
152005.000			-20.815			-2.602
152104.000			-20.815			-2.602
152204.000			-20.815			-2.602
152305.000			-20.814			-2.602
152404.000			-20.814			-2.602
152504.000			-20.813			-2.602
152604.000			-20.812			-2.601
152704.000			-20.812			-2.601
152804.000			-20.812			-2.602
152905.000			-20.812			-2.602
153004.000			-20.812			-2.601
153104.000			-20.811			-2.601
153205.000			-20.810			-2.601
153303.000			-20.811			-2.601
153404.000			-20.811			-2.601
153504.000			-20.810			-2.601
153604.000			-20.809			-2.601
153704.000			-20.808			-2.601
153805.000			-20.808			-2.601
153904.000			-20.808			-2.601
154004.000			-20.808			-2.601
154105.000			-20.807			-2.601
154203.000			-20.808			-2.601
154304.000			-20.807			-2.601
154404.000			-20.806			-2.601
154504.000			-20.806			-2.601
154604.000			-20.806			-2.601
154705.000			-20.805			-2.601
154804.000			-20.805			-2.601
154904.000			-20.805			-2.601
155005.000			-20.804			-2.601
155103.000			-20.803			-2.600
155205.000			-20.803			-2.600
155304.000			-20.803			-2.600
155404.000			-20.803			-2.600
155505.000			-20.803			-2.600
155604.000			-20.803			-2.600
155704.000			-20.801			-2.600
155805.000			-20.802			-2.600
155904.000			-20.801			-2.600
156003.000			-20.800			-2.600
156105.000			-20.800			-2.600
156204.000			-20.800			-2.600
156304.000			-20.799			-2.600
156405.000			-20.798			-2.600
156504.000			-20.798			-2.600
156604.000			-20.798			-2.600
156705.000			-20.797			-2.600
156804.000			-20.796			-2.600
156903.000			-20.796			-2.600
157005.000			-20.797			-2.600
157104.000			-20.796			-2.600
157204.000			-20.795			-2.599
157305.000			-20.795			-2.599
157404.000			-20.796			-2.599
157504.000			-20.794			-2.599
157605.000			-20.792			-2.599
157704.000			-20.793			-2.599
157803.000			-20.793			-2.599
157905.000			-20.794			-2.599
158004.000			-20.792			-2.599
158104.000			-20.792			-2.599
158205.000			-20.792			-2.599
158304.000			-20.791			-2.599
158405.000			-20.791			-2.599
158504.000			-20.791			-2.599
158604.000			-20.791			-2.599
158704.000			-20.790			-2.599
158804.000			-20.790			-2.599
158904.000			-20.789			-2.599
159005.000			-20.787			-2.598
159104.000			-20.788			-2.598
159204.000			-20.788			-2.599
159305.000			-20.787			-2.598
159404.000			-20.787			-2.598
159504.000			-20.787			-2.598
159604.000			-20.786			-2.598
159704.000			-20.786			-2.598
159803.000			-20.785			-2.598
159905.000			-20.785			-2.598
160004.000			-20.786			-2.598
160104.000			-20.785			-2.598
160205.000			-20.784			-2.598
160304.000			-20.784			-2.598
160404.000			-20.784			-2.598
160504.000			-20.783			-2.598
160604.000			-20.783			-2.598
160704.000			-20.783			-2.598
160805.000			-20.782			-2.598
160904.000			-20.782			-2.598
161004.000			-20.782			-2.598
161105.000			-20.782			-2.598
161204.000			-20.779			-2.597
161304.000			-20.780			-2.598
161403.000			-20.780			-2.598
161504.000			-20.780			-2.597
161605.000			-20.779			-2.597
161704.000			-20.779			-2.597
161804.000			-20.778			-2.597
161905.000			-20.779			-2.597
162004.000			-20.779			-2.597
162104.000			-20.777			-2.597
162205.000			-20.777			-2.597
162303.000			-20.778			-2.597
162404.000			-20.777			-2.597
162505.000			-20.776			-2.597
162604.000			-20.776			-2.597
162704.000			-20.775			-2.597
162805.000			-20.774			-2.597
162904.000			-20.774			-2.597
163004.000			-20.774			-2.597
163105.000			-20.774			-2.597
163203.000			-20.774			-2.597
163304.000			-20.775			-2.597
163405.000			-20.774			-2.597
163504.000			-20.774			-2.597
163604.000			-20.772			-2.597
163705.000			-20.771			-2.596
163804.000			-20.771			-2.596
163903.000			-20.771			-2.596
164005.000			-20.771			-2.596
164103.000			-20.771			-2.596
164204.000			-20.770			-2.596
164305.000			-20.770			-2.596
164404.000			-20.770			-2.596
164504.000			-20.769			-2.596
164604.000			-20.769			-2.596
164704.000			-20.769			-2.596
164803.000			-20.768			-2.596
164904.000			-20.767			-2.596
165003.000			-20.767			-2.596
165105.000			-20.768			-2.596
165204.000			-20.767			-2.596
165304.000			-20.766			-2.596
165405.000			-20.766			-2.596
165504.000			-20.765			-2.596
165604.000			-20.764			-2.595
165704.000			-20.765			-2.596
165804.000			-20.764			-2.596
165903.000			-20.764			-2.595
166005.000			-20.764			-2.595
166104.000			-20.763			-2.595
166204.000			-20.764			-2.596
166305.000			-20.764			-2.595
166404.000			-20.763			-2.595
166504.000			-20.763			-2.595
166604.000			-20.762			-2.595
166704.000			-20.762			-2.595
166803.000			-20.762			-2.595
166905.000			-20.761			-2.595
167004.000			-20.759			-2.595
167104.000			-20.760			-2.595
167205.000			-20.760			-2.595
167304.000			-20.760			-2.595
167404.000			-20.760			-2.595
167504.000			-20.759			-2.595
167604.000			-20.759			-2.595
167703.000			-20.758			-2.595
167805.000			-20.758			-2.595
167904.000			-20.758			-2.595
168005.000			-20.758			-2.595
168104.000			-20.758			-2.595
168204.000			-20.757			-2.595
168305.000			-20.757			-2.595
168404.000			-20.757			-2.595
168504.000			-20.756			-2.594
168604.000			-20.755			-2.594
168704.000			-20.754			-2.594
168803.000			-20.754			-2.594
168905.000			-20.754			-2.594
169004.000			-20.755			-2.594
169104.000			-20.755			-2.594
169205.000			-20.754			-2.594
169304.000			-20.753			-2.594
169404.000			-20.752			-2.594
169504.000			-20.753			-2.594
169604.000			-20.753			-2.594
169703.000			-20.752			-2.594
169805.000			-20.751			-2.594
169904.000			-20.751			-2.594
170004.000			-20.750			-2.594
170105.000			-20.749			-2.594
170204.000			-20.750			-2.594
170304.000			-20.749			-2.594
170404.000			-20.749			-2.594
170504.000			-20.749			-2.594
170604.000			-20.748			-2.594
170705.000			-20.748			-2.594
170804.000			-20.748			-2.593
170904.000			-20.747			-2.593
171005.000			-20.747			-2.593
171104.000			-20.748			-2.593
171205.000			-20.748			-2.593
171303.000			-20.747			-2.593
171404.000			-20.746			-2.593
171505.000			-20.745			-2.593
171604.000			-20.744			-2.593
171704.000			-20.744			-2.593
171805.000			-20.744			-2.593
171904.000			-20.744			-2.593
172004.000			-20.744			-2.593
172105.000			-20.743			-2.593
172203.000			-20.742			-2.593
172304.000			-20.742			-2.593
172405.000			-20.742			-2.593
172504.000			-20.741			-2.593
172604.000			-20.742			-2.593
172705.000			-20.742			-2.593
172804.000			-20.741			-2.593
172904.000			-20.741			-2.593
173005.000			-20.741			-2.593
173103.000			-20.740			-2.593
173204.000			-20.740			-2.593
173305.000			-20.740			-2.592
173404.000			-20.739			-2.592
173504.000			-20.739			-2.592
173605.000			-20.738			-2.592
173704.000			-20.738			-2.592
173803.000			-20.738			-2.592
173905.000			-20.737			-2.592
174003.000			-20.737			-2.592
174104.000			-20.737			-2.592
174205.000			-20.736			-2.592
174304.000			-20.736			-2.592
174405.000			-20.737			-2.592
174504.000			-20.736			-2.592
174604.000			-20.736			-2.592
174704.000			-20.735			-2.592
174804.000			-20.734			-2.592
174903.000			-20.734			-2.592
175005.000			-20.733			-2.592
175104.000			-20.733			-2.592
175204.000			-20.733			-2.592
175305.000			-20.733			-2.592
175404.000			-20.733			-2.592
175504.000			-20.733			-2.592
175604.000			-20.731			-2.591
175704.000			-20.731			-2.591
175804.000			-20.731			-2.591
175905.000			-20.731			-2.591
176004.000			-20.730			-2.591
176104.000			-20.730			-2.591
176205.000			-20.729			-2.591
176304.000			-20.729			-2.591
176404.000			-20.730			-2.591
176504.000			-20.729			-2.591
176604.000			-20.728			-2.591
176704.000			-20.728			-2.591
176805.000			-20.727			-2.591
176904.000			-20.727			-2.591
177004.000			-20.727			-2.591
177105.000			-20.727			-2.591
177204.000			-20.727			-2.591
177304.000			-20.727			-2.591
177403.000			-20.726			-2.591
177504.000			-20.726			-2.591
177603.000			-20.725			-2.591
177704.000			-20.725			-2.591
177804.000			-20.725			-2.591
177905.000			-20.724			-2.591
178004.000			-20.724			-2.590
178104.000			-20.724			-2.590
178205.000			-20.723			-2.590
178303.000			-20.723			-2.590
178404.000			-20.723			-2.590
178504.000			-20.723			-2.590
178604.000			-20.721			-2.590
178704.000			-20.722			-2.590
178805.000			-20.721			-2.590
178904.000			-20.722			-2.590
179004.000			-20.721			-2.590
179105.000			-20.721			-2.590
179203.000			-20.720			-2.590
179304.000			-20.721			-2.590
179405.000			-20.720			-2.590
179504.000			-20.719			-2.590
179604.000			-20.719			-2.590
179705.000			-20.719			-2.590
179804.000			-20.719			-2.590
179904.000			-20.718			-2.590
180005.000			-20.718			-2.590
180103.000			-20.718			-2.590
180204.000			-20.717			-2.590
180304.000			-20.717			-2.590
180404.000			-20.717			-2.590
180504.000			-20.718			-2.590
180604.000			-20.717			-2.590
180704.000			-20.716			-2.589
180805.000			-20.716			-2.589
180904.000			-20.715			-2.589
181003.000			-20.715			-2.589
181105.000			-20.715			-2.589
181204.000			-20.715			-2.589
181304.000			-20.714			-2.589
181405.000			-20.714			-2.589
181504.000			-20.713			-2.589
181604.000			-20.713			-2.589
181705.000			-20.713			-2.589
181804.000			-20.713			-2.589
181903.000			-20.713			-2.589
182005.000			-20.711			-2.589
182104.000			-20.711			-2.589
182204.000			-20.711			-2.589
182305.000			-20.710			-2.589
182404.000			-20.710			-2.589
182504.000			-20.710			-2.589
182604.000			-20.709			-2.589
182704.000			-20.709			-2.589
182803.000			-20.708			-2.589
182905.000			-20.708			-2.589
183004.000			-20.709			-2.589
183104.000			-20.708			-2.588
183205.000			-20.708			-2.588
183304.000			-20.707			-2.588
183404.000			-20.706			-2.588
183504.000			-20.706			-2.588
183604.000			-20.707			-2.588
183704.000			-20.706			-2.588
183804.000			-20.706			-2.588
183904.000			-20.706			-2.588
184005.000			-20.707			-2.588
184104.000			-20.706			-2.588
184204.000			-20.704			-2.588
184305.000			-20.704			-2.588
184403.000			-20.704			-2.588
184504.000			-20.704			-2.588
184605.000			-20.705			-2.588
184704.000			-20.704			-2.588
184804.000			-20.703			-2.588
184905.000			-20.703			-2.588
185004.000			-20.702			-2.588
185104.000			-20.702			-2.588
185205.000			-20.701			-2.588
185303.000			-20.701			-2.588
185404.000			-20.700			-2.588
185505.000			-20.700			-2.587
185604.000			-20.700			-2.588
185704.000			-20.701			-2.588
185805.000			-20.701			-2.588
185904.000			-20.699			-2.587
186004.000			-20.698			-2.587
186105.000			-20.699			-2.587
186203.000			-20.698			-2.587
186304.000			-20.698			-2.587
186405.000			-20.699			-2.587
186504.000			-20.697			-2.587
186604.000			-20.698			-2.587
186705.000			-20.697			-2.587
186804.000			-20.696			-2.587
186904.000			-20.696			-2.587
187005.000			-20.696			-2.587
187103.000			-20.697			-2.587
187205.000			-20.696			-2.587
187304.000			-20.695			-2.587
187404.000			-20.694			-2.587
187505.000			-20.694			-2.587
187604.000			-20.694			-2.587
187704.000			-20.693			-2.587
187805.000			-20.693			-2.587
187904.000			-20.692			-2.587
188003.000			-20.693			-2.587
188105.000			-20.693			-2.587
188203.000			-20.693			-2.587
188304.000			-20.693			-2.587
188405.000			-20.692			-2.587
188504.000			-20.693			-2.587
188604.000			-20.691			-2.586
188705.000			-20.691			-2.586
188804.000			-20.691			-2.586
188903.000			-20.690			-2.586
189005.000			-20.691			-2.586
189103.000			-20.690			-2.586
189204.000			-20.690			-2.586
189305.000			-20.689			-2.586
189404.000			-20.689			-2.586
189504.000			-20.688			-2.586
189605.000			-20.688			-2.586
189704.000			-20.689			-2.586
189804.000			-20.688			-2.586
189905.000			-20.687			-2.586
190003.000			-20.686			-2.586
190104.000			-20.686			-2.586
190205.000			-20.687			-2.586
190304.000			-20.686			-2.586
190405.000			-20.685			-2.586
190504.000			-20.684			-2.586
190604.000			-20.685			-2.586
190705.000			-20.685			-2.586
190804.000			-20.684			-2.586
190903.000			-20.685			-2.586
191005.000			-20.685			-2.586
191104.000			-20.684			-2.586
191204.000			-20.683			-2.585
191305.000			-20.683			-2.585
191404.000			-20.682			-2.585
191504.000			-20.683			-2.585
191605.000			-20.683			-2.585
191704.000			-20.682			-2.585
191803.000			-20.681			-2.585
191905.000			-20.682			-2.585
192004.000			-20.682			-2.585
192104.000			-20.682			-2.585
192205.000			-20.681			-2.585
192304.000			-20.680			-2.585
192404.000			-20.680			-2.585
192505.000			-20.680			-2.585
192604.000			-20.680			-2.585
192703.000			-20.680			-2.585
192805.000			-20.679			-2.585
192904.000			-20.678			-2.585
193004.000			-20.677			-2.585
193105.000			-20.678			-2.585
193204.000			-20.676			-2.584
193304.000			-20.677			-2.585
193404.000			-20.677			-2.585
193504.000			-20.678			-2.585
193603.000			-20.677			-2.585
193704.000			-20.676			-2.584
193804.000			-20.676			-2.584
193905.000			-20.676			-2.584
194004.000			-20.675			-2.584
194104.000			-20.674			-2.584
194205.000			-20.674			-2.584
194304.000			-20.674			-2.584
194404.000			-20.674			-2.584
194504.000			-20.674			-2.584
194604.000			-20.673			-2.584
194704.000			-20.672			-2.584
194805.000			-20.673			-2.584
194904.000			-20.672			-2.584
195004.000			-20.672			-2.584
195105.000			-20.672			-2.584
195204.000			-20.671			-2.584
195304.000			-20.671			-2.584
195404.000			-20.672			-2.584
195504.000			-20.671			-2.584
195604.000			-20.671			-2.584
195705.000			-20.671			-2.584
195804.000			-20.671			-2.584
195904.000			-20.669			-2.584
196005.000			-20.669			-2.584
196104.000			-20.668			-2.584
196204.000			-20.668			-2.583
196304.000			-20.669			-2.584
196404.000			-20.669			-2.584
196504.000			-20.668			-2.584
196604.000			-20.668			-2.583
196704.000			-20.668			-2.583
196805.000			-20.667			-2.583
196904.000			-20.667			-2.583
197004.000			-20.667			-2.583
197105.000			-20.667			-2.583
197203.000			-20.666			-2.583
197304.000			-20.666			-2.583
197404.000			-20.666			-2.583
197504.000			-20.665			-2.583
197604.000			-20.665			-2.583
197705.000			-20.666			-2.583
197804.000			-20.665			-2.583
197904.000			-20.664			-2.583
198005.000			-20.663			-2.583
198104.000			-20.663			-2.583
198204.000			-20.663			-2.583
198304.000			-20.662			-2.583
198404.000			-20.663			-2.583
198504.000			-20.663			-2.583
198605.000			-20.662			-2.583
198704.000			-20.661			-2.583
198804.000			-20.661			-2.583
198905.000			-20.662			-2.583
199004.000			-20.660			-2.582
199104.000			-20.660			-2.582
199204.000			-20.659			-2.582
199304.000			-20.658			-2.582
199404.000			-20.659			-2.582
199505.000			-20.660			-2.582
199604.000			-20.659			-2.582
199704.000			-20.659			-2.582
199805.000			-20.658			-2.582
199904.000			-20.658			-2.582
200005.000			-20.658			-2.582
200103.000			-20.657			-2.582
200204.000			-20.657			-2.582
200304.000			-20.657			-2.582
200404.000			-20.656			-2.582
200504.000			-20.656			-2.582
200605.000			-20.656			-2.582
200704.000			-20.657			-2.582
200804.000			-20.656			-2.582
200905.000			-20.655			-2.582
201003.000			-20.655			-2.582
201104.000			-20.654			-2.582
201205.000			-20.655			-2.582
201304.000			-20.655			-2.582
201404.000			-20.656			-2.582
201505.000			-20.655			-2.582
201604.000			-20.655			-2.582
201703.000			-20.654			-2.582
201805.000			-20.654			-2.582
201903.000			-20.653			-2.582
202004.000			-20.653			-2.582
202105.000			-20.653			-2.582
202204.000			-20.652			-2.582
202304.000			-20.651			-2.581
202405.000			-20.650			-2.581
202504.000			-20.651			-2.581
202603.000			-20.650			-2.581
202705.000			-20.650			-2.581
202804.000			-20.650			-2.581
202904.000			-20.650			-2.581
203005.000			-20.650			-2.581
203104.000			-20.650			-2.581
203205.000			-20.648			-2.581
203304.000			-20.647			-2.581
203404.000			-20.648			-2.581
203504.000			-20.648			-2.581
203604.000			-20.648			-2.581
203704.000			-20.648			-2.581
203805.000			-20.647			-2.581
203904.000			-20.646			-2.581
204004.000			-20.645			-2.581
204105.000			-20.646			-2.581
204203.000			-20.646			-2.581
204304.000			-20.646			-2.581
204405.000			-20.646			-2.581
204504.000			-20.646			-2.581
204604.000			-20.645			-2.581
204705.000			-20.645			-2.581
204804.000			-20.644			-2.581
204904.000			-20.644			-2.581
205005.000			-20.643			-2.580
205103.000			-20.643			-2.580
205204.000			-20.643			-2.580
205305.000			-20.643			-2.580
205404.000			-20.644			-2.581
205504.000			-20.644			-2.580
205605.000			-20.642			-2.580
205704.000			-20.642			-2.580
205803.000			-20.641			-2.580
205905.000			-20.641			-2.580
206004.000			-20.641			-2.580
206104.000			-20.641			-2.580
206205.000			-20.642			-2.580
206304.000			-20.641			-2.580
206405.000			-20.640			-2.580
206504.000			-20.639			-2.580
206604.000			-20.639			-2.580
206704.000			-20.639			-2.580
206804.000			-20.639			-2.580
206904.000			-20.639			-2.580
207005.000			-20.638			-2.580
207104.000			-20.638			-2.580
207204.000			-20.638			-2.580
207305.000			-20.639			-2.580
207404.000			-20.638			-2.580
207504.000			-20.637			-2.580
207604.000			-20.637			-2.580
207704.000			-20.636			-2.579
207804.000			-20.636			-2.579
207905.000			-20.636			-2.579
208004.000			-20.635			-2.579
208104.000			-20.635			-2.579
208205.000			-20.635			-2.579
208304.000			-20.634			-2.579
208404.000			-20.634			-2.579
208504.000			-20.634			-2.579
208604.000			-20.634			-2.579
208704.000			-20.634			-2.579
208805.000			-20.633			-2.579
208904.000			-20.633			-2.579
209004.000			-20.633			-2.579
209105.000			-20.633			-2.579
209203.000			-20.632			-2.579
209304.000			-20.632			-2.579
209403.000			-20.632			-2.579
209504.000			-20.632			-2.579
209605.000			-20.631			-2.579
209704.000			-20.631			-2.579
209804.000			-20.631			-2.579
209905.000			-20.630			-2.579
210004.000			-20.631			-2.579
210103.000			-20.630			-2.579
210205.000			-20.630			-2.579
210304.000			-20.630			-2.579
210404.000			-20.629			-2.579
210505.000			-20.628			-2.579
210604.000			-20.628			-2.579
210704.000			-20.628			-2.578
210804.000			-20.628			-2.579
210904.000			-20.627			-2.578
211003.000			-20.626			-2.578
211105.000			-20.626			-2.578
211204.000			-20.626			-2.578
211304.000			-20.626			-2.578
211405.000			-20.626			-2.578
211504.000			-20.626			-2.578
211604.000			-20.625			-2.578
211704.000			-20.625			-2.578
211804.000			-20.624			-2.578
211904.000			-20.624			-2.578
212005.000			-20.624			-2.578
212104.000			-20.624			-2.578
212204.000			-20.623			-2.578
212305.000			-20.624			-2.578
212403.000			-20.624			-2.578
212504.000			-20.624			-2.578
212605.000			-20.623			-2.578
212704.000			-20.623			-2.578
212805.000			-20.623			-2.578
212904.000			-20.622			-2.578
213004.000			-20.621			-2.578
213105.000			-20.621			-2.578
213204.000			-20.621			-2.578
213303.000			-20.621			-2.578
213405.000			-20.621			-2.578
213504.000			-20.620			-2.578
213604.000			-20.621			-2.578
213705.000			-20.620			-2.578
213804.000			-20.620			-2.577
213904.000			-20.619			-2.577
214004.000			-20.619			-2.577
214104.000			-20.618			-2.577
214204.000			-20.619			-2.577
214305.000			-20.619			-2.577
214404.000			-20.618			-2.577
214504.000			-20.617			-2.577
214605.000			-20.617			-2.577
214704.000			-20.618			-2.577
214804.000			-20.618			-2.577
214904.000			-20.617			-2.577
215004.000			-20.615			-2.577
215104.000			-20.615			-2.577
215205.000			-20.615			-2.577
215304.000			-20.615			-2.577
215404.000			-20.616			-2.577
215505.000			-20.616			-2.577
215603.000			-20.615			-2.577
215704.000			-20.615			-2.577
215803.000			-20.614			-2.577
215904.000			-20.613			-2.577
216005.000			-20.614			-2.577
216104.000			-20.614			-2.577
216204.000			-20.614			-2.577
216305.000			-20.614			-2.577
216404.000			-20.613			-2.577
216503.000			-20.613			-2.577
216605.000			-20.611			-2.576
216704.000			-20.611			-2.576
216804.000			-20.610			-2.576
216905.000			-20.611			-2.576
217004.000			-20.611			-2.576
217104.000			-20.611			-2.576
217204.000			-20.610			-2.576
217304.000			-20.610			-2.576
217403.000			-20.610			-2.576
217505.000			-20.610			-2.576
217604.000			-20.610			-2.576
217704.000			-20.610			-2.576
217805.000			-20.608			-2.576
217904.000			-20.609			-2.576
218004.000			-20.609			-2.576
218104.000			-20.608			-2.576
218204.000			-20.607			-2.576
218304.000			-20.607			-2.576
218405.000			-20.607			-2.576
218504.000			-20.608			-2.576
218604.000			-20.607			-2.576
218705.000			-20.606			-2.576
218803.000			-20.605			-2.576
218904.000			-20.605			-2.576
219003.000			-20.605			-2.576
219104.000			-20.605			-2.576
219205.000			-20.605			-2.576
219304.000			-20.605			-2.576
219404.000			-20.605			-2.576
219505.000			-20.605			-2.576
219604.000			-20.604			-2.576
219703.000			-20.604			-2.575
219805.000			-20.603			-2.575
219904.000			-20.603			-2.575
220004.000			-20.603			-2.575
220105.000			-20.604			-2.576
220204.000			-20.603			-2.575
220304.000			-20.603			-2.575
220404.000			-20.602			-2.575
220504.000			-20.601			-2.575
220603.000			-20.600			-2.575
220705.000			-20.601			-2.575
220804.000			-20.600			-2.575
220904.000			-20.600			-2.575
221005.000			-20.600			-2.575
221104.000			-20.601			-2.575
221204.000			-20.601			-2.575
221304.000			-20.599			-2.575
221404.000			-20.599			-2.575
221504.000			-20.600			-2.575
221605.000			-20.600			-2.575
221704.000			-20.599			-2.575
221804.000			-20.597			-2.575
221905.000			-20.597			-2.575
222003.000			-20.597			-2.575
222104.000			-20.598			-2.575
222203.000			-20.597			-2.575
222304.000			-20.597			-2.575
222405.000			-20.597			-2.575
222504.000			-20.596			-2.574
222604.000			-20.596			-2.574
222705.000			-20.596			-2.575
222804.000			-20.597			-2.575
222903.000			-20.596			-2.575
223005.000			-20.595			-2.574
223104.000			-20.596			-2.574
223204.000			-20.595			-2.574
223305.000			-20.593			-2.574
223404.000			-20.594			-2.574
223504.000			-20.594			-2.574
223605.000			-20.594			-2.574
223704.000			-20.594			-2.574
223803.000			-20.593			-2.574
223905.000			-20.593			-2.574
224004.000			-20.592			-2.574
224104.000			-20.592			-2.574
224205.000			-20.592			-2.574
224304.000			-20.592			-2.574
224404.000			-20.592			-2.574
224505.000			-20.592			-2.574
224604.000			-20.592			-2.574
224703.000			-20.591			-2.574
224805.000			-20.591			-2.574
224904.000			-20.591			-2.574
225004.000			-20.591			-2.574
225105.000			-20.591			-2.574
225204.000			-20.590			-2.574
225304.000			-20.590			-2.574
225403.000			-20.589			-2.574
225504.000			-20.588			-2.573
225603.000			-20.589			-2.574
225704.000			-20.588			-2.574
225804.000			-20.588			-2.574
225905.000			-20.587			-2.573
226004.000			-20.587			-2.573
226104.000			-20.588			-2.573
226205.000			-20.587			-2.573
226303.000			-20.588			-2.573
226404.000			-20.587			-2.573
226504.000			-20.587			-2.573
226604.000			-20.587			-2.573
226704.000			-20.586			-2.573
226805.000			-20.586			-2.573
226904.000			-20.586			-2.573
227004.000			-20.585			-2.573
227105.000			-20.586			-2.573
227204.000			-20.586			-2.573
227304.000			-20.585			-2.573
227404.000			-20.585			-2.573
227504.000			-20.584			-2.573
227604.000			-20.585			-2.573
227705.000			-20.584			-2.573
227804.000			-20.583			-2.573
227904.000			-20.583			-2.573
228005.000			-20.583			-2.573
228104.000			-20.582			-2.573
228204.000			-20.582			-2.573
228304.000			-20.581			-2.573
228404.000			-20.582			-2.573
228503.000			-20.583			-2.573
228605.000			-20.581			-2.573
228704.000			-20.581			-2.573
228805.000			-20.580			-2.573
228904.000			-20.580			-2.573
229004.000			-20.581			-2.573
229105.000			-20.582			-2.573
229203.000			-20.581			-2.573
229304.000			-20.580			-2.573
229405.000			-20.580			-2.572
229504.000			-20.579			-2.572
229604.000			-20.580			-2.573
229705.000			-20.579			-2.572
229804.000			-20.579			-2.572
229904.000			-20.578			-2.572
230005.000			-20.578			-2.572
230103.000			-20.578			-2.572
230204.000			-20.577			-2.572
230305.000			-20.577			-2.572
230404.000			-20.577			-2.572
230504.000			-20.576			-2.572
230605.000			-20.577			-2.572
230704.000			-20.577			-2.572
230804.000			-20.576			-2.572
230905.000			-20.576			-2.572
231003.000			-20.575			-2.572
231104.000			-20.575			-2.572
231205.000			-20.576			-2.572
231304.000			-20.576			-2.572
231404.000			-20.575			-2.572
231505.000			-20.575			-2.572
231604.000			-20.575			-2.572
231703.000			-20.574			-2.572
231805.000			-20.575			-2.572
231903.000			-20.574			-2.572
232005.000			-20.574			-2.572
232104.000			-20.573			-2.572
232204.000			-20.573			-2.572
232305.000			-20.573			-2.572
232404.000			-20.572			-2.572
232504.000			-20.572			-2.571
232604.000			-20.570			-2.571
232704.000			-20.571			-2.571
232804.000			-20.570			-2.571
232905.000			-20.570			-2.571
233004.000			-20.571			-2.571
233104.000			-20.570			-2.571
233205.000			-20.571			-2.571
233304.000			-20.570			-2.571
233404.000			-20.569			-2.571
233504.000			-20.569			-2.571
233604.000			-20.569			-2.571
233704.000			-20.568			-2.571
233805.000			-20.569			-2.571
233904.000			-20.567			-2.571
234004.000			-20.568			-2.571
234105.000			-20.568			-2.571
234204.000			-20.567			-2.571
234304.000			-20.567			-2.571
234404.000			-20.566			-2.571
234504.000			-20.566			-2.571
234604.000			-20.566			-2.571
234705.000			-20.566			-2.571
234804.000			-20.566			-2.571
234904.000			-20.565			-2.571
235005.000			-20.565			-2.571
235103.000			-20.565			-2.571
235205.000			-20.564			-2.571
235303.000			-20.564			-2.571
235404.000			-20.564			-2.571
235505.000			-20.564			-2.570
235604.000			-20.564			-2.570
235704.000			-20.564			-2.570
235805.000			-20.564			-2.570
235904.000			-20.562			-2.570
236003.000			-20.562			-2.570
236105.000			-20.562			-2.570
236204.000			-20.562			-2.570
236304.000			-20.562			-2.570
236405.000			-20.561			-2.570
236504.000			-20.561			-2.570
236604.000			-20.562			-2.570
236705.000			-20.562			-2.570
236804.000			-20.560			-2.570
236903.000			-20.561			-2.570
237005.000			-20.560			-2.570
237104.000			-20.560			-2.570
237204.000			-20.560			-2.570
237305.000			-20.559			-2.570
237404.000			-20.560			-2.570
237504.000			-20.559			-2.570
237605.000			-20.559			-2.570
237704.000			-20.559			-2.570
237803.000			-20.559			-2.570
237905.000			-20.558			-2.570
238004.000			-20.559			-2.570
238104.000			-20.559			-2.570
238205.000			-20.558			-2.570
238304.000			-20.558			-2.570
238405.000			-20.557			-2.570
238504.000			-20.556			-2.569
238604.000			-20.556			-2.569
238704.000			-20.557			-2.570
238804.000			-20.556			-2.569
238904.000			-20.555			-2.569
239005.000			-20.556			-2.570
239104.000			-20.555			-2.569
239204.000			-20.555			-2.569
239305.000			-20.555			-2.569
239404.000			-20.554			-2.569
239504.000			-20.554			-2.569
239604.000			-20.554			-2.569
239704.000			-20.554			-2.569
239804.000			-20.553			-2.569
239905.000			-20.553			-2.569
240004.000			-20.553			-2.569
240104.000			-20.553			-2.569
240205.000			-20.552			-2.569
240304.000			-20.552			-2.569
240404.000			-20.554			-2.569
240504.000			-20.553			-2.569
240604.000			-20.552			-2.569
240704.000			-20.552			-2.569
240805.000			-20.551			-2.569
240904.000			-20.551			-2.569
241004.000			-20.551			-2.569
241105.000			-20.551			-2.569
241203.000			-20.550			-2.569
241304.000			-20.549			-2.569
241405.000			-20.550			-2.569
241504.000			-20.549			-2.569
241605.000			-20.549			-2.569
241704.000			-20.549			-2.569
241804.000			-20.549			-2.569
241905.000			-20.549			-2.569
242004.000			-20.549			-2.569
242103.000			-20.548			-2.568
242205.000			-20.547			-2.568
242304.000			-20.547			-2.568
242404.000			-20.548			-2.568
242505.000			-20.547			-2.568
242604.000			-20.546			-2.568
242704.000			-20.547			-2.568
242804.000			-20.546			-2.568
242904.000			-20.545			-2.568
243003.000			-20.545			-2.568
243105.000			-20.545			-2.568
243204.000			-20.545			-2.568
243304.000			-20.544			-2.568
243405.000			-20.545			-2.568
243504.000			-20.545			-2.568
243604.000			-20.544			-2.568
243704.000			-20.544			-2.568
243804.000			-20.545			-2.568
243903.000			-20.545			-2.568
244005.000			-20.545			-2.568
244104.000			-20.544			-2.568
244204.000			-20.544			-2.568
244305.000			-20.543			-2.568
244404.000			-20.542			-2.568
244504.000			-20.543			-2.568
244603.000			-20.543			-2.568
244704.000			-20.542			-2.568
244805.000			-20.542			-2.568
244904.000			-20.542			-2.568
245004.000			-20.542			-2.568
245105.000			-20.541			-2.568
245204.000			-20.540			-2.567
245304.000			-20.539			-2.567
245405.000			-20.540			-2.568
245503.000			-20.540			-2.568
245604.000			-20.541			-2.568
245705.000			-20.541			-2.568
245804.000			-20.541			-2.568
245904.000			-20.540			-2.568
246005.000			-20.540			-2.567
246104.000			-20.540			-2.567
246203.000			-20.539			-2.567
246305.000			-20.538			-2.567
246403.000			-20.538			-2.567
246504.000			-20.538			-2.567
246605.000			-20.539			-2.567
246704.000			-20.538			-2.567
246804.000			-20.537			-2.567
246905.000			-20.537			-2.567
247004.000			-20.537			-2.567
247103.000			-20.537			-2.567
247205.000			-20.537			-2.567
247303.000			-20.536			-2.567
247404.000			-20.536			-2.567
247505.000			-20.536			-2.567
247604.000			-20.536			-2.567
247704.000			-20.535			-2.567
247804.000			-20.534			-2.567
247904.000			-20.535			-2.567
248003.000			-20.536			-2.567
248104.000			-20.536			-2.567
248203.000			-20.534			-2.567
248305.000			-20.535			-2.567
248404.000			-20.535			-2.567
248504.000			-20.534			-2.567
248605.000			-20.533			-2.567
248704.000			-20.533			-2.567
248804.000			-20.533			-2.567
248904.000			-20.533			-2.567
249004.000			-20.533			-2.567
249103.000			-20.532			-2.566
249205.000			-20.532			-2.567
249304.000			-20.532			-2.567
249404.000			-20.531			-2.566
249505.000			-20.532			-2.566
249604.000			-20.531			-2.566
249704.000			-20.531			-2.566
249804.000			-20.530			-2.566
249904.000			-20.531			-2.566
250004.000			-20.530			-2.566
250105.000			-20.530			-2.566
250204.000			-20.529			-2.566
250304.000			-20.529			-2.566
250405.000			-20.528			-2.566
250504.000			-20.529			-2.566
250604.000			-20.529			-2.566
250704.000			-20.529			-2.566
250804.000			-20.528			-2.566
250904.000			-20.528			-2.566
251004.000			-20.528			-2.566
251104.000			-20.527			-2.566
251205.000			-20.526			-2.566
251304.000			-20.526			-2.566
251403.000			-20.527			-2.566
251505.000			-20.527			-2.566
251603.000			-20.526			-2.566
251704.000			-20.527			-2.566
251805.000			-20.526			-2.566
251904.000			-20.525			-2.566
252004.000			-20.526			-2.566
252105.000			-20.526			-2.566
252204.000			-20.526			-2.566
252303.000			-20.525			-2.566
252405.000			-20.525			-2.566
252504.000			-20.525			-2.566
252604.000			-20.524			-2.566
252705.000			-20.524			-2.566
252804.000			-20.525			-2.566
252904.000			-20.525			-2.566
253005.000			-20.524			-2.565
253104.000			-20.523			-2.565
253203.000			-20.523			-2.565
253305.000			-20.522			-2.565
253404.000			-20.522			-2.565
253504.000			-20.522			-2.565
253605.000			-20.522			-2.565
253704.000			-20.522			-2.565
253804.000			-20.522			-2.565
253904.000			-20.522			-2.565
254004.000			-20.521			-2.565
254104.000			-20.520			-2.565
254204.000			-20.520			-2.565
254304.000			-20.520			-2.565
254405.000			-20.520			-2.565
254504.000			-20.520			-2.565
254604.000			-20.520			-2.565
254705.000			-20.520			-2.565
254803.000			-20.520			-2.565
254904.000			-20.519			-2.565
255005.000			-20.520			-2.565
255104.000			-20.520			-2.565
255204.000			-20.519			-2.565
255305.000			-20.519			-2.565
255404.000			-20.518			-2.565
255504.000			-20.517			-2.565
255605.000			-20.517			-2.565
255703.000			-20.518			-2.565
255804.000			-20.517			-2.565
255905.000			-20.517			-2.565
256004.000			-20.517			-2.565
256104.000			-20.517			-2.565
256205.000			-20.517			-2.565
256304.000			-20.517			-2.565
256403.000			-20.516			-2.565
256505.000			-20.517			-2.565
256603.000			-20.517			-2.565
256704.000			-20.516			-2.565
256805.000			-20.516			-2.564
256904.000			-20.514			-2.564
257004.000			-20.514			-2.564
257105.000			-20.515			-2.564
257204.000			-20.514			-2.564
257303.000			-20.514			-2.564
257405.000			-20.515			-2.564
257504.000			-20.514			-2.564
257605.000			-20.513			-2.564
257704.000			-20.513			-2.564
257804.000			-20.513			-2.564
257905.000			-20.512			-2.564
258004.000			-20.513			-2.564
258104.000			-20.513			-2.564
258204.000			-20.511			-2.564
258304.000			-20.513			-2.564
258404.000			-20.513			-2.564
258505.000			-20.512			-2.564
258604.000			-20.510			-2.564
258704.000			-20.510			-2.564
258805.000			-20.511			-2.564
258904.000			-20.511			-2.564
259004.000			-20.511			-2.564
259104.000			-20.510			-2.564
259204.000			-20.510			-2.564
259304.000			-20.510			-2.564
259405.000			-20.509			-2.564
259504.000			-20.509			-2.564
259604.000			-20.509			-2.564
259705.000			-20.509			-2.564
259804.000			-20.509			-2.564
259904.000			-20.508			-2.563
260004.000			-20.508			-2.563
260104.000			-20.507			-2.563
260204.000			-20.507			-2.563
260305.000			-20.507			-2.563
260404.000			-20.507			-2.563
260504.000			-20.507			-2.563
260605.000			-20.508			-2.563
260703.000			-20.507			-2.563
260805.000			-20.506			-2.563
260903.000			-20.506			-2.563
261004.000			-20.506			-2.563
261105.000			-20.507			-2.563
261204.000			-20.506			-2.563
261304.000			-20.506			-2.563
261405.000			-20.506			-2.563
261504.000			-20.505			-2.563
261603.000			-20.505			-2.563
261705.000			-20.505			-2.563
261804.000			-20.505			-2.563
261904.000			-20.505			-2.563
262005.000			-20.505			-2.563
262104.000			-20.503			-2.563
262204.000			-20.503			-2.563
262304.000			-20.504			-2.563
262404.000			-20.504			-2.563
262503.000			-20.505			-2.563
262605.000			-20.504			-2.563
262704.000			-20.503			-2.563
262804.000			-20.502			-2.563
262905.000			-20.502			-2.563
263004.000			-20.501			-2.563
263104.000			-20.501			-2.563
263204.000			-20.502			-2.563
263304.000			-20.503			-2.563
263404.000			-20.501			-2.563
263505.000			-20.502			-2.563
263604.000			-20.502			-2.563
263704.000			-20.501			-2.563
263805.000			-20.501			-2.563
263903.000			-20.500			-2.563
264005.000			-20.501			-2.563
264104.000			-20.501			-2.563
264204.000			-20.500			-2.562
264305.000			-20.499			-2.562
264404.000			-20.499			-2.562
264504.000			-20.498			-2.562
264605.000			-20.498			-2.562
264704.000			-20.498			-2.562
264803.000			-20.498			-2.562
264905.000			-20.498			-2.562
265003.000			-20.496			-2.562
265104.000			-20.497			-2.562
265205.000			-20.497			-2.562
265304.000			-20.497			-2.562
265404.000			-20.497			-2.562
265505.000			-20.497			-2.562
265604.000			-20.496			-2.562
265703.000			-20.496			-2.562
265805.000			-20.496			-2.562
265904.000			-20.495			-2.562
266004.000			-20.495			-2.562
266105.000			-20.496			-2.562
266204.000			-20.495			-2.562
266304.000			-20.494			-2.562
266405.000			-20.495			-2.562
266504.000			-20.495			-2.562
266603.000			-20.494			-2.562
266705.000			-20.493			-2.562
266804.000			-20.493			-2.562
266904.000			-20.493			-2.562
267005.000			-20.493			-2.562
267104.000			-20.493			-2.562
267205.000			-20.494			-2.562
267304.000			-20.492			-2.562
267404.000			-20.493			-2.562
267504.000			-20.492			-2.561
267604.000			-20.491			-2.561
267704.000			-20.491			-2.561
267805.000			-20.492			-2.561
267904.000			-20.492			-2.562
268004.000			-20.492			-2.561
268105.000			-20.490			-2.561
268204.000			-20.491			-2.561
268304.000			-20.491			-2.561
268404.000			-20.492			-2.561
268504.000			-20.491			-2.561
268604.000			-20.491			-2.561
268705.000			-20.490			-2.561
268804.000			-20.489			-2.561
268904.000			-20.489			-2.561
269005.000			-20.489			-2.561
269104.000			-20.488			-2.561
269204.000			-20.488			-2.561
269304.000			-20.488			-2.561
269404.000			-20.488			-2.561
269504.000			-20.489			-2.561
269605.000			-20.488			-2.561
269704.000			-20.487			-2.561
269804.000			-20.488			-2.561
269905.000			-20.487			-2.561
270004.000			-20.487			-2.561
270104.000			-20.487			-2.561
270203.000			-20.486			-2.561
270304.000			-20.486			-2.561
270405.000			-20.485			-2.561
270504.000			-20.485			-2.561
270604.000			-20.486			-2.561
270705.000			-20.486			-2.561
270804.000			-20.485			-2.561
270904.000			-20.485			-2.561
271005.000			-20.485			-2.561
271103.000			-20.484			-2.561
271204.000			-20.484			-2.561
271305.000			-20.484			-2.560
271404.000			-20.483			-2.560
271504.000			-20.483			-2.560
271605.000			-20.484			-2.560
271704.000			-20.484			-2.561
271803.000			-20.483			-2.560
271905.000			-20.483			-2.560
272003.000			-20.482			-2.560
272104.000			-20.482			-2.560
272205.000			-20.483			-2.560
272304.000			-20.482			-2.560
272404.000			-20.482			-2.560
272505.000			-20.481			-2.560
272604.000			-20.481			-2.560
272703.000			-20.481			-2.560
272805.000			-20.481			-2.560
272903.000			-20.481			-2.560
273004.000			-20.480			-2.560
273105.000			-20.480			-2.560
273204.000			-20.480			-2.560
273304.000			-20.480			-2.560
273404.000			-20.480			-2.560
273504.000			-20.481			-2.560
273603.000			-20.480			-2.560
273704.000			-20.480			-2.560
273803.000			-20.480			-2.560
273905.000			-20.480			-2.560
274004.000			-20.479			-2.560
274104.000			-20.478			-2.560
274205.000			-20.478			-2.560
274304.000			-20.478			-2.560
274404.000			-20.478			-2.560
274504.000			-20.479			-2.560
274604.000			-20.478			-2.560
274703.000			-20.476			-2.560
274805.000			-20.476			-2.560
274904.000			-20.476			-2.560
275004.000			-20.477			-2.560
275105.000			-20.478			-2.560
275204.000			-20.477			-2.560
275304.000			-20.477			-2.560
275404.000			-20.475			-2.559
275504.000			-20.476			-2.559
275603.000			-20.475			-2.559
275705.000			-20.476			-2.560
275804.000			-20.475			-2.559
275904.000			-20.475			-2.559
276005.000			-20.475			-2.559
276104.000			-20.474			-2.559
276204.000			-20.474			-2.559
276304.000			-20.473			-2.559
276404.000			-20.474			-2.559
276504.000			-20.474			-2.559
276604.000			-20.473			-2.559
276704.000			-20.473			-2.559
276805.000			-20.473			-2.559
276904.000			-20.473			-2.559
277004.000			-20.473			-2.559
277105.000			-20.473			-2.559
277203.000			-20.473			-2.559
277304.000			-20.472			-2.559
277405.000			-20.472			-2.559
277504.000			-20.472			-2.559
277604.000			-20.471			-2.559
277705.000			-20.472			-2.559
277804.000			-20.471			-2.559
277904.000			-20.470			-2.559
278005.000			-20.470			-2.559
278103.000			-20.471			-2.559
278204.000			-20.471			-2.559
278304.000			-20.471			-2.559
278404.000			-20.469			-2.559
278504.000			-20.469			-2.559
278605.000			-20.470			-2.559
278704.000			-20.469			-2.559
278804.000			-20.469			-2.559
278905.000			-20.469			-2.559
279004.000			-20.469			-2.559
279104.000			-20.468			-2.559
279204.000			-20.468			-2.559
279304.000			-20.468			-2.558
279404.000			-20.467			-2.558
279505.000			-20.468			-2.558
279604.000			-20.467			-2.558
279704.000			-20.466			-2.558
279805.000			-20.467			-2.558
279904.000			-20.466			-2.558
280005.000			-20.466			-2.558
280103.000			-20.466			-2.558
280204.000			-20.465			-2.558
280305.000			-20.464			-2.558
280404.000			-20.465			-2.558
280504.000			-20.466			-2.558
280605.000			-20.466			-2.558
280704.000			-20.464			-2.558
280804.000			-20.464			-2.558
280905.000			-20.464			-2.558
281003.000			-20.465			-2.558
281104.000			-20.465			-2.558
281205.000			-20.464			-2.558
281304.000			-20.463			-2.558
281404.000			-20.464			-2.558
281505.000			-20.464			-2.558
281604.000			-20.464			-2.558
281703.000			-20.463			-2.558
281805.000			-20.463			-2.558
281903.000			-20.463			-2.558
282004.000			-20.463			-2.558
282105.000			-20.462			-2.558
282204.000			-20.462			-2.558
282304.000			-20.461			-2.558
282405.000			-20.461			-2.558
282504.000			-20.462			-2.558
282603.000			-20.462			-2.558
282705.000			-20.461			-2.558
282804.000			-20.460			-2.558
282904.000			-20.460			-2.557
283005.000			-20.460			-2.558
283104.000			-20.460			-2.558
283205.000			-20.461			-2.558
283304.000			-20.460			-2.558
283404.000			-20.458			-2.557
283504.000			-20.459			-2.557
283604.000			-20.459			-2.557
283704.000			-20.459			-2.557
283805.000			-20.458			-2.557
283904.000			-20.457			-2.557
284004.000			-20.458			-2.557
284105.000			-20.459			-2.557
284204.000			-20.458			-2.557
284304.000			-20.458			-2.557
284404.000			-20.458			-2.557
284504.000			-20.457			-2.557
284604.000			-20.457			-2.557
284705.000			-20.457			-2.557
284804.000			-20.456			-2.557
284904.000			-20.455			-2.557
285005.000			-20.455			-2.557
285104.000			-20.455			-2.557
285204.000			-20.456			-2.557
285304.000			-20.456			-2.557
285404.000			-20.455			-2.557
285504.000			-20.455			-2.557
285605.000			-20.454			-2.557
285704.000			-20.454			-2.557
285804.000			-20.454			-2.557
285905.000			-20.454			-2.557
286004.000			-20.454			-2.557
286104.000			-20.455			-2.557
286203.000			-20.454			-2.557
286304.000			-20.454			-2.557
286405.000			-20.454			-2.557
286504.000			-20.454			-2.557
286604.000			-20.453			-2.557
286705.000			-20.452			-2.556
286804.000			-20.452			-2.556
286904.000			-20.453			-2.557
287005.000			-20.454			-2.557
287103.000			-20.453			-2.557
287204.000			-20.452			-2.556
287305.000			-20.452			-2.557
287404.000			-20.452			-2.557
287504.000			-20.452			-2.556
287605.000			-20.452			-2.556
287704.000			-20.451			-2.556
287804.000			-20.451			-2.556
287905.000			-20.451			-2.556
288003.000			-20.451			-2.556
288104.000			-20.451			-2.556
288205.000			-20.450			-2.556
288304.000			-20.450			-2.556
288404.000			-20.449			-2.556
288505.000			-20.449			-2.556
288604.000			-20.449			-2.556
288703.000			-20.449			-2.556
288805.000			-20.450			-2.556
288903.000			-20.449			-2.556
289004.000			-20.449			-2.556
289105.000			-20.449			-2.556
289204.000			-20.448			-2.556
289304.000			-20.448			-2.556
289404.000			-20.448			-2.556
289504.000			-20.448			-2.556
289605.000			-20.447			-2.556
289704.000			-20.446			-2.556
289803.000			-20.447			-2.556
289905.000			-20.447			-2.556
290004.000			-20.446			-2.556
290104.000			-20.446			-2.556
290205.000			-20.447			-2.556
290304.000			-20.447			-2.556
290404.000			-20.446			-2.556
290505.000			-20.446			-2.556
290604.000			-20.445			-2.556
290703.000			-20.445			-2.556
290805.000			-20.446			-2.556
290904.000			-20.445			-2.556
291004.000			-20.444			-2.555
291105.000			-20.444			-2.556
291204.000			-20.444			-2.555
291304.000			-20.443			-2.555
291404.000			-20.443			-2.555
291504.000			-20.443			-2.555
291603.000			-20.442			-2.555
291705.000			-20.442			-2.555
291804.000			-20.442			-2.555
291904.000			-20.443			-2.555
292005.000			-20.443			-2.555
292104.000			-20.444			-2.555
292204.000			-20.443			-2.555
292304.000			-20.442			-2.555
292404.000			-20.441			-2.555
292504.000			-20.441			-2.555
292604.000			-20.441			-2.555
292704.000			-20.441			-2.555
292805.000			-20.440			-2.555
292904.000			-20.440			-2.555
293004.000			-20.439			-2.555
293105.000			-20.440			-2.555
293203.000			-20.439			-2.555
293304.000			-20.438			-2.555
293405.000			-20.440			-2.555
293504.000			-20.440			-2.555
293604.000			-20.439			-2.555
293705.000			-20.439			-2.555
293804.000			-20.439			-2.555
293903.000			-20.439			-2.555
294005.000			-20.438			-2.555
294103.000			-20.438			-2.555
294204.000			-20.437			-2.555
294305.000			-20.437			-2.555
294404.000			-20.437			-2.555
294504.000			-20.438			-2.555
294605.000			-20.436			-2.555
294704.000			-20.436			-2.555
294803.000			-20.437			-2.555
294905.000			-20.437			-2.555
295003.000			-20.436			-2.554
295104.000			-20.437			-2.555
295205.000			-20.437			-2.555
295304.000			-20.437			-2.555
295404.000			-20.435			-2.554
295505.000			-20.436			-2.554
295604.000			-20.435			-2.554
295703.000			-20.435			-2.554
295805.000			-20.435			-2.554
295904.000			-20.434			-2.554
296005.000			-20.434			-2.554
296104.000			-20.435			-2.554
296204.000			-20.434			-2.554
296305.000			-20.433			-2.554
296404.000			-20.433			-2.554
296504.000			-20.433			-2.554
296604.000			-20.433			-2.554
296704.000			-20.434			-2.554
296804.000			-20.433			-2.554
296905.000			-20.433			-2.554
297004.000			-20.432			-2.554
297104.000			-20.432			-2.554
297205.000			-20.431			-2.554
297304.000			-20.431			-2.554
297404.000			-20.431			-2.554
297504.000			-20.431			-2.554
297604.000			-20.431			-2.554
297704.000			-20.432			-2.554
297805.000			-20.432			-2.554
297904.000			-20.430			-2.554
298004.000			-20.430			-2.554
298105.000			-20.430			-2.554
298204.000			-20.430			-2.554
298304.000			-20.430			-2.554
298404.000			-20.430			-2.554
298504.000			-20.430			-2.554
298604.000			-20.429			-2.554
298705.000			-20.430			-2.554
298804.000			-20.429			-2.554
298904.000			-20.428			-2.554
299005.000			-20.428			-2.554
299104.000			-20.429			-2.554
299205.000			-20.429			-2.554
299303.000			-20.428			-2.554
299404.000			-20.429			-2.554
299505.000			-20.428			-2.553
299604.000			-20.428			-2.553
299704.000			-20.428			-2.553
299805.000			-20.427			-2.553
299904.000			-20.427			-2.553
