# Acquired on 30/01/2024 09:32:41 
# SPIDER: Creep_10mm_HM077x145x38AA-1
# CREEP MEASUREMENT

# time [ms]		force [N]		stiffness [N/mm]
1.000			-58.215			-5.822
104.000			-58.786			-5.879
204.000			-58.763			-5.876
304.000			-58.513			-5.851
404.000			-58.356			-5.836
505.000			-58.241			-5.824
604.000			-58.144			-5.814
704.000			-57.981			-5.798
805.000			-57.911			-5.791
903.000			-57.846			-5.785
1004.000			-57.786			-5.779
1105.000			-57.732			-5.773
1204.000			-57.681			-5.768
1304.000			-57.632			-5.763
1404.000			-57.545			-5.754
1504.000			-57.505			-5.751
1604.000			-57.467			-5.747
1705.000			-57.430			-5.743
1804.000			-57.396			-5.740
1904.000			-57.364			-5.736
2005.000			-57.331			-5.733
2103.000			-57.271			-5.727
2204.000			-57.240			-5.724
2305.000			-57.212			-5.721
2404.000			-57.185			-5.718
2504.000			-57.158			-5.716
2604.000			-57.132			-5.713
2704.000			-57.108			-5.711
2805.000			-57.062			-5.706
2904.000			-57.039			-5.704
3004.000			-57.016			-5.702
3105.000			-56.996			-5.700
3204.000			-56.976			-5.698
3303.000			-56.955			-5.696
3405.000			-56.935			-5.694
3504.000			-56.917			-5.692
3604.000			-56.880			-5.688
3705.000			-56.862			-5.686
3804.000			-56.844			-5.684
3904.000			-56.825			-5.683
4004.000			-56.808			-5.681
4104.000			-56.792			-5.679
4204.000			-56.777			-5.678
4305.000			-56.743			-5.674
4404.000			-56.729			-5.673
4504.000			-56.714			-5.671
4605.000			-56.699			-5.670
4703.000			-56.685			-5.668
4804.000			-56.670			-5.667
4905.000			-56.656			-5.666
5004.000			-56.642			-5.664
5104.000			-56.615			-5.662
5204.000			-56.602			-5.660
5304.000			-56.589			-5.659
5404.000			-56.575			-5.658
5505.000			-56.562			-5.656
5604.000			-56.551			-5.655
5704.000			-56.538			-5.654
5805.000			-56.514			-5.651
5903.000			-56.503			-5.650
6005.000			-56.491			-5.649
6104.000			-56.478			-5.648
6204.000			-56.469			-5.647
6305.000			-56.459			-5.646
6404.000			-56.448			-5.645
6504.000			-56.426			-5.643
6604.000			-56.415			-5.642
6704.000			-56.405			-5.640
6804.000			-56.394			-5.639
6905.000			-56.385			-5.639
7004.000			-56.375			-5.638
7103.000			-56.364			-5.636
7205.000			-56.345			-5.635
7304.000			-56.335			-5.634
7404.000			-56.327			-5.633
7505.000			-56.317			-5.632
7604.000			-56.307			-5.631
7704.000			-56.297			-5.630
7804.000			-56.288			-5.629
7904.000			-56.280			-5.628
8004.000			-56.261			-5.626
8105.000			-56.252			-5.625
8204.000			-56.244			-5.624
8304.000			-56.235			-5.624
8405.000			-56.227			-5.623
8503.000			-56.220			-5.622
8604.000			-56.212			-5.621
8705.000			-56.194			-5.619
8804.000			-56.186			-5.619
8904.000			-56.179			-5.618
9004.000			-56.171			-5.617
9104.000			-56.163			-5.616
9203.000			-56.153			-5.615
9304.000			-56.146			-5.615
9404.000			-56.132			-5.613
9505.000			-56.124			-5.612
9604.000			-56.117			-5.612
9703.000			-56.109			-5.611
9805.000			-56.101			-5.610
9904.000			-56.095			-5.609
10004.000			-56.087			-5.609
10105.000			-56.079			-5.608
10204.000			-56.065			-5.606
10304.000			-56.059			-5.606
10404.000			-56.052			-5.605
10504.000			-56.046			-5.605
10604.000			-56.038			-5.604
10705.000			-56.031			-5.603
10804.000			-56.025			-5.602
10904.000			-56.011			-5.601
11005.000			-56.004			-5.600
11104.000			-55.998			-5.600
11204.000			-55.992			-5.599
11305.000			-55.985			-5.599
11404.000			-55.979			-5.598
11504.000			-55.973			-5.597
11604.000			-55.960			-5.596
11704.000			-55.954			-5.595
11803.000			-55.948			-5.595
11905.000			-55.942			-5.594
12004.000			-55.935			-5.594
12104.000			-55.929			-5.593
12205.000			-55.923			-5.592
12303.000			-55.917			-5.592
12405.000			-55.906			-5.591
12504.000			-55.900			-5.590
12604.000			-55.894			-5.589
12705.000			-55.887			-5.589
12804.000			-55.881			-5.588
12904.000			-55.875			-5.588
13004.000			-55.871			-5.587
13104.000			-55.860			-5.586
13203.000			-55.855			-5.586
13305.000			-55.849			-5.585
13404.000			-55.842			-5.584
13504.000			-55.836			-5.584
13605.000			-55.831			-5.583
13703.000			-55.826			-5.583
13804.000			-55.817			-5.582
13905.000			-55.811			-5.581
14004.000			-55.805			-5.581
14104.000			-55.801			-5.580
14205.000			-55.796			-5.580
14304.000			-55.790			-5.579
14403.000			-55.784			-5.578
14505.000			-55.779			-5.578
14604.000			-55.771			-5.577
14704.000			-55.765			-5.577
14805.000			-55.759			-5.576
14904.000			-55.754			-5.575
15004.000			-55.750			-5.575
15104.000			-55.745			-5.575
15204.000			-55.741			-5.574
15303.000			-55.731			-5.573
15405.000			-55.727			-5.573
15504.000			-55.722			-5.572
15605.000			-55.716			-5.572
15704.000			-55.711			-5.571
15803.000			-55.707			-5.571
15905.000			-55.702			-5.570
16004.000			-55.693			-5.569
16104.000			-55.688			-5.569
16205.000			-55.683			-5.568
16304.000			-55.678			-5.568
16404.000			-55.674			-5.567
16505.000			-55.670			-5.567
16604.000			-55.666			-5.567
16703.000			-55.661			-5.566
16805.000			-55.651			-5.565
16904.000			-55.647			-5.565
17004.000			-55.642			-5.564
17105.000			-55.638			-5.564
17204.000			-55.634			-5.563
17304.000			-55.630			-5.563
17404.000			-55.626			-5.563
17504.000			-55.617			-5.562
17604.000			-55.613			-5.561
17705.000			-55.610			-5.561
17804.000			-55.606			-5.561
17903.000			-55.601			-5.560
18005.000			-55.596			-5.560
18104.000			-55.591			-5.559
18204.000			-55.582			-5.558
18305.000			-55.579			-5.558
18404.000			-55.575			-5.558
18504.000			-55.571			-5.557
18604.000			-55.568			-5.557
18704.000			-55.565			-5.556
18803.000			-55.561			-5.556
18904.000			-55.558			-5.556
19004.000			-55.549			-5.555
19105.000			-55.545			-5.555
19204.000			-55.542			-5.554
19304.000			-55.537			-5.554
19405.000			-55.532			-5.553
19503.000			-55.528			-5.553
19604.000			-55.525			-5.553
19705.000			-55.517			-5.552
19804.000			-55.513			-5.551
19904.000			-55.509			-5.551
20005.000			-55.506			-5.551
20104.000			-55.501			-5.550
20203.000			-55.498			-5.550
20305.000			-55.494			-5.549
20404.000			-55.487			-5.549
20504.000			-55.483			-5.548
20605.000			-55.479			-5.548
20703.000			-55.476			-5.548
20804.000			-55.471			-5.547
20905.000			-55.468			-5.547
21004.000			-55.466			-5.547
21104.000			-55.459			-5.546
21205.000			-55.455			-5.546
21304.000			-55.452			-5.545
21403.000			-55.448			-5.545
21505.000			-55.445			-5.544
21604.000			-55.441			-5.544
21704.000			-55.437			-5.544
21805.000			-55.433			-5.543
21904.000			-55.428			-5.543
22005.000			-55.425			-5.542
22103.000			-55.420			-5.542
22204.000			-55.417			-5.542
22305.000			-55.413			-5.541
22404.000			-55.410			-5.541
22504.000			-55.406			-5.541
22605.000			-55.399			-5.540
22704.000			-55.397			-5.540
22803.000			-55.393			-5.539
22905.000			-55.389			-5.539
23004.000			-55.385			-5.538
23104.000			-55.382			-5.538
23205.000			-55.379			-5.538
23304.000			-55.374			-5.537
23404.000			-55.370			-5.537
23504.000			-55.367			-5.537
23604.000			-55.363			-5.536
23704.000			-55.360			-5.536
23805.000			-55.356			-5.536
23904.000			-55.354			-5.535
24004.000			-55.351			-5.535
24105.000			-55.345			-5.535
24204.000			-55.341			-5.534
24304.000			-55.338			-5.534
24405.000			-55.335			-5.534
24504.000			-55.332			-5.533
24604.000			-55.329			-5.533
24704.000			-55.326			-5.533
24804.000			-55.320			-5.532
24904.000			-55.316			-5.532
25004.000			-55.312			-5.531
25104.000			-55.309			-5.531
25205.000			-55.306			-5.531
25304.000			-55.305			-5.530
25403.000			-55.301			-5.530
25505.000			-55.295			-5.530
25604.000			-55.292			-5.529
25704.000			-55.289			-5.529
25805.000			-55.285			-5.529
25904.000			-55.283			-5.528
26004.000			-55.280			-5.528
26104.000			-55.277			-5.528
26204.000			-55.274			-5.527
26304.000			-55.268			-5.527
26405.000			-55.265			-5.527
26504.000			-55.261			-5.526
26604.000			-55.259			-5.526
26705.000			-55.257			-5.526
26803.000			-55.253			-5.525
26904.000			-55.250			-5.525
27005.000			-55.244			-5.524
27104.000			-55.241			-5.524
27204.000			-55.240			-5.524
27305.000			-55.237			-5.524
27404.000			-55.234			-5.523
27503.000			-55.231			-5.523
27605.000			-55.228			-5.523
27704.000			-55.223			-5.522
27804.000			-55.220			-5.522
27905.000			-55.217			-5.522
28004.000			-55.214			-5.521
28104.000			-55.212			-5.521
28203.000			-55.209			-5.521
28304.000			-55.206			-5.521
28405.000			-55.199			-5.520
28504.000			-55.198			-5.520
28604.000			-55.196			-5.520
28705.000			-55.193			-5.519
28804.000			-55.190			-5.519
28903.000			-55.187			-5.519
29005.000			-55.184			-5.518
29104.000			-55.181			-5.518
29204.000			-55.177			-5.518
29305.000			-55.175			-5.517
29404.000			-55.172			-5.517
29504.000			-55.169			-5.517
29604.000			-55.166			-5.517
29704.000			-55.163			-5.516
29804.000			-55.160			-5.516
29905.000			-55.156			-5.516
30004.000			-55.153			-5.515
30104.000			-55.149			-5.515
30205.000			-55.146			-5.515
30303.000			-55.144			-5.514
30404.000			-55.142			-5.514
30505.000			-55.139			-5.514
30604.000			-55.135			-5.514
30704.000			-55.134			-5.513
30805.000			-55.130			-5.513
30904.000			-55.126			-5.513
31003.000			-55.124			-5.512
31105.000			-55.122			-5.512
31204.000			-55.120			-5.512
31304.000			-55.117			-5.512
31405.000			-55.112			-5.511
31503.000			-55.109			-5.511
31605.000			-55.107			-5.511
31704.000			-55.104			-5.510
31804.000			-55.102			-5.510
31905.000			-55.100			-5.510
32004.000			-55.098			-5.510
32104.000			-55.092			-5.509
32204.000			-55.090			-5.509
32304.000			-55.089			-5.509
32404.000			-55.087			-5.509
32505.000			-55.083			-5.508
32604.000			-55.082			-5.508
32704.000			-55.080			-5.508
32805.000			-55.075			-5.507
32903.000			-55.073			-5.507
33004.000			-55.069			-5.507
33105.000			-55.066			-5.507
33204.000			-55.063			-5.506
33304.000			-55.061			-5.506
33405.000			-55.060			-5.506
33504.000			-55.059			-5.506
33603.000			-55.052			-5.505
33705.000			-55.051			-5.505
33804.000			-55.049			-5.505
33904.000			-55.045			-5.504
34005.000			-55.043			-5.504
34103.000			-55.041			-5.504
34204.000			-55.039			-5.504
34305.000			-55.034			-5.503
34404.000			-55.032			-5.503
34504.000			-55.030			-5.503
34604.000			-55.027			-5.503
34704.000			-55.025			-5.503
34803.000			-55.024			-5.502
34904.000			-55.022			-5.502
35004.000			-55.016			-5.502
35105.000			-55.014			-5.501
35204.000			-55.013			-5.501
35304.000			-55.010			-5.501
35405.000			-55.008			-5.501
35503.000			-55.005			-5.501
35604.000			-55.002			-5.500
35705.000			-55.000			-5.500
35804.000			-54.996			-5.500
35904.000			-54.995			-5.499
36005.000			-54.993			-5.499
36104.000			-54.990			-5.499
36203.000			-54.988			-5.499
36305.000			-54.986			-5.499
36404.000			-54.984			-5.498
36504.000			-54.979			-5.498
36605.000			-54.977			-5.498
36704.000			-54.976			-5.498
36804.000			-54.972			-5.497
36904.000			-54.970			-5.497
37004.000			-54.968			-5.497
37104.000			-54.967			-5.497
37205.000			-54.962			-5.496
37304.000			-54.960			-5.496
37404.000			-54.958			-5.496
37505.000			-54.956			-5.496
37603.000			-54.954			-5.495
37704.000			-54.952			-5.495
37805.000			-54.949			-5.495
37904.000			-54.948			-5.495
38005.000			-54.943			-5.494
38104.000			-54.941			-5.494
38204.000			-54.939			-5.494
38304.000			-54.937			-5.494
38404.000			-54.934			-5.493
38504.000			-54.933			-5.493
38605.000			-54.931			-5.493
38704.000			-54.926			-5.493
38804.000			-54.924			-5.492
38905.000			-54.923			-5.492
39003.000			-54.921			-5.492
39104.000			-54.918			-5.492
39205.000			-54.916			-5.492
39304.000			-54.915			-5.491
39404.000			-54.911			-5.491
39505.000			-54.908			-5.491
39604.000			-54.907			-5.491
39703.000			-54.905			-5.491
39805.000			-54.902			-5.490
39904.000			-54.901			-5.490
40004.000			-54.899			-5.490
40105.000			-54.895			-5.489
40204.000			-54.893			-5.489
40304.000			-54.890			-5.489
40404.000			-54.889			-5.489
40504.000			-54.887			-5.489
40604.000			-54.885			-5.488
40705.000			-54.883			-5.488
40804.000			-54.881			-5.488
40904.000			-54.877			-5.488
41005.000			-54.876			-5.488
41103.000			-54.874			-5.487
41205.000			-54.872			-5.487
41304.000			-54.869			-5.487
41404.000			-54.867			-5.487
41505.000			-54.866			-5.487
41604.000			-54.863			-5.486
41704.000			-54.860			-5.486
41804.000			-54.858			-5.486
41904.000			-54.855			-5.486
42003.000			-54.854			-5.485
42105.000			-54.852			-5.485
42204.000			-54.850			-5.485
42304.000			-54.847			-5.485
42405.000			-54.845			-5.484
42503.000			-54.843			-5.484
42604.000			-54.840			-5.484
42705.000			-54.838			-5.484
42804.000			-54.836			-5.484
42904.000			-54.835			-5.483
43005.000			-54.834			-5.483
43104.000			-54.830			-5.483
43203.000			-54.827			-5.483
43305.000			-54.826			-5.483
43404.000			-54.825			-5.482
43504.000			-54.822			-5.482
43605.000			-54.821			-5.482
43704.000			-54.819			-5.482
43804.000			-54.814			-5.481
43904.000			-54.814			-5.481
44004.000			-54.812			-5.481
44104.000			-54.811			-5.481
44204.000			-54.809			-5.481
44304.000			-54.807			-5.481
44405.000			-54.804			-5.480
44504.000			-54.800			-5.480
44603.000			-54.800			-5.480
44705.000			-54.798			-5.480
44804.000			-54.796			-5.480
44904.000			-54.793			-5.479
45005.000			-54.793			-5.479
45104.000			-54.791			-5.479
45204.000			-54.787			-5.479
45304.000			-54.785			-5.479
45404.000			-54.783			-5.478
45504.000			-54.782			-5.478
45605.000			-54.780			-5.478
45704.000			-54.776			-5.478
45804.000			-54.776			-5.478
45905.000			-54.775			-5.477
46003.000			-54.770			-5.477
46104.000			-54.768			-5.477
46205.000			-54.766			-5.477
46304.000			-54.765			-5.476
46404.000			-54.763			-5.476
46505.000			-54.761			-5.476
46604.000			-54.760			-5.476
46703.000			-54.758			-5.476
46805.000			-54.754			-5.475
46904.000			-54.753			-5.475
47004.000			-54.752			-5.475
47105.000			-54.750			-5.475
47204.000			-54.748			-5.475
47304.000			-54.747			-5.475
47403.000			-54.743			-5.474
47504.000			-54.742			-5.474
47605.000			-54.742			-5.474
47704.000			-54.740			-5.474
47804.000			-54.737			-5.474
47905.000			-54.735			-5.473
48004.000			-54.733			-5.473
48103.000			-54.732			-5.473
48205.000			-54.729			-5.473
48304.000			-54.727			-5.473
48404.000			-54.725			-5.473
48505.000			-54.724			-5.472
48604.000			-54.723			-5.472
48704.000			-54.720			-5.472
48804.000			-54.718			-5.472
48904.000			-54.715			-5.471
49004.000			-54.715			-5.471
49105.000			-54.713			-5.471
49204.000			-54.710			-5.471
49304.000			-54.709			-5.471
49405.000			-54.709			-5.471
49503.000			-54.707			-5.471
49604.000			-54.703			-5.470
49705.000			-54.702			-5.470
49804.000			-54.700			-5.470
49904.000			-54.697			-5.470
50005.000			-54.696			-5.470
50104.000			-54.695			-5.470
50203.000			-54.693			-5.469
50305.000			-54.691			-5.469
50404.000			-54.689			-5.469
50504.000			-54.688			-5.469
50605.000			-54.685			-5.469
50704.000			-54.684			-5.468
50805.000			-54.683			-5.468
50903.000			-54.680			-5.468
51004.000			-54.679			-5.468
51105.000			-54.675			-5.468
51204.000			-54.673			-5.467
51304.000			-54.672			-5.467
51405.000			-54.670			-5.467
51504.000			-54.668			-5.467
51603.000			-54.667			-5.467
51705.000			-54.667			-5.467
51804.000			-54.662			-5.466
51904.000			-54.660			-5.466
52005.000			-54.659			-5.466
52104.000			-54.659			-5.466
52204.000			-54.658			-5.466
52304.000			-54.657			-5.466
52404.000			-54.655			-5.465
52504.000			-54.651			-5.465
52605.000			-54.649			-5.465
52704.000			-54.648			-5.465
52804.000			-54.646			-5.465
52905.000			-54.645			-5.464
53003.000			-54.643			-5.464
53104.000			-54.642			-5.464
53205.000			-54.642			-5.464
53304.000			-54.637			-5.464
53404.000			-54.635			-5.464
53505.000			-54.635			-5.463
53604.000			-54.632			-5.463
53703.000			-54.631			-5.463
53805.000			-54.630			-5.463
53904.000			-54.629			-5.463
54005.000			-54.625			-5.462
54104.000			-54.623			-5.462
54204.000			-54.622			-5.462
54305.000			-54.620			-5.462
54403.000			-54.619			-5.462
54504.000			-54.618			-5.462
54605.000			-54.615			-5.462
54704.000			-54.614			-5.461
54804.000			-54.613			-5.461
54905.000			-54.611			-5.461
55004.000			-54.609			-5.461
55103.000			-54.608			-5.461
55205.000			-54.607			-5.461
55304.000			-54.604			-5.460
55404.000			-54.603			-5.460
55505.000			-54.601			-5.460
55604.000			-54.599			-5.460
55704.000			-54.597			-5.460
55804.000			-54.596			-5.460
55904.000			-54.595			-5.460
56004.000			-54.593			-5.459
56105.000			-54.592			-5.459
56204.000			-54.590			-5.459
56304.000			-54.587			-5.459
56405.000			-54.586			-5.459
56503.000			-54.585			-5.458
56604.000			-54.584			-5.458
56705.000			-54.582			-5.458
56804.000			-54.580			-5.458
56904.000			-54.577			-5.458
57004.000			-54.576			-5.458
57104.000			-54.573			-5.457
57203.000			-54.571			-5.457
57304.000			-54.571			-5.457
57404.000			-54.571			-5.457
57505.000			-54.569			-5.457
57604.000			-54.567			-5.457
57704.000			-54.564			-5.456
57805.000			-54.563			-5.456
57903.000			-54.561			-5.456
58004.000			-54.560			-5.456
58105.000			-54.559			-5.456
58204.000			-54.558			-5.456
58304.000			-54.556			-5.456
58405.000			-54.552			-5.455
58504.000			-54.551			-5.455
58603.000			-54.549			-5.455
58705.000			-54.549			-5.455
58804.000			-54.548			-5.455
58904.000			-54.547			-5.455
59005.000			-54.545			-5.455
59104.000			-54.541			-5.454
59204.000			-54.540			-5.454
59304.000			-54.539			-5.454
59404.000			-54.538			-5.454
59504.000			-54.536			-5.454
59605.000			-54.535			-5.453
59704.000			-54.533			-5.453
59804.000			-54.530			-5.453
59905.000			-54.530			-5.453
60003.000			-54.529			-5.453
60104.000			-54.527			-5.453
60205.000			-54.525			-5.452
60304.000			-54.524			-5.452
60405.000			-54.523			-5.452
60504.000			-54.522			-5.452
60604.000			-54.520			-5.452
60704.000			-54.518			-5.452
60804.000			-54.517			-5.452
60904.000			-54.516			-5.452
61005.000			-54.513			-5.451
61104.000			-54.512			-5.451
61203.000			-54.510			-5.451
61305.000			-54.506			-5.451
61404.000			-54.506			-5.451
61504.000			-54.506			-5.451
61605.000			-54.504			-5.450
61704.000			-54.503			-5.450
61804.000			-54.502			-5.450
61904.000			-54.500			-5.450
62004.000			-54.498			-5.450
62104.000			-54.496			-5.450
62205.000			-54.494			-5.449
62304.000			-54.494			-5.449
62404.000			-54.492			-5.449
62505.000			-54.492			-5.449
62603.000			-54.490			-5.449
62704.000			-54.489			-5.449
62805.000			-54.485			-5.448
62904.000			-54.483			-5.448
63004.000			-54.481			-5.448
63105.000			-54.480			-5.448
63204.000			-54.479			-5.448
63303.000			-54.477			-5.448
63405.000			-54.476			-5.448
63504.000			-54.473			-5.447
63605.000			-54.471			-5.447
63704.000			-54.469			-5.447
63804.000			-54.468			-5.447
63905.000			-54.468			-5.447
64003.000			-54.467			-5.447
64104.000			-54.468			-5.447
64205.000			-54.466			-5.447
64304.000			-54.464			-5.446
64404.000			-54.464			-5.446
64505.000			-54.463			-5.446
64604.000			-54.460			-5.446
64703.000			-54.458			-5.446
64805.000			-54.457			-5.446
64904.000			-54.456			-5.446
65004.000			-54.452			-5.445
65105.000			-54.451			-5.445
65204.000			-54.450			-5.445
65304.000			-54.450			-5.445
65404.000			-54.449			-5.445
65504.000			-54.448			-5.445
65604.000			-54.446			-5.445
65705.000			-54.443			-5.444
65804.000			-54.443			-5.444
65904.000			-54.442			-5.444
66005.000			-54.441			-5.444
66103.000			-54.439			-5.444
66204.000			-54.437			-5.444
66305.000			-54.436			-5.444
66404.000			-54.434			-5.443
66504.000			-54.433			-5.443
66604.000			-54.431			-5.443
66704.000			-54.429			-5.443
66803.000			-54.428			-5.443
66904.000			-54.426			-5.443
67004.000			-54.424			-5.442
67105.000			-54.423			-5.442
67204.000			-54.423			-5.442
67304.000			-54.421			-5.442
67405.000			-54.420			-5.442
67503.000			-54.420			-5.442
67604.000			-54.418			-5.442
67705.000			-54.416			-5.442
67804.000			-54.414			-5.441
67904.000			-54.413			-5.441
68005.000			-54.411			-5.441
68104.000			-54.410			-5.441
68203.000			-54.409			-5.441
68305.000			-54.408			-5.441
68404.000			-54.406			-5.441
68504.000			-54.405			-5.440
68605.000			-54.403			-5.440
68704.000			-54.403			-5.440
68804.000			-54.402			-5.440
68904.000			-54.399			-5.440
69004.000			-54.397			-5.440
69104.000			-54.397			-5.440
69205.000			-54.395			-5.440
69304.000			-54.393			-5.439
69404.000			-54.392			-5.439
69505.000			-54.391			-5.439
69603.000			-54.389			-5.439
69704.000			-54.388			-5.439
69805.000			-54.387			-5.439
69904.000			-54.386			-5.439
70005.000			-54.385			-5.438
70104.000			-54.382			-5.438
70204.000			-54.381			-5.438
70304.000			-54.381			-5.438
70404.000			-54.379			-5.438
70504.000			-54.379			-5.438
70605.000			-54.377			-5.438
70704.000			-54.376			-5.438
70804.000			-54.373			-5.437
70905.000			-54.372			-5.437
71003.000			-54.371			-5.437
71104.000			-54.370			-5.437
71205.000			-54.368			-5.437
71304.000			-54.367			-5.437
71404.000			-54.367			-5.437
71505.000			-54.363			-5.436
71604.000			-54.362			-5.436
71703.000			-54.362			-5.436
71805.000			-54.361			-5.436
71904.000			-54.359			-5.436
72004.000			-54.359			-5.436
72105.000			-54.358			-5.436
72204.000			-54.356			-5.436
72304.000			-54.354			-5.435
72404.000			-54.353			-5.435
72504.000			-54.352			-5.435
72604.000			-54.351			-5.435
72705.000			-54.350			-5.435
72804.000			-54.348			-5.435
72904.000			-54.347			-5.435
73005.000			-54.345			-5.434
73103.000			-54.343			-5.434
73205.000			-54.342			-5.434
73304.000			-54.341			-5.434
73404.000			-54.338			-5.434
73505.000			-54.337			-5.434
73604.000			-54.337			-5.434
73704.000			-54.337			-5.434
73804.000			-54.336			-5.434
73904.000			-54.335			-5.433
74004.000			-54.333			-5.433
74105.000			-54.330			-5.433
74204.000			-54.330			-5.433
74303.000			-54.329			-5.433
74405.000			-54.327			-5.433
74504.000			-54.326			-5.433
74604.000			-54.324			-5.432
74705.000			-54.322			-5.432
74804.000			-54.322			-5.432
74904.000			-54.322			-5.432
75004.000			-54.321			-5.432
75104.000			-54.319			-5.432
75203.000			-54.316			-5.432
75305.000			-54.315			-5.431
75404.000			-54.315			-5.431
75504.000			-54.314			-5.431
75605.000			-54.311			-5.431
75703.000			-54.311			-5.431
75804.000			-54.309			-5.431
75905.000			-54.308			-5.431
76004.000			-54.308			-5.431
76104.000			-54.307			-5.431
76204.000			-54.304			-5.430
76304.000			-54.302			-5.430
76403.000			-54.302			-5.430
76504.000			-54.301			-5.430
76604.000			-54.299			-5.430
76705.000			-54.298			-5.430
76804.000			-54.296			-5.430
76904.000			-54.295			-5.430
77005.000			-54.295			-5.429
77104.000			-54.294			-5.429
77204.000			-54.292			-5.429
77304.000			-54.291			-5.429
77404.000			-54.290			-5.429
77504.000			-54.289			-5.429
77605.000			-54.289			-5.429
77704.000			-54.287			-5.429
77804.000			-54.285			-5.428
77905.000			-54.283			-5.428
78003.000			-54.282			-5.428
78104.000			-54.281			-5.428
78205.000			-54.280			-5.428
78304.000			-54.278			-5.428
78404.000			-54.277			-5.428
78505.000			-54.276			-5.428
78604.000			-54.275			-5.427
78703.000			-54.274			-5.427
78805.000			-54.273			-5.427
78904.000			-54.272			-5.427
79004.000			-54.271			-5.427
79105.000			-54.270			-5.427
79204.000			-54.268			-5.427
79304.000			-54.267			-5.427
79403.000			-54.266			-5.427
79504.000			-54.265			-5.427
79605.000			-54.263			-5.426
79704.000			-54.262			-5.426
79804.000			-54.262			-5.426
79905.000			-54.260			-5.426
80004.000			-54.259			-5.426
80103.000			-54.258			-5.426
80205.000			-54.257			-5.426
80304.000			-54.256			-5.426
80404.000			-54.255			-5.425
80505.000			-54.253			-5.425
80604.000			-54.251			-5.425
80704.000			-54.251			-5.425
80804.000			-54.249			-5.425
80904.000			-54.248			-5.425
81004.000			-54.246			-5.425
81105.000			-54.246			-5.425
81204.000			-54.245			-5.425
81304.000			-54.245			-5.424
81405.000			-54.243			-5.424
81503.000			-54.241			-5.424
81604.000			-54.240			-5.424
81705.000			-54.239			-5.424
81804.000			-54.239			-5.424
81904.000			-54.238			-5.424
82005.000			-54.236			-5.424
82104.000			-54.234			-5.423
82203.000			-54.234			-5.423
82305.000			-54.233			-5.423
82404.000			-54.232			-5.423
82504.000			-54.230			-5.423
82605.000			-54.230			-5.423
82704.000			-54.228			-5.423
82805.000			-54.227			-5.423
82903.000			-54.225			-5.422
83004.000			-54.224			-5.422
83105.000			-54.223			-5.422
83204.000			-54.223			-5.422
83304.000			-54.221			-5.422
83405.000			-54.220			-5.422
83504.000			-54.219			-5.422
83603.000			-54.217			-5.422
83705.000			-54.216			-5.422
83804.000			-54.215			-5.422
83904.000			-54.215			-5.422
84005.000			-54.213			-5.421
84104.000			-54.213			-5.421
84204.000			-54.211			-5.421
84304.000			-54.209			-5.421
84404.000			-54.208			-5.421
84504.000			-54.208			-5.421
84605.000			-54.207			-5.421
84704.000			-54.205			-5.421
84803.000			-54.204			-5.420
84905.000			-54.203			-5.420
85003.000			-54.203			-5.420
85104.000			-54.201			-5.420
85205.000			-54.199			-5.420
85304.000			-54.198			-5.420
85404.000			-54.196			-5.420
85505.000			-54.196			-5.420
85604.000			-54.195			-5.420
85703.000			-54.194			-5.419
85805.000			-54.194			-5.419
85904.000			-54.192			-5.419
86005.000			-54.192			-5.419
86104.000			-54.190			-5.419
86204.000			-54.188			-5.419
86305.000			-54.188			-5.419
86403.000			-54.187			-5.419
86504.000			-54.186			-5.419
86605.000			-54.185			-5.419
86704.000			-54.184			-5.418
86804.000			-54.183			-5.418
86905.000			-54.180			-5.418
87004.000			-54.178			-5.418
87103.000			-54.178			-5.418
87205.000			-54.177			-5.418
87304.000			-54.177			-5.418
87404.000			-54.176			-5.418
87505.000			-54.175			-5.418
87604.000			-54.174			-5.417
87704.000			-54.172			-5.417
87804.000			-54.171			-5.417
87904.000			-54.170			-5.417
88004.000			-54.170			-5.417
88105.000			-54.169			-5.417
88204.000			-54.167			-5.417
88304.000			-54.166			-5.417
88405.000			-54.163			-5.416
88503.000			-54.162			-5.416
88604.000			-54.163			-5.416
88705.000			-54.162			-5.416
88804.000			-54.160			-5.416
88904.000			-54.159			-5.416
89004.000			-54.159			-5.416
89104.000			-54.157			-5.416
89203.000			-54.155			-5.416
89304.000			-54.155			-5.416
89404.000			-54.154			-5.415
89505.000			-54.153			-5.415
89604.000			-54.152			-5.415
89704.000			-54.151			-5.415
89805.000			-54.150			-5.415
89903.000			-54.148			-5.415
90004.000			-54.147			-5.415
90105.000			-54.147			-5.415
90204.000			-54.146			-5.415
90304.000			-54.145			-5.415
90405.000			-54.143			-5.414
90504.000			-54.141			-5.414
90603.000			-54.140			-5.414
90705.000			-54.140			-5.414
90804.000			-54.140			-5.414
90904.000			-54.139			-5.414
91005.000			-54.138			-5.414
91104.000			-54.137			-5.414
91204.000			-54.137			-5.414
91304.000			-54.132			-5.413
91404.000			-54.132			-5.413
91504.000			-54.131			-5.413
91605.000			-54.130			-5.413
91704.000			-54.130			-5.413
91804.000			-54.129			-5.413
91905.000			-54.127			-5.413
92003.000			-54.127			-5.413
92104.000			-54.126			-5.413
92205.000			-54.124			-5.412
92304.000			-54.123			-5.412
92405.000			-54.124			-5.412
92504.000			-54.122			-5.412
92604.000			-54.121			-5.412
92704.000			-54.120			-5.412
92804.000			-54.118			-5.412
92904.000			-54.117			-5.412
93005.000			-54.116			-5.412
93104.000			-54.115			-5.412
93204.000			-54.115			-5.411
93305.000			-54.114			-5.411
93403.000			-54.113			-5.411
93504.000			-54.111			-5.411
93605.000			-54.110			-5.411
93704.000			-54.108			-5.411
93804.000			-54.107			-5.411
93904.000			-54.106			-5.411
94004.000			-54.106			-5.411
94103.000			-54.106			-5.411
94205.000			-54.105			-5.411
94304.000			-54.103			-5.410
94404.000			-54.101			-5.410
94505.000			-54.101			-5.410
94603.000			-54.100			-5.410
94704.000			-54.100			-5.410
94805.000			-54.099			-5.410
94904.000			-54.097			-5.410
95004.000			-54.097			-5.410
95105.000			-54.096			-5.410
95204.000			-54.096			-5.410
95303.000			-54.094			-5.409
95405.000			-54.093			-5.409
95504.000			-54.092			-5.409
95605.000			-54.089			-5.409
95704.000			-54.088			-5.409
95804.000			-54.087			-5.409
95905.000			-54.086			-5.409
96004.000			-54.086			-5.409
96104.000			-54.085			-5.408
96204.000			-54.083			-5.408
96304.000			-54.082			-5.408
96404.000			-54.080			-5.408
96505.000			-54.081			-5.408
96604.000			-54.079			-5.408
96704.000			-54.077			-5.408
96805.000			-54.077			-5.408
96903.000			-54.077			-5.408
97004.000			-54.076			-5.408
97105.000			-54.075			-5.407
97204.000			-54.073			-5.407
97304.000			-54.072			-5.407
97405.000			-54.072			-5.407
97504.000			-54.072			-5.407
97603.000			-54.070			-5.407
97705.000			-54.069			-5.407
97804.000			-54.067			-5.407
97904.000			-54.067			-5.407
98005.000			-54.067			-5.407
98104.000			-54.065			-5.407
98204.000			-54.063			-5.406
98304.000			-54.062			-5.406
98404.000			-54.062			-5.406
98504.000			-54.061			-5.406
98604.000			-54.060			-5.406
98704.000			-54.058			-5.406
98805.000			-54.057			-5.406
98904.000			-54.056			-5.406
99003.000			-54.055			-5.406
99105.000			-54.055			-5.405
99204.000			-54.054			-5.405
99304.000			-54.052			-5.405
99405.000			-54.052			-5.405
99504.000			-54.051			-5.405
99604.000			-54.051			-5.405
99704.000			-54.051			-5.405
99804.000			-54.048			-5.405
99904.000			-54.048			-5.405
100005.000			-54.046			-5.405
100104.000			-54.045			-5.404
100204.000			-54.044			-5.404
100305.000			-54.044			-5.404
100403.000			-54.043			-5.404
100504.000			-54.042			-5.404
100605.000			-54.041			-5.404
100704.000			-54.040			-5.404
100804.000			-54.039			-5.404
100905.000			-54.037			-5.404
101004.000			-54.036			-5.404
101103.000			-54.035			-5.404
101205.000			-54.034			-5.403
101304.000			-54.034			-5.403
101404.000			-54.033			-5.403
101505.000			-54.033			-5.403
101604.000			-54.032			-5.403
101704.000			-54.031			-5.403
101803.000			-54.031			-5.403
101904.000			-54.029			-5.403
102005.000			-54.029			-5.403
102104.000			-54.028			-5.403
102204.000			-54.027			-5.403
102305.000			-54.026			-5.403
102404.000			-54.024			-5.402
102503.000			-54.023			-5.402
102605.000			-54.023			-5.402
102704.000			-54.021			-5.402
102804.000			-54.020			-5.402
102905.000			-54.018			-5.402
103004.000			-54.017			-5.402
103104.000			-54.017			-5.402
103204.000			-54.017			-5.402
103304.000			-54.015			-5.401
103404.000			-54.013			-5.401
103505.000			-54.012			-5.401
103604.000			-54.014			-5.401
103703.000			-54.011			-5.401
103805.000			-54.011			-5.401
103904.000			-54.010			-5.401
104004.000			-54.009			-5.401
104105.000			-54.008			-5.401
104204.000			-54.007			-5.401
104304.000			-54.006			-5.401
104404.000			-54.004			-5.400
104504.000			-54.004			-5.400
104603.000			-54.004			-5.400
104705.000			-54.003			-5.400
104804.000			-54.002			-5.400
104904.000			-54.001			-5.400
105005.000			-54.001			-5.400
105104.000			-53.999			-5.400
105205.000			-53.998			-5.400
105303.000			-53.997			-5.400
105404.000			-53.996			-5.400
105505.000			-53.995			-5.399
105604.000			-53.995			-5.399
105704.000			-53.994			-5.399
105805.000			-53.993			-5.399
105904.000			-53.992			-5.399
106003.000			-53.991			-5.399
106105.000			-53.990			-5.399
106204.000			-53.990			-5.399
106304.000			-53.988			-5.399
106405.000			-53.987			-5.399
106504.000			-53.987			-5.399
106604.000			-53.984			-5.398
106705.000			-53.984			-5.398
106804.000			-53.984			-5.398
106903.000			-53.982			-5.398
107005.000			-53.982			-5.398
107104.000			-53.983			-5.398
107204.000			-53.981			-5.398
107305.000			-53.980			-5.398
107404.000			-53.979			-5.398
107504.000			-53.978			-5.398
107604.000			-53.977			-5.398
107704.000			-53.975			-5.398
107804.000			-53.973			-5.397
107905.000			-53.973			-5.397
108004.000			-53.972			-5.397
108104.000			-53.972			-5.397
108205.000			-53.972			-5.397
108304.000			-53.969			-5.397
108405.000			-53.968			-5.397
108503.000			-53.967			-5.397
108604.000			-53.967			-5.397
108705.000			-53.967			-5.397
108804.000			-53.964			-5.396
108904.000			-53.964			-5.396
109005.000			-53.964			-5.396
109104.000			-53.963			-5.396
109203.000			-53.962			-5.396
109305.000			-53.962			-5.396
109404.000			-53.961			-5.396
109504.000			-53.959			-5.396
109605.000			-53.958			-5.396
109704.000			-53.957			-5.396
109804.000			-53.956			-5.396
109905.000			-53.955			-5.396
110004.000			-53.955			-5.395
110103.000			-53.954			-5.395
110205.000			-53.953			-5.395
110304.000			-53.953			-5.395
110404.000			-53.951			-5.395
110505.000			-53.950			-5.395
110604.000			-53.949			-5.395
110704.000			-53.948			-5.395
110804.000			-53.948			-5.395
110904.000			-53.948			-5.395
111004.000			-53.945			-5.394
111105.000			-53.944			-5.394
111204.000			-53.944			-5.394
111304.000			-53.944			-5.394
111405.000			-53.944			-5.394
111503.000			-53.943			-5.394
111605.000			-53.942			-5.394
111704.000			-53.940			-5.394
111804.000			-53.939			-5.394
111905.000			-53.939			-5.394
112004.000			-53.937			-5.394
112104.000			-53.937			-5.394
112205.000			-53.936			-5.394
112304.000			-53.936			-5.394
112403.000			-53.934			-5.393
112505.000			-53.932			-5.393
112604.000			-53.932			-5.393
112704.000			-53.931			-5.393
112805.000			-53.930			-5.393
112904.000			-53.930			-5.393
113004.000			-53.929			-5.393
113104.000			-53.928			-5.393
113204.000			-53.928			-5.393
113304.000			-53.927			-5.393
113405.000			-53.926			-5.393
113504.000			-53.925			-5.393
113604.000			-53.924			-5.392
113705.000			-53.923			-5.392
113803.000			-53.922			-5.392
113904.000			-53.922			-5.392
114005.000			-53.920			-5.392
114104.000			-53.920			-5.392
114204.000			-53.919			-5.392
114305.000			-53.918			-5.392
114404.000			-53.917			-5.392
114503.000			-53.916			-5.392
114605.000			-53.915			-5.392
114704.000			-53.915			-5.391
114805.000			-53.914			-5.391
114904.000			-53.912			-5.391
115004.000			-53.912			-5.391
115105.000			-53.911			-5.391
115204.000			-53.911			-5.391
115304.000			-53.907			-5.391
115404.000			-53.909			-5.391
115504.000			-53.908			-5.391
115604.000			-53.906			-5.391
115705.000			-53.906			-5.391
115804.000			-53.905			-5.391
115904.000			-53.905			-5.391
116005.000			-53.904			-5.390
116104.000			-53.904			-5.390
116204.000			-53.902			-5.390
116304.000			-53.900			-5.390
116404.000			-53.899			-5.390
116504.000			-53.900			-5.390
116605.000			-53.900			-5.390
116704.000			-53.898			-5.390
116804.000			-53.897			-5.390
116905.000			-53.897			-5.390
117003.000			-53.896			-5.390
117104.000			-53.895			-5.390
117205.000			-53.894			-5.389
117304.000			-53.892			-5.389
117404.000			-53.892			-5.389
117505.000			-53.891			-5.389
117604.000			-53.890			-5.389
117703.000			-53.888			-5.389
117805.000			-53.888			-5.389
117903.000			-53.889			-5.389
118005.000			-53.888			-5.389
118104.000			-53.887			-5.389
118204.000			-53.886			-5.389
118305.000			-53.885			-5.388
118404.000			-53.883			-5.388
118504.000			-53.882			-5.388
118604.000			-53.882			-5.388
118704.000			-53.881			-5.388
118804.000			-53.881			-5.388
118905.000			-53.880			-5.388
119004.000			-53.880			-5.388
119104.000			-53.878			-5.388
119205.000			-53.876			-5.388
119304.000			-53.876			-5.388
119404.000			-53.874			-5.387
119504.000			-53.874			-5.387
119604.000			-53.873			-5.387
119704.000			-53.872			-5.387
119805.000			-53.871			-5.387
119904.000			-53.871			-5.387
120004.000			-53.870			-5.387
120105.000			-53.868			-5.387
120203.000			-53.868			-5.387
120304.000			-53.868			-5.387
120405.000			-53.867			-5.387
120504.000			-53.866			-5.387
120604.000			-53.865			-5.387
120705.000			-53.864			-5.386
120804.000			-53.864			-5.386
120903.000			-53.864			-5.386
121005.000			-53.863			-5.386
121104.000			-53.862			-5.386
121205.000			-53.860			-5.386
121304.000			-53.860			-5.386
121404.000			-53.860			-5.386
121505.000			-53.860			-5.386
121604.000			-53.858			-5.386
121704.000			-53.858			-5.386
121804.000			-53.858			-5.386
121904.000			-53.855			-5.386
122004.000			-53.855			-5.386
122105.000			-53.854			-5.385
122204.000			-53.854			-5.385
122304.000			-53.853			-5.385
122405.000			-53.852			-5.385
122503.000			-53.851			-5.385
122604.000			-53.849			-5.385
122705.000			-53.849			-5.385
122804.000			-53.848			-5.385
122904.000			-53.847			-5.385
123005.000			-53.847			-5.385
123104.000			-53.846			-5.385
123203.000			-53.845			-5.384
123305.000			-53.843			-5.384
123404.000			-53.844			-5.384
123504.000			-53.843			-5.384
123605.000			-53.842			-5.384
123704.000			-53.840			-5.384
123804.000			-53.841			-5.384
123904.000			-53.841			-5.384
124004.000			-53.840			-5.384
124103.000			-53.838			-5.384
124205.000			-53.837			-5.384
124304.000			-53.836			-5.384
124405.000			-53.835			-5.384
124504.000			-53.835			-5.384
124604.000			-53.835			-5.383
124705.000			-53.834			-5.383
124803.000			-53.832			-5.383
124904.000			-53.832			-5.383
125005.000			-53.831			-5.383
125104.000			-53.830			-5.383
125204.000			-53.830			-5.383
125305.000			-53.829			-5.383
125404.000			-53.828			-5.383
125503.000			-53.827			-5.383
125605.000			-53.827			-5.383
125703.000			-53.826			-5.383
125804.000			-53.825			-5.382
125905.000			-53.823			-5.382
126004.000			-53.824			-5.382
126104.000			-53.823			-5.382
126205.000			-53.823			-5.382
126304.000			-53.820			-5.382
126403.000			-53.821			-5.382
126505.000			-53.820			-5.382
126604.000			-53.818			-5.382
126704.000			-53.817			-5.382
126805.000			-53.817			-5.382
126904.000			-53.816			-5.382
127004.000			-53.816			-5.382
127104.000			-53.814			-5.381
127204.000			-53.814			-5.381
127304.000			-53.813			-5.381
127404.000			-53.814			-5.381
127504.000			-53.813			-5.381
127605.000			-53.811			-5.381
127704.000			-53.810			-5.381
127803.000			-53.809			-5.381
127905.000			-53.809			-5.381
128003.000			-53.808			-5.381
128104.000			-53.807			-5.381
128205.000			-53.806			-5.381
128304.000			-53.804			-5.380
128404.000			-53.804			-5.380
128505.000			-53.804			-5.380
128604.000			-53.804			-5.380
128703.000			-53.803			-5.380
128805.000			-53.803			-5.380
128904.000			-53.802			-5.380
129004.000			-53.800			-5.380
129105.000			-53.800			-5.380
129204.000			-53.797			-5.380
129304.000			-53.796			-5.380
129404.000			-53.797			-5.380
129504.000			-53.797			-5.380
129603.000			-53.796			-5.380
129705.000			-53.795			-5.380
129804.000			-53.794			-5.379
129904.000			-53.793			-5.379
130005.000			-53.792			-5.379
130104.000			-53.791			-5.379
130204.000			-53.790			-5.379
130304.000			-53.789			-5.379
130404.000			-53.789			-5.379
130504.000			-53.789			-5.379
130604.000			-53.788			-5.379
130704.000			-53.787			-5.379
130805.000			-53.787			-5.379
130904.000			-53.786			-5.379
131003.000			-53.785			-5.379
131105.000			-53.784			-5.378
131203.000			-53.783			-5.378
131304.000			-53.783			-5.378
131405.000			-53.780			-5.378
131504.000			-53.780			-5.378
131604.000			-53.781			-5.378
131705.000			-53.780			-5.378
131804.000			-53.778			-5.378
131903.000			-53.778			-5.378
132005.000			-53.778			-5.378
132104.000			-53.777			-5.378
132204.000			-53.776			-5.378
132305.000			-53.776			-5.378
132404.000			-53.776			-5.378
132504.000			-53.774			-5.377
132605.000			-53.773			-5.377
132704.000			-53.772			-5.377
132803.000			-53.772			-5.377
132905.000			-53.770			-5.377
133004.000			-53.770			-5.377
133104.000			-53.770			-5.377
133205.000			-53.769			-5.377
133304.000			-53.768			-5.377
133404.000			-53.767			-5.377
133505.000			-53.768			-5.377
133604.000			-53.765			-5.377
133703.000			-53.765			-5.377
133805.000			-53.765			-5.377
133904.000			-53.765			-5.376
134005.000			-53.762			-5.376
134104.000			-53.762			-5.376
134204.000			-53.761			-5.376
134305.000			-53.760			-5.376
134404.000			-53.759			-5.376
134504.000			-53.759			-5.376
134604.000			-53.758			-5.376
134704.000			-53.758			-5.376
134803.000			-53.757			-5.376
134905.000			-53.757			-5.376
135004.000			-53.756			-5.376
135104.000			-53.754			-5.375
135205.000			-53.755			-5.375
135304.000			-53.754			-5.375
135404.000			-53.751			-5.375
135504.000			-53.750			-5.375
135604.000			-53.751			-5.375
135704.000			-53.751			-5.375
135805.000			-53.750			-5.375
135904.000			-53.748			-5.375
136004.000			-53.748			-5.375
136105.000			-53.748			-5.375
136204.000			-53.747			-5.375
136304.000			-53.746			-5.375
136404.000			-53.746			-5.375
136504.000			-53.744			-5.374
136604.000			-53.744			-5.374
136705.000			-53.743			-5.374
136804.000			-53.743			-5.374
136904.000			-53.742			-5.374
137005.000			-53.741			-5.374
137104.000			-53.739			-5.374
137205.000			-53.739			-5.374
137303.000			-53.738			-5.374
137404.000			-53.738			-5.374
137505.000			-53.738			-5.374
137604.000			-53.737			-5.374
137704.000			-53.737			-5.374
137805.000			-53.736			-5.374
137904.000			-53.735			-5.373
138004.000			-53.734			-5.373
138105.000			-53.734			-5.373
138203.000			-53.733			-5.373
138304.000			-53.732			-5.373
138405.000			-53.731			-5.373
138504.000			-53.730			-5.373
138604.000			-53.730			-5.373
138705.000			-53.730			-5.373
138804.000			-53.728			-5.373
138904.000			-53.727			-5.373
139005.000			-53.726			-5.373
139103.000			-53.726			-5.373
139204.000			-53.725			-5.373
139304.000			-53.724			-5.372
139404.000			-53.724			-5.372
139504.000			-53.723			-5.372
139605.000			-53.722			-5.372
139704.000			-53.722			-5.372
139804.000			-53.722			-5.372
139905.000			-53.720			-5.372
140003.000			-53.720			-5.372
140104.000			-53.719			-5.372
140203.000			-53.717			-5.372
140304.000			-53.717			-5.372
140405.000			-53.717			-5.372
140504.000			-53.717			-5.372
140604.000			-53.715			-5.372
140705.000			-53.715			-5.372
140804.000			-53.715			-5.371
140903.000			-53.713			-5.371
141005.000			-53.711			-5.371
141104.000			-53.710			-5.371
141204.000			-53.711			-5.371
141305.000			-53.710			-5.371
141404.000			-53.709			-5.371
141504.000			-53.709			-5.371
141605.000			-53.706			-5.371
141704.000			-53.706			-5.371
141803.000			-53.707			-5.371
141905.000			-53.707			-5.371
142004.000			-53.706			-5.371
142104.000			-53.704			-5.370
142205.000			-53.704			-5.370
142304.000			-53.704			-5.370
142404.000			-53.703			-5.370
142505.000			-53.702			-5.370
142604.000			-53.702			-5.370
142703.000			-53.702			-5.370
142805.000			-53.701			-5.370
142904.000			-53.699			-5.370
143004.000			-53.699			-5.370
143105.000			-53.699			-5.370
143204.000			-53.697			-5.370
143304.000			-53.697			-5.370
143404.000			-53.696			-5.370
143504.000			-53.695			-5.370
143603.000			-53.695			-5.370
143704.000			-53.694			-5.369
143804.000			-53.692			-5.369
143905.000			-53.693			-5.369
144004.000			-53.693			-5.369
144104.000			-53.691			-5.369
144205.000			-53.691			-5.369
144304.000			-53.689			-5.369
144404.000			-53.689			-5.369
144504.000			-53.689			-5.369
144604.000			-53.689			-5.369
144704.000			-53.688			-5.369
144805.000			-53.687			-5.369
144904.000			-53.686			-5.369
145004.000			-53.685			-5.369
145105.000			-53.684			-5.368
145204.000			-53.684			-5.368
145304.000			-53.684			-5.368
145404.000			-53.682			-5.368
145504.000			-53.682			-5.368
145604.000			-53.681			-5.368
145705.000			-53.680			-5.368
145804.000			-53.679			-5.368
145904.000			-53.679			-5.368
146005.000			-53.678			-5.368
146104.000			-53.678			-5.368
146204.000			-53.677			-5.368
146304.000			-53.676			-5.368
146404.000			-53.675			-5.368
146503.000			-53.674			-5.367
146605.000			-53.675			-5.368
146704.000			-53.675			-5.367
146805.000			-53.674			-5.367
146904.000			-53.673			-5.367
147004.000			-53.672			-5.367
147105.000			-53.672			-5.367
147204.000			-53.672			-5.367
147304.000			-53.671			-5.367
147404.000			-53.670			-5.367
147504.000			-53.669			-5.367
147604.000			-53.668			-5.367
147705.000			-53.668			-5.367
147804.000			-53.668			-5.367
147904.000			-53.667			-5.367
148005.000			-53.667			-5.367
148104.000			-53.666			-5.367
148204.000			-53.663			-5.366
148304.000			-53.664			-5.366
148404.000			-53.663			-5.366
148503.000			-53.662			-5.366
148605.000			-53.662			-5.366
148704.000			-53.661			-5.366
148804.000			-53.660			-5.366
148905.000			-53.659			-5.366
149004.000			-53.659			-5.366
149104.000			-53.659			-5.366
149204.000			-53.658			-5.366
149304.000			-53.656			-5.366
149403.000			-53.656			-5.366
149505.000			-53.656			-5.366
149604.000			-53.655			-5.365
149704.000			-53.654			-5.365
149805.000			-53.653			-5.365
149904.000			-53.653			-5.365
150005.000			-53.653			-5.365
150104.000			-53.653			-5.365
150204.000			-53.651			-5.365
150304.000			-53.649			-5.365
150404.000			-53.649			-5.365
150504.000			-53.649			-5.365
150605.000			-53.649			-5.365
150704.000			-53.648			-5.365
150804.000			-53.648			-5.365
150905.000			-53.647			-5.365
151003.000			-53.646			-5.365
151104.000			-53.645			-5.365
151204.000			-53.645			-5.365
151304.000			-53.645			-5.364
151404.000			-53.643			-5.364
151505.000			-53.642			-5.364
151604.000			-53.641			-5.364
151704.000			-53.640			-5.364
151805.000			-53.640			-5.364
151903.000			-53.640			-5.364
152004.000			-53.638			-5.364
152105.000			-53.638			-5.364
152204.000			-53.637			-5.364
152304.000			-53.637			-5.364
152405.000			-53.637			-5.364
152504.000			-53.637			-5.364
152604.000			-53.634			-5.363
152705.000			-53.634			-5.363
152803.000			-53.633			-5.363
152904.000			-53.633			-5.363
153005.000			-53.634			-5.363
153104.000			-53.633			-5.363
153205.000			-53.633			-5.363
153304.000			-53.631			-5.363
153404.000			-53.630			-5.363
153505.000			-53.629			-5.363
153604.000			-53.630			-5.363
153703.000			-53.628			-5.363
153805.000			-53.627			-5.363
153904.000			-53.627			-5.363
154004.000			-53.627			-5.363
154105.000			-53.625			-5.362
154204.000			-53.625			-5.362
154304.000			-53.624			-5.362
154405.000			-53.623			-5.362
154504.000			-53.624			-5.362
154603.000			-53.623			-5.362
154705.000			-53.623			-5.362
154804.000			-53.621			-5.362
154904.000			-53.620			-5.362
155005.000			-53.620			-5.362
155104.000			-53.620			-5.362
155204.000			-53.619			-5.362
155305.000			-53.618			-5.362
155404.000			-53.618			-5.362
155503.000			-53.616			-5.362
155605.000			-53.616			-5.362
155704.000			-53.616			-5.362
155804.000			-53.615			-5.361
155905.000			-53.614			-5.361
156004.000			-53.613			-5.361
156104.000			-53.612			-5.361
156204.000			-53.613			-5.361
156304.000			-53.611			-5.361
156403.000			-53.612			-5.361
156504.000			-53.611			-5.361
156603.000			-53.610			-5.361
156705.000			-53.610			-5.361
156804.000			-53.609			-5.361
156904.000			-53.608			-5.361
157005.000			-53.607			-5.361
157104.000			-53.606			-5.361
157204.000			-53.605			-5.361
157304.000			-53.605			-5.360
157404.000			-53.605			-5.360
157504.000			-53.604			-5.360
157605.000			-53.604			-5.360
157704.000			-53.602			-5.360
157804.000			-53.601			-5.360
157905.000			-53.602			-5.360
158004.000			-53.601			-5.360
158104.000			-53.600			-5.360
158204.000			-53.599			-5.360
158304.000			-53.599			-5.360
158403.000			-53.598			-5.360
158505.000			-53.598			-5.360
158604.000			-53.597			-5.360
158704.000			-53.596			-5.360
158805.000			-53.596			-5.360
158904.000			-53.595			-5.360
159004.000			-53.594			-5.359
159104.000			-53.594			-5.359
159204.000			-53.594			-5.359
159303.000			-53.593			-5.359
159405.000			-53.593			-5.359
159504.000			-53.592			-5.359
159605.000			-53.591			-5.359
159704.000			-53.590			-5.359
159804.000			-53.590			-5.359
159905.000			-53.589			-5.359
160004.000			-53.588			-5.359
160104.000			-53.587			-5.359
160204.000			-53.586			-5.359
160304.000			-53.587			-5.359
160404.000			-53.585			-5.359
160505.000			-53.585			-5.358
160604.000			-53.584			-5.358
160704.000			-53.583			-5.358
160805.000			-53.582			-5.358
160904.000			-53.583			-5.358
161004.000			-53.582			-5.358
161104.000			-53.582			-5.358
161204.000			-53.582			-5.358
161304.000			-53.581			-5.358
161405.000			-53.579			-5.358
161504.000			-53.578			-5.358
161604.000			-53.579			-5.358
161705.000			-53.578			-5.358
161804.000			-53.576			-5.358
161904.000			-53.577			-5.358
162004.000			-53.577			-5.358
162104.000			-53.576			-5.358
162204.000			-53.576			-5.358
162305.000			-53.575			-5.358
162404.000			-53.574			-5.357
162504.000			-53.573			-5.357
162605.000			-53.572			-5.357
162704.000			-53.572			-5.357
162805.000			-53.569			-5.357
162903.000			-53.569			-5.357
163004.000			-53.570			-5.357
163105.000			-53.570			-5.357
163204.000			-53.569			-5.357
163304.000			-53.568			-5.357
163405.000			-53.567			-5.357
163504.000			-53.566			-5.357
163604.000			-53.567			-5.357
163705.000			-53.566			-5.357
163803.000			-53.564			-5.356
163904.000			-53.565			-5.356
164005.000			-53.565			-5.356
164104.000			-53.564			-5.356
164204.000			-53.564			-5.356
164305.000			-53.563			-5.356
164404.000			-53.562			-5.356
164504.000			-53.561			-5.356
164605.000			-53.561			-5.356
164703.000			-53.559			-5.356
164804.000			-53.558			-5.356
164905.000			-53.557			-5.356
165004.000			-53.558			-5.356
165104.000			-53.557			-5.356
165205.000			-53.557			-5.356
165304.000			-53.555			-5.356
165404.000			-53.555			-5.356
165505.000			-53.555			-5.355
165603.000			-53.555			-5.356
165704.000			-53.553			-5.355
165805.000			-53.552			-5.355
165904.000			-53.551			-5.355
166005.000			-53.552			-5.355
166104.000			-53.551			-5.355
166204.000			-53.551			-5.355
166305.000			-53.550			-5.355
166404.000			-53.550			-5.355
166503.000			-53.549			-5.355
166605.000			-53.549			-5.355
166703.000			-53.549			-5.355
166804.000			-53.547			-5.355
166905.000			-53.546			-5.355
167004.000			-53.546			-5.355
167104.000			-53.546			-5.355
167205.000			-53.545			-5.355
167304.000			-53.544			-5.354
167403.000			-53.543			-5.354
167505.000			-53.543			-5.354
167603.000			-53.542			-5.354
167704.000			-53.543			-5.354
167805.000			-53.542			-5.354
167904.000			-53.540			-5.354
168004.000			-53.539			-5.354
168105.000			-53.539			-5.354
168204.000			-53.539			-5.354
168303.000			-53.538			-5.354
168405.000			-53.537			-5.354
168503.000			-53.537			-5.354
168604.000			-53.537			-5.354
168705.000			-53.536			-5.354
168804.000			-53.535			-5.354
168904.000			-53.535			-5.353
169004.000			-53.534			-5.353
169104.000			-53.533			-5.353
169205.000			-53.531			-5.353
169304.000			-53.531			-5.353
169403.000			-53.531			-5.353
169505.000			-53.531			-5.353
169604.000			-53.530			-5.353
169704.000			-53.530			-5.353
169805.000			-53.530			-5.353
169904.000			-53.529			-5.353
170004.000			-53.529			-5.353
170105.000			-53.527			-5.353
170204.000			-53.526			-5.353
170303.000			-53.526			-5.353
170405.000			-53.526			-5.353
170504.000			-53.526			-5.353
170604.000			-53.526			-5.353
170705.000			-53.524			-5.352
170804.000			-53.523			-5.352
170904.000			-53.521			-5.352
171005.000			-53.521			-5.352
171104.000			-53.521			-5.352
171203.000			-53.521			-5.352
171305.000			-53.519			-5.352
171404.000			-53.519			-5.352
171504.000			-53.518			-5.352
171605.000			-53.519			-5.352
171704.000			-53.519			-5.352
171804.000			-53.518			-5.352
171905.000			-53.517			-5.352
172004.000			-53.517			-5.352
172103.000			-53.516			-5.352
172205.000			-53.516			-5.352
172304.000			-53.515			-5.351
172405.000			-53.516			-5.352
172504.000			-53.515			-5.351
172604.000			-53.513			-5.351
172705.000			-53.511			-5.351
172803.000			-53.511			-5.351
172904.000			-53.510			-5.351
173004.000			-53.511			-5.351
173104.000			-53.510			-5.351
173204.000			-53.510			-5.351
173305.000			-53.508			-5.351
173404.000			-53.508			-5.351
173504.000			-53.508			-5.351
173605.000			-53.507			-5.351
173703.000			-53.506			-5.351
173804.000			-53.505			-5.350
173905.000			-53.505			-5.350
174004.000			-53.504			-5.350
174104.000			-53.504			-5.350
174205.000			-53.504			-5.350
174304.000			-53.503			-5.350
174404.000			-53.503			-5.350
174505.000			-53.502			-5.350
174603.000			-53.501			-5.350
174704.000			-53.501			-5.350
174805.000			-53.500			-5.350
174904.000			-53.500			-5.350
175004.000			-53.500			-5.350
175105.000			-53.498			-5.350
175204.000			-53.498			-5.350
175304.000			-53.498			-5.350
175405.000			-53.497			-5.350
175503.000			-53.496			-5.350
175605.000			-53.496			-5.350
175703.000			-53.496			-5.350
175804.000			-53.496			-5.350
175905.000			-53.495			-5.350
176004.000			-53.494			-5.349
176104.000			-53.493			-5.349
176205.000			-53.493			-5.349
176304.000			-53.492			-5.349
176403.000			-53.491			-5.349
176505.000			-53.490			-5.349
176603.000			-53.490			-5.349
176704.000			-53.489			-5.349
176805.000			-53.488			-5.349
176904.000			-53.487			-5.349
177004.000			-53.487			-5.349
177105.000			-53.486			-5.349
177204.000			-53.486			-5.349
177304.000			-53.485			-5.349
177405.000			-53.486			-5.349
177503.000			-53.485			-5.348
177604.000			-53.485			-5.348
177705.000			-53.483			-5.348
177804.000			-53.482			-5.348
177904.000			-53.483			-5.348
178005.000			-53.483			-5.348
178104.000			-53.482			-5.348
178204.000			-53.480			-5.348
178305.000			-53.481			-5.348
178403.000			-53.479			-5.348
178504.000			-53.478			-5.348
178605.000			-53.479			-5.348
178704.000			-53.479			-5.348
178805.000			-53.479			-5.348
178904.000			-53.477			-5.348
179004.000			-53.476			-5.348
179105.000			-53.476			-5.348
179204.000			-53.476			-5.348
179304.000			-53.475			-5.347
179405.000			-53.474			-5.347
179503.000			-53.474			-5.347
179604.000			-53.473			-5.347
179705.000			-53.473			-5.347
179804.000			-53.471			-5.347
179904.000			-53.471			-5.347
180005.000			-53.470			-5.347
180104.000			-53.471			-5.347
180204.000			-53.470			-5.347
180305.000			-53.469			-5.347
180403.000			-53.468			-5.347
180504.000			-53.467			-5.347
180605.000			-53.467			-5.347
180704.000			-53.467			-5.347
180804.000			-53.467			-5.347
180905.000			-53.466			-5.347
181004.000			-53.465			-5.346
181104.000			-53.465			-5.346
181205.000			-53.464			-5.346
181303.000			-53.463			-5.346
181404.000			-53.463			-5.346
181505.000			-53.463			-5.346
181604.000			-53.462			-5.346
181704.000			-53.461			-5.346
181804.000			-53.461			-5.346
181904.000			-53.460			-5.346
182005.000			-53.460			-5.346
182104.000			-53.458			-5.346
182203.000			-53.457			-5.346
182305.000			-53.457			-5.346
182404.000			-53.457			-5.346
182504.000			-53.457			-5.346
182605.000			-53.456			-5.346
182704.000			-53.456			-5.346
182804.000			-53.455			-5.346
182905.000			-53.454			-5.345
183004.000			-53.454			-5.345
183103.000			-53.454			-5.345
183205.000			-53.453			-5.345
183303.000			-53.452			-5.345
183404.000			-53.452			-5.345
183505.000			-53.452			-5.345
183604.000			-53.451			-5.345
183704.000			-53.450			-5.345
183805.000			-53.450			-5.345
183904.000			-53.449			-5.345
184003.000			-53.448			-5.345
184105.000			-53.448			-5.345
184203.000			-53.447			-5.345
184304.000			-53.447			-5.345
184405.000			-53.447			-5.345
184504.000			-53.446			-5.345
184604.000			-53.446			-5.345
184705.000			-53.444			-5.344
184804.000			-53.444			-5.344
184904.000			-53.443			-5.344
185005.000			-53.443			-5.344
185103.000			-53.442			-5.344
185205.000			-53.443			-5.344
185304.000			-53.443			-5.344
185404.000			-53.442			-5.344
185505.000			-53.439			-5.344
185604.000			-53.439			-5.344
185704.000			-53.439			-5.344
185805.000			-53.440			-5.344
185904.000			-53.439			-5.344
186003.000			-53.438			-5.344
186105.000			-53.437			-5.344
186204.000			-53.436			-5.344
186304.000			-53.436			-5.344
186405.000			-53.435			-5.344
186504.000			-53.434			-5.343
186604.000			-53.435			-5.344
186705.000			-53.434			-5.343
186804.000			-53.433			-5.343
186903.000			-53.431			-5.343
187005.000			-53.431			-5.343
187104.000			-53.431			-5.343
187204.000			-53.432			-5.343
187305.000			-53.431			-5.343
187404.000			-53.430			-5.343
187504.000			-53.429			-5.343
187605.000			-53.430			-5.343
187704.000			-53.428			-5.343
187803.000			-53.427			-5.343
187905.000			-53.427			-5.343
188003.000			-53.427			-5.343
188104.000			-53.427			-5.343
188205.000			-53.426			-5.343
188304.000			-53.426			-5.343
188405.000			-53.425			-5.343
188504.000			-53.423			-5.342
188604.000			-53.423			-5.342
188705.000			-53.423			-5.342
188804.000			-53.423			-5.342
188903.000			-53.423			-5.342
189005.000			-53.422			-5.342
189104.000			-53.420			-5.342
189204.000			-53.421			-5.342
189305.000			-53.420			-5.342
189404.000			-53.419			-5.342
189504.000			-53.419			-5.342
189605.000			-53.419			-5.342
189704.000			-53.419			-5.342
189803.000			-53.417			-5.342
189905.000			-53.417			-5.342
190004.000			-53.416			-5.342
190104.000			-53.415			-5.342
190205.000			-53.415			-5.342
190304.000			-53.415			-5.342
190404.000			-53.414			-5.341
190505.000			-53.413			-5.341
190604.000			-53.414			-5.341
190703.000			-53.412			-5.341
190805.000			-53.411			-5.341
190904.000			-53.411			-5.341
191004.000			-53.410			-5.341
191105.000			-53.409			-5.341
191204.000			-53.410			-5.341
191304.000			-53.409			-5.341
191404.000			-53.408			-5.341
191504.000			-53.408			-5.341
191603.000			-53.407			-5.341
191704.000			-53.407			-5.341
191804.000			-53.407			-5.341
191905.000			-53.407			-5.341
192004.000			-53.406			-5.341
192104.000			-53.406			-5.341
192205.000			-53.405			-5.341
192304.000			-53.405			-5.340
192404.000			-53.404			-5.340
192504.000			-53.403			-5.340
192604.000			-53.402			-5.340
192704.000			-53.402			-5.340
192805.000			-53.401			-5.340
192904.000			-53.401			-5.340
193004.000			-53.400			-5.340
193105.000			-53.400			-5.340
193203.000			-53.400			-5.340
193304.000			-53.400			-5.340
193404.000			-53.399			-5.340
193504.000			-53.398			-5.340
193604.000			-53.396			-5.340
193705.000			-53.395			-5.339
193804.000			-53.395			-5.339
193904.000			-53.395			-5.340
194005.000			-53.395			-5.340
194104.000			-53.395			-5.340
194204.000			-53.394			-5.339
194304.000			-53.393			-5.339
194404.000			-53.393			-5.339
194504.000			-53.393			-5.339
194604.000			-53.392			-5.339
194704.000			-53.392			-5.339
194805.000			-53.392			-5.339
194904.000			-53.391			-5.339
195004.000			-53.390			-5.339
195105.000			-53.389			-5.339
195203.000			-53.389			-5.339
195304.000			-53.388			-5.339
195405.000			-53.387			-5.339
195504.000			-53.387			-5.339
195604.000			-53.386			-5.339
195705.000			-53.387			-5.339
195804.000			-53.387			-5.339
195904.000			-53.385			-5.339
196005.000			-53.384			-5.338
196103.000			-53.385			-5.338
196204.000			-53.384			-5.338
196304.000			-53.384			-5.338
196404.000			-53.383			-5.338
196504.000			-53.382			-5.338
196605.000			-53.381			-5.338
196704.000			-53.380			-5.338
196804.000			-53.381			-5.338
196905.000			-53.380			-5.338
197004.000			-53.379			-5.338
197104.000			-53.380			-5.338
197204.000			-53.379			-5.338
197304.000			-53.378			-5.338
197404.000			-53.378			-5.338
197505.000			-53.377			-5.338
197604.000			-53.377			-5.338
197704.000			-53.376			-5.338
197805.000			-53.375			-5.338
197904.000			-53.375			-5.338
198005.000			-53.375			-5.338
198103.000			-53.375			-5.337
198204.000			-53.374			-5.337
198305.000			-53.373			-5.337
198404.000			-53.372			-5.337
198504.000			-53.372			-5.337
198605.000			-53.372			-5.337
198704.000			-53.370			-5.337
198804.000			-53.369			-5.337
198905.000			-53.368			-5.337
199003.000			-53.369			-5.337
199104.000			-53.370			-5.337
199204.000			-53.369			-5.337
199304.000			-53.368			-5.337
199404.000			-53.367			-5.337
199505.000			-53.366			-5.337
199604.000			-53.365			-5.336
199704.000			-53.365			-5.337
199805.000			-53.365			-5.337
199904.000			-53.364			-5.336
200004.000			-53.363			-5.336
200104.000			-53.364			-5.336
200204.000			-53.363			-5.336
200304.000			-53.363			-5.336
200405.000			-53.362			-5.336
200504.000			-53.363			-5.336
200604.000			-53.363			-5.336
200705.000			-53.361			-5.336
200803.000			-53.359			-5.336
200904.000			-53.359			-5.336
201003.000			-53.359			-5.336
201104.000			-53.358			-5.336
201205.000			-53.356			-5.336
201304.000			-53.357			-5.336
201404.000			-53.358			-5.336
201505.000			-53.357			-5.336
201604.000			-53.355			-5.336
201703.000			-53.356			-5.336
201805.000			-53.355			-5.336
201904.000			-53.354			-5.335
202004.000			-53.354			-5.335
202105.000			-53.354			-5.335
202204.000			-53.354			-5.335
202304.000			-53.353			-5.335
202405.000			-53.353			-5.335
202504.000			-53.351			-5.335
202603.000			-53.352			-5.335
202705.000			-53.351			-5.335
202804.000			-53.351			-5.335
202904.000			-53.351			-5.335
203005.000			-53.348			-5.335
203104.000			-53.348			-5.335
203204.000			-53.349			-5.335
203304.000			-53.348			-5.335
203404.000			-53.347			-5.335
203503.000			-53.347			-5.335
203605.000			-53.345			-5.335
203704.000			-53.345			-5.335
203804.000			-53.345			-5.335
203905.000			-53.345			-5.335
204004.000			-53.345			-5.334
204104.000			-53.343			-5.334
204203.000			-53.343			-5.334
204304.000			-53.343			-5.334
204405.000			-53.342			-5.334
204504.000			-53.341			-5.334
204604.000			-53.341			-5.334
204705.000			-53.341			-5.334
204804.000			-53.340			-5.334
204904.000			-53.340			-5.334
205005.000			-53.340			-5.334
205103.000			-53.338			-5.334
205204.000			-53.338			-5.334
205305.000			-53.337			-5.334
205404.000			-53.338			-5.334
205504.000			-53.337			-5.334
205605.000			-53.336			-5.334
205704.000			-53.337			-5.334
205803.000			-53.336			-5.334
205905.000			-53.334			-5.333
206003.000			-53.334			-5.333
206104.000			-53.334			-5.333
206205.000			-53.333			-5.333
206304.000			-53.333			-5.333
206404.000			-53.332			-5.333
206505.000			-53.332			-5.333
206604.000			-53.332			-5.333
206703.000			-53.330			-5.333
206805.000			-53.330			-5.333
206904.000			-53.330			-5.333
207004.000			-53.328			-5.333
207105.000			-53.328			-5.333
207204.000			-53.327			-5.333
207304.000			-53.328			-5.333
207404.000			-53.327			-5.333
207504.000			-53.327			-5.333
207603.000			-53.327			-5.333
207704.000			-53.326			-5.333
207804.000			-53.327			-5.333
207905.000			-53.325			-5.332
208004.000			-53.324			-5.332
208104.000			-53.323			-5.332
208205.000			-53.323			-5.332
208304.000			-53.324			-5.332
208404.000			-53.322			-5.332
208504.000			-53.321			-5.332
208604.000			-53.320			-5.332
208704.000			-53.320			-5.332
208805.000			-53.321			-5.332
208904.000			-53.320			-5.332
209004.000			-53.319			-5.332
209105.000			-53.319			-5.332
209203.000			-53.319			-5.332
209304.000			-53.318			-5.332
209404.000			-53.317			-5.332
209504.000			-53.316			-5.332
209604.000			-53.316			-5.332
209705.000			-53.314			-5.331
209804.000			-53.314			-5.331
209904.000			-53.315			-5.331
210005.000			-53.314			-5.331
210103.000			-53.314			-5.331
210204.000			-53.313			-5.331
210305.000			-53.312			-5.331
210404.000			-53.312			-5.331
210504.000			-53.312			-5.331
210604.000			-53.312			-5.331
210704.000			-53.312			-5.331
210805.000			-53.312			-5.331
210904.000			-53.311			-5.331
211003.000			-53.310			-5.331
211105.000			-53.308			-5.331
211204.000			-53.308			-5.331
211304.000			-53.307			-5.331
211405.000			-53.307			-5.331
211504.000			-53.307			-5.331
211604.000			-53.307			-5.331
211704.000			-53.306			-5.331
211804.000			-53.304			-5.330
211904.000			-53.304			-5.330
212005.000			-53.303			-5.330
212104.000			-53.302			-5.330
212204.000			-53.303			-5.330
212305.000			-53.303			-5.330
212404.000			-53.303			-5.330
212504.000			-53.302			-5.330
212604.000			-53.301			-5.330
212704.000			-53.301			-5.330
212804.000			-53.301			-5.330
212905.000			-53.301			-5.330
213004.000			-53.299			-5.330
213104.000			-53.299			-5.330
213205.000			-53.299			-5.330
213303.000			-53.299			-5.330
213404.000			-53.299			-5.330
213505.000			-53.299			-5.330
213604.000			-53.298			-5.330
213704.000			-53.297			-5.330
213804.000			-53.296			-5.330
213904.000			-53.295			-5.330
214005.000			-53.295			-5.329
214104.000			-53.295			-5.330
214203.000			-53.294			-5.329
214305.000			-53.293			-5.329
214404.000			-53.293			-5.329
214504.000			-53.293			-5.329
214605.000			-53.293			-5.329
214704.000			-53.292			-5.329
214804.000			-53.291			-5.329
214905.000			-53.289			-5.329
215004.000			-53.290			-5.329
215103.000			-53.289			-5.329
215205.000			-53.289			-5.329
215304.000			-53.289			-5.329
215404.000			-53.288			-5.329
215505.000			-53.289			-5.329
215604.000			-53.288			-5.329
215704.000			-53.286			-5.329
215805.000			-53.286			-5.329
215904.000			-53.287			-5.329
216003.000			-53.285			-5.329
216105.000			-53.285			-5.328
216203.000			-53.284			-5.328
216304.000			-53.284			-5.328
216405.000			-53.284			-5.328
216504.000			-53.284			-5.328
216604.000			-53.283			-5.328
216705.000			-53.283			-5.328
216804.000			-53.282			-5.328
216903.000			-53.281			-5.328
217005.000			-53.281			-5.328
217103.000			-53.280			-5.328
217205.000			-53.279			-5.328
217304.000			-53.280			-5.328
217404.000			-53.279			-5.328
217505.000			-53.279			-5.328
217604.000			-53.278			-5.328
217704.000			-53.277			-5.328
217805.000			-53.276			-5.328
217904.000			-53.276			-5.328
218003.000			-53.276			-5.328
218105.000			-53.277			-5.328
218204.000			-53.276			-5.328
218304.000			-53.276			-5.328
218405.000			-53.275			-5.327
218504.000			-53.274			-5.327
218604.000			-53.273			-5.327
218705.000			-53.273			-5.327
218804.000			-53.273			-5.327
218903.000			-53.273			-5.327
219005.000			-53.272			-5.327
219104.000			-53.271			-5.327
219204.000			-53.270			-5.327
219305.000			-53.271			-5.327
219404.000			-53.270			-5.327
219504.000			-53.270			-5.327
219605.000			-53.270			-5.327
219704.000			-53.269			-5.327
219803.000			-53.269			-5.327
219905.000			-53.268			-5.327
220004.000			-53.267			-5.327
220104.000			-53.267			-5.327
220205.000			-53.266			-5.327
220304.000			-53.266			-5.327
220405.000			-53.266			-5.327
220504.000			-53.265			-5.327
220604.000			-53.265			-5.326
220704.000			-53.265			-5.326
220804.000			-53.264			-5.326
220904.000			-53.262			-5.326
221005.000			-53.261			-5.326
221104.000			-53.262			-5.326
221204.000			-53.261			-5.326
221305.000			-53.262			-5.326
221403.000			-53.262			-5.326
221504.000			-53.261			-5.326
221604.000			-53.260			-5.326
221704.000			-53.259			-5.326
221804.000			-53.258			-5.326
221905.000			-53.258			-5.326
222004.000			-53.258			-5.326
222104.000			-53.259			-5.326
222205.000			-53.259			-5.326
222303.000			-53.257			-5.326
222404.000			-53.256			-5.326
222505.000			-53.255			-5.325
222604.000			-53.255			-5.325
222704.000			-53.253			-5.325
222805.000			-53.254			-5.325
222904.000			-53.253			-5.325
223004.000			-53.252			-5.325
223105.000			-53.253			-5.325
223203.000			-53.253			-5.325
223304.000			-53.252			-5.325
223405.000			-53.252			-5.325
223504.000			-53.251			-5.325
223605.000			-53.251			-5.325
223704.000			-53.251			-5.325
223804.000			-53.251			-5.325
223904.000			-53.250			-5.325
224004.000			-53.249			-5.325
224103.000			-53.247			-5.325
224205.000			-53.246			-5.325
224304.000			-53.247			-5.325
224404.000			-53.248			-5.325
224505.000			-53.247			-5.325
224604.000			-53.246			-5.325
224704.000			-53.246			-5.325
224804.000			-53.245			-5.325
224904.000			-53.243			-5.324
225003.000			-53.244			-5.324
225105.000			-53.244			-5.324
225204.000			-53.242			-5.324
225304.000			-53.242			-5.324
225405.000			-53.242			-5.324
225504.000			-53.243			-5.324
225604.000			-53.242			-5.324
225704.000			-53.241			-5.324
225804.000			-53.241			-5.324
225904.000			-53.241			-5.324
226005.000			-53.240			-5.324
226104.000			-53.239			-5.324
226204.000			-53.240			-5.324
226305.000			-53.239			-5.324
226404.000			-53.237			-5.324
226504.000			-53.236			-5.324
226603.000			-53.235			-5.324
226704.000			-53.236			-5.324
226805.000			-53.237			-5.324
226904.000			-53.236			-5.324
227004.000			-53.235			-5.323
227105.000			-53.234			-5.323
227204.000			-53.235			-5.324
227304.000			-53.234			-5.323
227405.000			-53.233			-5.323
227503.000			-53.233			-5.323
227604.000			-53.232			-5.323
227705.000			-53.232			-5.323
227804.000			-53.231			-5.323
227904.000			-53.231			-5.323
228005.000			-53.231			-5.323
228104.000			-53.230			-5.323
228203.000			-53.228			-5.323
228305.000			-53.229			-5.323
228403.000			-53.229			-5.323
228504.000			-53.229			-5.323
228605.000			-53.228			-5.323
228704.000			-53.227			-5.323
228804.000			-53.226			-5.323
228905.000			-53.225			-5.323
229004.000			-53.226			-5.323
229103.000			-53.227			-5.323
229205.000			-53.225			-5.323
229304.000			-53.225			-5.322
229404.000			-53.224			-5.322
229505.000			-53.224			-5.322
229604.000			-53.224			-5.322
229704.000			-53.223			-5.322
229804.000			-53.223			-5.322
229904.000			-53.222			-5.322
230003.000			-53.222			-5.322
230104.000			-53.221			-5.322
230203.000			-53.220			-5.322
230305.000			-53.221			-5.322
230404.000			-53.220			-5.322
230504.000			-53.219			-5.322
230605.000			-53.218			-5.322
230704.000			-53.218			-5.322
230804.000			-53.218			-5.322
230904.000			-53.216			-5.322
231004.000			-53.216			-5.322
231104.000			-53.216			-5.322
231205.000			-53.216			-5.322
231304.000			-53.216			-5.322
231404.000			-53.214			-5.321
231505.000			-53.214			-5.321
231603.000			-53.213			-5.321
231704.000			-53.212			-5.321
231805.000			-53.211			-5.321
231904.000			-53.212			-5.321
232004.000			-53.212			-5.321
232105.000			-53.212			-5.321
232204.000			-53.212			-5.321
232304.000			-53.210			-5.321
232405.000			-53.211			-5.321
232503.000			-53.210			-5.321
232604.000			-53.208			-5.321
232705.000			-53.209			-5.321
232804.000			-53.209			-5.321
232904.000			-53.209			-5.321
233004.000			-53.208			-5.321
233104.000			-53.206			-5.321
233203.000			-53.206			-5.321
233304.000			-53.205			-5.321
233404.000			-53.205			-5.320
233505.000			-53.205			-5.321
233604.000			-53.205			-5.321
233704.000			-53.205			-5.321
233805.000			-53.205			-5.320
233904.000			-53.205			-5.320
234004.000			-53.204			-5.320
234104.000			-53.203			-5.320
234204.000			-53.203			-5.320
234304.000			-53.203			-5.320
234405.000			-53.201			-5.320
234504.000			-53.200			-5.320
234604.000			-53.201			-5.320
234705.000			-53.201			-5.320
234804.000			-53.200			-5.320
234904.000			-53.199			-5.320
235004.000			-53.199			-5.320
235104.000			-53.198			-5.320
235204.000			-53.198			-5.320
235305.000			-53.197			-5.320
235404.000			-53.197			-5.320
235504.000			-53.197			-5.320
235605.000			-53.197			-5.320
235704.000			-53.196			-5.320
235804.000			-53.195			-5.320
235904.000			-53.195			-5.319
236004.000			-53.194			-5.319
236104.000			-53.195			-5.319
236204.000			-53.195			-5.319
236304.000			-53.195			-5.319
236405.000			-53.194			-5.319
236504.000			-53.193			-5.319
236604.000			-53.191			-5.319
236705.000			-53.191			-5.319
236803.000			-53.191			-5.319
236904.000			-53.190			-5.319
237005.000			-53.190			-5.319
237104.000			-53.189			-5.319
237204.000			-53.189			-5.319
237305.000			-53.189			-5.319
237404.000			-53.189			-5.319
237504.000			-53.187			-5.319
237605.000			-53.187			-5.319
237703.000			-53.186			-5.319
237804.000			-53.186			-5.319
237905.000			-53.186			-5.319
238004.000			-53.185			-5.319
238104.000			-53.185			-5.319
238205.000			-53.185			-5.319
238304.000			-53.185			-5.319
238404.000			-53.184			-5.318
238505.000			-53.184			-5.318
238603.000			-53.183			-5.318
238704.000			-53.182			-5.318
238805.000			-53.183			-5.318
238904.000			-53.181			-5.318
239004.000			-53.180			-5.318
239105.000			-53.182			-5.318
239204.000			-53.181			-5.318
239304.000			-53.181			-5.318
239405.000			-53.181			-5.318
239503.000			-53.180			-5.318
239605.000			-53.178			-5.318
239704.000			-53.179			-5.318
239804.000			-53.179			-5.318
239905.000			-53.178			-5.318
240004.000			-53.176			-5.318
240104.000			-53.176			-5.318
240205.000			-53.177			-5.318
240304.000			-53.175			-5.318
240403.000			-53.175			-5.317
240505.000			-53.175			-5.317
240604.000			-53.175			-5.317
240704.000			-53.174			-5.317
240805.000			-53.173			-5.317
240904.000			-53.173			-5.317
241004.000			-53.173			-5.317
241105.000			-53.172			-5.317
241204.000			-53.172			-5.317
241303.000			-53.171			-5.317
241405.000			-53.172			-5.317
241504.000			-53.171			-5.317
241604.000			-53.170			-5.317
241705.000			-53.170			-5.317
241804.000			-53.170			-5.317
241904.000			-53.170			-5.317
242004.000			-53.170			-5.317
242104.000			-53.169			-5.317
242203.000			-53.169			-5.317
242305.000			-53.166			-5.317
242404.000			-53.165			-5.316
242504.000			-53.166			-5.317
242605.000			-53.166			-5.317
242704.000			-53.166			-5.317
242805.000			-53.165			-5.316
242904.000			-53.165			-5.316
243004.000			-53.165			-5.317
243104.000			-53.163			-5.316
243204.000			-53.163			-5.316
243304.000			-53.164			-5.316
243405.000			-53.163			-5.316
243504.000			-53.162			-5.316
243604.000			-53.161			-5.316
243705.000			-53.161			-5.316
243803.000			-53.161			-5.316
243904.000			-53.160			-5.316
244005.000			-53.160			-5.316
244104.000			-53.160			-5.316
244204.000			-53.159			-5.316
244305.000			-53.159			-5.316
244404.000			-53.159			-5.316
244504.000			-53.159			-5.316
244605.000			-53.158			-5.316
244703.000			-53.157			-5.316
244804.000			-53.156			-5.316
244905.000			-53.156			-5.316
245004.000			-53.157			-5.316
245104.000			-53.156			-5.316
245205.000			-53.156			-5.316
245304.000			-53.155			-5.315
245404.000			-53.154			-5.315
245505.000			-53.155			-5.315
245603.000			-53.154			-5.315
245704.000			-53.153			-5.315
245805.000			-53.152			-5.315
245904.000			-53.152			-5.315
246005.000			-53.152			-5.315
246104.000			-53.152			-5.315
246204.000			-53.151			-5.315
246305.000			-53.150			-5.315
246404.000			-53.149			-5.315
246503.000			-53.149			-5.315
246605.000			-53.148			-5.315
246704.000			-53.149			-5.315
246804.000			-53.149			-5.315
246905.000			-53.147			-5.315
247004.000			-53.146			-5.315
247104.000			-53.147			-5.315
247205.000			-53.146			-5.315
247304.000			-53.146			-5.315
247403.000			-53.146			-5.315
247505.000			-53.146			-5.315
247604.000			-53.145			-5.315
247704.000			-53.146			-5.315
247805.000			-53.145			-5.315
247904.000			-53.143			-5.314
248004.000			-53.142			-5.314
248105.000			-53.142			-5.314
248204.000			-53.141			-5.314
248303.000			-53.143			-5.314
248405.000			-53.142			-5.314
248504.000			-53.142			-5.314
248604.000			-53.142			-5.314
248705.000			-53.141			-5.314
248804.000			-53.139			-5.314
248904.000			-53.139			-5.314
249004.000			-53.139			-5.314
249104.000			-53.138			-5.314
249203.000			-53.137			-5.314
249304.000			-53.137			-5.314
249404.000			-53.137			-5.314
249505.000			-53.137			-5.314
249604.000			-53.137			-5.314
249704.000			-53.136			-5.314
249805.000			-53.136			-5.314
249904.000			-53.136			-5.314
250004.000			-53.136			-5.314
250104.000			-53.135			-5.313
250204.000			-53.135			-5.313
250304.000			-53.134			-5.313
250405.000			-53.134			-5.313
250504.000			-53.135			-5.313
250604.000			-53.134			-5.313
250705.000			-53.133			-5.313
250804.000			-53.132			-5.313
250904.000			-53.132			-5.313
251004.000			-53.132			-5.313
251104.000			-53.132			-5.313
251204.000			-53.130			-5.313
251305.000			-53.130			-5.313
251404.000			-53.129			-5.313
251504.000			-53.128			-5.313
251605.000			-53.129			-5.313
251703.000			-53.128			-5.313
251804.000			-53.127			-5.313
251904.000			-53.127			-5.313
252004.000			-53.127			-5.313
252104.000			-53.126			-5.313
252204.000			-53.126			-5.313
252304.000			-53.126			-5.313
252405.000			-53.125			-5.312
252504.000			-53.124			-5.312
252603.000			-53.125			-5.313
252705.000			-53.126			-5.313
252804.000			-53.125			-5.313
252904.000			-53.124			-5.312
253005.000			-53.124			-5.312
253104.000			-53.122			-5.312
253204.000			-53.121			-5.312
253305.000			-53.122			-5.312
253404.000			-53.120			-5.312
253503.000			-53.120			-5.312
253605.000			-53.120			-5.312
253704.000			-53.120			-5.312
253804.000			-53.120			-5.312
253905.000			-53.120			-5.312
254004.000			-53.120			-5.312
254104.000			-53.118			-5.312
254205.000			-53.117			-5.312
254304.000			-53.118			-5.312
254403.000			-53.117			-5.312
254505.000			-53.116			-5.312
254604.000			-53.116			-5.312
254704.000			-53.116			-5.312
254805.000			-53.116			-5.312
254904.000			-53.115			-5.311
255004.000			-53.114			-5.311
255104.000			-53.115			-5.311
255204.000			-53.113			-5.311
255303.000			-53.113			-5.311
255405.000			-53.112			-5.311
255504.000			-53.112			-5.311
255605.000			-53.112			-5.311
255704.000			-53.111			-5.311
255804.000			-53.111			-5.311
255905.000			-53.112			-5.311
256003.000			-53.111			-5.311
256104.000			-53.110			-5.311
256205.000			-53.110			-5.311
256304.000			-53.110			-5.311
256404.000			-53.110			-5.311
256505.000			-53.109			-5.311
256604.000			-53.108			-5.311
256704.000			-53.107			-5.311
256805.000			-53.106			-5.311
256903.000			-53.106			-5.311
257004.000			-53.107			-5.311
257105.000			-53.107			-5.311
257204.000			-53.106			-5.311
257304.000			-53.106			-5.311
257405.000			-53.106			-5.311
257504.000			-53.105			-5.310
257604.000			-53.103			-5.310
257705.000			-53.103			-5.310
257803.000			-53.103			-5.310
257904.000			-53.103			-5.310
258005.000			-53.102			-5.310
258104.000			-53.102			-5.310
258204.000			-53.102			-5.310
258305.000			-53.100			-5.310
258404.000			-53.101			-5.310
258503.000			-53.100			-5.310
258605.000			-53.101			-5.310
258704.000			-53.100			-5.310
258805.000			-53.099			-5.310
258904.000			-53.099			-5.310
259004.000			-53.099			-5.310
259105.000			-53.098			-5.310
259204.000			-53.097			-5.310
259304.000			-53.096			-5.310
259404.000			-53.096			-5.310
259504.000			-53.095			-5.309
259603.000			-53.095			-5.309
259705.000			-53.095			-5.309
259804.000			-53.095			-5.309
259904.000			-53.095			-5.309
260005.000			-53.094			-5.309
260104.000			-53.095			-5.309
260204.000			-53.094			-5.309
260304.000			-53.093			-5.309
260404.000			-53.092			-5.309
260503.000			-53.093			-5.309
260605.000			-53.093			-5.309
260704.000			-53.091			-5.309
260804.000			-53.091			-5.309
260905.000			-53.090			-5.309
261004.000			-53.091			-5.309
261104.000			-53.091			-5.309
261204.000			-53.090			-5.309
261304.000			-53.089			-5.309
261404.000			-53.090			-5.309
261505.000			-53.090			-5.309
261604.000			-53.089			-5.309
261704.000			-53.087			-5.309
261805.000			-53.087			-5.309
261904.000			-53.087			-5.309
262005.000			-53.086			-5.309
262103.000			-53.086			-5.309
262204.000			-53.087			-5.309
262305.000			-53.087			-5.309
262404.000			-53.085			-5.308
262504.000			-53.084			-5.308
262605.000			-53.083			-5.308
262704.000			-53.083			-5.308
262804.000			-53.083			-5.308
262905.000			-53.083			-5.308
263003.000			-53.083			-5.308
263104.000			-53.082			-5.308
263205.000			-53.082			-5.308
263304.000			-53.083			-5.308
263404.000			-53.082			-5.308
263505.000			-53.081			-5.308
263604.000			-53.081			-5.308
263704.000			-53.080			-5.308
263805.000			-53.080			-5.308
263903.000			-53.080			-5.308
264004.000			-53.080			-5.308
264105.000			-53.079			-5.308
264204.000			-53.078			-5.308
264304.000			-53.076			-5.308
264405.000			-53.076			-5.308
264504.000			-53.076			-5.308
264604.000			-53.077			-5.308
264705.000			-53.075			-5.308
264803.000			-53.075			-5.308
264904.000			-53.075			-5.308
265005.000			-53.075			-5.308
265104.000			-53.075			-5.307
265205.000			-53.073			-5.307
265304.000			-53.073			-5.307
265404.000			-53.073			-5.307
265505.000			-53.072			-5.307
265604.000			-53.072			-5.307
265703.000			-53.072			-5.307
265805.000			-53.071			-5.307
265904.000			-53.070			-5.307
266004.000			-53.069			-5.307
266105.000			-53.070			-5.307
266204.000			-53.070			-5.307
266304.000			-53.069			-5.307
266405.000			-53.069			-5.307
266504.000			-53.069			-5.307
266603.000			-53.069			-5.307
266705.000			-53.069			-5.307
266804.000			-53.068			-5.307
266904.000			-53.068			-5.307
267005.000			-53.067			-5.307
267104.000			-53.066			-5.307
267204.000			-53.066			-5.307
267305.000			-53.067			-5.307
267404.000			-53.066			-5.307
267503.000			-53.066			-5.307
267605.000			-53.065			-5.307
267704.000			-53.064			-5.306
267804.000			-53.063			-5.306
267905.000			-53.063			-5.306
268004.000			-53.062			-5.306
268104.000			-53.063			-5.306
268204.000			-53.064			-5.306
268304.000			-53.063			-5.306
268403.000			-53.063			-5.306
268504.000			-53.063			-5.306
268603.000			-53.061			-5.306
268705.000			-53.059			-5.306
268804.000			-53.059			-5.306
268904.000			-53.059			-5.306
269005.000			-53.060			-5.306
269104.000			-53.059			-5.306
269204.000			-53.059			-5.306
269304.000			-53.058			-5.306
269404.000			-53.058			-5.306
269503.000			-53.058			-5.306
269605.000			-53.057			-5.306
269704.000			-53.058			-5.306
269804.000			-53.057			-5.306
269905.000			-53.056			-5.306
270004.000			-53.056			-5.306
270104.000			-53.056			-5.306
270204.000			-53.055			-5.306
270304.000			-53.055			-5.306
270403.000			-53.055			-5.306
270505.000			-53.054			-5.305
270604.000			-53.053			-5.305
270704.000			-53.053			-5.305
270805.000			-53.053			-5.305
270904.000			-53.052			-5.305
271004.000			-53.052			-5.305
271104.000			-53.052			-5.305
271204.000			-53.051			-5.305
271304.000			-53.051			-5.305
271404.000			-53.050			-5.305
271504.000			-53.050			-5.305
271605.000			-53.050			-5.305
271704.000			-53.049			-5.305
271804.000			-53.049			-5.305
271905.000			-53.049			-5.305
272003.000			-53.049			-5.305
272104.000			-53.047			-5.305
272205.000			-53.047			-5.305
272304.000			-53.048			-5.305
272404.000			-53.047			-5.305
272505.000			-53.047			-5.305
272604.000			-53.046			-5.305
272704.000			-53.045			-5.305
272805.000			-53.045			-5.304
272903.000			-53.044			-5.304
273004.000			-53.044			-5.304
273105.000			-53.044			-5.304
273204.000			-53.043			-5.304
273304.000			-53.043			-5.304
273405.000			-53.042			-5.304
273504.000			-53.042			-5.304
273603.000			-53.041			-5.304
273705.000			-53.041			-5.304
273804.000			-53.042			-5.304
273904.000			-53.040			-5.304
274005.000			-53.039			-5.304
274104.000			-53.040			-5.304
274204.000			-53.040			-5.304
274305.000			-53.039			-5.304
274404.000			-53.039			-5.304
274503.000			-53.039			-5.304
274605.000			-53.038			-5.304
274704.000			-53.038			-5.304
274805.000			-53.038			-5.304
274904.000			-53.037			-5.304
275004.000			-53.037			-5.304
275105.000			-53.035			-5.304
275204.000			-53.036			-5.304
275304.000			-53.036			-5.304
275404.000			-53.036			-5.304
275504.000			-53.035			-5.304
275604.000			-53.035			-5.303
275705.000			-53.033			-5.303
275804.000			-53.033			-5.303
275904.000			-53.034			-5.303
276005.000			-53.034			-5.303
276104.000			-53.034			-5.303
276204.000			-53.033			-5.303
276304.000			-53.033			-5.303
276404.000			-53.033			-5.303
276504.000			-53.031			-5.303
276605.000			-53.031			-5.303
276704.000			-53.031			-5.303
276804.000			-53.030			-5.303
276905.000			-53.029			-5.303
277003.000			-53.029			-5.303
277104.000			-53.028			-5.303
277204.000			-53.028			-5.303
277304.000			-53.027			-5.303
277404.000			-53.027			-5.303
277505.000			-53.027			-5.303
277604.000			-53.027			-5.303
277704.000			-53.027			-5.303
277805.000			-53.027			-5.303
277903.000			-53.026			-5.303
278005.000			-53.026			-5.303
278103.000			-53.026			-5.303
278204.000			-53.024			-5.302
278305.000			-53.023			-5.302
278404.000			-53.023			-5.302
278504.000			-53.023			-5.302
278605.000			-53.024			-5.302
278704.000			-53.024			-5.302
278803.000			-53.023			-5.302
278905.000			-53.022			-5.302
279003.000			-53.021			-5.302
279104.000			-53.021			-5.302
279205.000			-53.021			-5.302
279304.000			-53.020			-5.302
279404.000			-53.020			-5.302
279505.000			-53.020			-5.302
279604.000			-53.020			-5.302
279703.000			-53.020			-5.302
279805.000			-53.020			-5.302
279904.000			-53.020			-5.302
280004.000			-53.019			-5.302
280105.000			-53.019			-5.302
280204.000			-53.018			-5.302
280304.000			-53.017			-5.302
280405.000			-53.016			-5.302
280504.000			-53.016			-5.302
280603.000			-53.016			-5.302
280705.000			-53.015			-5.302
280804.000			-53.014			-5.301
280904.000			-53.012			-5.301
281005.000			-53.014			-5.301
281104.000			-53.014			-5.301
281205.000			-53.014			-5.301
281303.000			-53.013			-5.301
281404.000			-53.011			-5.301
281504.000			-53.012			-5.301
281604.000			-53.012			-5.301
281704.000			-53.011			-5.301
281805.000			-53.012			-5.301
281904.000			-53.011			-5.301
282004.000			-53.010			-5.301
282105.000			-53.011			-5.301
282203.000			-53.010			-5.301
282304.000			-53.009			-5.301
282405.000			-53.009			-5.301
282504.000			-53.009			-5.301
282604.000			-53.008			-5.301
282705.000			-53.007			-5.301
282804.000			-53.007			-5.301
282903.000			-53.006			-5.301
283005.000			-53.007			-5.301
283103.000			-53.007			-5.301
283204.000			-53.005			-5.301
283305.000			-53.005			-5.300
283404.000			-53.005			-5.300
283504.000			-53.005			-5.300
283605.000			-53.004			-5.300
283704.000			-53.003			-5.300
283803.000			-53.003			-5.300
283905.000			-53.004			-5.300
284004.000			-53.005			-5.300
284104.000			-53.002			-5.300
284205.000			-53.003			-5.300
284304.000			-53.003			-5.300
284405.000			-53.002			-5.300
284504.000			-53.002			-5.300
284604.000			-53.001			-5.300
284704.000			-53.000			-5.300
284804.000			-52.997			-5.300
284904.000			-52.998			-5.300
285005.000			-52.997			-5.300
285104.000			-52.996			-5.300
285204.000			-52.996			-5.300
285305.000			-52.996			-5.300
285404.000			-52.997			-5.300
285504.000			-52.997			-5.300
285604.000			-52.995			-5.299
285704.000			-52.993			-5.299
285803.000			-52.994			-5.299
285905.000			-52.994			-5.299
286004.000			-52.993			-5.299
286104.000			-52.993			-5.299
286205.000			-52.993			-5.299
286304.000			-52.992			-5.299
286404.000			-52.992			-5.299
286505.000			-52.991			-5.299
286604.000			-52.992			-5.299
286703.000			-52.992			-5.299
286805.000			-52.990			-5.299
286904.000			-52.988			-5.299
287004.000			-52.989			-5.299
287105.000			-52.989			-5.299
287204.000			-52.987			-5.299
287304.000			-52.987			-5.299
287404.000			-52.987			-5.299
287504.000			-52.986			-5.299
287605.000			-52.987			-5.299
287704.000			-52.985			-5.299
287803.000			-52.985			-5.299
287905.000			-52.985			-5.298
288004.000			-52.984			-5.298
288104.000			-52.985			-5.298
288205.000			-52.984			-5.298
288304.000			-52.983			-5.298
288404.000			-52.983			-5.298
288505.000			-52.983			-5.298
288604.000			-52.983			-5.298
288703.000			-52.984			-5.298
288805.000			-52.984			-5.298
288903.000			-52.982			-5.298
289004.000			-52.981			-5.298
289105.000			-52.981			-5.298
289204.000			-52.980			-5.298
289304.000			-52.979			-5.298
289405.000			-52.978			-5.298
289504.000			-52.978			-5.298
289604.000			-52.978			-5.298
289705.000			-52.978			-5.298
289803.000			-52.978			-5.298
289904.000			-52.978			-5.298
290005.000			-52.977			-5.298
290104.000			-52.977			-5.298
290204.000			-52.977			-5.298
290305.000			-52.975			-5.298
290404.000			-52.975			-5.297
290504.000			-52.975			-5.298
290605.000			-52.974			-5.297
290703.000			-52.975			-5.297
290805.000			-52.974			-5.297
290903.000			-52.974			-5.297
291004.000			-52.975			-5.297
291105.000			-52.974			-5.297
291204.000			-52.973			-5.297
291304.000			-52.974			-5.297
291405.000			-52.972			-5.297
291504.000			-52.972			-5.297
291604.000			-52.972			-5.297
291705.000			-52.970			-5.297
291803.000			-52.971			-5.297
291904.000			-52.971			-5.297
292005.000			-52.969			-5.297
292104.000			-52.969			-5.297
292204.000			-52.970			-5.297
292305.000			-52.970			-5.297
292404.000			-52.968			-5.297
292504.000			-52.968			-5.297
292605.000			-52.968			-5.297
292703.000			-52.968			-5.297
292804.000			-52.967			-5.297
292905.000			-52.968			-5.297
293004.000			-52.967			-5.297
293104.000			-52.966			-5.297
293205.000			-52.965			-5.297
293304.000			-52.966			-5.297
293404.000			-52.966			-5.297
293505.000			-52.966			-5.297
293603.000			-52.964			-5.296
293704.000			-52.964			-5.296
293803.000			-52.964			-5.296
293904.000			-52.964			-5.296
294005.000			-52.962			-5.296
294104.000			-52.963			-5.296
294204.000			-52.962			-5.296
294305.000			-52.961			-5.296
294404.000			-52.961			-5.296
294504.000			-52.961			-5.296
294605.000			-52.961			-5.296
294703.000			-52.960			-5.296
294804.000			-52.960			-5.296
294905.000			-52.960			-5.296
295004.000			-52.960			-5.296
295104.000			-52.959			-5.296
295205.000			-52.958			-5.296
295304.000			-52.958			-5.296
295404.000			-52.958			-5.296
295505.000			-52.957			-5.296
295603.000			-52.957			-5.296
295704.000			-52.957			-5.296
295804.000			-52.956			-5.296
295904.000			-52.956			-5.296
296004.000			-52.955			-5.296
296105.000			-52.955			-5.296
296204.000			-52.954			-5.295
296304.000			-52.955			-5.295
296405.000			-52.954			-5.295
296503.000			-52.953			-5.295
296604.000			-52.953			-5.295
296704.000			-52.953			-5.295
296804.000			-52.953			-5.295
296904.000			-52.952			-5.295
297004.000			-52.951			-5.295
297104.000			-52.951			-5.295
297205.000			-52.951			-5.295
297304.000			-52.951			-5.295
297404.000			-52.950			-5.295
297505.000			-52.950			-5.295
297603.000			-52.950			-5.295
297704.000			-52.950			-5.295
297805.000			-52.948			-5.295
297904.000			-52.948			-5.295
298004.000			-52.949			-5.295
298105.000			-52.949			-5.295
298204.000			-52.949			-5.295
298304.000			-52.948			-5.295
298405.000			-52.949			-5.295
298503.000			-52.948			-5.295
298604.000			-52.947			-5.295
298704.000			-52.946			-5.295
298804.000			-52.946			-5.295
298904.000			-52.946			-5.295
299005.000			-52.946			-5.295
299104.000			-52.946			-5.295
299204.000			-52.945			-5.295
299305.000			-52.945			-5.294
299404.000			-52.943			-5.294
299504.000			-52.943			-5.294
299604.000			-52.942			-5.294
299704.000			-52.942			-5.294
299804.000			-52.943			-5.294
299905.000			-52.942			-5.294
