# Acquired on 30/01/2024 10:31:10 
# SPIDER: Creep_-10mm_HM077x145x38AA-2
# CREEP MEASUREMENT

# time [ms]		force [N]		stiffness [N/mm]
0.000			59.312			-5.931
104.000			59.937			-5.994
205.000			59.910			-5.991
304.000			59.615			-5.962
404.000			59.438			-5.944
505.000			59.311			-5.931
604.000			59.107			-5.911
704.000			59.022			-5.902
804.000			58.947			-5.895
904.000			58.878			-5.888
1004.000			58.813			-5.881
1105.000			58.752			-5.875
1204.000			58.698			-5.870
1304.000			58.645			-5.865
1405.000			58.550			-5.855
1504.000			58.505			-5.851
1605.000			58.462			-5.846
1704.000			58.423			-5.842
1804.000			58.384			-5.838
1905.000			58.349			-5.835
2003.000			58.315			-5.831
2104.000			58.248			-5.825
2205.000			58.216			-5.822
2304.000			58.188			-5.819
2404.000			58.158			-5.816
2505.000			58.129			-5.813
2604.000			58.102			-5.810
2703.000			58.076			-5.808
2805.000			58.025			-5.802
2904.000			58.001			-5.800
3004.000			57.978			-5.798
3105.000			57.954			-5.795
3204.000			57.933			-5.793
3304.000			57.910			-5.791
3405.000			57.888			-5.789
3504.000			57.847			-5.785
3604.000			57.827			-5.783
3705.000			57.808			-5.781
3804.000			57.790			-5.779
3903.000			57.771			-5.777
4005.000			57.752			-5.775
4104.000			57.735			-5.773
4204.000			57.717			-5.772
4305.000			57.682			-5.768
4404.000			57.666			-5.767
4504.000			57.649			-5.765
4603.000			57.632			-5.763
4704.000			57.616			-5.762
4805.000			57.602			-5.760
4904.000			57.587			-5.759
5004.000			57.557			-5.756
5105.000			57.543			-5.754
5204.000			57.528			-5.753
5303.000			57.513			-5.751
5405.000			57.500			-5.750
5504.000			57.487			-5.749
5604.000			57.474			-5.747
5705.000			57.448			-5.745
5804.000			57.435			-5.743
5904.000			57.422			-5.742
6004.000			57.409			-5.741
6104.000			57.396			-5.740
6204.000			57.384			-5.738
6305.000			57.373			-5.737
6404.000			57.361			-5.736
6504.000			57.336			-5.734
6605.000			57.326			-5.733
6703.000			57.314			-5.731
6804.000			57.303			-5.730
6905.000			57.294			-5.729
7004.000			57.282			-5.728
7104.000			57.270			-5.727
7204.000			57.248			-5.725
7304.000			57.239			-5.724
7404.000			57.229			-5.723
7505.000			57.219			-5.722
7604.000			57.208			-5.721
7704.000			57.198			-5.720
7805.000			57.189			-5.719
7903.000			57.169			-5.717
8005.000			57.159			-5.716
8104.000			57.150			-5.715
8204.000			57.140			-5.714
8305.000			57.132			-5.713
8404.000			57.123			-5.712
8504.000			57.113			-5.711
8604.000			57.094			-5.709
8704.000			57.085			-5.709
8804.000			57.078			-5.708
8905.000			57.070			-5.707
9004.000			57.060			-5.706
9103.000			57.053			-5.705
9205.000			57.045			-5.704
9304.000			57.036			-5.704
9404.000			57.019			-5.702
9505.000			57.011			-5.701
9604.000			57.003			-5.700
9704.000			56.994			-5.699
9804.000			56.986			-5.699
9904.000			56.978			-5.698
10004.000			56.971			-5.697
10105.000			56.956			-5.696
10204.000			56.948			-5.695
10304.000			56.939			-5.694
10405.000			56.932			-5.693
10503.000			56.926			-5.693
10604.000			56.919			-5.692
10705.000			56.911			-5.691
10804.000			56.896			-5.690
10904.000			56.890			-5.689
11004.000			56.882			-5.688
11104.000			56.875			-5.688
11204.000			56.867			-5.687
11304.000			56.861			-5.686
11404.000			56.855			-5.686
11505.000			56.848			-5.685
11604.000			56.834			-5.683
11704.000			56.827			-5.683
11805.000			56.821			-5.682
11903.000			56.814			-5.681
12004.000			56.807			-5.681
12105.000			56.800			-5.680
12204.000			56.794			-5.679
12304.000			56.783			-5.678
12405.000			56.776			-5.678
12504.000			56.769			-5.677
12603.000			56.764			-5.676
12705.000			56.756			-5.676
12804.000			56.749			-5.675
12904.000			56.743			-5.674
13005.000			56.732			-5.673
13104.000			56.726			-5.673
13204.000			56.720			-5.672
13304.000			56.714			-5.671
13404.000			56.708			-5.671
13504.000			56.703			-5.670
13605.000			56.696			-5.670
13704.000			56.685			-5.668
13804.000			56.679			-5.668
13905.000			56.674			-5.667
14003.000			56.669			-5.667
14104.000			56.661			-5.666
14205.000			56.656			-5.666
14304.000			56.651			-5.665
14405.000			56.645			-5.665
14504.000			56.633			-5.663
14604.000			56.629			-5.663
14704.000			56.623			-5.662
14804.000			56.617			-5.662
14904.000			56.612			-5.661
15005.000			56.606			-5.661
15104.000			56.600			-5.660
15204.000			56.589			-5.659
15305.000			56.584			-5.658
15403.000			56.579			-5.658
15504.000			56.573			-5.657
15605.000			56.568			-5.657
15704.000			56.563			-5.656
15804.000			56.559			-5.656
15904.000			56.548			-5.655
16004.000			56.543			-5.654
16103.000			56.539			-5.654
16205.000			56.534			-5.653
16304.000			56.528			-5.653
16404.000			56.523			-5.652
16505.000			56.518			-5.652
16604.000			56.514			-5.651
16704.000			56.505			-5.650
16804.000			56.500			-5.650
16904.000			56.496			-5.650
17004.000			56.490			-5.649
17105.000			56.486			-5.649
17204.000			56.480			-5.648
17303.000			56.475			-5.648
17405.000			56.466			-5.647
17504.000			56.461			-5.646
17605.000			56.456			-5.646
17704.000			56.451			-5.645
17804.000			56.447			-5.645
17905.000			56.444			-5.644
18003.000			56.439			-5.644
18104.000			56.429			-5.643
18205.000			56.425			-5.642
18304.000			56.420			-5.642
18404.000			56.416			-5.642
18505.000			56.412			-5.641
18604.000			56.409			-5.641
18703.000			56.404			-5.640
18805.000			56.394			-5.639
18904.000			56.391			-5.639
19004.000			56.386			-5.639
19105.000			56.381			-5.638
19204.000			56.378			-5.638
19304.000			56.374			-5.637
19404.000			56.370			-5.637
19504.000			56.365			-5.637
19603.000			56.357			-5.636
19705.000			56.352			-5.635
19804.000			56.348			-5.635
19904.000			56.345			-5.634
20005.000			56.340			-5.634
20103.000			56.336			-5.634
20204.000			56.332			-5.633
20305.000			56.324			-5.632
20404.000			56.320			-5.632
20504.000			56.316			-5.632
20604.000			56.312			-5.631
20704.000			56.308			-5.631
20804.000			56.304			-5.630
20904.000			56.302			-5.630
21004.000			56.293			-5.629
21105.000			56.289			-5.629
21204.000			56.285			-5.629
21304.000			56.281			-5.628
21405.000			56.278			-5.628
21503.000			56.274			-5.627
21604.000			56.270			-5.627
21705.000			56.263			-5.626
21804.000			56.259			-5.626
21904.000			56.255			-5.626
22005.000			56.252			-5.625
22104.000			56.247			-5.625
22203.000			56.244			-5.624
22305.000			56.241			-5.624
22404.000			56.237			-5.624
22504.000			56.229			-5.623
22605.000			56.225			-5.623
22704.000			56.221			-5.622
22804.000			56.218			-5.622
22904.000			56.214			-5.621
23004.000			56.211			-5.621
23104.000			56.208			-5.621
23205.000			56.201			-5.620
23304.000			56.197			-5.620
23403.000			56.194			-5.619
23505.000			56.191			-5.619
23604.000			56.187			-5.619
23704.000			56.184			-5.618
23805.000			56.180			-5.618
23904.000			56.172			-5.617
24005.000			56.169			-5.617
24103.000			56.165			-5.617
24204.000			56.162			-5.616
24305.000			56.159			-5.616
24404.000			56.156			-5.616
24504.000			56.152			-5.615
24605.000			56.148			-5.615
24704.000			56.142			-5.614
24803.000			56.138			-5.614
24905.000			56.135			-5.614
25004.000			56.132			-5.613
25104.000			56.129			-5.613
25205.000			56.126			-5.613
25304.000			56.123			-5.612
25404.000			56.116			-5.612
25504.000			56.112			-5.611
25604.000			56.109			-5.611
25704.000			56.106			-5.611
25805.000			56.103			-5.610
25904.000			56.100			-5.610
26004.000			56.096			-5.610
26105.000			56.089			-5.609
26203.000			56.086			-5.609
26304.000			56.083			-5.608
26405.000			56.080			-5.608
26504.000			56.078			-5.608
26604.000			56.074			-5.607
26704.000			56.070			-5.607
26804.000			56.065			-5.607
26903.000			56.061			-5.606
27005.000			56.058			-5.606
27104.000			56.055			-5.605
27205.000			56.052			-5.605
27304.000			56.049			-5.605
27404.000			56.046			-5.605
27505.000			56.043			-5.604
27603.000			56.036			-5.604
27704.000			56.034			-5.603
27805.000			56.031			-5.603
27904.000			56.029			-5.603
28004.000			56.025			-5.603
28104.000			56.023			-5.602
28204.000			56.021			-5.602
28304.000			56.013			-5.601
28405.000			56.010			-5.601
28504.000			56.009			-5.601
28604.000			56.006			-5.601
28705.000			56.002			-5.600
28803.000			55.999			-5.600
28904.000			55.996			-5.600
29005.000			55.990			-5.599
29104.000			55.987			-5.599
29204.000			55.984			-5.598
29305.000			55.981			-5.598
29404.000			55.978			-5.598
29504.000			55.976			-5.598
29605.000			55.974			-5.597
29703.000			55.971			-5.597
29804.000			55.966			-5.597
29905.000			55.962			-5.596
30004.000			55.960			-5.596
30104.000			55.957			-5.596
30204.000			55.955			-5.595
30304.000			55.952			-5.595
30404.000			55.949			-5.595
30504.000			55.943			-5.594
30604.000			55.940			-5.594
30705.000			55.937			-5.594
30804.000			55.935			-5.593
30904.000			55.933			-5.593
31005.000			55.930			-5.593
31103.000			55.926			-5.593
31204.000			55.921			-5.592
31305.000			55.918			-5.592
31404.000			55.915			-5.592
31504.000			55.913			-5.591
31605.000			55.911			-5.591
31704.000			55.909			-5.591
31803.000			55.905			-5.591
31905.000			55.900			-5.590
32004.000			55.896			-5.590
32104.000			55.894			-5.589
32205.000			55.892			-5.589
32304.000			55.889			-5.589
32404.000			55.888			-5.589
32504.000			55.884			-5.588
32604.000			55.881			-5.588
32704.000			55.877			-5.588
32805.000			55.874			-5.587
32904.000			55.871			-5.587
33004.000			55.868			-5.587
33105.000			55.867			-5.587
33203.000			55.865			-5.586
33304.000			55.861			-5.586
33405.000			55.856			-5.586
33504.000			55.854			-5.585
33605.000			55.852			-5.585
33704.000			55.849			-5.585
33804.000			55.846			-5.585
33904.000			55.843			-5.584
34004.000			55.840			-5.584
34104.000			55.837			-5.584
34205.000			55.834			-5.583
34304.000			55.831			-5.583
34404.000			55.828			-5.583
34505.000			55.826			-5.583
34603.000			55.823			-5.582
34704.000			55.820			-5.582
34805.000			55.817			-5.582
34904.000			55.815			-5.581
35004.000			55.812			-5.581
35104.000			55.810			-5.581
35204.000			55.808			-5.581
35303.000			55.804			-5.580
35405.000			55.802			-5.580
35504.000			55.799			-5.580
35604.000			55.796			-5.580
35705.000			55.793			-5.579
35804.000			55.791			-5.579
35904.000			55.788			-5.579
36004.000			55.785			-5.579
36104.000			55.783			-5.578
36204.000			55.780			-5.578
36305.000			55.777			-5.578
36404.000			55.774			-5.577
36504.000			55.771			-5.577
36605.000			55.769			-5.577
36703.000			55.768			-5.577
36805.000			55.766			-5.577
36904.000			55.762			-5.576
37004.000			55.758			-5.576
37105.000			55.756			-5.576
37204.000			55.753			-5.575
37304.000			55.751			-5.575
37404.000			55.749			-5.575
37504.000			55.747			-5.575
37604.000			55.744			-5.574
37705.000			55.740			-5.574
37804.000			55.736			-5.574
37904.000			55.734			-5.573
38005.000			55.732			-5.573
38103.000			55.731			-5.573
38204.000			55.728			-5.573
38305.000			55.726			-5.573
38404.000			55.723			-5.572
38504.000			55.720			-5.572
38605.000			55.718			-5.572
38704.000			55.714			-5.571
38803.000			55.712			-5.571
38905.000			55.709			-5.571
39004.000			55.708			-5.571
39104.000			55.707			-5.571
39205.000			55.703			-5.570
39304.000			55.701			-5.570
39404.000			55.699			-5.570
39504.000			55.697			-5.570
39604.000			55.694			-5.569
39704.000			55.691			-5.569
39804.000			55.687			-5.569
39904.000			55.684			-5.568
40005.000			55.682			-5.568
40104.000			55.681			-5.568
40203.000			55.679			-5.568
40305.000			55.677			-5.568
40404.000			55.674			-5.567
40504.000			55.671			-5.567
40605.000			55.669			-5.567
40704.000			55.668			-5.567
40804.000			55.664			-5.566
40904.000			55.663			-5.566
41004.000			55.660			-5.566
41104.000			55.658			-5.566
41205.000			55.656			-5.566
41304.000			55.655			-5.565
41403.000			55.649			-5.565
41505.000			55.647			-5.565
41604.000			55.646			-5.565
41704.000			55.644			-5.564
41805.000			55.642			-5.564
41904.000			55.638			-5.564
42004.000			55.637			-5.564
42105.000			55.633			-5.563
42204.000			55.630			-5.563
42303.000			55.628			-5.563
42405.000			55.627			-5.563
42504.000			55.625			-5.563
42604.000			55.622			-5.562
42705.000			55.620			-5.562
42803.000			55.620			-5.562
42904.000			55.615			-5.561
43005.000			55.613			-5.561
43104.000			55.611			-5.561
43205.000			55.609			-5.561
43304.000			55.606			-5.561
43404.000			55.605			-5.560
43504.000			55.602			-5.560
43604.000			55.599			-5.560
43704.000			55.597			-5.560
43805.000			55.594			-5.559
43904.000			55.591			-5.559
44004.000			55.590			-5.559
44105.000			55.589			-5.559
44204.000			55.587			-5.559
44304.000			55.584			-5.558
44404.000			55.583			-5.558
44504.000			55.581			-5.558
44604.000			55.578			-5.558
44705.000			55.575			-5.558
44804.000			55.574			-5.557
44904.000			55.572			-5.557
45005.000			55.569			-5.557
45103.000			55.566			-5.557
45204.000			55.564			-5.556
45305.000			55.561			-5.556
45404.000			55.559			-5.556
45504.000			55.558			-5.556
45605.000			55.557			-5.556
45704.000			55.555			-5.555
45803.000			55.552			-5.555
45905.000			55.549			-5.555
46004.000			55.546			-5.555
46104.000			55.544			-5.554
46205.000			55.543			-5.554
46304.000			55.541			-5.554
46405.000			55.539			-5.554
46503.000			55.535			-5.553
46604.000			55.534			-5.553
46705.000			55.532			-5.553
46804.000			55.530			-5.553
46904.000			55.529			-5.553
47005.000			55.527			-5.553
47104.000			55.525			-5.553
47203.000			55.522			-5.552
47305.000			55.519			-5.552
47404.000			55.516			-5.552
47504.000			55.515			-5.551
47605.000			55.513			-5.551
47704.000			55.511			-5.551
47804.000			55.510			-5.551
47904.000			55.507			-5.551
48004.000			55.507			-5.551
48104.000			55.503			-5.550
48205.000			55.501			-5.550
48304.000			55.499			-5.550
48404.000			55.499			-5.550
48505.000			55.498			-5.550
48603.000			55.495			-5.549
48704.000			55.491			-5.549
48805.000			55.489			-5.549
48904.000			55.487			-5.549
49004.000			55.487			-5.549
49105.000			55.485			-5.548
49204.000			55.482			-5.548
49303.000			55.481			-5.548
49405.000			55.477			-5.548
49504.000			55.475			-5.547
49605.000			55.473			-5.547
49704.000			55.471			-5.547
49804.000			55.470			-5.547
49905.000			55.468			-5.547
50003.000			55.467			-5.547
50104.000			55.464			-5.546
50205.000			55.462			-5.546
50304.000			55.459			-5.546
50404.000			55.457			-5.546
50505.000			55.456			-5.546
50604.000			55.455			-5.546
50703.000			55.453			-5.545
50805.000			55.449			-5.545
50904.000			55.448			-5.545
51004.000			55.447			-5.545
51105.000			55.445			-5.544
51204.000			55.442			-5.544
51304.000			55.439			-5.544
51404.000			55.438			-5.544
51504.000			55.437			-5.544
51604.000			55.434			-5.543
51705.000			55.432			-5.543
51804.000			55.430			-5.543
51903.000			55.429			-5.543
52005.000			55.427			-5.543
52104.000			55.426			-5.543
52204.000			55.424			-5.542
52305.000			55.421			-5.542
52404.000			55.419			-5.542
52504.000			55.417			-5.542
52603.000			55.415			-5.542
52704.000			55.414			-5.541
52805.000			55.413			-5.541
52904.000			55.410			-5.541
53004.000			55.407			-5.541
53105.000			55.406			-5.541
53204.000			55.404			-5.540
53303.000			55.402			-5.540
53405.000			55.400			-5.540
53504.000			55.399			-5.540
53604.000			55.398			-5.540
53705.000			55.397			-5.540
53804.000			55.391			-5.539
53904.000			55.391			-5.539
54004.000			55.390			-5.539
54104.000			55.388			-5.539
54204.000			55.386			-5.539
54305.000			55.385			-5.538
54404.000			55.383			-5.538
54504.000			55.380			-5.538
54605.000			55.379			-5.538
54703.000			55.378			-5.538
54804.000			55.376			-5.538
54905.000			55.374			-5.537
55004.000			55.371			-5.537
55104.000			55.369			-5.537
55205.000			55.366			-5.537
55304.000			55.365			-5.537
55403.000			55.363			-5.536
55505.000			55.362			-5.536
55604.000			55.360			-5.536
55704.000			55.358			-5.536
55805.000			55.357			-5.536
55904.000			55.355			-5.536
56005.000			55.352			-5.535
56103.000			55.351			-5.535
56204.000			55.349			-5.535
56305.000			55.347			-5.535
56404.000			55.346			-5.535
56504.000			55.344			-5.534
56605.000			55.343			-5.534
56704.000			55.339			-5.534
56803.000			55.338			-5.534
56905.000			55.337			-5.534
57004.000			55.335			-5.534
57104.000			55.335			-5.533
57205.000			55.333			-5.533
57304.000			55.331			-5.533
57404.000			55.328			-5.533
57504.000			55.327			-5.533
57604.000			55.326			-5.533
57704.000			55.324			-5.532
57805.000			55.321			-5.532
57904.000			55.319			-5.532
58003.000			55.318			-5.532
58105.000			55.316			-5.532
58204.000			55.315			-5.532
58304.000			55.313			-5.531
58405.000			55.311			-5.531
58504.000			55.309			-5.531
58604.000			55.308			-5.531
58704.000			55.306			-5.531
58804.000			55.305			-5.531
58904.000			55.303			-5.530
59004.000			55.301			-5.530
59104.000			55.300			-5.530
59205.000			55.298			-5.530
59304.000			55.296			-5.530
59403.000			55.294			-5.529
59505.000			55.293			-5.529
59604.000			55.290			-5.529
59704.000			55.288			-5.529
59805.000			55.286			-5.529
59904.000			55.286			-5.529
60004.000			55.285			-5.529
60104.000			55.283			-5.528
60204.000			55.281			-5.528
60304.000			55.278			-5.528
60405.000			55.278			-5.528
60504.000			55.277			-5.528
60604.000			55.274			-5.527
60705.000			55.273			-5.527
60803.000			55.272			-5.527
60904.000			55.270			-5.527
61005.000			55.268			-5.527
61104.000			55.266			-5.527
61204.000			55.265			-5.527
61305.000			55.263			-5.526
61404.000			55.261			-5.526
61503.000			55.260			-5.526
61605.000			55.259			-5.526
61704.000			55.258			-5.526
61804.000			55.256			-5.526
61905.000			55.254			-5.525
62004.000			55.251			-5.525
62104.000			55.250			-5.525
62203.000			55.249			-5.525
62304.000			55.248			-5.525
62405.000			55.247			-5.525
62504.000			55.244			-5.524
62604.000			55.240			-5.524
62705.000			55.239			-5.524
62804.000			55.238			-5.524
62903.000			55.236			-5.524
63005.000			55.235			-5.523
63104.000			55.234			-5.523
63204.000			55.231			-5.523
63305.000			55.230			-5.523
63404.000			55.229			-5.523
63504.000			55.228			-5.523
63604.000			55.226			-5.523
63704.000			55.224			-5.522
63804.000			55.223			-5.522
63905.000			55.220			-5.522
64004.000			55.219			-5.522
64104.000			55.217			-5.522
64205.000			55.216			-5.522
64303.000			55.215			-5.521
64404.000			55.213			-5.521
64505.000			55.212			-5.521
64604.000			55.211			-5.521
64704.000			55.208			-5.521
64804.000			55.206			-5.521
64904.000			55.206			-5.521
65003.000			55.205			-5.520
65105.000			55.203			-5.520
65204.000			55.201			-5.520
65304.000			55.199			-5.520
65405.000			55.198			-5.520
65503.000			55.196			-5.520
65605.000			55.194			-5.519
65704.000			55.193			-5.519
65804.000			55.192			-5.519
65905.000			55.191			-5.519
66004.000			55.189			-5.519
66104.000			55.185			-5.519
66204.000			55.184			-5.518
66304.000			55.183			-5.518
66404.000			55.182			-5.518
66505.000			55.181			-5.518
66604.000			55.180			-5.518
66704.000			55.179			-5.518
66805.000			55.176			-5.518
66903.000			55.175			-5.517
67004.000			55.173			-5.517
67104.000			55.171			-5.517
67204.000			55.170			-5.517
67304.000			55.169			-5.517
67405.000			55.167			-5.517
67504.000			55.166			-5.517
67604.000			55.165			-5.516
67705.000			55.163			-5.516
67803.000			55.161			-5.516
67904.000			55.160			-5.516
68005.000			55.159			-5.516
68104.000			55.157			-5.516
68204.000			55.156			-5.516
68305.000			55.153			-5.515
68404.000			55.151			-5.515
68503.000			55.151			-5.515
68605.000			55.150			-5.515
68704.000			55.149			-5.515
68805.000			55.146			-5.515
68904.000			55.145			-5.514
69004.000			55.142			-5.514
69105.000			55.141			-5.514
69203.000			55.140			-5.514
69304.000			55.140			-5.514
69405.000			55.138			-5.514
69504.000			55.137			-5.514
69604.000			55.136			-5.514
69705.000			55.135			-5.513
69804.000			55.132			-5.513
69903.000			55.131			-5.513
70005.000			55.130			-5.513
70104.000			55.128			-5.513
70204.000			55.126			-5.513
70305.000			55.125			-5.512
70404.000			55.124			-5.512
70504.000			55.121			-5.512
70604.000			55.120			-5.512
70704.000			55.118			-5.512
70804.000			55.117			-5.512
70905.000			55.116			-5.512
71004.000			55.115			-5.511
71103.000			55.114			-5.511
71205.000			55.112			-5.511
71304.000			55.111			-5.511
71404.000			55.110			-5.511
71505.000			55.109			-5.511
71604.000			55.106			-5.511
71704.000			55.105			-5.511
71803.000			55.104			-5.510
71904.000			55.102			-5.510
72005.000			55.100			-5.510
72104.000			55.098			-5.510
72204.000			55.098			-5.510
72305.000			55.097			-5.510
72404.000			55.095			-5.510
72503.000			55.094			-5.509
72605.000			55.092			-5.509
72704.000			55.090			-5.509
72804.000			55.089			-5.509
72905.000			55.088			-5.509
73004.000			55.087			-5.509
73104.000			55.086			-5.509
73204.000			55.085			-5.508
73304.000			55.083			-5.508
73404.000			55.080			-5.508
73505.000			55.079			-5.508
73604.000			55.078			-5.508
73704.000			55.077			-5.508
73805.000			55.076			-5.508
73903.000			55.074			-5.507
74004.000			55.073			-5.507
74105.000			55.071			-5.507
74204.000			55.070			-5.507
74304.000			55.068			-5.507
74405.000			55.068			-5.507
74504.000			55.066			-5.507
74604.000			55.065			-5.507
74705.000			55.065			-5.506
74803.000			55.064			-5.506
74904.000			55.061			-5.506
75005.000			55.059			-5.506
75104.000			55.059			-5.506
75205.000			55.058			-5.506
75304.000			55.056			-5.506
75404.000			55.055			-5.505
75504.000			55.054			-5.505
75604.000			55.052			-5.505
75704.000			55.049			-5.505
75805.000			55.048			-5.505
75904.000			55.047			-5.505
76004.000			55.046			-5.505
76105.000			55.046			-5.505
76203.000			55.044			-5.504
76304.000			55.041			-5.504
76405.000			55.040			-5.504
76504.000			55.038			-5.504
76604.000			55.036			-5.504
76705.000			55.036			-5.504
76804.000			55.035			-5.504
76903.000			55.035			-5.503
77005.000			55.032			-5.503
77104.000			55.030			-5.503
77204.000			55.030			-5.503
77305.000			55.029			-5.503
77404.000			55.027			-5.503
77504.000			55.026			-5.503
77604.000			55.025			-5.502
77704.000			55.023			-5.502
77804.000			55.021			-5.502
77905.000			55.020			-5.502
78004.000			55.020			-5.502
78104.000			55.019			-5.502
78205.000			55.018			-5.502
78303.000			55.016			-5.502
78405.000			55.015			-5.501
78504.000			55.012			-5.501
78604.000			55.010			-5.501
78705.000			55.011			-5.501
78804.000			55.010			-5.501
78904.000			55.008			-5.501
79004.000			55.006			-5.501
79104.000			55.006			-5.501
79204.000			55.003			-5.500
79305.000			55.002			-5.500
79404.000			55.001			-5.500
79504.000			55.000			-5.500
79605.000			54.999			-5.500
79703.000			54.998			-5.500
79804.000			54.996			-5.500
79905.000			54.994			-5.499
80004.000			54.992			-5.499
80104.000			54.992			-5.499
80205.000			54.991			-5.499
80304.000			54.990			-5.499
80403.000			54.988			-5.499
80505.000			54.987			-5.499
80604.000			54.987			-5.499
80704.000			54.984			-5.498
80805.000			54.983			-5.498
80904.000			54.981			-5.498
81004.000			54.981			-5.498
81104.000			54.980			-5.498
81204.000			54.979			-5.498
81304.000			54.978			-5.498
81404.000			54.975			-5.497
81504.000			54.974			-5.497
81605.000			54.972			-5.497
81704.000			54.972			-5.497
81803.000			54.971			-5.497
81905.000			54.969			-5.497
82003.000			54.967			-5.497
82104.000			54.966			-5.497
82205.000			54.964			-5.496
82304.000			54.964			-5.496
82404.000			54.962			-5.496
82505.000			54.961			-5.496
82604.000			54.960			-5.496
82703.000			54.960			-5.496
82805.000			54.959			-5.496
82904.000			54.956			-5.496
83004.000			54.954			-5.495
83105.000			54.955			-5.495
83204.000			54.954			-5.495
83304.000			54.952			-5.495
83404.000			54.951			-5.495
83504.000			54.950			-5.495
83604.000			54.947			-5.495
83705.000			54.946			-5.495
83804.000			54.946			-5.495
83904.000			54.944			-5.494
84005.000			54.943			-5.494
84103.000			54.942			-5.494
84204.000			54.941			-5.494
84305.000			54.940			-5.494
84404.000			54.939			-5.494
84504.000			54.937			-5.494
84604.000			54.936			-5.494
84704.000			54.936			-5.494
84804.000			54.934			-5.493
84904.000			54.933			-5.493
85004.000			54.932			-5.493
85105.000			54.931			-5.493
85204.000			54.929			-5.493
85304.000			54.927			-5.493
85405.000			54.926			-5.493
85503.000			54.925			-5.492
85604.000			54.923			-5.492
85705.000			54.923			-5.492
85804.000			54.922			-5.492
85904.000			54.920			-5.492
86005.000			54.919			-5.492
86104.000			54.919			-5.492
86204.000			54.918			-5.492
86305.000			54.916			-5.492
86403.000			54.915			-5.491
86504.000			54.913			-5.491
86605.000			54.912			-5.491
86704.000			54.911			-5.491
86804.000			54.910			-5.491
86905.000			54.909			-5.491
87004.000			54.908			-5.491
87103.000			54.909			-5.491
87205.000			54.906			-5.491
87304.000			54.905			-5.490
87404.000			54.903			-5.490
87505.000			54.901			-5.490
87604.000			54.900			-5.490
87704.000			54.900			-5.490
87803.000			54.898			-5.490
87904.000			54.897			-5.490
88005.000			54.895			-5.489
88104.000			54.894			-5.489
88204.000			54.893			-5.489
88305.000			54.893			-5.489
88404.000			54.892			-5.489
88504.000			54.891			-5.489
88605.000			54.890			-5.489
88703.000			54.889			-5.489
88804.000			54.887			-5.489
88905.000			54.885			-5.489
89004.000			54.883			-5.488
89104.000			54.883			-5.488
89205.000			54.882			-5.488
89304.000			54.881			-5.488
89403.000			54.879			-5.488
89505.000			54.877			-5.488
89604.000			54.876			-5.488
89704.000			54.875			-5.488
89805.000			54.874			-5.487
89904.000			54.872			-5.487
90004.000			54.872			-5.487
90104.000			54.871			-5.487
90204.000			54.871			-5.487
90303.000			54.869			-5.487
90405.000			54.867			-5.487
90504.000			54.867			-5.487
90604.000			54.866			-5.487
90705.000			54.864			-5.486
90804.000			54.863			-5.486
90904.000			54.862			-5.486
91003.000			54.861			-5.486
91104.000			54.860			-5.486
91205.000			54.858			-5.486
91304.000			54.858			-5.486
91404.000			54.857			-5.486
91505.000			54.855			-5.486
91604.000			54.853			-5.485
91703.000			54.852			-5.485
91805.000			54.851			-5.485
91904.000			54.851			-5.485
92004.000			54.849			-5.485
92105.000			54.848			-5.485
92204.000			54.848			-5.485
92304.000			54.848			-5.485
92404.000			54.845			-5.484
92504.000			54.844			-5.484
92604.000			54.843			-5.484
92705.000			54.842			-5.484
92804.000			54.841			-5.484
92904.000			54.840			-5.484
93005.000			54.840			-5.484
93103.000			54.837			-5.484
93204.000			54.836			-5.484
93305.000			54.835			-5.484
93404.000			54.834			-5.483
93504.000			54.833			-5.483
93605.000			54.832			-5.483
93704.000			54.831			-5.483
93803.000			54.829			-5.483
93905.000			54.828			-5.483
94004.000			54.827			-5.483
94104.000			54.827			-5.483
94205.000			54.824			-5.482
94304.000			54.823			-5.482
94405.000			54.823			-5.482
94503.000			54.822			-5.482
94604.000			54.821			-5.482
94705.000			54.820			-5.482
94804.000			54.819			-5.482
94904.000			54.817			-5.482
95005.000			54.817			-5.482
95104.000			54.815			-5.481
95203.000			54.813			-5.481
95305.000			54.812			-5.481
95404.000			54.812			-5.481
95504.000			54.811			-5.481
95605.000			54.809			-5.481
95704.000			54.808			-5.481
95804.000			54.808			-5.481
95904.000			54.806			-5.481
96004.000			54.804			-5.480
96103.000			54.804			-5.480
96205.000			54.803			-5.480
96304.000			54.803			-5.480
96404.000			54.803			-5.480
96505.000			54.802			-5.480
96604.000			54.800			-5.480
96704.000			54.796			-5.480
96804.000			54.795			-5.479
96904.000			54.795			-5.479
97004.000			54.795			-5.479
97105.000			54.794			-5.479
97204.000			54.792			-5.479
97304.000			54.791			-5.479
97405.000			54.791			-5.479
97503.000			54.788			-5.479
97605.000			54.788			-5.479
97704.000			54.787			-5.479
97804.000			54.786			-5.479
97905.000			54.785			-5.478
98004.000			54.784			-5.478
98104.000			54.784			-5.478
98205.000			54.782			-5.478
98304.000			54.781			-5.478
98403.000			54.779			-5.478
98505.000			54.778			-5.478
98604.000			54.777			-5.478
98704.000			54.777			-5.478
98805.000			54.776			-5.478
98904.000			54.774			-5.477
99004.000			54.773			-5.477
99104.000			54.772			-5.477
99204.000			54.771			-5.477
99304.000			54.770			-5.477
99405.000			54.769			-5.477
99504.000			54.768			-5.477
99604.000			54.766			-5.477
99705.000			54.764			-5.476
99803.000			54.765			-5.476
99904.000			54.764			-5.476
100004.000			54.763			-5.476
100104.000			54.761			-5.476
100204.000			54.760			-5.476
100305.000			54.759			-5.476
100404.000			54.758			-5.476
100504.000			54.757			-5.476
100605.000			54.756			-5.476
100703.000			54.755			-5.476
100805.000			54.754			-5.475
100904.000			54.753			-5.475
101004.000			54.753			-5.475
101105.000			54.751			-5.475
101204.000			54.749			-5.475
101304.000			54.749			-5.475
101404.000			54.749			-5.475
101504.000			54.747			-5.475
101604.000			54.746			-5.475
101705.000			54.745			-5.475
101804.000			54.744			-5.474
101904.000			54.743			-5.474
102005.000			54.743			-5.474
102103.000			54.741			-5.474
102204.000			54.739			-5.474
102305.000			54.738			-5.474
102404.000			54.738			-5.474
102504.000			54.737			-5.474
102605.000			54.735			-5.474
102704.000			54.734			-5.473
102803.000			54.733			-5.473
102905.000			54.733			-5.473
103003.000			54.731			-5.473
103104.000			54.730			-5.473
103205.000			54.729			-5.473
103304.000			54.727			-5.473
103404.000			54.727			-5.473
103504.000			54.727			-5.473
103604.000			54.725			-5.473
103703.000			54.724			-5.472
103805.000			54.723			-5.472
103904.000			54.722			-5.472
104005.000			54.722			-5.472
104104.000			54.721			-5.472
104204.000			54.721			-5.472
104305.000			54.720			-5.472
104403.000			54.719			-5.472
104504.000			54.717			-5.472
104605.000			54.715			-5.472
104704.000			54.716			-5.472
104804.000			54.714			-5.471
104905.000			54.714			-5.471
105004.000			54.713			-5.471
105103.000			54.711			-5.471
105205.000			54.709			-5.471
105304.000			54.708			-5.471
105404.000			54.708			-5.471
105505.000			54.705			-5.471
105604.000			54.706			-5.471
105704.000			54.705			-5.471
105804.000			54.704			-5.470
105904.000			54.703			-5.470
106004.000			54.701			-5.470
106105.000			54.701			-5.470
106204.000			54.699			-5.470
106304.000			54.698			-5.470
106405.000			54.698			-5.470
106503.000			54.696			-5.470
106604.000			54.695			-5.470
106705.000			54.696			-5.470
106804.000			54.696			-5.470
106904.000			54.692			-5.469
107004.000			54.691			-5.469
107104.000			54.691			-5.469
107205.000			54.691			-5.469
107304.000			54.691			-5.469
107403.000			54.689			-5.469
107505.000			54.687			-5.469
107604.000			54.687			-5.469
107704.000			54.685			-5.468
107805.000			54.685			-5.469
107904.000			54.684			-5.468
108004.000			54.682			-5.468
108104.000			54.683			-5.468
108204.000			54.682			-5.468
108304.000			54.680			-5.468
108405.000			54.679			-5.468
108504.000			54.676			-5.468
108604.000			54.676			-5.468
108705.000			54.675			-5.468
108804.000			54.674			-5.467
108904.000			54.674			-5.467
109004.000			54.672			-5.467
109104.000			54.671			-5.467
109204.000			54.670			-5.467
109305.000			54.670			-5.467
109404.000			54.669			-5.467
109504.000			54.668			-5.467
109605.000			54.667			-5.467
109703.000			54.667			-5.467
109804.000			54.665			-5.467
109905.000			54.665			-5.466
110004.000			54.664			-5.466
110104.000			54.663			-5.466
110204.000			54.662			-5.466
110304.000			54.660			-5.466
110404.000			54.659			-5.466
110504.000			54.659			-5.466
110603.000			54.658			-5.466
110705.000			54.657			-5.466
110804.000			54.656			-5.466
110904.000			54.656			-5.466
111005.000			54.655			-5.465
111104.000			54.653			-5.465
111204.000			54.652			-5.465
111304.000			54.651			-5.465
111404.000			54.649			-5.465
111504.000			54.649			-5.465
111605.000			54.649			-5.465
111704.000			54.648			-5.465
111804.000			54.647			-5.465
111905.000			54.647			-5.465
112003.000			54.644			-5.464
112104.000			54.643			-5.464
112205.000			54.641			-5.464
112304.000			54.641			-5.464
112404.000			54.641			-5.464
112505.000			54.640			-5.464
112604.000			54.638			-5.464
112703.000			54.637			-5.464
112805.000			54.637			-5.464
112904.000			54.636			-5.464
113004.000			54.635			-5.464
113105.000			54.634			-5.463
113204.000			54.632			-5.463
113304.000			54.632			-5.463
113403.000			54.632			-5.463
113504.000			54.630			-5.463
113605.000			54.630			-5.463
113704.000			54.628			-5.463
113804.000			54.627			-5.463
113905.000			54.626			-5.463
114004.000			54.625			-5.462
114104.000			54.626			-5.463
114205.000			54.624			-5.462
114303.000			54.622			-5.462
114404.000			54.621			-5.462
114505.000			54.620			-5.462
114604.000			54.620			-5.462
114704.000			54.619			-5.462
114805.000			54.618			-5.462
114904.000			54.617			-5.462
115003.000			54.617			-5.462
115105.000			54.616			-5.462
115204.000			54.615			-5.461
115304.000			54.615			-5.461
115405.000			54.613			-5.461
115504.000			54.612			-5.461
115604.000			54.612			-5.461
115704.000			54.609			-5.461
115804.000			54.608			-5.461
115904.000			54.607			-5.461
116005.000			54.607			-5.461
116104.000			54.606			-5.461
116204.000			54.605			-5.461
116305.000			54.605			-5.460
116403.000			54.603			-5.460
116504.000			54.603			-5.460
116605.000			54.602			-5.460
116704.000			54.601			-5.460
116805.000			54.600			-5.460
116904.000			54.599			-5.460
117004.000			54.599			-5.460
117105.000			54.597			-5.460
117204.000			54.596			-5.460
117303.000			54.596			-5.460
117405.000			54.594			-5.459
117504.000			54.592			-5.459
117604.000			54.592			-5.459
117705.000			54.591			-5.459
117804.000			54.591			-5.459
117904.000			54.589			-5.459
118004.000			54.588			-5.459
118104.000			54.589			-5.459
118203.000			54.587			-5.459
118305.000			54.586			-5.459
118404.000			54.586			-5.459
118504.000			54.586			-5.459
118605.000			54.583			-5.458
118704.000			54.582			-5.458
118804.000			54.582			-5.458
118904.000			54.582			-5.458
119004.000			54.581			-5.458
119104.000			54.580			-5.458
119205.000			54.579			-5.458
119304.000			54.578			-5.458
119404.000			54.576			-5.458
119505.000			54.576			-5.458
119603.000			54.577			-5.458
119704.000			54.574			-5.457
119805.000			54.573			-5.457
119904.000			54.573			-5.457
120005.000			54.571			-5.457
120104.000			54.570			-5.457
120204.000			54.571			-5.457
120304.000			54.570			-5.457
120404.000			54.568			-5.457
120503.000			54.567			-5.457
120605.000			54.568			-5.457
120704.000			54.566			-5.457
120804.000			54.564			-5.456
120905.000			54.564			-5.456
121004.000			54.564			-5.456
121104.000			54.563			-5.456
121204.000			54.562			-5.456
121304.000			54.561			-5.456
121404.000			54.561			-5.456
121505.000			54.558			-5.456
121604.000			54.559			-5.456
121704.000			54.558			-5.456
121805.000			54.556			-5.456
121903.000			54.556			-5.456
122004.000			54.554			-5.455
122105.000			54.554			-5.455
122204.000			54.552			-5.455
122304.000			54.552			-5.455
122405.000			54.551			-5.455
122504.000			54.550			-5.455
122603.000			54.549			-5.455
122705.000			54.548			-5.455
122804.000			54.547			-5.455
122904.000			54.548			-5.455
123005.000			54.545			-5.454
123104.000			54.544			-5.454
123205.000			54.544			-5.454
123303.000			54.543			-5.454
123404.000			54.541			-5.454
123505.000			54.541			-5.454
123604.000			54.541			-5.454
123704.000			54.540			-5.454
123805.000			54.539			-5.454
123904.000			54.537			-5.454
124004.000			54.537			-5.454
124105.000			54.536			-5.454
124203.000			54.536			-5.454
124304.000			54.536			-5.454
124405.000			54.534			-5.453
124504.000			54.533			-5.453
124604.000			54.532			-5.453
124705.000			54.531			-5.453
124804.000			54.531			-5.453
124903.000			54.530			-5.453
125005.000			54.530			-5.453
125104.000			54.528			-5.453
125204.000			54.527			-5.453
125305.000			54.527			-5.453
125404.000			54.526			-5.453
125504.000			54.524			-5.452
125604.000			54.523			-5.452
125704.000			54.522			-5.452
125804.000			54.523			-5.452
125905.000			54.520			-5.452
126004.000			54.520			-5.452
126104.000			54.520			-5.452
126205.000			54.519			-5.452
126303.000			54.517			-5.452
126405.000			54.516			-5.452
126504.000			54.516			-5.452
126604.000			54.514			-5.451
126705.000			54.514			-5.451
126804.000			54.514			-5.451
126904.000			54.513			-5.451
127004.000			54.512			-5.451
127104.000			54.511			-5.451
127203.000			54.509			-5.451
127305.000			54.510			-5.451
127404.000			54.508			-5.451
127504.000			54.507			-5.451
127605.000			54.507			-5.451
127704.000			54.507			-5.451
127804.000			54.505			-5.451
127904.000			54.504			-5.450
128004.000			54.505			-5.450
128104.000			54.503			-5.450
128205.000			54.501			-5.450
128304.000			54.501			-5.450
128404.000			54.500			-5.450
128505.000			54.499			-5.450
128603.000			54.498			-5.450
128704.000			54.498			-5.450
128805.000			54.497			-5.450
128904.000			54.497			-5.450
129004.000			54.495			-5.450
129105.000			54.494			-5.449
129204.000			54.492			-5.449
129303.000			54.492			-5.449
129405.000			54.492			-5.449
129503.000			54.490			-5.449
129605.000			54.490			-5.449
129704.000			54.489			-5.449
129804.000			54.489			-5.449
129905.000			54.488			-5.449
130004.000			54.487			-5.449
130104.000			54.487			-5.449
130204.000			54.486			-5.449
130304.000			54.486			-5.449
130404.000			54.485			-5.448
130505.000			54.484			-5.448
130604.000			54.483			-5.448
130704.000			54.481			-5.448
130805.000			54.481			-5.448
130904.000			54.481			-5.448
131004.000			54.480			-5.448
131104.000			54.478			-5.448
131204.000			54.477			-5.448
131304.000			54.476			-5.448
131405.000			54.476			-5.448
131504.000			54.475			-5.448
131604.000			54.475			-5.447
131705.000			54.473			-5.447
131803.000			54.472			-5.447
131904.000			54.472			-5.447
132004.000			54.472			-5.447
132104.000			54.471			-5.447
132204.000			54.471			-5.447
132305.000			54.469			-5.447
132404.000			54.467			-5.447
132504.000			54.467			-5.447
132605.000			54.467			-5.447
132703.000			54.467			-5.447
132805.000			54.465			-5.446
132904.000			54.464			-5.446
133004.000			54.463			-5.446
133105.000			54.463			-5.446
133204.000			54.461			-5.446
133304.000			54.461			-5.446
133405.000			54.460			-5.446
133504.000			54.459			-5.446
133603.000			54.459			-5.446
133705.000			54.458			-5.446
133804.000			54.457			-5.446
133904.000			54.455			-5.446
134005.000			54.455			-5.446
134104.000			54.455			-5.446
134204.000			54.454			-5.445
134305.000			54.453			-5.445
134404.000			54.451			-5.445
134503.000			54.451			-5.445
134605.000			54.450			-5.445
134704.000			54.450			-5.445
134804.000			54.450			-5.445
134905.000			54.448			-5.445
135004.000			54.446			-5.445
135104.000			54.445			-5.445
135205.000			54.445			-5.445
135304.000			54.444			-5.444
135403.000			54.444			-5.444
135505.000			54.444			-5.444
135604.000			54.443			-5.444
135704.000			54.442			-5.444
135805.000			54.441			-5.444
135904.000			54.441			-5.444
136005.000			54.440			-5.444
136104.000			54.439			-5.444
136204.000			54.437			-5.444
136304.000			54.436			-5.444
136404.000			54.436			-5.444
136504.000			54.436			-5.444
136605.000			54.436			-5.444
136704.000			54.435			-5.443
136804.000			54.434			-5.443
136905.000			54.433			-5.443
137004.000			54.432			-5.443
137104.000			54.431			-5.443
137204.000			54.429			-5.443
137304.000			54.429			-5.443
137404.000			54.429			-5.443
137505.000			54.427			-5.443
137604.000			54.427			-5.443
137704.000			54.427			-5.443
137805.000			54.426			-5.443
137904.000			54.424			-5.442
138004.000			54.424			-5.442
138104.000			54.424			-5.442
138204.000			54.423			-5.442
138304.000			54.422			-5.442
138405.000			54.420			-5.442
138504.000			54.419			-5.442
138604.000			54.419			-5.442
138705.000			54.419			-5.442
138804.000			54.419			-5.442
138904.000			54.418			-5.442
139003.000			54.416			-5.442
139104.000			54.416			-5.442
139205.000			54.415			-5.442
139304.000			54.414			-5.441
139404.000			54.413			-5.441
139505.000			54.412			-5.441
139604.000			54.411			-5.441
139704.000			54.411			-5.441
139805.000			54.410			-5.441
139903.000			54.408			-5.441
140004.000			54.408			-5.441
140105.000			54.408			-5.441
140204.000			54.407			-5.441
140304.000			54.405			-5.441
140405.000			54.405			-5.440
140504.000			54.405			-5.440
140604.000			54.404			-5.440
140705.000			54.403			-5.440
140803.000			54.401			-5.440
140904.000			54.401			-5.440
141005.000			54.402			-5.440
141104.000			54.401			-5.440
141204.000			54.401			-5.440
141305.000			54.400			-5.440
141404.000			54.398			-5.440
141504.000			54.397			-5.440
141605.000			54.397			-5.440
141703.000			54.396			-5.440
141804.000			54.395			-5.440
141905.000			54.393			-5.439
142004.000			54.394			-5.439
142104.000			54.393			-5.439
142204.000			54.391			-5.439
142304.000			54.390			-5.439
142405.000			54.390			-5.439
142504.000			54.390			-5.439
142603.000			54.389			-5.439
142705.000			54.388			-5.439
142804.000			54.386			-5.439
142904.000			54.385			-5.439
143005.000			54.384			-5.438
143104.000			54.384			-5.438
143204.000			54.384			-5.438
143305.000			54.384			-5.438
143404.000			54.383			-5.438
143503.000			54.383			-5.438
143605.000			54.383			-5.438
143704.000			54.382			-5.438
143804.000			54.380			-5.438
143905.000			54.378			-5.438
144004.000			54.377			-5.438
144104.000			54.379			-5.438
144205.000			54.377			-5.438
144304.000			54.376			-5.438
144403.000			54.375			-5.438
144505.000			54.374			-5.437
144604.000			54.373			-5.437
144704.000			54.373			-5.437
144805.000			54.372			-5.437
144904.000			54.372			-5.437
145004.000			54.371			-5.437
145105.000			54.370			-5.437
145204.000			54.370			-5.437
145303.000			54.369			-5.437
145405.000			54.368			-5.437
145504.000			54.367			-5.437
145605.000			54.366			-5.437
145704.000			54.365			-5.436
145804.000			54.365			-5.437
145905.000			54.365			-5.436
146004.000			54.364			-5.436
146104.000			54.363			-5.436
146204.000			54.362			-5.436
146304.000			54.361			-5.436
146403.000			54.360			-5.436
146505.000			54.359			-5.436
146604.000			54.359			-5.436
146704.000			54.358			-5.436
146805.000			54.358			-5.436
146904.000			54.358			-5.436
147004.000			54.356			-5.436
147104.000			54.356			-5.436
147204.000			54.355			-5.435
147303.000			54.353			-5.435
147405.000			54.353			-5.435
147504.000			54.352			-5.435
147604.000			54.351			-5.435
147705.000			54.351			-5.435
147804.000			54.350			-5.435
147904.000			54.350			-5.435
148004.000			54.349			-5.435
148104.000			54.349			-5.435
148203.000			54.347			-5.435
148305.000			54.347			-5.435
148404.000			54.347			-5.435
148504.000			54.345			-5.434
148605.000			54.344			-5.434
148704.000			54.344			-5.434
148805.000			54.344			-5.434
148904.000			54.343			-5.434
149004.000			54.342			-5.434
149104.000			54.342			-5.434
149204.000			54.340			-5.434
149304.000			54.339			-5.434
149405.000			54.338			-5.434
149504.000			54.338			-5.434
149604.000			54.337			-5.434
149705.000			54.336			-5.434
149804.000			54.335			-5.434
149904.000			54.335			-5.433
150004.000			54.334			-5.433
150104.000			54.334			-5.433
150204.000			54.333			-5.433
150305.000			54.333			-5.433
150404.000			54.331			-5.433
150504.000			54.331			-5.433
150605.000			54.330			-5.433
150704.000			54.330			-5.433
150804.000			54.329			-5.433
150904.000			54.327			-5.433
151004.000			54.327			-5.433
151104.000			54.327			-5.433
151205.000			54.326			-5.433
151304.000			54.325			-5.433
151404.000			54.324			-5.432
151505.000			54.324			-5.432
151603.000			54.323			-5.432
151704.000			54.322			-5.432
151805.000			54.322			-5.432
151904.000			54.321			-5.432
152005.000			54.320			-5.432
152104.000			54.319			-5.432
152204.000			54.319			-5.432
152305.000			54.318			-5.432
152404.000			54.317			-5.432
152503.000			54.317			-5.432
152605.000			54.317			-5.432
152704.000			54.317			-5.432
152804.000			54.315			-5.432
152905.000			54.314			-5.431
153004.000			54.313			-5.431
153104.000			54.313			-5.431
153205.000			54.312			-5.431
153304.000			54.312			-5.431
153403.000			54.311			-5.431
153505.000			54.311			-5.431
153604.000			54.308			-5.431
153704.000			54.307			-5.431
153805.000			54.307			-5.431
153904.000			54.307			-5.431
154004.000			54.306			-5.431
154104.000			54.306			-5.431
154204.000			54.304			-5.430
154303.000			54.305			-5.430
154405.000			54.303			-5.430
154504.000			54.304			-5.430
154604.000			54.302			-5.430
154705.000			54.300			-5.430
154804.000			54.300			-5.430
154904.000			54.300			-5.430
155003.000			54.299			-5.430
155104.000			54.298			-5.430
155204.000			54.297			-5.430
155304.000			54.296			-5.430
155404.000			54.296			-5.430
155505.000			54.296			-5.430
155604.000			54.296			-5.430
155704.000			54.295			-5.430
155805.000			54.294			-5.429
155903.000			54.293			-5.429
156004.000			54.292			-5.429
156104.000			54.291			-5.429
156204.000			54.291			-5.429
156304.000			54.290			-5.429
156405.000			54.290			-5.429
156504.000			54.290			-5.429
156604.000			54.288			-5.429
156705.000			54.287			-5.429
156803.000			54.287			-5.429
156904.000			54.286			-5.429
157004.000			54.285			-5.429
157104.000			54.284			-5.428
157204.000			54.283			-5.428
157305.000			54.283			-5.428
157404.000			54.282			-5.428
157504.000			54.282			-5.428
157605.000			54.281			-5.428
157703.000			54.281			-5.428
157804.000			54.281			-5.428
157904.000			54.279			-5.428
158004.000			54.279			-5.428
158104.000			54.278			-5.428
158204.000			54.278			-5.428
158304.000			54.276			-5.428
158405.000			54.276			-5.428
158504.000			54.276			-5.428
158604.000			54.274			-5.427
158705.000			54.273			-5.427
158803.000			54.273			-5.427
158904.000			54.272			-5.427
159005.000			54.270			-5.427
159104.000			54.269			-5.427
159204.000			54.269			-5.427
159305.000			54.269			-5.427
159404.000			54.269			-5.427
159504.000			54.269			-5.427
159605.000			54.268			-5.427
159703.000			54.267			-5.427
159804.000			54.267			-5.427
159905.000			54.267			-5.427
160004.000			54.266			-5.427
160104.000			54.264			-5.426
160205.000			54.263			-5.426
160304.000			54.262			-5.426
160404.000			54.262			-5.426
160505.000			54.262			-5.426
160603.000			54.261			-5.426
160704.000			54.260			-5.426
160805.000			54.259			-5.426
160904.000			54.259			-5.426
161004.000			54.258			-5.426
161105.000			54.258			-5.426
161204.000			54.256			-5.426
161303.000			54.256			-5.426
161405.000			54.255			-5.426
161503.000			54.255			-5.426
161605.000			54.254			-5.425
161704.000			54.254			-5.425
161804.000			54.252			-5.425
161905.000			54.252			-5.425
162004.000			54.251			-5.425
162104.000			54.250			-5.425
162204.000			54.249			-5.425
162304.000			54.249			-5.425
162403.000			54.250			-5.425
162505.000			54.250			-5.425
162604.000			54.248			-5.425
162704.000			54.248			-5.425
162805.000			54.248			-5.425
162904.000			54.247			-5.425
163004.000			54.244			-5.424
163104.000			54.244			-5.424
163204.000			54.244			-5.424
163303.000			54.243			-5.424
163405.000			54.242			-5.424
163504.000			54.243			-5.424
163604.000			54.241			-5.424
163705.000			54.241			-5.424
163804.000			54.240			-5.424
163904.000			54.239			-5.424
164004.000			54.239			-5.424
164104.000			54.238			-5.424
164203.000			54.237			-5.424
164305.000			54.237			-5.424
164404.000			54.236			-5.424
164504.000			54.234			-5.423
164605.000			54.234			-5.423
164704.000			54.233			-5.423
164805.000			54.233			-5.423
164903.000			54.232			-5.423
165004.000			54.231			-5.423
165105.000			54.231			-5.423
165204.000			54.230			-5.423
165304.000			54.230			-5.423
165405.000			54.229			-5.423
165504.000			54.228			-5.423
165604.000			54.229			-5.423
165705.000			54.228			-5.423
165803.000			54.228			-5.423
165904.000			54.227			-5.423
166005.000			54.225			-5.423
166104.000			54.224			-5.422
166204.000			54.224			-5.422
166305.000			54.223			-5.422
166404.000			54.223			-5.422
166504.000			54.223			-5.422
166605.000			54.222			-5.422
166703.000			54.219			-5.422
166804.000			54.219			-5.422
166905.000			54.220			-5.422
167004.000			54.219			-5.422
167104.000			54.218			-5.422
167205.000			54.217			-5.422
167304.000			54.217			-5.422
167404.000			54.217			-5.422
167505.000			54.215			-5.422
167603.000			54.215			-5.421
167704.000			54.214			-5.421
167805.000			54.214			-5.421
167904.000			54.214			-5.421
168005.000			54.212			-5.421
168104.000			54.211			-5.421
168204.000			54.210			-5.421
168305.000			54.210			-5.421
168404.000			54.210			-5.421
168503.000			54.209			-5.421
168605.000			54.209			-5.421
168704.000			54.208			-5.421
168804.000			54.207			-5.421
168905.000			54.206			-5.421
169004.000			54.205			-5.421
169104.000			54.205			-5.420
169205.000			54.205			-5.420
169304.000			54.204			-5.420
169403.000			54.205			-5.420
169505.000			54.203			-5.420
169604.000			54.203			-5.420
169704.000			54.203			-5.420
169805.000			54.202			-5.420
169904.000			54.200			-5.420
170004.000			54.199			-5.420
170105.000			54.199			-5.420
170204.000			54.198			-5.420
170303.000			54.198			-5.420
170405.000			54.197			-5.420
170504.000			54.196			-5.420
170604.000			54.196			-5.420
170705.000			54.196			-5.420
170804.000			54.195			-5.420
170904.000			54.194			-5.419
171004.000			54.193			-5.419
171104.000			54.191			-5.419
171204.000			54.192			-5.419
171304.000			54.191			-5.419
171404.000			54.191			-5.419
171505.000			54.190			-5.419
171604.000			54.190			-5.419
171704.000			54.189			-5.419
171805.000			54.187			-5.419
171904.000			54.187			-5.419
172004.000			54.187			-5.419
172104.000			54.186			-5.419
172204.000			54.186			-5.419
172304.000			54.185			-5.418
172405.000			54.185			-5.419
172504.000			54.184			-5.418
172604.000			54.184			-5.418
172705.000			54.183			-5.418
172804.000			54.182			-5.418
172904.000			54.182			-5.418
173004.000			54.180			-5.418
173104.000			54.180			-5.418
173204.000			54.179			-5.418
173305.000			54.178			-5.418
173404.000			54.177			-5.418
173504.000			54.177			-5.418
173605.000			54.176			-5.418
173704.000			54.175			-5.418
173804.000			54.174			-5.417
173904.000			54.173			-5.417
174004.000			54.172			-5.417
174104.000			54.172			-5.417
174204.000			54.173			-5.417
174304.000			54.173			-5.417
174405.000			54.171			-5.417
174504.000			54.172			-5.417
174604.000			54.171			-5.417
174705.000			54.171			-5.417
174803.000			54.169			-5.417
174904.000			54.169			-5.417
175004.000			54.167			-5.417
175104.000			54.167			-5.417
175204.000			54.167			-5.417
175305.000			54.166			-5.417
175404.000			54.166			-5.417
175504.000			54.166			-5.417
175605.000			54.165			-5.416
175703.000			54.164			-5.416
175804.000			54.164			-5.416
175904.000			54.163			-5.416
176004.000			54.162			-5.416
176104.000			54.161			-5.416
176205.000			54.160			-5.416
176304.000			54.160			-5.416
176404.000			54.160			-5.416
176505.000			54.159			-5.416
176603.000			54.159			-5.416
176704.000			54.158			-5.416
176804.000			54.157			-5.416
176904.000			54.156			-5.416
177004.000			54.155			-5.416
177105.000			54.156			-5.416
177204.000			54.155			-5.416
177304.000			54.154			-5.415
177405.000			54.154			-5.415
177503.000			54.153			-5.415
177605.000			54.153			-5.415
177703.000			54.152			-5.415
177804.000			54.152			-5.415
177905.000			54.151			-5.415
178004.000			54.150			-5.415
178104.000			54.148			-5.415
178205.000			54.148			-5.415
178304.000			54.148			-5.415
178403.000			54.147			-5.415
178505.000			54.147			-5.415
178603.000			54.147			-5.415
178704.000			54.146			-5.415
178805.000			54.145			-5.415
178904.000			54.144			-5.414
179004.000			54.143			-5.414
179105.000			54.143			-5.414
179204.000			54.142			-5.414
179304.000			54.142			-5.414
179405.000			54.141			-5.414
179503.000			54.142			-5.414
179604.000			54.140			-5.414
179705.000			54.138			-5.414
179804.000			54.139			-5.414
179904.000			54.138			-5.414
180005.000			54.137			-5.414
180104.000			54.137			-5.414
180204.000			54.136			-5.414
180305.000			54.136			-5.414
180403.000			54.135			-5.414
180504.000			54.135			-5.414
180605.000			54.134			-5.413
180704.000			54.133			-5.413
180805.000			54.133			-5.413
180904.000			54.132			-5.413
181004.000			54.132			-5.413
181105.000			54.131			-5.413
181204.000			54.131			-5.413
181303.000			54.129			-5.413
181405.000			54.129			-5.413
181504.000			54.129			-5.413
181604.000			54.127			-5.413
181705.000			54.127			-5.413
181804.000			54.127			-5.413
181904.000			54.127			-5.413
182004.000			54.125			-5.412
182104.000			54.124			-5.412
182203.000			54.123			-5.412
182305.000			54.123			-5.412
182404.000			54.123			-5.412
182504.000			54.123			-5.412
182605.000			54.122			-5.412
182704.000			54.122			-5.412
182804.000			54.122			-5.412
182904.000			54.121			-5.412
183004.000			54.121			-5.412
183104.000			54.120			-5.412
183205.000			54.119			-5.412
183304.000			54.118			-5.412
183404.000			54.117			-5.412
183505.000			54.116			-5.412
183604.000			54.116			-5.412
183704.000			54.117			-5.412
183803.000			54.116			-5.412
183904.000			54.114			-5.411
184005.000			54.113			-5.411
184104.000			54.113			-5.411
184204.000			54.112			-5.411
184305.000			54.112			-5.411
184404.000			54.111			-5.411
184504.000			54.111			-5.411
184605.000			54.111			-5.411
184703.000			54.110			-5.411
184804.000			54.109			-5.411
184905.000			54.108			-5.411
185004.000			54.106			-5.411
185104.000			54.106			-5.411
185205.000			54.106			-5.411
185304.000			54.105			-5.411
185403.000			54.105			-5.411
185505.000			54.105			-5.410
185603.000			54.104			-5.410
185704.000			54.103			-5.410
185805.000			54.102			-5.410
185904.000			54.103			-5.410
186004.000			54.103			-5.410
186105.000			54.102			-5.410
186204.000			54.100			-5.410
186303.000			54.100			-5.410
186405.000			54.100			-5.410
186503.000			54.100			-5.410
186604.000			54.099			-5.410
186705.000			54.098			-5.410
186804.000			54.098			-5.410
186904.000			54.097			-5.410
187004.000			54.096			-5.410
187104.000			54.096			-5.410
187204.000			54.095			-5.410
187304.000			54.095			-5.409
187403.000			54.094			-5.409
187505.000			54.094			-5.409
187604.000			54.093			-5.409
187704.000			54.093			-5.409
187805.000			54.091			-5.409
187904.000			54.091			-5.409
188004.000			54.090			-5.409
188104.000			54.090			-5.409
188204.000			54.090			-5.409
188303.000			54.089			-5.409
188405.000			54.089			-5.409
188504.000			54.087			-5.409
188604.000			54.086			-5.409
188705.000			54.086			-5.409
188804.000			54.086			-5.409
188904.000			54.085			-5.408
189005.000			54.084			-5.408
189104.000			54.084			-5.408
189203.000			54.082			-5.408
189305.000			54.082			-5.408
189404.000			54.082			-5.408
189504.000			54.082			-5.408
189605.000			54.081			-5.408
189704.000			54.080			-5.408
189804.000			54.080			-5.408
189905.000			54.080			-5.408
190004.000			54.078			-5.408
190103.000			54.078			-5.408
190205.000			54.077			-5.408
190303.000			54.079			-5.408
190405.000			54.078			-5.408
190504.000			54.077			-5.408
190604.000			54.076			-5.408
190705.000			54.074			-5.407
190804.000			54.075			-5.407
190904.000			54.074			-5.407
191004.000			54.073			-5.407
191104.000			54.072			-5.407
191203.000			54.072			-5.407
191305.000			54.072			-5.407
191404.000			54.070			-5.407
191504.000			54.070			-5.407
191605.000			54.070			-5.407
191704.000			54.069			-5.407
191804.000			54.069			-5.407
191904.000			54.069			-5.407
192004.000			54.068			-5.407
192103.000			54.067			-5.407
192205.000			54.064			-5.406
192304.000			54.065			-5.407
192404.000			54.065			-5.407
192505.000			54.065			-5.406
192604.000			54.064			-5.406
192704.000			54.064			-5.406
192804.000			54.064			-5.406
192904.000			54.063			-5.406
193003.000			54.062			-5.406
193105.000			54.061			-5.406
193204.000			54.061			-5.406
193304.000			54.060			-5.406
193405.000			54.060			-5.406
193504.000			54.060			-5.406
193605.000			54.058			-5.406
193703.000			54.059			-5.406
193804.000			54.058			-5.406
193904.000			54.056			-5.406
194004.000			54.057			-5.406
194104.000			54.057			-5.406
194205.000			54.055			-5.406
194304.000			54.054			-5.405
194404.000			54.054			-5.405
194505.000			54.053			-5.405
194603.000			54.052			-5.405
194704.000			54.052			-5.405
194804.000			54.052			-5.405
194904.000			54.051			-5.405
195004.000			54.052			-5.405
195105.000			54.050			-5.405
195204.000			54.050			-5.405
195304.000			54.048			-5.405
195405.000			54.047			-5.405
195503.000			54.047			-5.405
195604.000			54.047			-5.405
195704.000			54.046			-5.405
195804.000			54.046			-5.405
195904.000			54.045			-5.405
196005.000			54.045			-5.405
196104.000			54.045			-5.404
196204.000			54.044			-5.404
196305.000			54.044			-5.404
196403.000			54.043			-5.404
196504.000			54.042			-5.404
196603.000			54.042			-5.404
196704.000			54.041			-5.404
196805.000			54.041			-5.404
196904.000			54.041			-5.404
197004.000			54.040			-5.404
197105.000			54.039			-5.404
197204.000			54.040			-5.404
197303.000			54.038			-5.404
197405.000			54.037			-5.404
197503.000			54.037			-5.404
197604.000			54.037			-5.404
197705.000			54.035			-5.404
197804.000			54.035			-5.404
197904.000			54.035			-5.404
198005.000			54.033			-5.403
198104.000			54.032			-5.403
198203.000			54.032			-5.403
198305.000			54.032			-5.403
198403.000			54.032			-5.403
198504.000			54.031			-5.403
198605.000			54.031			-5.403
198704.000			54.030			-5.403
198804.000			54.030			-5.403
198905.000			54.029			-5.403
199004.000			54.028			-5.403
199104.000			54.027			-5.403
199205.000			54.026			-5.403
199303.000			54.026			-5.403
199404.000			54.027			-5.403
199505.000			54.025			-5.403
199604.000			54.025			-5.402
199704.000			54.025			-5.403
199804.000			54.025			-5.402
199904.000			54.023			-5.402
200005.000			54.023			-5.402
200104.000			54.023			-5.402
200203.000			54.022			-5.402
200305.000			54.021			-5.402
200404.000			54.022			-5.402
200504.000			54.021			-5.402
200605.000			54.020			-5.402
200704.000			54.020			-5.402
200804.000			54.020			-5.402
200904.000			54.018			-5.402
201004.000			54.017			-5.402
201104.000			54.016			-5.402
201205.000			54.016			-5.402
201304.000			54.016			-5.402
201404.000			54.015			-5.402
201505.000			54.015			-5.401
201604.000			54.015			-5.402
201704.000			54.014			-5.401
201804.000			54.013			-5.401
201904.000			54.013			-5.401
202004.000			54.012			-5.401
202105.000			54.010			-5.401
202204.000			54.011			-5.401
202304.000			54.011			-5.401
202405.000			54.009			-5.401
202503.000			54.009			-5.401
202604.000			54.008			-5.401
202705.000			54.009			-5.401
202804.000			54.008			-5.401
202904.000			54.007			-5.401
203004.000			54.005			-5.401
203104.000			54.004			-5.400
203204.000			54.005			-5.400
203304.000			54.005			-5.400
203403.000			54.003			-5.400
203505.000			54.003			-5.400
203604.000			54.004			-5.400
203704.000			54.003			-5.400
203805.000			54.001			-5.400
203904.000			54.001			-5.400
204004.000			54.002			-5.400
204104.000			54.001			-5.400
204204.000			54.000			-5.400
204304.000			53.999			-5.400
204405.000			53.998			-5.400
204504.000			53.999			-5.400
204604.000			53.997			-5.400
204705.000			53.997			-5.400
204804.000			53.997			-5.400
204904.000			53.997			-5.400
205004.000			53.997			-5.400
205104.000			53.996			-5.400
205203.000			53.996			-5.400
205305.000			53.994			-5.399
205404.000			53.992			-5.399
205504.000			53.993			-5.399
205605.000			53.993			-5.399
205704.000			53.993			-5.399
205804.000			53.992			-5.399
205904.000			53.992			-5.399
206004.000			53.990			-5.399
206103.000			53.990			-5.399
206205.000			53.989			-5.399
206304.000			53.990			-5.399
206405.000			53.989			-5.399
206504.000			53.988			-5.399
206604.000			53.988			-5.399
206705.000			53.987			-5.399
206804.000			53.987			-5.399
206904.000			53.986			-5.399
207004.000			53.985			-5.399
207104.000			53.984			-5.398
207204.000			53.985			-5.398
207305.000			53.984			-5.398
207404.000			53.983			-5.398
207504.000			53.983			-5.398
207605.000			53.983			-5.398
207704.000			53.982			-5.398
207804.000			53.982			-5.398
207904.000			53.982			-5.398
208004.000			53.981			-5.398
208104.000			53.980			-5.398
208205.000			53.979			-5.398
208304.000			53.978			-5.398
208404.000			53.979			-5.398
208505.000			53.978			-5.398
208604.000			53.976			-5.398
208704.000			53.976			-5.398
208804.000			53.977			-5.398
208904.000			53.974			-5.397
209003.000			53.975			-5.397
209105.000			53.975			-5.398
209204.000			53.975			-5.397
209304.000			53.974			-5.397
209405.000			53.973			-5.397
209504.000			53.972			-5.397
209605.000			53.972			-5.397
209704.000			53.972			-5.397
209804.000			53.972			-5.397
209904.000			53.970			-5.397
210004.000			53.970			-5.397
210104.000			53.971			-5.397
210205.000			53.969			-5.397
210304.000			53.968			-5.397
210404.000			53.968			-5.397
210505.000			53.967			-5.397
210604.000			53.966			-5.397
210704.000			53.965			-5.397
210804.000			53.965			-5.396
210904.000			53.965			-5.396
211004.000			53.965			-5.397
211105.000			53.965			-5.397
211204.000			53.963			-5.396
211304.000			53.962			-5.396
211405.000			53.962			-5.396
211504.000			53.962			-5.396
211604.000			53.961			-5.396
211704.000			53.959			-5.396
211804.000			53.960			-5.396
211904.000			53.960			-5.396
212005.000			53.960			-5.396
212104.000			53.959			-5.396
212204.000			53.958			-5.396
212305.000			53.958			-5.396
212404.000			53.957			-5.396
212504.000			53.956			-5.396
212603.000			53.955			-5.396
212704.000			53.955			-5.396
212805.000			53.954			-5.395
212904.000			53.954			-5.395
213004.000			53.954			-5.395
213105.000			53.954			-5.395
213204.000			53.953			-5.395
213304.000			53.951			-5.395
213405.000			53.952			-5.395
213503.000			53.951			-5.395
213604.000			53.951			-5.395
213705.000			53.952			-5.395
213804.000			53.950			-5.395
213904.000			53.950			-5.395
214005.000			53.948			-5.395
214104.000			53.949			-5.395
214204.000			53.949			-5.395
214305.000			53.949			-5.395
214403.000			53.948			-5.395
214504.000			53.948			-5.395
214605.000			53.947			-5.395
214704.000			53.946			-5.395
214804.000			53.945			-5.394
214905.000			53.944			-5.394
215004.000			53.944			-5.394
215104.000			53.944			-5.394
215205.000			53.944			-5.394
215303.000			53.943			-5.394
215404.000			53.942			-5.394
215505.000			53.942			-5.394
215604.000			53.941			-5.394
215704.000			53.939			-5.394
215804.000			53.939			-5.394
215904.000			53.939			-5.394
216005.000			53.939			-5.394
216104.000			53.938			-5.394
216203.000			53.938			-5.394
216305.000			53.936			-5.394
216404.000			53.936			-5.394
216504.000			53.937			-5.394
216605.000			53.936			-5.394
216704.000			53.936			-5.394
216804.000			53.936			-5.394
216905.000			53.935			-5.393
217004.000			53.935			-5.393
217103.000			53.934			-5.393
217205.000			53.934			-5.393
217303.000			53.932			-5.393
217404.000			53.931			-5.393
217505.000			53.931			-5.393
217604.000			53.931			-5.393
217704.000			53.931			-5.393
217805.000			53.931			-5.393
217904.000			53.930			-5.393
218004.000			53.929			-5.393
218105.000			53.928			-5.393
218203.000			53.928			-5.393
218304.000			53.928			-5.393
218405.000			53.927			-5.393
218504.000			53.926			-5.393
218604.000			53.925			-5.393
218705.000			53.926			-5.393
218804.000			53.925			-5.392
218904.000			53.925			-5.392
219005.000			53.925			-5.392
219103.000			53.924			-5.392
219205.000			53.923			-5.392
219304.000			53.923			-5.392
219404.000			53.923			-5.392
219505.000			53.921			-5.392
219604.000			53.921			-5.392
219704.000			53.920			-5.392
219805.000			53.921			-5.392
219904.000			53.920			-5.392
220003.000			53.919			-5.392
220105.000			53.918			-5.392
220204.000			53.918			-5.392
220304.000			53.918			-5.392
220405.000			53.917			-5.392
220504.000			53.916			-5.392
220604.000			53.916			-5.392
220705.000			53.915			-5.392
220804.000			53.914			-5.391
220903.000			53.915			-5.391
221005.000			53.915			-5.391
221104.000			53.913			-5.391
221204.000			53.913			-5.391
221305.000			53.911			-5.391
221404.000			53.911			-5.391
221504.000			53.911			-5.391
221604.000			53.911			-5.391
221704.000			53.911			-5.391
221803.000			53.910			-5.391
221905.000			53.910			-5.391
222004.000			53.910			-5.391
222104.000			53.908			-5.391
222205.000			53.908			-5.391
222304.000			53.907			-5.391
222405.000			53.907			-5.391
222503.000			53.908			-5.391
222604.000			53.907			-5.391
222704.000			53.906			-5.391
222804.000			53.904			-5.390
222904.000			53.905			-5.390
223005.000			53.904			-5.390
223104.000			53.904			-5.390
223204.000			53.903			-5.390
223305.000			53.901			-5.390
223403.000			53.902			-5.390
223504.000			53.901			-5.390
223605.000			53.901			-5.390
223704.000			53.900			-5.390
223804.000			53.900			-5.390
223905.000			53.900			-5.390
224004.000			53.898			-5.390
224104.000			53.899			-5.390
224205.000			53.897			-5.390
224303.000			53.898			-5.390
224404.000			53.898			-5.390
224504.000			53.898			-5.390
224604.000			53.897			-5.390
224704.000			53.896			-5.390
224805.000			53.895			-5.390
224904.000			53.894			-5.389
225004.000			53.893			-5.389
225105.000			53.894			-5.389
225204.000			53.894			-5.389
225304.000			53.893			-5.389
225403.000			53.892			-5.389
225504.000			53.892			-5.389
225605.000			53.892			-5.389
225704.000			53.891			-5.389
225804.000			53.890			-5.389
225905.000			53.890			-5.389
226004.000			53.890			-5.389
226104.000			53.890			-5.389
226205.000			53.889			-5.389
226303.000			53.889			-5.389
226404.000			53.888			-5.389
226505.000			53.887			-5.389
226604.000			53.886			-5.389
226704.000			53.886			-5.389
226805.000			53.885			-5.388
226904.000			53.885			-5.389
227004.000			53.884			-5.388
227105.000			53.884			-5.388
227203.000			53.884			-5.388
227304.000			53.883			-5.388
227404.000			53.882			-5.388
227504.000			53.883			-5.388
227604.000			53.882			-5.388
227705.000			53.882			-5.388
227804.000			53.881			-5.388
227904.000			53.881			-5.388
228005.000			53.880			-5.388
228103.000			53.880			-5.388
228204.000			53.878			-5.388
228304.000			53.877			-5.388
228404.000			53.876			-5.388
228504.000			53.877			-5.388
228604.000			53.877			-5.388
228704.000			53.876			-5.388
228805.000			53.875			-5.388
228904.000			53.875			-5.387
229004.000			53.875			-5.388
229105.000			53.874			-5.387
229203.000			53.874			-5.387
229304.000			53.873			-5.387
229405.000			53.872			-5.387
229504.000			53.871			-5.387
229604.000			53.872			-5.387
229705.000			53.872			-5.387
229804.000			53.871			-5.387
229904.000			53.871			-5.387
230005.000			53.869			-5.387
230103.000			53.869			-5.387
230204.000			53.868			-5.387
230305.000			53.868			-5.387
230404.000			53.868			-5.387
230504.000			53.868			-5.387
230605.000			53.867			-5.387
230704.000			53.867			-5.387
230804.000			53.866			-5.387
230905.000			53.867			-5.387
231003.000			53.866			-5.387
231104.000			53.865			-5.387
231205.000			53.865			-5.386
231304.000			53.864			-5.386
231404.000			53.863			-5.386
231505.000			53.863			-5.386
231604.000			53.863			-5.386
231704.000			53.861			-5.386
231805.000			53.860			-5.386
231903.000			53.861			-5.386
232005.000			53.861			-5.386
232104.000			53.860			-5.386
232204.000			53.859			-5.386
232305.000			53.860			-5.386
232404.000			53.860			-5.386
232504.000			53.858			-5.386
232605.000			53.857			-5.386
232704.000			53.857			-5.386
232803.000			53.857			-5.386
232905.000			53.856			-5.386
233004.000			53.856			-5.386
233104.000			53.856			-5.386
233205.000			53.856			-5.386
233304.000			53.855			-5.385
233404.000			53.854			-5.385
233505.000			53.854			-5.385
233604.000			53.853			-5.385
233703.000			53.851			-5.385
233805.000			53.851			-5.385
233903.000			53.850			-5.385
234004.000			53.850			-5.385
234105.000			53.850			-5.385
234204.000			53.849			-5.385
234304.000			53.848			-5.385
234405.000			53.849			-5.385
234504.000			53.849			-5.385
234604.000			53.848			-5.385
234705.000			53.847			-5.385
234803.000			53.847			-5.385
234904.000			53.847			-5.385
235005.000			53.846			-5.385
235104.000			53.846			-5.385
235205.000			53.846			-5.385
235304.000			53.845			-5.385
235404.000			53.844			-5.384
235505.000			53.843			-5.384
235604.000			53.843			-5.384
235703.000			53.843			-5.384
235805.000			53.843			-5.384
235904.000			53.841			-5.384
236004.000			53.841			-5.384
236105.000			53.841			-5.384
236204.000			53.839			-5.384
236304.000			53.839			-5.384
236405.000			53.839			-5.384
236504.000			53.838			-5.384
236603.000			53.839			-5.384
236705.000			53.838			-5.384
236804.000			53.838			-5.384
236904.000			53.837			-5.384
237005.000			53.837			-5.384
237104.000			53.837			-5.384
237204.000			53.836			-5.384
237305.000			53.835			-5.384
237404.000			53.835			-5.383
237503.000			53.834			-5.383
237605.000			53.834			-5.383
237704.000			53.833			-5.383
237804.000			53.833			-5.383
237905.000			53.833			-5.383
238004.000			53.832			-5.383
238104.000			53.832			-5.383
238204.000			53.831			-5.383
238304.000			53.831			-5.383
238404.000			53.829			-5.383
238504.000			53.829			-5.383
238603.000			53.829			-5.383
238705.000			53.829			-5.383
238804.000			53.827			-5.383
238904.000			53.827			-5.383
239005.000			53.827			-5.383
239104.000			53.827			-5.383
239204.000			53.827			-5.383
239304.000			53.825			-5.383
239404.000			53.825			-5.382
239503.000			53.824			-5.382
239605.000			53.824			-5.382
239704.000			53.824			-5.382
239804.000			53.825			-5.382
239905.000			53.825			-5.382
240004.000			53.824			-5.382
240104.000			53.822			-5.382
240204.000			53.822			-5.382
240304.000			53.821			-5.382
240403.000			53.821			-5.382
240505.000			53.821			-5.382
240604.000			53.819			-5.382
240704.000			53.820			-5.382
240805.000			53.819			-5.382
240904.000			53.819			-5.382
241004.000			53.819			-5.382
241104.000			53.818			-5.382
241204.000			53.816			-5.382
241303.000			53.816			-5.382
241405.000			53.815			-5.382
241504.000			53.816			-5.382
241605.000			53.816			-5.382
241704.000			53.815			-5.381
241804.000			53.814			-5.381
241905.000			53.814			-5.381
242004.000			53.813			-5.381
242104.000			53.813			-5.381
242204.000			53.813			-5.381
242304.000			53.812			-5.381
242404.000			53.812			-5.381
242505.000			53.813			-5.381
242604.000			53.812			-5.381
242704.000			53.811			-5.381
242805.000			53.810			-5.381
242903.000			53.809			-5.381
243004.000			53.809			-5.381
243104.000			53.808			-5.381
243204.000			53.808			-5.381
243304.000			53.808			-5.381
243405.000			53.807			-5.381
243504.000			53.806			-5.381
243604.000			53.806			-5.381
243705.000			53.805			-5.381
243803.000			53.804			-5.380
243904.000			53.806			-5.381
244004.000			53.804			-5.380
244104.000			53.803			-5.380
244204.000			53.803			-5.380
244305.000			53.802			-5.380
244404.000			53.803			-5.380
244504.000			53.803			-5.380
244605.000			53.803			-5.380
244703.000			53.802			-5.380
244805.000			53.800			-5.380
244904.000			53.800			-5.380
245004.000			53.800			-5.380
245105.000			53.800			-5.380
245204.000			53.798			-5.380
245304.000			53.797			-5.380
245405.000			53.797			-5.380
245504.000			53.798			-5.380
245603.000			53.797			-5.380
245705.000			53.796			-5.380
245804.000			53.796			-5.380
245904.000			53.796			-5.380
246005.000			53.795			-5.380
246104.000			53.795			-5.379
246204.000			53.795			-5.380
246305.000			53.795			-5.380
246404.000			53.794			-5.379
246503.000			53.793			-5.379
246605.000			53.792			-5.379
246703.000			53.792			-5.379
246804.000			53.792			-5.379
246905.000			53.791			-5.379
247004.000			53.791			-5.379
247104.000			53.792			-5.379
247205.000			53.791			-5.379
247304.000			53.790			-5.379
247404.000			53.789			-5.379
247505.000			53.789			-5.379
247603.000			53.789			-5.379
247704.000			53.788			-5.379
247805.000			53.787			-5.379
247904.000			53.786			-5.379
248005.000			53.785			-5.379
248104.000			53.786			-5.379
248204.000			53.786			-5.379
248305.000			53.785			-5.378
248404.000			53.784			-5.378
248503.000			53.784			-5.378
248605.000			53.783			-5.378
248703.000			53.783			-5.378
248804.000			53.783			-5.378
248905.000			53.783			-5.378
249004.000			53.783			-5.378
249104.000			53.782			-5.378
249205.000			53.782			-5.378
249304.000			53.780			-5.378
249404.000			53.780			-5.378
249505.000			53.779			-5.378
249603.000			53.779			-5.378
249704.000			53.777			-5.378
249804.000			53.777			-5.378
249904.000			53.777			-5.378
250004.000			53.778			-5.378
250105.000			53.778			-5.378
250204.000			53.776			-5.378
250304.000			53.776			-5.378
250405.000			53.775			-5.377
250503.000			53.775			-5.377
250604.000			53.774			-5.377
250704.000			53.774			-5.377
250804.000			53.775			-5.377
250904.000			53.774			-5.377
251004.000			53.773			-5.377
251104.000			53.772			-5.377
251205.000			53.772			-5.377
251304.000			53.772			-5.377
251404.000			53.771			-5.377
251505.000			53.772			-5.377
251603.000			53.770			-5.377
251704.000			53.769			-5.377
251805.000			53.770			-5.377
251904.000			53.768			-5.377
252004.000			53.769			-5.377
252105.000			53.768			-5.377
252204.000			53.767			-5.377
252304.000			53.767			-5.377
252405.000			53.767			-5.377
252503.000			53.766			-5.377
252604.000			53.765			-5.377
252705.000			53.765			-5.377
252804.000			53.763			-5.376
252904.000			53.763			-5.376
253005.000			53.764			-5.376
253104.000			53.764			-5.376
253204.000			53.763			-5.376
253305.000			53.762			-5.376
253403.000			53.762			-5.376
253504.000			53.762			-5.376
253605.000			53.761			-5.376
253704.000			53.761			-5.376
253804.000			53.760			-5.376
253905.000			53.760			-5.376
254004.000			53.760			-5.376
254104.000			53.759			-5.376
254205.000			53.760			-5.376
254303.000			53.759			-5.376
254405.000			53.758			-5.376
254503.000			53.757			-5.376
254604.000			53.756			-5.376
254705.000			53.756			-5.376
254804.000			53.754			-5.375
254904.000			53.754			-5.375
255005.000			53.755			-5.375
255104.000			53.754			-5.375
255203.000			53.754			-5.375
255305.000			53.754			-5.375
255403.000			53.753			-5.375
255504.000			53.752			-5.375
255605.000			53.752			-5.375
255704.000			53.753			-5.375
255804.000			53.752			-5.375
255905.000			53.752			-5.375
256004.000			53.750			-5.375
256104.000			53.750			-5.375
256205.000			53.750			-5.375
256303.000			53.750			-5.375
256404.000			53.749			-5.375
256505.000			53.749			-5.375
256604.000			53.748			-5.375
256704.000			53.748			-5.375
256805.000			53.747			-5.375
256904.000			53.749			-5.375
257004.000			53.746			-5.375
257105.000			53.745			-5.375
257203.000			53.745			-5.374
257304.000			53.745			-5.374
257405.000			53.744			-5.374
257504.000			53.743			-5.374
257605.000			53.744			-5.374
257704.000			53.745			-5.374
257804.000			53.743			-5.374
257905.000			53.743			-5.374
258004.000			53.743			-5.374
258103.000			53.742			-5.374
258205.000			53.741			-5.374
258303.000			53.741			-5.374
258404.000			53.740			-5.374
258505.000			53.739			-5.374
258604.000			53.739			-5.374
258704.000			53.738			-5.374
258805.000			53.739			-5.374
258904.000			53.739			-5.374
259004.000			53.738			-5.374
259105.000			53.736			-5.374
259203.000			53.736			-5.374
259304.000			53.736			-5.374
259405.000			53.735			-5.374
259504.000			53.736			-5.374
259604.000			53.735			-5.374
259705.000			53.734			-5.373
259804.000			53.734			-5.373
259904.000			53.734			-5.373
260005.000			53.734			-5.373
260103.000			53.733			-5.373
260204.000			53.733			-5.373
260305.000			53.733			-5.373
260404.000			53.732			-5.373
260504.000			53.732			-5.373
260604.000			53.731			-5.373
260704.000			53.731			-5.373
260805.000			53.730			-5.373
260904.000			53.729			-5.373
261003.000			53.729			-5.373
261105.000			53.729			-5.373
261204.000			53.729			-5.373
261304.000			53.728			-5.373
261405.000			53.728			-5.373
261504.000			53.728			-5.373
261604.000			53.727			-5.373
261705.000			53.727			-5.373
261804.000			53.726			-5.373
261903.000			53.726			-5.373
262005.000			53.725			-5.372
262104.000			53.725			-5.372
262204.000			53.724			-5.372
262305.000			53.723			-5.372
262404.000			53.724			-5.372
262504.000			53.723			-5.372
262605.000			53.722			-5.372
262704.000			53.722			-5.372
262803.000			53.721			-5.372
262905.000			53.721			-5.372
263004.000			53.721			-5.372
263104.000			53.721			-5.372
263205.000			53.720			-5.372
263304.000			53.719			-5.372
263404.000			53.719			-5.372
263505.000			53.718			-5.372
263604.000			53.719			-5.372
263703.000			53.718			-5.372
263805.000			53.718			-5.372
263904.000			53.718			-5.372
264005.000			53.717			-5.372
264104.000			53.716			-5.372
264204.000			53.716			-5.372
264305.000			53.715			-5.372
264404.000			53.715			-5.372
264504.000			53.715			-5.372
264604.000			53.715			-5.371
264704.000			53.714			-5.371
264803.000			53.713			-5.371
264905.000			53.713			-5.371
265004.000			53.713			-5.371
265104.000			53.712			-5.371
265205.000			53.711			-5.371
265304.000			53.711			-5.371
265404.000			53.710			-5.371
265504.000			53.710			-5.371
265604.000			53.710			-5.371
265704.000			53.708			-5.371
265805.000			53.708			-5.371
265904.000			53.708			-5.371
266004.000			53.709			-5.371
266105.000			53.709			-5.371
266204.000			53.708			-5.371
266304.000			53.707			-5.371
266404.000			53.707			-5.371
266504.000			53.706			-5.371
266604.000			53.705			-5.370
266705.000			53.705			-5.370
266804.000			53.705			-5.371
266904.000			53.705			-5.370
267005.000			53.704			-5.370
267104.000			53.703			-5.370
267205.000			53.703			-5.370
267303.000			53.702			-5.370
267404.000			53.702			-5.370
267505.000			53.701			-5.370
267604.000			53.701			-5.370
267704.000			53.702			-5.370
267805.000			53.702			-5.370
267904.000			53.700			-5.370
268004.000			53.700			-5.370
268105.000			53.701			-5.370
268203.000			53.699			-5.370
268304.000			53.698			-5.370
268404.000			53.698			-5.370
268504.000			53.697			-5.370
268604.000			53.697			-5.370
268705.000			53.697			-5.370
268804.000			53.697			-5.370
268904.000			53.696			-5.370
269005.000			53.695			-5.369
269104.000			53.696			-5.370
269204.000			53.696			-5.370
269304.000			53.695			-5.370
269404.000			53.694			-5.369
269504.000			53.695			-5.369
269605.000			53.694			-5.369
269704.000			53.693			-5.369
269804.000			53.692			-5.369
269905.000			53.692			-5.369
270004.000			53.691			-5.369
270104.000			53.691			-5.369
270203.000			53.690			-5.369
270304.000			53.689			-5.369
270404.000			53.689			-5.369
270504.000			53.689			-5.369
270604.000			53.689			-5.369
270705.000			53.688			-5.369
270804.000			53.689			-5.369
270904.000			53.688			-5.369
271005.000			53.687			-5.369
271103.000			53.687			-5.369
271204.000			53.687			-5.369
271304.000			53.686			-5.369
271404.000			53.686			-5.369
271504.000			53.686			-5.369
271605.000			53.686			-5.369
271704.000			53.685			-5.368
271804.000			53.684			-5.368
271905.000			53.684			-5.368
272004.000			53.684			-5.368
272104.000			53.683			-5.368
272204.000			53.683			-5.368
272304.000			53.682			-5.368
272404.000			53.682			-5.368
272505.000			53.682			-5.368
272604.000			53.682			-5.368
272704.000			53.681			-5.368
272805.000			53.680			-5.368
272904.000			53.680			-5.368
273004.000			53.678			-5.368
273104.000			53.677			-5.368
273204.000			53.678			-5.368
273304.000			53.678			-5.368
273404.000			53.678			-5.368
273504.000			53.677			-5.368
273605.000			53.677			-5.368
273704.000			53.675			-5.367
273804.000			53.675			-5.367
273905.000			53.675			-5.367
274003.000			53.675			-5.368
274104.000			53.675			-5.367
274204.000			53.675			-5.368
274304.000			53.675			-5.367
274404.000			53.672			-5.367
274505.000			53.672			-5.367
274604.000			53.673			-5.367
274704.000			53.672			-5.367
274805.000			53.672			-5.367
274903.000			53.672			-5.367
275004.000			53.670			-5.367
275104.000			53.670			-5.367
275204.000			53.669			-5.367
275304.000			53.670			-5.367
275405.000			53.670			-5.367
275504.000			53.670			-5.367
275604.000			53.668			-5.367
275705.000			53.667			-5.367
275803.000			53.668			-5.367
275904.000			53.667			-5.367
276004.000			53.667			-5.367
276104.000			53.667			-5.367
276204.000			53.666			-5.367
276305.000			53.665			-5.367
276404.000			53.664			-5.366
276504.000			53.664			-5.366
276605.000			53.664			-5.366
276704.000			53.663			-5.366
276805.000			53.663			-5.366
276903.000			53.663			-5.366
277004.000			53.663			-5.366
277105.000			53.662			-5.366
277204.000			53.662			-5.366
277304.000			53.662			-5.366
277405.000			53.662			-5.366
277504.000			53.661			-5.366
277604.000			53.661			-5.366
277705.000			53.660			-5.366
277803.000			53.660			-5.366
277904.000			53.660			-5.366
278005.000			53.659			-5.366
278104.000			53.658			-5.366
278204.000			53.658			-5.366
278305.000			53.657			-5.366
278404.000			53.657			-5.366
278504.000			53.656			-5.366
278605.000			53.656			-5.366
278703.000			53.656			-5.366
278804.000			53.655			-5.366
278904.000			53.655			-5.365
279004.000			53.655			-5.365
279104.000			53.654			-5.365
279205.000			53.653			-5.365
279304.000			53.654			-5.365
279404.000			53.654			-5.365
279505.000			53.652			-5.365
279604.000			53.652			-5.365
279704.000			53.651			-5.365
279803.000			53.651			-5.365
279904.000			53.651			-5.365
280005.000			53.650			-5.365
280104.000			53.649			-5.365
280204.000			53.649			-5.365
280305.000			53.650			-5.365
280404.000			53.650			-5.365
280504.000			53.649			-5.365
280605.000			53.649			-5.365
280703.000			53.649			-5.365
280804.000			53.648			-5.365
280904.000			53.647			-5.365
281004.000			53.647			-5.365
281104.000			53.646			-5.365
281205.000			53.645			-5.365
281304.000			53.645			-5.365
281404.000			53.645			-5.365
281505.000			53.645			-5.365
281603.000			53.644			-5.364
281704.000			53.644			-5.364
281805.000			53.644			-5.364
281904.000			53.643			-5.364
282004.000			53.643			-5.364
282105.000			53.643			-5.364
282204.000			53.643			-5.364
282304.000			53.643			-5.364
282405.000			53.641			-5.364
282503.000			53.641			-5.364
282604.000			53.641			-5.364
282705.000			53.640			-5.364
282804.000			53.639			-5.364
282904.000			53.639			-5.364
283004.000			53.640			-5.364
283104.000			53.638			-5.364
283205.000			53.638			-5.364
283304.000			53.637			-5.364
283403.000			53.637			-5.364
283505.000			53.637			-5.364
283604.000			53.636			-5.364
283704.000			53.636			-5.364
283805.000			53.636			-5.364
283904.000			53.636			-5.364
284004.000			53.636			-5.364
284105.000			53.635			-5.364
284204.000			53.634			-5.363
284303.000			53.634			-5.363
284405.000			53.634			-5.363
284504.000			53.633			-5.363
284604.000			53.632			-5.363
284705.000			53.632			-5.363
284804.000			53.632			-5.363
284904.000			53.632			-5.363
285005.000			53.631			-5.363
285104.000			53.631			-5.363
285203.000			53.631			-5.363
285305.000			53.630			-5.363
285404.000			53.631			-5.363
285504.000			53.630			-5.363
285605.000			53.629			-5.363
285704.000			53.629			-5.363
285804.000			53.628			-5.363
285905.000			53.628			-5.363
286004.000			53.627			-5.363
286103.000			53.626			-5.363
286205.000			53.626			-5.363
286304.000			53.626			-5.363
286405.000			53.625			-5.362
286504.000			53.625			-5.362
286604.000			53.624			-5.362
286705.000			53.623			-5.362
286804.000			53.623			-5.362
286904.000			53.623			-5.362
287004.000			53.622			-5.362
287104.000			53.622			-5.362
287204.000			53.622			-5.362
287305.000			53.623			-5.362
287404.000			53.622			-5.362
287504.000			53.621			-5.362
287605.000			53.621			-5.362
287704.000			53.620			-5.362
287804.000			53.619			-5.362
287904.000			53.619			-5.362
288004.000			53.619			-5.362
288104.000			53.619			-5.362
288205.000			53.618			-5.362
288304.000			53.617			-5.362
288404.000			53.617			-5.362
288505.000			53.618			-5.362
288604.000			53.617			-5.362
288704.000			53.616			-5.362
288804.000			53.616			-5.362
288904.000			53.616			-5.362
289003.000			53.615			-5.361
289105.000			53.614			-5.361
289204.000			53.614			-5.361
289304.000			53.614			-5.361
289405.000			53.614			-5.361
289504.000			53.613			-5.361
289605.000			53.612			-5.361
289703.000			53.612			-5.361
289804.000			53.612			-5.361
289904.000			53.612			-5.361
290004.000			53.612			-5.361
290104.000			53.611			-5.361
290205.000			53.610			-5.361
290304.000			53.611			-5.361
290404.000			53.609			-5.361
290505.000			53.610			-5.361
290603.000			53.608			-5.361
290704.000			53.608			-5.361
290804.000			53.608			-5.361
290904.000			53.607			-5.361
291004.000			53.607			-5.361
291105.000			53.607			-5.361
291204.000			53.607			-5.361
291304.000			53.607			-5.361
291405.000			53.607			-5.361
291503.000			53.605			-5.361
291604.000			53.606			-5.361
291705.000			53.605			-5.361
291804.000			53.605			-5.360
291904.000			53.604			-5.360
292005.000			53.604			-5.360
292104.000			53.603			-5.360
292204.000			53.603			-5.360
292305.000			53.602			-5.360
292403.000			53.602			-5.360
292504.000			53.602			-5.360
292605.000			53.601			-5.360
292704.000			53.601			-5.360
292805.000			53.601			-5.360
292904.000			53.600			-5.360
293004.000			53.600			-5.360
293105.000			53.600			-5.360
293204.000			53.599			-5.360
293303.000			53.598			-5.360
293405.000			53.598			-5.360
293503.000			53.598			-5.360
293604.000			53.598			-5.360
293705.000			53.598			-5.360
293804.000			53.597			-5.360
293904.000			53.595			-5.360
294005.000			53.595			-5.360
294104.000			53.595			-5.360
294204.000			53.595			-5.359
294305.000			53.594			-5.359
294403.000			53.594			-5.359
294504.000			53.594			-5.359
294605.000			53.593			-5.359
294704.000			53.592			-5.359
294804.000			53.593			-5.359
294905.000			53.593			-5.359
295004.000			53.592			-5.359
295104.000			53.591			-5.359
295205.000			53.591			-5.359
295303.000			53.591			-5.359
295404.000			53.591			-5.359
295505.000			53.590			-5.359
295604.000			53.590			-5.359
295704.000			53.591			-5.359
295804.000			53.589			-5.359
295904.000			53.588			-5.359
296005.000			53.588			-5.359
296104.000			53.588			-5.359
296203.000			53.588			-5.359
296305.000			53.588			-5.359
296403.000			53.588			-5.359
296504.000			53.587			-5.359
296605.000			53.586			-5.359
296704.000			53.586			-5.359
296804.000			53.585			-5.359
296905.000			53.585			-5.359
297004.000			53.585			-5.358
297104.000			53.584			-5.358
297205.000			53.584			-5.358
297303.000			53.583			-5.358
297404.000			53.584			-5.358
297505.000			53.583			-5.358
297604.000			53.583			-5.358
297704.000			53.583			-5.358
297805.000			53.582			-5.358
297904.000			53.581			-5.358
298004.000			53.581			-5.358
298105.000			53.580			-5.358
298203.000			53.580			-5.358
298304.000			53.579			-5.358
298404.000			53.580			-5.358
298504.000			53.580			-5.358
298604.000			53.579			-5.358
298705.000			53.579			-5.358
298804.000			53.578			-5.358
298904.000			53.578			-5.358
299005.000			53.578			-5.358
299104.000			53.578			-5.358
299205.000			53.578			-5.358
299303.000			53.577			-5.358
299404.000			53.577			-5.358
299505.000			53.576			-5.358
299604.000			53.575			-5.357
299704.000			53.574			-5.357
299805.000			53.574			-5.357
299904.000			53.574			-5.357
