# Acquired on 25/01/2024 11:49:26 
# SPIDER: Creep_-4mm_GRPCNT1454A-1
# CREEP MEASUREMENT

# time [ms]		force [N]		stiffness [N/mm]
0.000			10.224			-2.556
104.000			10.701			-2.675
204.000			10.785			-2.696
304.000			10.691			-2.673
404.000			10.538			-2.635
504.000			10.485			-2.621
604.000			10.440			-2.610
704.000			10.401			-2.600
804.000			10.367			-2.592
905.000			10.337			-2.584
1004.000			10.308			-2.577
1103.000			10.259			-2.565
1205.000			10.237			-2.559
1304.000			10.218			-2.555
1404.000			10.200			-2.550
1505.000			10.181			-2.545
1603.000			10.164			-2.541
1704.000			10.150			-2.537
1805.000			10.119			-2.530
1904.000			10.107			-2.527
2004.000			10.094			-2.524
2105.000			10.082			-2.520
2204.000			10.071			-2.518
2303.000			10.059			-2.515
2405.000			10.049			-2.512
2504.000			10.038			-2.510
2604.000			10.018			-2.505
2705.000			10.010			-2.502
2803.000			10.000			-2.500
2904.000			9.993			-2.498
3005.000			9.985			-2.496
3104.000			9.976			-2.494
3204.000			9.968			-2.492
3305.000			9.953			-2.488
3404.000			9.945			-2.486
3503.000			9.940			-2.485
3605.000			9.932			-2.483
3704.000			9.925			-2.481
3804.000			9.919			-2.480
3905.000			9.913			-2.478
4004.000			9.901			-2.475
4105.000			9.894			-2.474
4203.000			9.889			-2.472
4304.000			9.884			-2.471
4405.000			9.879			-2.470
4504.000			9.873			-2.468
4604.000			9.867			-2.467
4704.000			9.863			-2.466
4804.000			9.853			-2.463
4904.000			9.849			-2.462
5005.000			9.843			-2.461
5104.000			9.839			-2.460
5204.000			9.833			-2.458
5305.000			9.829			-2.457
5403.000			9.825			-2.456
5504.000			9.818			-2.454
5605.000			9.813			-2.453
5704.000			9.808			-2.452
5804.000			9.805			-2.451
5905.000			9.801			-2.450
6004.000			9.796			-2.449
6103.000			9.793			-2.448
6205.000			9.785			-2.446
6304.000			9.781			-2.445
6404.000			9.778			-2.445
6505.000			9.775			-2.444
6604.000			9.772			-2.443
6704.000			9.769			-2.442
6804.000			9.764			-2.441
6904.000			9.757			-2.439
7004.000			9.755			-2.439
7104.000			9.752			-2.438
7204.000			9.749			-2.437
7303.000			9.745			-2.436
7404.000			9.742			-2.435
7504.000			9.739			-2.435
7605.000			9.736			-2.434
7704.000			9.731			-2.433
7804.000			9.727			-2.432
7905.000			9.725			-2.431
8003.000			9.721			-2.430
8104.000			9.719			-2.430
8205.000			9.716			-2.429
8304.000			9.712			-2.428
8404.000			9.708			-2.427
8505.000			9.705			-2.426
8604.000			9.702			-2.426
8703.000			9.700			-2.425
8805.000			9.698			-2.425
8904.000			9.696			-2.424
9004.000			9.692			-2.423
9105.000			9.688			-2.422
9204.000			9.685			-2.421
9304.000			9.682			-2.421
9404.000			9.681			-2.420
9504.000			9.679			-2.420
9604.000			9.676			-2.419
9705.000			9.674			-2.418
9804.000			9.668			-2.417
9903.000			9.666			-2.417
10005.000			9.664			-2.416
10104.000			9.662			-2.416
10204.000			9.660			-2.415
10305.000			9.657			-2.414
10404.000			9.655			-2.414
10505.000			9.654			-2.413
10603.000			9.649			-2.412
10704.000			9.647			-2.412
10805.000			9.645			-2.411
10904.000			9.643			-2.411
11004.000			9.640			-2.410
11105.000			9.639			-2.410
11204.000			9.637			-2.409
11303.000			9.633			-2.408
11405.000			9.631			-2.408
11504.000			9.628			-2.407
11604.000			9.627			-2.407
11705.000			9.625			-2.406
11804.000			9.623			-2.406
11904.000			9.620			-2.405
12004.000			9.617			-2.404
12104.000			9.615			-2.404
12204.000			9.615			-2.404
12305.000			9.612			-2.403
12404.000			9.610			-2.402
12504.000			9.608			-2.402
12605.000			9.607			-2.402
12703.000			9.605			-2.401
12804.000			9.602			-2.400
12905.000			9.599			-2.400
13004.000			9.597			-2.399
13104.000			9.596			-2.399
13204.000			9.594			-2.399
13304.000			9.593			-2.398
13403.000			9.591			-2.398
13505.000			9.589			-2.397
13604.000			9.586			-2.397
13705.000			9.586			-2.396
13804.000			9.584			-2.396
13903.000			9.582			-2.395
14005.000			9.581			-2.395
14103.000			9.579			-2.395
14204.000			9.576			-2.394
14305.000			9.575			-2.394
14404.000			9.573			-2.393
14504.000			9.571			-2.393
14604.000			9.569			-2.392
14704.000			9.569			-2.392
14803.000			9.567			-2.392
14905.000			9.564			-2.391
15004.000			9.561			-2.390
15104.000			9.560			-2.390
15205.000			9.559			-2.390
15303.000			9.558			-2.389
15404.000			9.556			-2.389
15505.000			9.554			-2.389
15604.000			9.553			-2.388
15704.000			9.550			-2.388
15805.000			9.549			-2.387
15904.000			9.548			-2.387
16003.000			9.546			-2.387
16105.000			9.545			-2.386
16204.000			9.544			-2.386
16304.000			9.543			-2.386
16405.000			9.539			-2.385
16504.000			9.539			-2.385
16604.000			9.538			-2.384
16703.000			9.537			-2.384
16804.000			9.535			-2.384
16905.000			9.534			-2.383
17004.000			9.533			-2.383
17104.000			9.530			-2.383
17205.000			9.528			-2.382
17304.000			9.527			-2.382
17403.000			9.526			-2.381
17505.000			9.525			-2.381
17604.000			9.524			-2.381
17704.000			9.522			-2.381
17805.000			9.519			-2.380
17904.000			9.519			-2.380
18004.000			9.517			-2.379
18104.000			9.516			-2.379
18204.000			9.515			-2.379
18304.000			9.514			-2.378
18405.000			9.512			-2.378
18504.000			9.512			-2.378
18604.000			9.509			-2.377
18705.000			9.509			-2.377
18803.000			9.508			-2.377
18904.000			9.506			-2.377
19005.000			9.504			-2.376
19104.000			9.503			-2.376
19204.000			9.503			-2.376
19305.000			9.500			-2.375
19404.000			9.499			-2.375
19503.000			9.498			-2.374
19605.000			9.497			-2.374
19704.000			9.496			-2.374
19804.000			9.496			-2.374
19905.000			9.494			-2.374
20004.000			9.493			-2.373
20105.000			9.492			-2.373
20203.000			9.490			-2.373
20304.000			9.489			-2.372
20405.000			9.488			-2.372
20504.000			9.487			-2.372
20604.000			9.486			-2.371
20705.000			9.483			-2.371
20804.000			9.482			-2.370
20903.000			9.481			-2.370
21005.000			9.481			-2.370
21104.000			9.480			-2.370
21204.000			9.479			-2.370
21305.000			9.477			-2.369
21403.000			9.476			-2.369
21504.000			9.474			-2.368
21605.000			9.473			-2.368
21704.000			9.473			-2.368
21804.000			9.472			-2.368
21905.000			9.471			-2.368
22004.000			9.469			-2.367
22103.000			9.468			-2.367
22205.000			9.466			-2.367
22304.000			9.465			-2.366
22404.000			9.465			-2.366
22505.000			9.464			-2.366
22604.000			9.463			-2.366
22704.000			9.462			-2.365
22804.000			9.461			-2.365
22904.000			9.460			-2.365
23004.000			9.459			-2.365
23104.000			9.457			-2.364
23204.000			9.455			-2.364
23305.000			9.454			-2.364
23404.000			9.454			-2.363
23503.000			9.453			-2.363
23605.000			9.451			-2.363
23704.000			9.449			-2.362
23804.000			9.449			-2.362
23905.000			9.448			-2.362
24004.000			9.447			-2.362
24104.000			9.447			-2.362
24204.000			9.447			-2.362
24304.000			9.445			-2.361
24404.000			9.445			-2.361
24505.000			9.444			-2.361
24604.000			9.442			-2.361
24703.000			9.441			-2.360
24805.000			9.440			-2.360
24904.000			9.440			-2.360
25004.000			9.439			-2.360
25105.000			9.438			-2.359
25204.000			9.436			-2.359
25304.000			9.435			-2.359
25404.000			9.436			-2.359
25504.000			9.434			-2.359
25604.000			9.433			-2.358
25705.000			9.432			-2.358
25804.000			9.431			-2.358
25904.000			9.431			-2.358
26005.000			9.429			-2.357
26103.000			9.428			-2.357
26204.000			9.427			-2.357
26305.000			9.427			-2.357
26404.000			9.427			-2.357
26505.000			9.426			-2.356
26604.000			9.424			-2.356
26704.000			9.422			-2.356
26804.000			9.422			-2.356
26904.000			9.421			-2.355
27004.000			9.420			-2.355
27105.000			9.420			-2.355
27204.000			9.419			-2.355
27304.000			9.416			-2.354
27405.000			9.415			-2.354
27503.000			9.416			-2.354
27604.000			9.416			-2.354
27705.000			9.415			-2.354
27804.000			9.414			-2.353
27904.000			9.413			-2.353
28004.000			9.411			-2.353
28104.000			9.411			-2.353
28204.000			9.410			-2.353
28305.000			9.410			-2.352
28404.000			9.410			-2.352
28504.000			9.408			-2.352
28605.000			9.406			-2.352
28703.000			9.405			-2.351
28804.000			9.404			-2.351
28905.000			9.404			-2.351
29004.000			9.403			-2.351
29104.000			9.401			-2.350
29205.000			9.400			-2.350
29304.000			9.399			-2.350
29403.000			9.399			-2.350
29505.000			9.398			-2.349
29604.000			9.398			-2.349
29705.000			9.398			-2.349
29804.000			9.397			-2.349
29904.000			9.395			-2.349
30005.000			9.395			-2.349
30103.000			9.395			-2.349
30204.000			9.393			-2.348
30305.000			9.393			-2.348
30404.000			9.393			-2.348
30504.000			9.392			-2.348
30605.000			9.391			-2.348
30704.000			9.391			-2.348
30803.000			9.390			-2.347
30905.000			9.389			-2.347
31004.000			9.387			-2.347
31104.000			9.387			-2.347
31205.000			9.387			-2.347
31304.000			9.387			-2.347
31404.000			9.386			-2.347
31504.000			9.386			-2.346
31604.000			9.385			-2.346
31704.000			9.383			-2.346
31805.000			9.383			-2.346
31904.000			9.383			-2.346
32004.000			9.381			-2.345
32105.000			9.380			-2.345
32203.000			9.380			-2.345
32304.000			9.379			-2.345
32405.000			9.378			-2.345
32504.000			9.377			-2.344
32604.000			9.377			-2.344
32704.000			9.376			-2.344
32804.000			9.374			-2.343
32903.000			9.374			-2.344
33004.000			9.374			-2.344
33104.000			9.372			-2.343
33205.000			9.371			-2.343
33304.000			9.371			-2.343
33403.000			9.371			-2.343
33505.000			9.371			-2.343
33604.000			9.369			-2.342
33704.000			9.368			-2.342
33805.000			9.368			-2.342
33904.000			9.367			-2.342
34004.000			9.366			-2.341
34104.000			9.366			-2.341
34204.000			9.365			-2.341
34304.000			9.364			-2.341
34405.000			9.363			-2.341
34504.000			9.363			-2.341
34604.000			9.362			-2.340
34705.000			9.361			-2.340
34803.000			9.361			-2.340
34904.000			9.361			-2.340
35005.000			9.360			-2.340
35104.000			9.358			-2.340
35204.000			9.358			-2.339
35305.000			9.356			-2.339
35404.000			9.356			-2.339
35503.000			9.356			-2.339
35605.000			9.356			-2.339
35704.000			9.355			-2.339
35804.000			9.355			-2.339
35905.000			9.355			-2.339
36004.000			9.353			-2.338
36105.000			9.351			-2.338
36203.000			9.351			-2.338
36304.000			9.351			-2.338
36405.000			9.351			-2.338
36504.000			9.350			-2.338
36604.000			9.349			-2.337
36704.000			9.349			-2.337
36804.000			9.347			-2.337
36904.000			9.346			-2.337
37005.000			9.345			-2.336
37104.000			9.345			-2.336
37204.000			9.346			-2.336
37305.000			9.345			-2.336
37403.000			9.343			-2.336
37504.000			9.342			-2.335
37605.000			9.342			-2.335
37704.000			9.341			-2.335
37804.000			9.340			-2.335
37905.000			9.339			-2.335
38004.000			9.339			-2.335
38103.000			9.340			-2.335
38205.000			9.337			-2.334
38304.000			9.338			-2.334
38404.000			9.337			-2.334
38505.000			9.336			-2.334
38604.000			9.335			-2.334
38704.000			9.334			-2.334
38804.000			9.334			-2.333
38904.000			9.333			-2.333
39004.000			9.332			-2.333
39104.000			9.332			-2.333
39204.000			9.331			-2.333
39305.000			9.331			-2.333
39404.000			9.330			-2.333
39503.000			9.330			-2.332
39605.000			9.329			-2.332
39704.000			9.329			-2.332
39804.000			9.328			-2.332
39905.000			9.328			-2.332
40004.000			9.327			-2.332
40104.000			9.327			-2.332
40204.000			9.326			-2.332
40304.000			9.325			-2.331
40404.000			9.324			-2.331
40505.000			9.323			-2.331
40604.000			9.323			-2.331
40703.000			9.322			-2.331
40805.000			9.321			-2.330
40904.000			9.321			-2.330
41004.000			9.321			-2.330
41105.000			9.320			-2.330
41204.000			9.319			-2.330
41304.000			9.318			-2.330
41404.000			9.318			-2.330
41504.000			9.318			-2.330
41604.000			9.318			-2.330
41705.000			9.317			-2.329
41804.000			9.317			-2.329
41904.000			9.315			-2.329
42005.000			9.314			-2.329
42103.000			9.314			-2.328
42204.000			9.314			-2.328
42305.000			9.313			-2.328
42404.000			9.313			-2.328
42505.000			9.313			-2.328
42603.000			9.312			-2.328
42704.000			9.311			-2.328
42805.000			9.310			-2.328
42904.000			9.310			-2.327
43004.000			9.310			-2.327
43105.000			9.310			-2.327
43204.000			9.309			-2.327
43303.000			9.308			-2.327
43405.000			9.307			-2.327
43504.000			9.306			-2.327
43604.000			9.307			-2.327
43705.000			9.306			-2.326
43804.000			9.305			-2.326
43904.000			9.305			-2.326
44004.000			9.305			-2.326
44104.000			9.304			-2.326
44204.000			9.304			-2.326
44305.000			9.304			-2.326
44404.000			9.304			-2.326
44503.000			9.303			-2.326
44605.000			9.301			-2.325
44704.000			9.301			-2.325
44804.000			9.300			-2.325
44905.000			9.299			-2.325
45004.000			9.299			-2.325
45104.000			9.298			-2.324
45204.000			9.298			-2.324
45304.000			9.297			-2.324
45404.000			9.296			-2.324
45504.000			9.296			-2.324
45604.000			9.296			-2.324
45705.000			9.295			-2.324
45804.000			9.294			-2.323
45903.000			9.294			-2.323
46005.000			9.294			-2.323
46104.000			9.293			-2.323
46204.000			9.293			-2.323
46305.000			9.292			-2.323
46404.000			9.291			-2.323
46504.000			9.290			-2.323
46604.000			9.290			-2.322
46704.000			9.289			-2.322
46804.000			9.289			-2.322
46905.000			9.290			-2.322
47004.000			9.289			-2.322
47104.000			9.288			-2.322
47205.000			9.289			-2.322
47303.000			9.287			-2.322
47404.000			9.286			-2.322
47505.000			9.286			-2.321
47604.000			9.285			-2.321
47704.000			9.285			-2.321
47805.000			9.284			-2.321
47904.000			9.283			-2.321
48003.000			9.283			-2.321
48105.000			9.285			-2.321
48204.000			9.283			-2.321
48304.000			9.283			-2.321
48405.000			9.282			-2.320
48504.000			9.280			-2.320
48604.000			9.279			-2.320
48703.000			9.279			-2.320
48804.000			9.279			-2.320
48905.000			9.279			-2.320
49004.000			9.280			-2.320
49104.000			9.278			-2.319
49205.000			9.277			-2.319
49304.000			9.276			-2.319
49403.000			9.277			-2.319
49505.000			9.277			-2.319
49604.000			9.277			-2.319
49704.000			9.276			-2.319
49805.000			9.276			-2.319
49904.000			9.274			-2.319
50004.000			9.275			-2.319
50104.000			9.274			-2.318
50204.000			9.273			-2.318
50304.000			9.273			-2.318
50405.000			9.272			-2.318
50504.000			9.272			-2.318
50604.000			9.270			-2.318
50705.000			9.270			-2.318
50803.000			9.270			-2.318
50904.000			9.270			-2.317
51005.000			9.269			-2.317
51104.000			9.268			-2.317
51204.000			9.268			-2.317
51305.000			9.268			-2.317
51404.000			9.267			-2.317
51503.000			9.267			-2.317
51605.000			9.267			-2.317
51704.000			9.266			-2.317
51804.000			9.266			-2.317
51905.000			9.265			-2.316
52004.000			9.265			-2.316
52105.000			9.264			-2.316
52203.000			9.263			-2.316
52304.000			9.263			-2.316
52405.000			9.263			-2.316
52504.000			9.262			-2.316
52604.000			9.263			-2.316
52704.000			9.262			-2.315
52804.000			9.261			-2.315
52904.000			9.261			-2.315
53005.000			9.261			-2.315
53104.000			9.260			-2.315
53204.000			9.259			-2.315
53305.000			9.259			-2.315
53403.000			9.260			-2.315
53504.000			9.258			-2.315
53605.000			9.257			-2.314
53704.000			9.257			-2.314
53804.000			9.257			-2.314
53905.000			9.256			-2.314
54004.000			9.255			-2.314
54103.000			9.255			-2.314
54205.000			9.256			-2.314
54304.000			9.254			-2.314
54404.000			9.254			-2.313
54505.000			9.254			-2.313
54604.000			9.253			-2.313
54704.000			9.253			-2.313
54804.000			9.252			-2.313
54904.000			9.252			-2.313
55004.000			9.251			-2.313
55104.000			9.251			-2.313
55204.000			9.251			-2.313
55303.000			9.250			-2.313
55404.000			9.250			-2.312
55504.000			9.250			-2.312
55605.000			9.249			-2.312
55704.000			9.249			-2.312
55804.000			9.248			-2.312
55905.000			9.247			-2.312
56003.000			9.246			-2.312
56104.000			9.246			-2.312
56205.000			9.246			-2.312
56304.000			9.246			-2.312
56404.000			9.245			-2.311
56505.000			9.245			-2.311
56604.000			9.244			-2.311
56703.000			9.244			-2.311
56805.000			9.243			-2.311
56904.000			9.243			-2.311
57004.000			9.242			-2.311
57105.000			9.242			-2.311
57204.000			9.242			-2.310
57304.000			9.241			-2.310
57404.000			9.242			-2.311
57504.000			9.242			-2.310
57604.000			9.240			-2.310
57705.000			9.239			-2.310
57804.000			9.240			-2.310
57904.000			9.239			-2.310
58005.000			9.239			-2.310
58103.000			9.238			-2.309
58204.000			9.237			-2.309
58305.000			9.236			-2.309
58404.000			9.237			-2.309
58505.000			9.237			-2.309
58604.000			9.237			-2.309
58704.000			9.235			-2.309
58804.000			9.235			-2.309
58904.000			9.234			-2.309
59004.000			9.234			-2.309
59105.000			9.235			-2.309
59204.000			9.234			-2.308
59303.000			9.233			-2.308
59405.000			9.233			-2.308
59504.000			9.233			-2.308
59604.000			9.232			-2.308
59705.000			9.231			-2.308
59804.000			9.231			-2.308
59904.000			9.231			-2.308
60004.000			9.232			-2.308
60104.000			9.230			-2.308
60204.000			9.230			-2.308
60305.000			9.230			-2.307
60404.000			9.229			-2.307
60504.000			9.229			-2.307
60605.000			9.229			-2.307
60703.000			9.228			-2.307
60804.000			9.228			-2.307
60905.000			9.228			-2.307
61004.000			9.227			-2.307
61104.000			9.227			-2.307
61204.000			9.227			-2.307
61304.000			9.226			-2.307
61403.000			9.226			-2.306
61505.000			9.226			-2.306
61604.000			9.225			-2.306
61705.000			9.225			-2.306
61804.000			9.225			-2.306
61903.000			9.224			-2.306
62005.000			9.223			-2.306
62104.000			9.223			-2.306
62204.000			9.224			-2.306
62305.000			9.222			-2.305
62404.000			9.222			-2.306
62504.000			9.222			-2.305
62604.000			9.222			-2.305
62704.000			9.221			-2.305
62804.000			9.220			-2.305
62905.000			9.219			-2.305
63004.000			9.219			-2.305
63103.000			9.219			-2.305
63205.000			9.219			-2.305
63304.000			9.219			-2.305
63404.000			9.218			-2.304
63505.000			9.218			-2.304
63604.000			9.217			-2.304
63704.000			9.216			-2.304
63804.000			9.217			-2.304
63904.000			9.216			-2.304
64004.000			9.216			-2.304
64105.000			9.215			-2.304
64204.000			9.215			-2.304
64304.000			9.215			-2.304
64405.000			9.214			-2.304
64503.000			9.214			-2.304
64604.000			9.214			-2.304
64705.000			9.214			-2.303
64804.000			9.212			-2.303
64905.000			9.212			-2.303
65004.000			9.212			-2.303
65104.000			9.212			-2.303
65204.000			9.211			-2.303
65304.000			9.210			-2.302
65404.000			9.210			-2.303
65505.000			9.211			-2.303
65604.000			9.210			-2.303
65703.000			9.210			-2.303
65805.000			9.209			-2.302
65904.000			9.209			-2.302
66004.000			9.210			-2.302
66105.000			9.209			-2.302
66204.000			9.209			-2.302
66304.000			9.208			-2.302
66404.000			9.207			-2.302
66504.000			9.207			-2.302
66604.000			9.206			-2.302
66705.000			9.206			-2.302
66804.000			9.206			-2.301
66904.000			9.205			-2.301
67005.000			9.205			-2.301
67103.000			9.205			-2.301
67204.000			9.205			-2.301
67305.000			9.204			-2.301
67404.000			9.202			-2.300
67504.000			9.202			-2.301
67605.000			9.204			-2.301
67704.000			9.204			-2.301
67803.000			9.202			-2.301
67905.000			9.202			-2.301
68004.000			9.203			-2.301
68105.000			9.202			-2.301
68204.000			9.202			-2.300
68304.000			9.201			-2.300
68405.000			9.200			-2.300
68503.000			9.200			-2.300
68604.000			9.200			-2.300
68705.000			9.200			-2.300
68804.000			9.200			-2.300
68904.000			9.199			-2.300
69005.000			9.199			-2.300
69104.000			9.198			-2.300
69203.000			9.197			-2.299
69305.000			9.197			-2.299
69404.000			9.197			-2.299
69504.000			9.197			-2.299
69605.000			9.196			-2.299
69704.000			9.196			-2.299
69804.000			9.195			-2.299
69904.000			9.194			-2.299
70004.000			9.193			-2.298
70104.000			9.195			-2.299
70205.000			9.195			-2.299
70304.000			9.194			-2.298
70404.000			9.193			-2.298
70505.000			9.193			-2.298
70603.000			9.193			-2.298
70704.000			9.194			-2.298
70805.000			9.193			-2.298
70904.000			9.193			-2.298
71004.000			9.193			-2.298
71104.000			9.192			-2.298
71204.000			9.192			-2.298
71303.000			9.192			-2.298
71404.000			9.192			-2.298
71504.000			9.192			-2.298
71605.000			9.191			-2.298
71704.000			9.191			-2.298
71804.000			9.191			-2.298
71905.000			9.190			-2.298
72003.000			9.191			-2.298
72104.000			9.191			-2.298
72205.000			9.191			-2.298
72304.000			9.189			-2.297
72404.000			9.189			-2.297
72505.000			9.188			-2.297
72604.000			9.187			-2.297
72703.000			9.188			-2.297
72805.000			9.188			-2.297
72904.000			9.187			-2.297
73004.000			9.187			-2.297
73105.000			9.186			-2.297
73204.000			9.186			-2.297
73304.000			9.184			-2.296
73404.000			9.186			-2.296
73504.000			9.186			-2.296
73604.000			9.184			-2.296
73705.000			9.184			-2.296
73804.000			9.184			-2.296
73904.000			9.183			-2.296
74005.000			9.182			-2.296
74103.000			9.182			-2.296
74204.000			9.182			-2.295
74305.000			9.182			-2.295
74404.000			9.182			-2.296
74505.000			9.182			-2.295
74604.000			9.182			-2.295
74704.000			9.179			-2.295
74804.000			9.179			-2.295
74904.000			9.180			-2.295
75004.000			9.178			-2.295
75105.000			9.179			-2.295
75204.000			9.179			-2.295
75304.000			9.179			-2.295
75405.000			9.179			-2.295
75503.000			9.179			-2.295
75604.000			9.178			-2.295
75705.000			9.178			-2.294
75804.000			9.177			-2.294
75904.000			9.177			-2.294
76005.000			9.178			-2.294
76104.000			9.178			-2.295
76203.000			9.176			-2.294
76305.000			9.176			-2.294
76404.000			9.175			-2.294
76504.000			9.175			-2.294
76605.000			9.176			-2.294
76704.000			9.175			-2.294
76804.000			9.175			-2.294
76904.000			9.175			-2.294
77004.000			9.174			-2.293
77104.000			9.174			-2.294
77205.000			9.174			-2.294
77304.000			9.173			-2.293
77404.000			9.174			-2.293
77505.000			9.174			-2.293
77603.000			9.173			-2.293
77705.000			9.171			-2.293
77804.000			9.172			-2.293
77904.000			9.172			-2.293
78005.000			9.171			-2.293
78104.000			9.171			-2.293
78204.000			9.171			-2.293
78304.000			9.170			-2.293
78404.000			9.171			-2.293
78504.000			9.169			-2.292
78605.000			9.169			-2.292
78704.000			9.169			-2.292
78804.000			9.169			-2.292
78905.000			9.168			-2.292
79003.000			9.167			-2.292
79104.000			9.168			-2.292
79205.000			9.168			-2.292
79304.000			9.167			-2.292
79404.000			9.167			-2.292
79505.000			9.167			-2.292
79604.000			9.165			-2.291
79703.000			9.166			-2.291
79805.000			9.165			-2.291
79904.000			9.167			-2.292
80004.000			9.167			-2.292
80105.000			9.167			-2.292
80204.000			9.165			-2.291
80304.000			9.164			-2.291
80404.000			9.165			-2.291
80504.000			9.165			-2.291
80604.000			9.163			-2.291
80704.000			9.163			-2.291
80804.000			9.163			-2.291
80905.000			9.163			-2.291
81004.000			9.162			-2.291
81103.000			9.161			-2.290
81205.000			9.161			-2.290
81304.000			9.161			-2.290
81404.000			9.161			-2.290
81505.000			9.161			-2.290
81604.000			9.160			-2.290
81704.000			9.160			-2.290
81804.000			9.159			-2.290
81904.000			9.158			-2.290
82004.000			9.160			-2.290
82105.000			9.159			-2.290
82204.000			9.159			-2.290
82304.000			9.159			-2.290
82405.000			9.158			-2.289
82503.000			9.157			-2.289
82604.000			9.158			-2.289
82705.000			9.156			-2.289
82804.000			9.155			-2.289
82904.000			9.156			-2.289
83005.000			9.155			-2.289
83104.000			9.155			-2.289
83203.000			9.155			-2.289
83305.000			9.154			-2.289
83404.000			9.154			-2.289
83504.000			9.154			-2.289
83605.000			9.154			-2.288
83704.000			9.154			-2.288
83804.000			9.153			-2.288
83903.000			9.153			-2.288
84004.000			9.154			-2.288
84105.000			9.153			-2.288
84204.000			9.152			-2.288
84304.000			9.151			-2.288
84405.000			9.150			-2.287
84504.000			9.150			-2.288
84603.000			9.150			-2.288
84705.000			9.150			-2.287
84804.000			9.150			-2.287
84904.000			9.150			-2.288
85005.000			9.149			-2.287
85104.000			9.149			-2.287
85204.000			9.149			-2.287
85304.000			9.148			-2.287
85404.000			9.147			-2.287
85504.000			9.147			-2.287
85605.000			9.147			-2.287
85704.000			9.147			-2.287
85804.000			9.147			-2.287
85905.000			9.146			-2.287
86003.000			9.147			-2.287
86104.000			9.147			-2.287
86205.000			9.146			-2.287
86304.000			9.146			-2.287
86404.000			9.145			-2.286
86505.000			9.145			-2.286
86604.000			9.144			-2.286
86703.000			9.145			-2.286
86805.000			9.144			-2.286
86904.000			9.144			-2.286
87004.000			9.144			-2.286
87105.000			9.144			-2.286
87204.000			9.143			-2.286
87305.000			9.143			-2.286
87403.000			9.143			-2.286
87504.000			9.143			-2.286
87605.000			9.143			-2.286
87704.000			9.142			-2.286
87804.000			9.142			-2.286
87905.000			9.142			-2.285
88004.000			9.140			-2.285
88103.000			9.140			-2.285
88205.000			9.141			-2.285
88304.000			9.142			-2.285
88404.000			9.141			-2.285
88505.000			9.141			-2.285
88604.000			9.140			-2.285
88704.000			9.140			-2.285
88804.000			9.140			-2.285
88904.000			9.140			-2.285
89004.000			9.139			-2.285
89105.000			9.138			-2.285
89204.000			9.139			-2.285
89304.000			9.139			-2.285
89405.000			9.138			-2.285
89503.000			9.138			-2.284
89604.000			9.138			-2.284
89705.000			9.138			-2.285
89804.000			9.137			-2.284
89904.000			9.138			-2.284
90005.000			9.136			-2.284
90104.000			9.137			-2.284
90203.000			9.137			-2.284
90305.000			9.136			-2.284
90404.000			9.135			-2.284
90505.000			9.135			-2.284
90604.000			9.135			-2.284
90704.000			9.136			-2.284
90805.000			9.134			-2.284
90903.000			9.133			-2.283
91004.000			9.133			-2.283
91105.000			9.134			-2.284
91204.000			9.134			-2.283
91304.000			9.133			-2.283
91405.000			9.133			-2.283
91504.000			9.133			-2.283
91603.000			9.132			-2.283
91705.000			9.132			-2.283
91804.000			9.132			-2.283
91904.000			9.132			-2.283
92005.000			9.131			-2.283
92103.000			9.131			-2.283
92204.000			9.131			-2.283
92305.000			9.130			-2.283
92404.000			9.130			-2.283
92504.000			9.131			-2.283
92605.000			9.131			-2.283
92704.000			9.131			-2.283
92803.000			9.131			-2.283
92905.000			9.130			-2.283
93004.000			9.130			-2.282
93104.000			9.129			-2.282
93205.000			9.130			-2.282
93304.000			9.129			-2.282
93404.000			9.129			-2.282
93503.000			9.130			-2.282
93604.000			9.130			-2.283
93705.000			9.127			-2.282
93804.000			9.127			-2.282
93904.000			9.129			-2.282
94005.000			9.128			-2.282
94104.000			9.126			-2.282
94203.000			9.126			-2.281
94305.000			9.127			-2.282
94404.000			9.126			-2.281
94504.000			9.126			-2.281
94605.000			9.126			-2.281
94704.000			9.126			-2.281
94804.000			9.126			-2.281
94904.000			9.126			-2.281
95004.000			9.125			-2.281
95104.000			9.124			-2.281
95205.000			9.124			-2.281
95304.000			9.125			-2.281
95404.000			9.124			-2.281
95505.000			9.124			-2.281
95603.000			9.123			-2.281
95704.000			9.123			-2.281
95805.000			9.123			-2.281
95904.000			9.122			-2.281
96004.000			9.122			-2.281
96105.000			9.122			-2.281
96204.000			9.122			-2.281
96303.000			9.122			-2.281
96405.000			9.122			-2.280
96504.000			9.122			-2.280
96604.000			9.121			-2.280
96705.000			9.120			-2.280
96803.000			9.119			-2.280
96905.000			9.120			-2.280
97003.000			9.119			-2.280
97104.000			9.120			-2.280
97205.000			9.121			-2.280
97304.000			9.119			-2.280
97404.000			9.119			-2.280
97504.000			9.119			-2.280
97604.000			9.118			-2.280
97703.000			9.118			-2.280
97805.000			9.118			-2.279
97904.000			9.118			-2.279
98004.000			9.119			-2.280
98105.000			9.117			-2.279
98204.000			9.117			-2.279
98304.000			9.117			-2.279
98404.000			9.117			-2.279
98504.000			9.117			-2.279
98604.000			9.116			-2.279
98705.000			9.116			-2.279
98804.000			9.116			-2.279
98904.000			9.116			-2.279
99005.000			9.116			-2.279
99103.000			9.116			-2.279
99204.000			9.116			-2.279
99305.000			9.115			-2.279
99404.000			9.114			-2.278
99504.000			9.114			-2.279
99605.000			9.114			-2.278
99704.000			9.113			-2.278
99803.000			9.113			-2.278
99905.000			9.113			-2.278
100004.000			9.113			-2.278
100105.000			9.113			-2.278
100204.000			9.113			-2.278
100304.000			9.113			-2.278
100405.000			9.112			-2.278
100503.000			9.112			-2.278
100604.000			9.112			-2.278
100705.000			9.111			-2.278
100804.000			9.111			-2.278
100904.000			9.111			-2.278
101005.000			9.110			-2.278
101104.000			9.111			-2.278
101203.000			9.110			-2.278
101305.000			9.108			-2.277
101404.000			9.109			-2.277
101504.000			9.109			-2.277
101605.000			9.108			-2.277
101703.000			9.107			-2.277
101804.000			9.108			-2.277
101905.000			9.108			-2.277
102004.000			9.108			-2.277
102104.000			9.108			-2.277
102205.000			9.106			-2.276
102304.000			9.107			-2.277
102403.000			9.107			-2.277
102505.000			9.106			-2.277
102604.000			9.106			-2.276
102704.000			9.106			-2.276
102805.000			9.106			-2.276
102904.000			9.105			-2.276
103004.000			9.106			-2.277
103103.000			9.105			-2.276
103204.000			9.104			-2.276
103305.000			9.104			-2.276
103404.000			9.103			-2.276
103504.000			9.103			-2.276
103605.000			9.102			-2.275
103704.000			9.102			-2.276
103803.000			9.102			-2.276
103905.000			9.102			-2.275
104004.000			9.102			-2.275
104104.000			9.102			-2.276
104205.000			9.102			-2.276
104304.000			9.102			-2.276
104404.000			9.101			-2.275
104504.000			9.101			-2.275
104604.000			9.101			-2.275
104704.000			9.100			-2.275
104805.000			9.099			-2.275
104904.000			9.099			-2.275
105004.000			9.099			-2.275
105105.000			9.100			-2.275
105203.000			9.100			-2.275
105304.000			9.100			-2.275
105405.000			9.099			-2.275
105504.000			9.099			-2.275
105604.000			9.098			-2.275
105705.000			9.098			-2.275
105804.000			9.099			-2.275
105903.000			9.099			-2.275
106005.000			9.098			-2.274
106103.000			9.097			-2.274
106204.000			9.098			-2.274
106305.000			9.097			-2.274
106404.000			9.097			-2.274
106505.000			9.098			-2.274
106604.000			9.097			-2.274
106704.000			9.096			-2.274
106804.000			9.096			-2.274
106904.000			9.097			-2.274
107004.000			9.096			-2.274
107105.000			9.095			-2.274
107204.000			9.095			-2.274
107304.000			9.095			-2.274
107405.000			9.094			-2.274
107503.000			9.094			-2.273
107604.000			9.094			-2.274
107705.000			9.095			-2.274
107804.000			9.095			-2.274
107904.000			9.093			-2.273
108005.000			9.093			-2.273
108104.000			9.092			-2.273
108203.000			9.092			-2.273
108305.000			9.093			-2.273
108404.000			9.092			-2.273
108504.000			9.093			-2.273
108605.000			9.093			-2.273
108704.000			9.092			-2.273
108804.000			9.091			-2.273
108905.000			9.092			-2.273
109004.000			9.091			-2.273
109103.000			9.090			-2.273
109205.000			9.090			-2.273
109304.000			9.090			-2.272
109404.000			9.091			-2.273
109505.000			9.091			-2.273
109604.000			9.091			-2.273
109705.000			9.089			-2.272
109803.000			9.089			-2.272
109904.000			9.089			-2.272
110005.000			9.089			-2.272
110104.000			9.089			-2.272
110204.000			9.090			-2.272
110305.000			9.089			-2.272
110404.000			9.089			-2.272
110503.000			9.087			-2.272
110605.000			9.089			-2.272
110704.000			9.089			-2.272
110804.000			9.087			-2.272
110905.000			9.087			-2.272
111004.000			9.087			-2.272
111104.000			9.086			-2.271
111204.000			9.087			-2.272
111304.000			9.087			-2.272
111404.000			9.087			-2.272
111505.000			9.087			-2.272
111604.000			9.087			-2.272
111704.000			9.086			-2.272
111805.000			9.085			-2.271
111903.000			9.085			-2.271
112004.000			9.085			-2.271
112105.000			9.085			-2.271
112204.000			9.084			-2.271
112304.000			9.084			-2.271
112405.000			9.085			-2.271
112504.000			9.084			-2.271
112604.000			9.084			-2.271
112705.000			9.084			-2.271
112803.000			9.084			-2.271
112905.000			9.083			-2.271
113004.000			9.082			-2.270
113104.000			9.083			-2.271
113205.000			9.082			-2.271
113304.000			9.082			-2.270
113404.000			9.083			-2.271
113504.000			9.083			-2.271
113604.000			9.082			-2.271
113704.000			9.082			-2.270
113805.000			9.082			-2.270
113904.000			9.081			-2.270
114004.000			9.081			-2.270
114105.000			9.080			-2.270
114203.000			9.081			-2.270
114304.000			9.081			-2.270
114405.000			9.080			-2.270
114504.000			9.080			-2.270
114604.000			9.080			-2.270
114705.000			9.080			-2.270
114804.000			9.080			-2.270
114903.000			9.079			-2.270
115005.000			9.079			-2.270
115104.000			9.079			-2.270
115204.000			9.078			-2.270
115305.000			9.077			-2.269
115404.000			9.077			-2.269
115504.000			9.077			-2.269
115604.000			9.078			-2.270
115704.000			9.078			-2.269
115804.000			9.078			-2.270
115904.000			9.078			-2.269
116004.000			9.077			-2.269
116105.000			9.077			-2.269
116204.000			9.077			-2.269
116304.000			9.076			-2.269
116405.000			9.076			-2.269
116503.000			9.076			-2.269
116604.000			9.076			-2.269
116705.000			9.076			-2.269
116804.000			9.076			-2.269
116904.000			9.075			-2.269
117005.000			9.074			-2.269
117104.000			9.074			-2.269
117203.000			9.075			-2.269
117305.000			9.075			-2.269
117404.000			9.075			-2.269
117504.000			9.074			-2.268
117605.000			9.073			-2.268
117704.000			9.073			-2.268
117804.000			9.074			-2.268
117904.000			9.073			-2.268
118004.000			9.072			-2.268
118104.000			9.072			-2.268
118205.000			9.072			-2.268
118304.000			9.072			-2.268
118404.000			9.072			-2.268
118505.000			9.072			-2.268
118603.000			9.071			-2.268
118704.000			9.071			-2.268
118805.000			9.071			-2.268
118904.000			9.071			-2.268
119004.000			9.071			-2.268
119104.000			9.071			-2.268
119204.000			9.069			-2.267
119303.000			9.070			-2.267
119404.000			9.070			-2.268
119503.000			9.071			-2.268
119605.000			9.070			-2.268
119704.000			9.070			-2.267
119804.000			9.069			-2.267
119905.000			9.068			-2.267
120004.000			9.069			-2.267
120104.000			9.069			-2.267
120204.000			9.068			-2.267
120304.000			9.067			-2.267
120404.000			9.068			-2.267
120505.000			9.068			-2.267
120604.000			9.067			-2.267
120704.000			9.069			-2.267
120805.000			9.068			-2.267
120903.000			9.067			-2.267
121004.000			9.067			-2.267
121105.000			9.067			-2.267
121204.000			9.067			-2.267
121304.000			9.066			-2.267
121405.000			9.067			-2.267
121504.000			9.066			-2.266
121603.000			9.066			-2.266
121705.000			9.066			-2.266
121804.000			9.066			-2.266
121904.000			9.066			-2.266
122005.000			9.065			-2.266
122104.000			9.065			-2.266
122204.000			9.065			-2.266
122303.000			9.064			-2.266
122404.000			9.064			-2.266
122505.000			9.065			-2.266
122604.000			9.065			-2.266
122704.000			9.064			-2.266
122805.000			9.063			-2.266
122904.000			9.064			-2.266
123003.000			9.064			-2.266
123105.000			9.063			-2.266
123204.000			9.063			-2.266
123304.000			9.063			-2.266
123405.000			9.063			-2.266
123504.000			9.063			-2.266
123604.000			9.062			-2.266
123704.000			9.062			-2.266
123804.000			9.062			-2.266
123904.000			9.062			-2.266
124005.000			9.061			-2.265
124104.000			9.060			-2.265
124204.000			9.061			-2.265
124305.000			9.060			-2.265
124403.000			9.060			-2.265
124504.000			9.061			-2.265
124605.000			9.061			-2.265
124704.000			9.061			-2.265
124804.000			9.061			-2.265
124905.000			9.060			-2.265
125004.000			9.060			-2.265
125103.000			9.060			-2.265
125205.000			9.059			-2.265
125304.000			9.059			-2.265
125404.000			9.059			-2.265
125505.000			9.059			-2.265
125604.000			9.059			-2.265
125705.000			9.058			-2.265
125803.000			9.058			-2.265
125904.000			9.058			-2.265
126005.000			9.057			-2.264
126104.000			9.057			-2.264
126204.000			9.058			-2.264
126305.000			9.058			-2.265
126404.000			9.057			-2.264
126503.000			9.056			-2.264
126605.000			9.055			-2.264
126703.000			9.056			-2.264
126804.000			9.056			-2.264
126905.000			9.056			-2.264
127004.000			9.057			-2.264
127104.000			9.057			-2.264
127205.000			9.055			-2.264
127304.000			9.055			-2.264
127403.000			9.054			-2.264
127505.000			9.054			-2.264
127604.000			9.054			-2.264
127704.000			9.054			-2.263
127805.000			9.054			-2.264
127904.000			9.055			-2.264
128004.000			9.054			-2.264
128104.000			9.054			-2.263
128204.000			9.053			-2.263
128304.000			9.053			-2.263
128405.000			9.054			-2.264
128504.000			9.054			-2.264
128604.000			9.054			-2.263
128705.000			9.054			-2.263
128803.000			9.054			-2.263
128905.000			9.053			-2.263
129003.000			9.052			-2.263
129104.000			9.051			-2.263
129205.000			9.052			-2.263
129304.000			9.052			-2.263
129404.000			9.052			-2.263
129505.000			9.052			-2.263
129604.000			9.052			-2.263
129703.000			9.052			-2.263
129805.000			9.050			-2.263
129904.000			9.049			-2.262
130004.000			9.051			-2.263
130105.000			9.050			-2.263
130204.000			9.050			-2.262
130304.000			9.050			-2.262
130404.000			9.050			-2.262
130504.000			9.049			-2.262
130604.000			9.049			-2.262
130705.000			9.050			-2.262
130804.000			9.050			-2.262
130904.000			9.049			-2.262
131005.000			9.049			-2.262
131103.000			9.048			-2.262
131204.000			9.048			-2.262
131305.000			9.049			-2.262
131404.000			9.048			-2.262
131504.000			9.048			-2.262
131605.000			9.048			-2.262
131704.000			9.047			-2.262
131803.000			9.047			-2.262
131905.000			9.047			-2.262
132003.000			9.046			-2.262
132105.000			9.047			-2.262
132204.000			9.047			-2.262
132304.000			9.046			-2.262
132405.000			9.045			-2.261
132504.000			9.045			-2.261
132604.000			9.046			-2.261
132704.000			9.045			-2.261
132804.000			9.047			-2.262
132904.000			9.046			-2.262
133005.000			9.045			-2.261
133104.000			9.045			-2.261
133204.000			9.045			-2.261
133305.000			9.044			-2.261
133404.000			9.044			-2.261
133504.000			9.044			-2.261
133604.000			9.044			-2.261
133704.000			9.044			-2.261
133804.000			9.044			-2.261
133905.000			9.044			-2.261
134004.000			9.044			-2.261
134104.000			9.044			-2.261
134205.000			9.044			-2.261
134303.000			9.043			-2.261
134404.000			9.042			-2.261
134504.000			9.042			-2.260
134604.000			9.042			-2.261
134704.000			9.042			-2.260
134805.000			9.040			-2.260
134904.000			9.041			-2.260
135004.000			9.042			-2.260
135105.000			9.042			-2.260
135203.000			9.041			-2.260
135305.000			9.041			-2.260
135404.000			9.041			-2.260
135504.000			9.040			-2.260
135605.000			9.040			-2.260
135704.000			9.040			-2.260
135804.000			9.040			-2.260
135905.000			9.040			-2.260
136004.000			9.039			-2.260
136103.000			9.040			-2.260
136205.000			9.039			-2.260
136304.000			9.039			-2.260
136404.000			9.039			-2.260
136505.000			9.039			-2.260
136604.000			9.038			-2.260
136704.000			9.040			-2.260
136805.000			9.039			-2.260
136904.000			9.039			-2.260
137003.000			9.039			-2.260
137105.000			9.037			-2.259
137204.000			9.037			-2.259
137304.000			9.038			-2.259
137405.000			9.036			-2.259
137504.000			9.037			-2.259
137604.000			9.037			-2.259
137705.000			9.037			-2.259
137804.000			9.037			-2.259
137903.000			9.036			-2.259
138005.000			9.036			-2.259
138104.000			9.035			-2.259
138204.000			9.036			-2.259
138305.000			9.037			-2.259
138404.000			9.036			-2.259
138505.000			9.035			-2.259
138603.000			9.035			-2.259
138704.000			9.034			-2.259
138804.000			9.035			-2.259
138904.000			9.035			-2.259
139004.000			9.035			-2.259
139105.000			9.035			-2.259
139204.000			9.035			-2.259
139304.000			9.034			-2.259
139405.000			9.033			-2.258
139503.000			9.034			-2.258
139604.000			9.034			-2.259
139704.000			9.034			-2.259
139804.000			9.034			-2.258
139904.000			9.032			-2.258
140005.000			9.033			-2.258
140104.000			9.034			-2.258
140204.000			9.033			-2.258
140305.000			9.032			-2.258
140403.000			9.032			-2.258
140504.000			9.031			-2.258
140605.000			9.032			-2.258
140704.000			9.031			-2.258
140804.000			9.032			-2.258
140905.000			9.032			-2.258
141004.000			9.032			-2.258
141103.000			9.032			-2.258
141205.000			9.031			-2.258
141304.000			9.031			-2.258
141404.000			9.031			-2.258
141505.000			9.031			-2.258
141604.000			9.031			-2.258
141705.000			9.031			-2.258
141804.000			9.031			-2.258
141904.000			9.031			-2.258
142004.000			9.030			-2.257
142104.000			9.030			-2.258
142204.000			9.031			-2.258
142305.000			9.031			-2.258
142404.000			9.030			-2.258
142504.000			9.030			-2.257
142605.000			9.030			-2.257
142703.000			9.030			-2.257
142804.000			9.030			-2.257
142904.000			9.029			-2.257
143004.000			9.029			-2.257
143104.000			9.028			-2.257
143205.000			9.028			-2.257
143304.000			9.027			-2.257
143404.000			9.028			-2.257
143505.000			9.028			-2.257
143603.000			9.028			-2.257
143704.000			9.028			-2.257
143805.000			9.027			-2.257
143904.000			9.027			-2.257
144004.000			9.027			-2.257
144105.000			9.027			-2.257
144204.000			9.027			-2.257
144304.000			9.026			-2.256
144405.000			9.026			-2.257
144503.000			9.026			-2.257
144604.000			9.026			-2.256
144705.000			9.025			-2.256
144804.000			9.025			-2.256
144905.000			9.025			-2.256
145004.000			9.025			-2.256
145104.000			9.025			-2.256
145205.000			9.025			-2.256
145304.000			9.025			-2.256
145403.000			9.024			-2.256
145505.000			9.023			-2.256
145604.000			9.024			-2.256
145704.000			9.024			-2.256
145805.000			9.023			-2.256
145904.000			9.024			-2.256
146004.000			9.024			-2.256
146104.000			9.024			-2.256
146204.000			9.024			-2.256
146303.000			9.023			-2.256
146405.000			9.023			-2.256
146504.000			9.023			-2.256
146604.000			9.023			-2.256
146705.000			9.022			-2.256
146804.000			9.022			-2.256
146904.000			9.022			-2.255
147004.000			9.022			-2.255
147104.000			9.021			-2.255
147204.000			9.021			-2.255
147305.000			9.021			-2.255
147404.000			9.021			-2.255
147504.000			9.021			-2.255
147605.000			9.020			-2.255
147704.000			9.021			-2.255
147804.000			9.020			-2.255
147903.000			9.020			-2.255
148004.000			9.019			-2.255
148105.000			9.019			-2.255
148204.000			9.020			-2.255
148304.000			9.020			-2.255
148405.000			9.020			-2.255
148504.000			9.020			-2.255
148604.000			9.020			-2.255
148705.000			9.020			-2.255
148803.000			9.020			-2.255
148904.000			9.019			-2.255
149005.000			9.018			-2.255
149104.000			9.019			-2.255
149204.000			9.019			-2.255
149305.000			9.018			-2.255
149404.000			9.018			-2.254
149504.000			9.018			-2.254
149605.000			9.018			-2.254
149703.000			9.017			-2.254
149804.000			9.017			-2.254
149905.000			9.018			-2.254
150004.000			9.018			-2.254
150104.000			9.017			-2.254
150205.000			9.017			-2.254
150304.000			9.017			-2.254
150404.000			9.018			-2.254
150505.000			9.017			-2.254
150603.000			9.016			-2.254
150704.000			9.016			-2.254
150805.000			9.015			-2.254
150904.000			9.016			-2.254
151004.000			9.016			-2.254
151104.000			9.015			-2.254
151204.000			9.015			-2.254
151303.000			9.016			-2.254
151404.000			9.016			-2.254
151503.000			9.015			-2.254
151605.000			9.015			-2.254
151704.000			9.015			-2.254
151804.000			9.015			-2.254
151905.000			9.013			-2.253
152004.000			9.013			-2.253
152104.000			9.015			-2.254
152204.000			9.014			-2.253
152304.000			9.013			-2.253
152404.000			9.014			-2.253
152505.000			9.014			-2.254
152604.000			9.013			-2.253
152704.000			9.012			-2.253
152805.000			9.013			-2.253
152904.000			9.013			-2.253
153004.000			9.013			-2.253
153104.000			9.012			-2.253
153204.000			9.011			-2.253
153304.000			9.011			-2.253
153405.000			9.011			-2.253
153504.000			9.012			-2.253
153604.000			9.012			-2.253
153705.000			9.010			-2.253
153803.000			9.011			-2.253
153904.000			9.011			-2.253
154005.000			9.011			-2.253
154104.000			9.010			-2.253
154204.000			9.010			-2.253
154304.000			9.010			-2.252
154404.000			9.009			-2.252
154505.000			9.010			-2.252
154604.000			9.010			-2.253
154703.000			9.010			-2.253
154805.000			9.011			-2.253
154904.000			9.011			-2.253
155004.000			9.010			-2.252
155105.000			9.009			-2.252
155204.000			9.008			-2.252
155304.000			9.009			-2.252
155404.000			9.008			-2.252
155504.000			9.008			-2.252
155603.000			9.008			-2.252
155705.000			9.008			-2.252
155804.000			9.009			-2.252
155904.000			9.008			-2.252
156005.000			9.007			-2.252
156104.000			9.008			-2.252
156204.000			9.008			-2.252
156304.000			9.008			-2.252
156404.000			9.008			-2.252
156504.000			9.008			-2.252
156605.000			9.007			-2.252
156704.000			9.006			-2.252
156804.000			9.006			-2.252
156905.000			9.006			-2.252
157004.000			9.006			-2.252
157104.000			9.006			-2.251
157204.000			9.006			-2.252
157304.000			9.005			-2.251
157404.000			9.006			-2.252
157504.000			9.007			-2.252
157604.000			9.007			-2.252
157705.000			9.007			-2.252
157804.000			9.006			-2.252
157904.000			9.005			-2.251
158005.000			9.005			-2.251
158103.000			9.004			-2.251
158204.000			9.004			-2.251
158305.000			9.005			-2.251
158404.000			9.005			-2.251
158504.000			9.004			-2.251
158605.000			9.003			-2.251
158704.000			9.003			-2.251
158804.000			9.004			-2.251
158905.000			9.004			-2.251
159003.000			9.003			-2.251
159104.000			9.004			-2.251
159205.000			9.004			-2.251
159304.000			9.003			-2.251
159404.000			9.002			-2.251
159505.000			9.002			-2.250
159604.000			9.001			-2.250
159703.000			9.001			-2.250
159805.000			9.003			-2.251
159903.000			9.002			-2.251
160004.000			9.001			-2.250
160105.000			9.002			-2.250
160204.000			9.001			-2.250
160304.000			9.001			-2.250
160405.000			9.002			-2.250
160504.000			9.001			-2.250
160603.000			9.000			-2.250
160705.000			9.002			-2.250
160804.000			9.001			-2.250
160905.000			9.001			-2.250
161004.000			9.001			-2.250
161104.000			9.000			-2.250
161205.000			9.000			-2.250
161303.000			9.000			-2.250
161404.000			8.999			-2.250
161505.000			9.000			-2.250
161604.000			9.000			-2.250
161704.000			9.000			-2.250
161805.000			9.000			-2.250
161904.000			8.999			-2.250
162004.000			8.999			-2.250
162105.000			8.999			-2.250
162203.000			8.999			-2.250
162304.000			8.998			-2.249
162404.000			8.997			-2.249
162504.000			8.998			-2.249
162604.000			8.998			-2.249
162705.000			8.998			-2.249
162804.000			8.998			-2.249
162904.000			8.998			-2.249
163005.000			8.996			-2.249
163104.000			8.997			-2.249
163204.000			8.997			-2.249
163304.000			8.996			-2.249
163404.000			8.997			-2.249
163504.000			8.997			-2.249
163605.000			8.997			-2.249
163704.000			8.996			-2.249
163804.000			8.995			-2.249
163905.000			8.996			-2.249
164004.000			8.996			-2.249
164105.000			8.996			-2.249
164203.000			8.995			-2.249
164304.000			8.995			-2.249
164404.000			8.995			-2.249
164504.000			8.995			-2.249
164604.000			8.995			-2.249
164705.000			8.994			-2.249
164804.000			8.994			-2.249
164904.000			8.994			-2.249
165005.000			8.994			-2.248
165104.000			8.994			-2.249
165204.000			8.994			-2.248
165304.000			8.994			-2.249
165404.000			8.995			-2.249
165504.000			8.995			-2.249
165605.000			8.994			-2.249
165704.000			8.994			-2.249
165804.000			8.993			-2.248
165905.000			8.992			-2.248
166004.000			8.992			-2.248
166104.000			8.993			-2.248
166204.000			8.994			-2.249
166304.000			8.993			-2.248
166403.000			8.993			-2.248
166505.000			8.993			-2.248
166604.000			8.992			-2.248
166704.000			8.992			-2.248
166805.000			8.992			-2.248
166904.000			8.992			-2.248
167004.000			8.991			-2.248
167104.000			8.991			-2.248
167204.000			8.992			-2.248
167303.000			8.993			-2.248
167404.000			8.991			-2.248
167504.000			8.990			-2.248
167605.000			8.991			-2.248
167704.000			8.990			-2.248
167804.000			8.990			-2.247
167905.000			8.991			-2.248
168004.000			8.991			-2.248
168104.000			8.991			-2.248
168204.000			8.990			-2.248
168304.000			8.989			-2.247
168404.000			8.989			-2.247
168505.000			8.989			-2.247
168604.000			8.990			-2.248
168704.000			8.990			-2.248
168805.000			8.988			-2.247
168904.000			8.989			-2.247
169004.000			8.989			-2.247
169104.000			8.989			-2.247
169204.000			8.988			-2.247
169303.000			8.987			-2.247
169405.000			8.988			-2.247
169504.000			8.988			-2.247
169604.000			8.989			-2.247
169705.000			8.989			-2.247
169804.000			8.988			-2.247
169904.000			8.988			-2.247
170005.000			8.988			-2.247
170104.000			8.987			-2.247
170203.000			8.987			-2.247
170305.000			8.987			-2.247
170403.000			8.987			-2.247
170505.000			8.987			-2.247
170604.000			8.987			-2.247
170704.000			8.986			-2.247
170805.000			8.986			-2.247
170904.000			8.986			-2.246
171004.000			8.986			-2.246
171105.000			8.986			-2.246
171204.000			8.987			-2.247
171303.000			8.987			-2.247
171405.000			8.986			-2.246
171504.000			8.985			-2.246
171604.000			8.986			-2.246
171705.000			8.985			-2.246
171804.000			8.985			-2.246
171904.000			8.985			-2.246
172005.000			8.985			-2.246
172104.000			8.984			-2.246
172203.000			8.984			-2.246
172305.000			8.984			-2.246
172404.000			8.984			-2.246
172504.000			8.984			-2.246
172605.000			8.984			-2.246
172704.000			8.984			-2.246
172804.000			8.984			-2.246
172905.000			8.983			-2.246
173004.000			8.984			-2.246
173103.000			8.983			-2.246
173205.000			8.982			-2.246
173303.000			8.982			-2.245
173404.000			8.983			-2.246
173505.000			8.982			-2.246
173604.000			8.981			-2.245
173705.000			8.981			-2.245
173804.000			8.982			-2.246
173904.000			8.982			-2.245
174005.000			8.982			-2.245
174104.000			8.982			-2.245
174203.000			8.981			-2.245
174305.000			8.982			-2.245
174404.000			8.982			-2.245
174504.000			8.981			-2.245
174605.000			8.980			-2.245
174704.000			8.981			-2.245
174804.000			8.981			-2.245
174905.000			8.981			-2.245
175004.000			8.981			-2.245
175103.000			8.980			-2.245
175205.000			8.980			-2.245
175304.000			8.980			-2.245
175404.000			8.979			-2.245
175505.000			8.981			-2.245
175604.000			8.980			-2.245
175704.000			8.979			-2.245
175805.000			8.979			-2.245
175904.000			8.979			-2.245
176004.000			8.978			-2.245
176105.000			8.978			-2.245
176203.000			8.978			-2.244
176304.000			8.978			-2.244
176405.000			8.978			-2.245
176504.000			8.978			-2.245
176604.000			8.979			-2.245
176704.000			8.980			-2.245
176804.000			8.979			-2.245
176905.000			8.978			-2.244
177004.000			8.977			-2.244
177103.000			8.977			-2.244
177205.000			8.977			-2.244
177303.000			8.977			-2.244
177404.000			8.977			-2.244
177505.000			8.977			-2.244
177604.000			8.977			-2.244
177704.000			8.978			-2.244
177805.000			8.977			-2.244
177904.000			8.976			-2.244
178004.000			8.977			-2.244
178105.000			8.976			-2.244
178204.000			8.975			-2.244
178304.000			8.977			-2.244
178404.000			8.977			-2.244
178504.000			8.975			-2.244
178604.000			8.975			-2.244
178705.000			8.976			-2.244
178804.000			8.977			-2.244
178904.000			8.976			-2.244
179005.000			8.975			-2.244
179104.000			8.975			-2.244
179204.000			8.975			-2.244
179304.000			8.975			-2.244
179404.000			8.975			-2.244
179503.000			8.977			-2.244
179605.000			8.975			-2.244
179704.000			8.975			-2.244
179804.000			8.974			-2.243
179905.000			8.975			-2.244
180004.000			8.974			-2.244
180105.000			8.973			-2.243
180204.000			8.973			-2.243
180304.000			8.974			-2.244
180404.000			8.975			-2.244
180504.000			8.974			-2.243
180604.000			8.973			-2.243
180705.000			8.972			-2.243
180804.000			8.973			-2.243
180904.000			8.973			-2.243
181005.000			8.973			-2.243
181104.000			8.972			-2.243
181204.000			8.973			-2.243
181304.000			8.972			-2.243
181404.000			8.972			-2.243
181503.000			8.972			-2.243
181605.000			8.973			-2.243
181704.000			8.972			-2.243
181804.000			8.971			-2.243
181905.000			8.970			-2.243
182004.000			8.971			-2.243
182104.000			8.971			-2.243
182204.000			8.971			-2.243
182304.000			8.971			-2.243
182403.000			8.970			-2.243
182505.000			8.970			-2.243
182604.000			8.970			-2.243
182704.000			8.970			-2.242
182805.000			8.971			-2.243
182904.000			8.970			-2.243
183004.000			8.970			-2.243
183104.000			8.971			-2.243
183204.000			8.970			-2.243
183303.000			8.970			-2.243
183404.000			8.970			-2.242
183504.000			8.970			-2.242
183605.000			8.970			-2.242
183704.000			8.970			-2.242
183804.000			8.969			-2.242
183905.000			8.969			-2.242
184004.000			8.970			-2.242
184104.000			8.970			-2.242
184204.000			8.969			-2.242
184304.000			8.969			-2.242
184403.000			8.968			-2.242
184505.000			8.968			-2.242
184604.000			8.969			-2.242
184704.000			8.969			-2.242
184805.000			8.968			-2.242
184904.000			8.968			-2.242
185004.000			8.968			-2.242
185104.000			8.967			-2.242
185204.000			8.967			-2.242
185303.000			8.967			-2.242
185405.000			8.967			-2.242
185504.000			8.967			-2.242
185604.000			8.967			-2.242
185705.000			8.967			-2.242
185804.000			8.967			-2.242
185904.000			8.967			-2.242
186005.000			8.966			-2.242
186104.000			8.967			-2.242
186203.000			8.966			-2.242
186305.000			8.966			-2.242
186404.000			8.966			-2.242
186505.000			8.966			-2.242
186604.000			8.965			-2.241
186704.000			8.966			-2.241
186805.000			8.966			-2.241
186904.000			8.965			-2.241
187004.000			8.965			-2.241
187105.000			8.964			-2.241
187204.000			8.965			-2.241
187303.000			8.965			-2.241
187405.000			8.965			-2.241
187504.000			8.964			-2.241
187604.000			8.964			-2.241
187705.000			8.964			-2.241
187804.000			8.964			-2.241
187904.000			8.964			-2.241
188005.000			8.964			-2.241
188104.000			8.963			-2.241
188204.000			8.963			-2.241
188305.000			8.963			-2.241
188403.000			8.964			-2.241
188504.000			8.963			-2.241
188605.000			8.963			-2.241
188704.000			8.963			-2.241
188804.000			8.963			-2.241
188905.000			8.963			-2.241
189004.000			8.963			-2.241
189104.000			8.963			-2.241
189205.000			8.963			-2.241
189303.000			8.962			-2.240
189404.000			8.962			-2.240
189503.000			8.962			-2.240
189604.000			8.962			-2.241
189705.000			8.961			-2.240
189804.000			8.962			-2.240
189904.000			8.962			-2.240
190005.000			8.961			-2.240
190104.000			8.962			-2.241
190204.000			8.962			-2.240
190305.000			8.962			-2.240
190403.000			8.961			-2.240
190504.000			8.962			-2.240
190605.000			8.962			-2.240
190704.000			8.961			-2.240
190804.000			8.961			-2.240
190905.000			8.960			-2.240
191004.000			8.960			-2.240
191104.000			8.961			-2.240
191205.000			8.961			-2.240
191303.000			8.961			-2.240
191404.000			8.960			-2.240
191505.000			8.960			-2.240
191604.000			8.959			-2.240
191704.000			8.958			-2.240
191805.000			8.958			-2.240
191904.000			8.959			-2.240
192004.000			8.958			-2.240
192105.000			8.958			-2.240
192203.000			8.959			-2.240
192304.000			8.958			-2.240
192404.000			8.959			-2.240
192504.000			8.959			-2.240
192604.000			8.957			-2.239
192704.000			8.958			-2.239
192804.000			8.957			-2.239
192905.000			8.957			-2.239
193004.000			8.958			-2.239
193104.000			8.957			-2.239
193205.000			8.957			-2.239
193303.000			8.956			-2.239
193404.000			8.956			-2.239
193505.000			8.956			-2.239
193604.000			8.957			-2.239
193704.000			8.957			-2.239
193805.000			8.957			-2.239
193904.000			8.956			-2.239
194004.000			8.956			-2.239
194105.000			8.957			-2.239
194203.000			8.956			-2.239
194304.000			8.957			-2.239
194404.000			8.956			-2.239
194504.000			8.957			-2.239
194604.000			8.956			-2.239
194705.000			8.956			-2.239
194804.000			8.956			-2.239
194904.000			8.956			-2.239
195005.000			8.956			-2.239
195104.000			8.956			-2.239
195204.000			8.956			-2.239
195304.000			8.955			-2.239
195404.000			8.955			-2.239
195504.000			8.956			-2.239
195605.000			8.955			-2.239
195704.000			8.955			-2.239
195804.000			8.954			-2.239
195905.000			8.954			-2.239
196004.000			8.953			-2.238
196105.000			8.953			-2.238
196203.000			8.954			-2.238
196304.000			8.953			-2.238
196404.000			8.953			-2.238
196504.000			8.953			-2.238
196604.000			8.954			-2.238
196705.000			8.954			-2.239
196804.000			8.953			-2.238
196904.000			8.953			-2.238
197005.000			8.953			-2.238
197104.000			8.952			-2.238
197204.000			8.953			-2.238
197304.000			8.952			-2.238
197404.000			8.952			-2.238
197504.000			8.951			-2.238
197605.000			8.951			-2.238
197704.000			8.952			-2.238
197804.000			8.952			-2.238
197905.000			8.952			-2.238
198004.000			8.951			-2.238
198104.000			8.951			-2.238
198204.000			8.951			-2.238
198304.000			8.950			-2.238
198403.000			8.951			-2.238
198505.000			8.951			-2.238
198604.000			8.951			-2.238
198704.000			8.951			-2.238
198805.000			8.951			-2.238
198904.000			8.951			-2.238
199004.000			8.951			-2.238
199104.000			8.950			-2.237
199204.000			8.950			-2.237
199303.000			8.950			-2.237
199404.000			8.950			-2.237
199504.000			8.950			-2.237
199605.000			8.949			-2.237
199704.000			8.950			-2.238
199804.000			8.949			-2.237
199905.000			8.950			-2.237
200004.000			8.950			-2.238
200104.000			8.949			-2.237
200204.000			8.950			-2.237
200304.000			8.950			-2.237
200403.000			8.949			-2.237
200505.000			8.950			-2.237
200604.000			8.950			-2.237
200704.000			8.950			-2.237
200805.000			8.950			-2.237
200904.000			8.949			-2.237
201004.000			8.950			-2.237
201104.000			8.950			-2.238
201204.000			8.950			-2.237
201303.000			8.950			-2.238
201405.000			8.950			-2.238
201504.000			8.949			-2.237
201604.000			8.950			-2.237
201705.000			8.950			-2.238
201804.000			8.950			-2.238
201904.000			8.949			-2.237
202004.000			8.948			-2.237
202104.000			8.948			-2.237
202204.000			8.948			-2.237
202304.000			8.949			-2.237
202404.000			8.948			-2.237
202505.000			8.948			-2.237
202604.000			8.948			-2.237
202704.000			8.948			-2.237
202805.000			8.947			-2.237
202903.000			8.948			-2.237
203004.000			8.948			-2.237
203105.000			8.947			-2.237
203204.000			8.947			-2.237
203304.000			8.948			-2.237
203405.000			8.947			-2.237
203504.000			8.946			-2.237
203604.000			8.947			-2.237
203705.000			8.946			-2.237
203803.000			8.947			-2.237
203904.000			8.946			-2.237
204005.000			8.947			-2.237
204104.000			8.946			-2.236
204204.000			8.946			-2.236
204305.000			8.946			-2.236
204404.000			8.946			-2.236
204504.000			8.945			-2.236
204605.000			8.945			-2.236
204703.000			8.946			-2.236
204804.000			8.945			-2.236
204904.000			8.945			-2.236
205004.000			8.945			-2.236
205104.000			8.944			-2.236
205205.000			8.944			-2.236
205304.000			8.945			-2.236
205404.000			8.945			-2.236
205505.000			8.945			-2.236
205603.000			8.944			-2.236
205705.000			8.945			-2.236
205803.000			8.944			-2.236
205904.000			8.945			-2.236
206005.000			8.944			-2.236
206104.000			8.945			-2.236
206204.000			8.944			-2.236
206305.000			8.943			-2.236
206404.000			8.943			-2.236
206503.000			8.943			-2.236
206605.000			8.943			-2.236
206703.000			8.944			-2.236
206804.000			8.942			-2.236
206905.000			8.942			-2.235
207004.000			8.942			-2.235
207104.000			8.942			-2.236
207205.000			8.943			-2.236
207304.000			8.943			-2.236
207403.000			8.943			-2.236
207505.000			8.942			-2.235
207603.000			8.942			-2.236
207704.000			8.942			-2.235
207805.000			8.942			-2.235
207904.000			8.942			-2.235
208004.000			8.941			-2.235
208105.000			8.940			-2.235
208204.000			8.941			-2.235
208303.000			8.942			-2.235
208405.000			8.941			-2.235
208503.000			8.940			-2.235
208604.000			8.941			-2.235
208705.000			8.941			-2.235
208804.000			8.941			-2.235
208905.000			8.940			-2.235
209004.000			8.940			-2.235
209104.000			8.939			-2.235
209204.000			8.939			-2.235
209304.000			8.939			-2.235
209403.000			8.939			-2.235
209505.000			8.940			-2.235
209604.000			8.940			-2.235
209704.000			8.941			-2.235
209805.000			8.938			-2.235
209904.000			8.938			-2.234
210004.000			8.938			-2.235
210104.000			8.938			-2.235
210204.000			8.938			-2.235
210303.000			8.938			-2.235
210405.000			8.939			-2.235
210504.000			8.939			-2.235
210604.000			8.938			-2.235
210705.000			8.938			-2.235
210804.000			8.939			-2.235
210904.000			8.938			-2.234
211004.000			8.937			-2.234
211104.000			8.937			-2.234
211203.000			8.937			-2.234
211305.000			8.937			-2.234
211404.000			8.937			-2.234
211504.000			8.937			-2.234
211605.000			8.936			-2.234
211704.000			8.936			-2.234
211804.000			8.937			-2.234
211903.000			8.937			-2.234
212004.000			8.936			-2.234
212103.000			8.936			-2.234
212204.000			8.936			-2.234
212304.000			8.936			-2.234
212405.000			8.937			-2.234
212504.000			8.937			-2.234
212604.000			8.936			-2.234
212705.000			8.936			-2.234
212803.000			8.935			-2.234
212904.000			8.936			-2.234
213005.000			8.935			-2.234
213104.000			8.935			-2.234
213204.000			8.936			-2.234
213305.000			8.934			-2.233
213404.000			8.936			-2.234
213504.000			8.937			-2.234
213605.000			8.935			-2.234
213703.000			8.935			-2.234
213804.000			8.934			-2.233
213905.000			8.933			-2.233
214004.000			8.933			-2.233
214104.000			8.934			-2.234
214205.000			8.935			-2.234
214304.000			8.934			-2.234
214404.000			8.933			-2.233
214505.000			8.935			-2.234
214603.000			8.935			-2.234
214704.000			8.933			-2.233
214805.000			8.933			-2.233
214904.000			8.934			-2.233
215004.000			8.933			-2.233
215104.000			8.933			-2.233
215204.000			8.932			-2.233
215305.000			8.932			-2.233
215404.000			8.932			-2.233
215503.000			8.933			-2.233
215605.000			8.932			-2.233
215704.000			8.932			-2.233
215804.000			8.932			-2.233
215905.000			8.933			-2.233
216004.000			8.933			-2.233
216104.000			8.933			-2.233
216204.000			8.932			-2.233
216304.000			8.931			-2.233
216403.000			8.932			-2.233
216505.000			8.931			-2.233
216604.000			8.932			-2.233
216704.000			8.932			-2.233
216805.000			8.931			-2.233
216904.000			8.930			-2.233
217004.000			8.931			-2.233
217104.000			8.931			-2.233
217204.000			8.932			-2.233
217303.000			8.931			-2.233
217405.000			8.931			-2.233
217504.000			8.930			-2.233
217604.000			8.930			-2.233
217705.000			8.930			-2.232
217804.000			8.930			-2.233
217904.000			8.930			-2.232
218004.000			8.930			-2.233
218104.000			8.931			-2.233
218203.000			8.930			-2.233
218305.000			8.930			-2.232
218404.000			8.930			-2.232
218505.000			8.931			-2.233
218604.000			8.930			-2.233
218704.000			8.930			-2.232
218805.000			8.930			-2.232
218903.000			8.930			-2.232
219004.000			8.929			-2.232
219104.000			8.929			-2.232
219204.000			8.929			-2.232
219304.000			8.929			-2.232
219405.000			8.929			-2.232
219504.000			8.928			-2.232
219604.000			8.929			-2.232
219705.000			8.928			-2.232
219804.000			8.928			-2.232
219904.000			8.928			-2.232
220004.000			8.928			-2.232
220104.000			8.928			-2.232
220204.000			8.927			-2.232
220305.000			8.927			-2.232
220404.000			8.927			-2.232
220504.000			8.927			-2.232
220605.000			8.926			-2.232
220704.000			8.927			-2.232
220804.000			8.927			-2.232
220904.000			8.926			-2.232
221004.000			8.926			-2.232
221104.000			8.926			-2.232
221205.000			8.925			-2.231
221304.000			8.926			-2.231
221404.000			8.926			-2.232
221505.000			8.926			-2.232
221603.000			8.925			-2.231
221705.000			8.925			-2.231
221803.000			8.925			-2.231
221904.000			8.926			-2.231
222005.000			8.926			-2.232
222104.000			8.925			-2.231
222204.000			8.925			-2.231
222305.000			8.925			-2.231
222404.000			8.925			-2.231
222503.000			8.926			-2.231
222605.000			8.926			-2.232
222704.000			8.925			-2.231
222804.000			8.925			-2.231
222905.000			8.925			-2.231
223004.000			8.924			-2.231
223104.000			8.923			-2.231
223205.000			8.923			-2.231
223304.000			8.923			-2.231
223403.000			8.924			-2.231
223505.000			8.924			-2.231
223604.000			8.923			-2.231
223704.000			8.923			-2.231
223805.000			8.924			-2.231
223904.000			8.923			-2.231
224004.000			8.923			-2.231
224105.000			8.922			-2.231
224204.000			8.923			-2.231
224303.000			8.923			-2.231
224405.000			8.922			-2.231
224504.000			8.923			-2.231
224604.000			8.923			-2.231
224705.000			8.922			-2.231
224804.000			8.922			-2.230
224905.000			8.922			-2.231
225004.000			8.922			-2.230
225104.000			8.921			-2.230
225204.000			8.922			-2.230
225304.000			8.921			-2.230
225404.000			8.922			-2.230
225505.000			8.922			-2.230
225604.000			8.921			-2.230
225704.000			8.921			-2.230
225805.000			8.921			-2.230
225904.000			8.921			-2.230
226004.000			8.921			-2.230
226104.000			8.921			-2.230
226204.000			8.921			-2.230
226304.000			8.921			-2.230
226405.000			8.922			-2.230
226504.000			8.921			-2.230
226604.000			8.919			-2.230
226705.000			8.920			-2.230
226804.000			8.920			-2.230
226904.000			8.920			-2.230
227004.000			8.921			-2.230
227104.000			8.921			-2.230
227204.000			8.919			-2.230
227305.000			8.918			-2.230
227404.000			8.918			-2.229
227504.000			8.919			-2.230
227605.000			8.920			-2.230
227704.000			8.918			-2.230
227804.000			8.917			-2.229
227903.000			8.918			-2.230
228004.000			8.919			-2.230
228103.000			8.918			-2.230
228204.000			8.917			-2.229
228304.000			8.918			-2.229
228405.000			8.919			-2.230
228504.000			8.919			-2.230
228604.000			8.918			-2.229
228705.000			8.918			-2.229
228804.000			8.918			-2.229
228904.000			8.918			-2.230
229004.000			8.918			-2.230
229104.000			8.919			-2.230
229204.000			8.918			-2.229
229305.000			8.917			-2.229
229404.000			8.917			-2.229
229504.000			8.918			-2.229
229605.000			8.918			-2.229
229704.000			8.916			-2.229
229804.000			8.917			-2.229
229904.000			8.917			-2.229
230004.000			8.917			-2.229
230103.000			8.916			-2.229
230205.000			8.916			-2.229
230304.000			8.916			-2.229
230404.000			8.916			-2.229
230505.000			8.916			-2.229
230604.000			8.916			-2.229
230704.000			8.916			-2.229
230804.000			8.916			-2.229
230904.000			8.915			-2.229
231004.000			8.916			-2.229
231104.000			8.917			-2.229
231204.000			8.917			-2.229
231305.000			8.916			-2.229
231404.000			8.915			-2.229
231504.000			8.916			-2.229
231605.000			8.915			-2.229
231703.000			8.916			-2.229
231804.000			8.915			-2.229
231905.000			8.915			-2.229
232004.000			8.915			-2.229
232104.000			8.915			-2.229
232205.000			8.914			-2.229
232304.000			8.914			-2.229
232404.000			8.916			-2.229
232505.000			8.915			-2.229
232603.000			8.914			-2.229
232704.000			8.914			-2.228
232805.000			8.913			-2.228
232904.000			8.914			-2.229
233004.000			8.914			-2.229
233105.000			8.914			-2.228
233204.000			8.913			-2.228
233304.000			8.913			-2.228
233405.000			8.913			-2.228
233503.000			8.913			-2.228
233604.000			8.913			-2.228
233705.000			8.912			-2.228
233804.000			8.914			-2.228
233904.000			8.913			-2.228
234005.000			8.913			-2.228
234104.000			8.913			-2.228
234203.000			8.913			-2.228
234305.000			8.914			-2.228
234403.000			8.913			-2.228
234505.000			8.913			-2.228
234604.000			8.912			-2.228
234704.000			8.911			-2.228
234805.000			8.913			-2.228
234904.000			8.913			-2.228
235004.000			8.913			-2.228
235104.000			8.914			-2.228
235204.000			8.913			-2.228
235303.000			8.914			-2.228
235405.000			8.914			-2.228
235504.000			8.913			-2.228
235604.000			8.912			-2.228
235705.000			8.913			-2.228
235804.000			8.912			-2.228
235904.000			8.913			-2.228
236004.000			8.911			-2.228
236104.000			8.912			-2.228
236203.000			8.912			-2.228
236305.000			8.913			-2.228
236404.000			8.913			-2.228
236504.000			8.912			-2.228
236605.000			8.912			-2.228
236704.000			8.911			-2.228
236804.000			8.912			-2.228
236904.000			8.912			-2.228
237004.000			8.912			-2.228
237103.000			8.912			-2.228
237205.000			8.912			-2.228
237304.000			8.911			-2.228
237404.000			8.911			-2.228
237505.000			8.910			-2.228
237604.000			8.911			-2.228
237705.000			8.910			-2.228
237803.000			8.910			-2.228
237904.000			8.910			-2.227
238004.000			8.911			-2.228
238104.000			8.911			-2.228
238204.000			8.909			-2.227
238305.000			8.909			-2.227
238404.000			8.909			-2.227
238504.000			8.909			-2.227
238605.000			8.910			-2.228
238703.000			8.910			-2.227
238804.000			8.910			-2.227
238904.000			8.909			-2.227
239004.000			8.908			-2.227
239104.000			8.909			-2.227
239205.000			8.908			-2.227
239304.000			8.910			-2.227
239404.000			8.910			-2.227
239505.000			8.908			-2.227
239604.000			8.907			-2.227
239704.000			8.909			-2.227
239804.000			8.909			-2.227
239904.000			8.908			-2.227
240004.000			8.907			-2.227
240105.000			8.907			-2.227
240204.000			8.907			-2.227
240304.000			8.907			-2.227
240405.000			8.906			-2.227
240504.000			8.908			-2.227
240604.000			8.908			-2.227
240703.000			8.908			-2.227
240804.000			8.907			-2.227
240903.000			8.906			-2.226
241004.000			8.907			-2.227
241104.000			8.907			-2.227
241205.000			8.905			-2.226
241304.000			8.905			-2.226
241404.000			8.907			-2.227
241505.000			8.906			-2.226
241603.000			8.905			-2.226
241704.000			8.905			-2.226
241804.000			8.906			-2.227
241904.000			8.904			-2.226
242004.000			8.904			-2.226
242105.000			8.904			-2.226
242204.000			8.905			-2.226
242304.000			8.905			-2.226
242405.000			8.904			-2.226
242503.000			8.905			-2.226
242604.000			8.905			-2.226
242704.000			8.904			-2.226
242804.000			8.904			-2.226
242904.000			8.904			-2.226
243005.000			8.905			-2.226
243104.000			8.905			-2.226
243204.000			8.904			-2.226
243305.000			8.903			-2.226
243403.000			8.904			-2.226
243504.000			8.903			-2.226
243605.000			8.903			-2.226
243704.000			8.903			-2.226
243804.000			8.904			-2.226
243904.000			8.904			-2.226
244004.000			8.902			-2.225
244105.000			8.902			-2.226
244204.000			8.903			-2.226
244303.000			8.902			-2.226
244405.000			8.903			-2.226
244504.000			8.903			-2.226
244604.000			8.903			-2.226
244705.000			8.902			-2.226
244804.000			8.902			-2.226
244904.000			8.902			-2.225
245005.000			8.902			-2.225
245104.000			8.902			-2.226
245203.000			8.903			-2.226
245305.000			8.902			-2.226
245404.000			8.902			-2.225
245504.000			8.902			-2.225
245605.000			8.901			-2.225
245704.000			8.901			-2.225
245804.000			8.902			-2.226
245905.000			8.901			-2.225
246004.000			8.900			-2.225
246103.000			8.900			-2.225
246205.000			8.900			-2.225
246304.000			8.901			-2.225
246404.000			8.901			-2.225
246505.000			8.901			-2.225
246604.000			8.900			-2.225
246704.000			8.900			-2.225
246805.000			8.900			-2.225
246904.000			8.899			-2.225
247003.000			8.899			-2.225
247105.000			8.899			-2.225
247204.000			8.899			-2.225
247305.000			8.900			-2.225
247404.000			8.900			-2.225
247504.000			8.899			-2.225
247605.000			8.899			-2.225
247704.000			8.899			-2.225
247804.000			8.899			-2.225
247905.000			8.900			-2.225
248004.000			8.899			-2.225
248103.000			8.899			-2.225
248205.000			8.900			-2.225
248304.000			8.900			-2.225
248404.000			8.900			-2.225
248505.000			8.899			-2.225
248604.000			8.899			-2.225
248704.000			8.899			-2.225
248805.000			8.898			-2.225
248904.000			8.899			-2.225
249003.000			8.898			-2.225
249105.000			8.898			-2.225
249203.000			8.898			-2.225
249304.000			8.899			-2.225
249405.000			8.899			-2.225
249504.000			8.898			-2.225
249604.000			8.898			-2.224
249705.000			8.898			-2.224
249804.000			8.898			-2.224
249904.000			8.898			-2.224
250005.000			8.897			-2.224
250103.000			8.896			-2.224
250204.000			8.896			-2.224
250305.000			8.897			-2.224
250404.000			8.898			-2.224
250505.000			8.897			-2.224
250604.000			8.896			-2.224
250704.000			8.896			-2.224
250805.000			8.896			-2.224
250904.000			8.896			-2.224
251003.000			8.897			-2.224
251105.000			8.896			-2.224
251203.000			8.896			-2.224
251304.000			8.897			-2.224
251405.000			8.896			-2.224
251504.000			8.896			-2.224
251604.000			8.895			-2.224
251705.000			8.895			-2.224
251804.000			8.895			-2.224
251904.000			8.896			-2.224
252005.000			8.896			-2.224
252103.000			8.895			-2.224
252204.000			8.894			-2.224
252305.000			8.895			-2.224
252404.000			8.894			-2.224
252504.000			8.895			-2.224
252605.000			8.895			-2.224
252704.000			8.895			-2.224
252804.000			8.895			-2.224
252905.000			8.894			-2.224
253003.000			8.894			-2.223
253104.000			8.894			-2.223
253204.000			8.894			-2.224
253304.000			8.894			-2.224
253404.000			8.894			-2.223
253504.000			8.895			-2.224
253604.000			8.894			-2.224
253705.000			8.894			-2.223
253804.000			8.893			-2.223
253904.000			8.893			-2.223
254005.000			8.894			-2.223
254103.000			8.894			-2.223
254204.000			8.893			-2.223
254305.000			8.893			-2.223
254404.000			8.893			-2.223
254504.000			8.893			-2.223
254605.000			8.893			-2.223
254704.000			8.894			-2.223
254804.000			8.893			-2.223
254905.000			8.893			-2.223
255003.000			8.892			-2.223
255104.000			8.893			-2.223
255204.000			8.892			-2.223
255304.000			8.893			-2.223
255404.000			8.893			-2.223
255505.000			8.892			-2.223
255604.000			8.892			-2.223
255704.000			8.892			-2.223
255805.000			8.893			-2.223
255904.000			8.893			-2.223
256004.000			8.892			-2.223
256104.000			8.891			-2.223
256204.000			8.892			-2.223
256304.000			8.892			-2.223
256405.000			8.892			-2.223
256504.000			8.892			-2.223
256604.000			8.891			-2.223
256705.000			8.891			-2.223
256804.000			8.892			-2.223
256905.000			8.891			-2.223
257003.000			8.891			-2.223
257104.000			8.891			-2.223
257204.000			8.890			-2.223
257304.000			8.890			-2.222
257404.000			8.890			-2.223
257505.000			8.891			-2.223
257604.000			8.891			-2.223
257704.000			8.892			-2.223
257805.000			8.891			-2.223
257904.000			8.889			-2.222
258004.000			8.889			-2.222
258104.000			8.889			-2.222
258204.000			8.889			-2.222
258304.000			8.890			-2.223
258405.000			8.890			-2.223
258504.000			8.890			-2.222
258604.000			8.888			-2.222
258705.000			8.888			-2.222
258804.000			8.889			-2.222
258904.000			8.889			-2.222
259004.000			8.889			-2.222
259104.000			8.889			-2.222
259203.000			8.889			-2.222
259305.000			8.887			-2.222
259404.000			8.888			-2.222
259504.000			8.887			-2.222
259605.000			8.887			-2.222
259704.000			8.888			-2.222
259804.000			8.888			-2.222
259904.000			8.888			-2.222
260004.000			8.888			-2.222
260103.000			8.888			-2.222
260204.000			8.887			-2.222
260303.000			8.887			-2.222
260405.000			8.888			-2.222
260504.000			8.888			-2.222
260604.000			8.888			-2.222
260705.000			8.888			-2.222
260804.000			8.887			-2.222
260904.000			8.886			-2.221
261005.000			8.888			-2.222
261104.000			8.888			-2.222
261203.000			8.887			-2.222
261305.000			8.887			-2.222
261404.000			8.886			-2.221
261504.000			8.888			-2.222
261605.000			8.886			-2.222
261704.000			8.886			-2.221
261804.000			8.887			-2.222
261905.000			8.887			-2.222
262004.000			8.886			-2.222
262103.000			8.886			-2.222
262205.000			8.885			-2.221
262303.000			8.886			-2.222
262404.000			8.887			-2.222
262505.000			8.886			-2.222
262604.000			8.886			-2.221
262704.000			8.886			-2.221
262805.000			8.885			-2.221
262904.000			8.885			-2.221
263004.000			8.884			-2.221
263105.000			8.885			-2.221
263203.000			8.885			-2.221
263305.000			8.884			-2.221
263404.000			8.885			-2.221
263504.000			8.885			-2.221
263605.000			8.885			-2.221
263704.000			8.885			-2.221
263804.000			8.885			-2.221
263905.000			8.885			-2.221
264004.000			8.884			-2.221
264103.000			8.883			-2.221
264205.000			8.885			-2.221
264304.000			8.884			-2.221
264404.000			8.883			-2.221
264505.000			8.884			-2.221
264604.000			8.885			-2.221
264704.000			8.883			-2.221
264805.000			8.884			-2.221
264904.000			8.884			-2.221
265003.000			8.883			-2.221
265105.000			8.883			-2.221
265203.000			8.883			-2.221
265304.000			8.883			-2.221
265405.000			8.883			-2.221
265504.000			8.883			-2.221
265604.000			8.883			-2.221
265705.000			8.883			-2.221
265804.000			8.882			-2.220
265903.000			8.882			-2.220
266005.000			8.882			-2.220
266103.000			8.881			-2.220
266204.000			8.882			-2.220
266305.000			8.883			-2.221
266404.000			8.883			-2.221
266505.000			8.881			-2.220
266604.000			8.882			-2.220
266704.000			8.882			-2.220
266805.000			8.881			-2.220
266904.000			8.881			-2.220
267003.000			8.882			-2.220
267105.000			8.882			-2.220
267204.000			8.881			-2.220
267304.000			8.881			-2.220
267405.000			8.881			-2.220
267504.000			8.881			-2.220
267604.000			8.882			-2.221
267705.000			8.882			-2.220
267804.000			8.881			-2.220
267903.000			8.881			-2.220
268005.000			8.881			-2.220
268103.000			8.880			-2.220
268204.000			8.880			-2.220
268305.000			8.879			-2.220
268404.000			8.880			-2.220
268504.000			8.880			-2.220
268605.000			8.879			-2.220
268704.000			8.878			-2.220
268804.000			8.880			-2.220
268905.000			8.879			-2.220
269003.000			8.879			-2.220
269104.000			8.880			-2.220
269205.000			8.879			-2.220
269304.000			8.880			-2.220
269404.000			8.880			-2.220
269504.000			8.879			-2.220
269604.000			8.879			-2.220
269705.000			8.879			-2.220
269804.000			8.878			-2.220
269904.000			8.878			-2.219
270005.000			8.878			-2.220
270103.000			8.879			-2.220
270204.000			8.878			-2.220
270305.000			8.878			-2.219
270404.000			8.878			-2.219
270504.000			8.878			-2.219
270605.000			8.878			-2.219
270704.000			8.878			-2.219
270804.000			8.878			-2.220
270905.000			8.878			-2.219
271003.000			8.877			-2.219
271104.000			8.877			-2.219
271205.000			8.877			-2.219
271304.000			8.877			-2.219
271404.000			8.877			-2.219
271505.000			8.878			-2.220
271604.000			8.878			-2.219
271704.000			8.876			-2.219
271805.000			8.877			-2.219
271903.000			8.877			-2.219
272004.000			8.876			-2.219
272104.000			8.877			-2.219
272204.000			8.877			-2.219
272304.000			8.877			-2.219
272405.000			8.877			-2.219
272504.000			8.877			-2.219
272604.000			8.877			-2.219
272705.000			8.877			-2.219
272804.000			8.877			-2.219
272905.000			8.877			-2.219
273003.000			8.876			-2.219
273104.000			8.876			-2.219
273205.000			8.875			-2.219
273304.000			8.876			-2.219
273404.000			8.877			-2.219
273505.000			8.877			-2.219
273604.000			8.876			-2.219
273704.000			8.876			-2.219
273805.000			8.875			-2.219
273903.000			8.875			-2.219
274004.000			8.875			-2.219
274105.000			8.875			-2.219
274204.000			8.876			-2.219
274304.000			8.876			-2.219
274405.000			8.874			-2.219
274504.000			8.873			-2.218
274604.000			8.875			-2.219
274705.000			8.875			-2.219
274803.000			8.875			-2.219
274904.000			8.875			-2.219
275004.000			8.874			-2.219
275104.000			8.874			-2.219
275204.000			8.875			-2.219
275305.000			8.875			-2.219
275404.000			8.875			-2.219
275504.000			8.875			-2.219
275605.000			8.875			-2.219
275704.000			8.876			-2.219
275804.000			8.876			-2.219
275903.000			8.874			-2.219
276004.000			8.874			-2.218
276105.000			8.875			-2.219
276204.000			8.874			-2.218
276304.000			8.873			-2.218
276405.000			8.872			-2.218
276504.000			8.873			-2.218
276604.000			8.874			-2.219
276705.000			8.874			-2.218
276803.000			8.873			-2.218
276904.000			8.873			-2.218
277005.000			8.874			-2.218
277104.000			8.873			-2.218
277204.000			8.873			-2.218
277305.000			8.873			-2.218
277404.000			8.872			-2.218
277504.000			8.873			-2.218
277605.000			8.872			-2.218
277703.000			8.872			-2.218
277804.000			8.872			-2.218
277904.000			8.872			-2.218
278004.000			8.872			-2.218
278104.000			8.873			-2.218
278205.000			8.872			-2.218
278304.000			8.871			-2.218
278404.000			8.872			-2.218
278505.000			8.871			-2.218
278604.000			8.871			-2.218
278704.000			8.871			-2.218
278804.000			8.870			-2.218
278904.000			8.871			-2.218
279004.000			8.872			-2.218
279104.000			8.871			-2.218
279204.000			8.870			-2.218
279305.000			8.871			-2.218
279404.000			8.871			-2.218
279504.000			8.872			-2.218
279605.000			8.872			-2.218
279703.000			8.871			-2.218
279804.000			8.871			-2.218
279904.000			8.871			-2.218
280004.000			8.871			-2.218
280104.000			8.871			-2.218
280205.000			8.870			-2.218
280304.000			8.870			-2.217
280404.000			8.870			-2.218
280505.000			8.871			-2.218
280604.000			8.871			-2.218
280704.000			8.871			-2.218
280804.000			8.871			-2.218
280904.000			8.870			-2.217
281004.000			8.870			-2.217
281105.000			8.870			-2.218
281204.000			8.870			-2.218
281304.000			8.870			-2.217
281405.000			8.870			-2.217
281504.000			8.870			-2.218
281604.000			8.870			-2.217
281704.000			8.869			-2.217
281804.000			8.870			-2.217
281904.000			8.869			-2.217
282005.000			8.869			-2.217
282104.000			8.869			-2.217
282204.000			8.870			-2.217
282305.000			8.869			-2.217
282404.000			8.869			-2.217
282505.000			8.868			-2.217
282603.000			8.868			-2.217
282704.000			8.868			-2.217
282804.000			8.869			-2.217
282904.000			8.869			-2.217
283004.000			8.868			-2.217
283105.000			8.868			-2.217
283204.000			8.867			-2.217
283304.000			8.867			-2.217
283405.000			8.867			-2.217
283504.000			8.868			-2.217
283604.000			8.868			-2.217
283704.000			8.867			-2.217
283804.000			8.867			-2.217
283904.000			8.868			-2.217
284005.000			8.868			-2.217
284104.000			8.868			-2.217
284204.000			8.867			-2.217
284305.000			8.867			-2.217
284404.000			8.867			-2.217
284504.000			8.867			-2.217
284604.000			8.867			-2.217
284704.000			8.866			-2.217
284803.000			8.866			-2.217
284905.000			8.866			-2.216
285004.000			8.866			-2.216
285104.000			8.866			-2.217
285205.000			8.866			-2.217
285304.000			8.866			-2.217
285404.000			8.866			-2.217
285503.000			8.865			-2.216
285604.000			8.866			-2.217
285703.000			8.865			-2.216
285804.000			8.866			-2.216
285904.000			8.866			-2.216
286005.000			8.866			-2.216
286104.000			8.865			-2.216
286204.000			8.865			-2.216
286305.000			8.865			-2.216
286404.000			8.865			-2.216
286504.000			8.865			-2.216
286604.000			8.865			-2.216
286704.000			8.865			-2.216
286803.000			8.865			-2.216
286905.000			8.864			-2.216
287004.000			8.863			-2.216
287104.000			8.864			-2.216
287205.000			8.864			-2.216
287304.000			8.864			-2.216
287404.000			8.865			-2.216
287505.000			8.863			-2.216
287604.000			8.863			-2.216
287703.000			8.864			-2.216
287805.000			8.864			-2.216
287904.000			8.864			-2.216
288004.000			8.864			-2.216
288105.000			8.863			-2.216
288204.000			8.863			-2.216
288304.000			8.862			-2.216
288405.000			8.863			-2.216
288504.000			8.863			-2.216
288603.000			8.864			-2.216
288705.000			8.864			-2.216
288804.000			8.863			-2.216
288905.000			8.863			-2.216
289004.000			8.863			-2.216
289104.000			8.863			-2.216
289205.000			8.863			-2.216
289304.000			8.863			-2.216
289404.000			8.862			-2.215
289504.000			8.862			-2.216
289604.000			8.862			-2.216
289703.000			8.863			-2.216
289805.000			8.862			-2.216
289904.000			8.862			-2.215
290004.000			8.861			-2.215
290105.000			8.861			-2.215
290204.000			8.861			-2.215
290304.000			8.861			-2.215
290405.000			8.862			-2.215
290504.000			8.862			-2.215
290603.000			8.861			-2.215
290705.000			8.862			-2.215
290804.000			8.862			-2.215
290904.000			8.862			-2.216
291005.000			8.862			-2.215
291104.000			8.861			-2.215
291204.000			8.861			-2.215
291305.000			8.861			-2.215
291404.000			8.860			-2.215
291503.000			8.860			-2.215
291605.000			8.861			-2.215
291704.000			8.861			-2.215
291804.000			8.860			-2.215
291905.000			8.860			-2.215
292004.000			8.860			-2.215
292105.000			8.860			-2.215
292204.000			8.859			-2.215
292304.000			8.859			-2.215
292404.000			8.860			-2.215
292504.000			8.860			-2.215
292603.000			8.861			-2.215
292705.000			8.860			-2.215
292804.000			8.859			-2.215
292904.000			8.860			-2.215
293005.000			8.859			-2.215
293104.000			8.860			-2.215
293204.000			8.861			-2.215
293304.000			8.861			-2.215
293404.000			8.859			-2.215
293503.000			8.858			-2.215
293605.000			8.859			-2.215
293704.000			8.860			-2.215
293804.000			8.860			-2.215
293905.000			8.859			-2.215
294004.000			8.859			-2.215
294104.000			8.859			-2.215
294205.000			8.858			-2.215
294304.000			8.858			-2.214
294403.000			8.860			-2.215
294505.000			8.859			-2.215
294604.000			8.858			-2.214
294704.000			8.858			-2.215
294805.000			8.859			-2.215
294904.000			8.858			-2.215
295004.000			8.857			-2.214
295104.000			8.858			-2.214
295204.000			8.857			-2.214
295303.000			8.858			-2.214
295404.000			8.858			-2.214
295503.000			8.858			-2.214
295605.000			8.858			-2.214
295704.000			8.858			-2.214
295804.000			8.858			-2.214
295905.000			8.858			-2.215
296004.000			8.858			-2.215
296104.000			8.858			-2.215
296205.000			8.858			-2.214
296304.000			8.857			-2.214
296403.000			8.856			-2.214
296505.000			8.857			-2.214
296604.000			8.857			-2.214
296704.000			8.857			-2.214
296805.000			8.857			-2.214
296904.000			8.856			-2.214
297004.000			8.857			-2.214
297105.000			8.857			-2.214
297204.000			8.857			-2.214
297303.000			8.857			-2.214
297405.000			8.856			-2.214
297503.000			8.857			-2.214
297604.000			8.856			-2.214
297705.000			8.855			-2.214
297804.000			8.856			-2.214
297904.000			8.856			-2.214
298005.000			8.856			-2.214
298104.000			8.856			-2.214
298204.000			8.856			-2.214
298305.000			8.855			-2.214
298403.000			8.854			-2.214
298505.000			8.855			-2.214
298604.000			8.856			-2.214
298704.000			8.854			-2.214
298805.000			8.855			-2.214
298904.000			8.855			-2.214
299004.000			8.855			-2.214
299105.000			8.855			-2.214
299204.000			8.855			-2.214
299303.000			8.855			-2.214
299405.000			8.854			-2.214
299503.000			8.856			-2.214
299604.000			8.856			-2.214
299705.000			8.855			-2.214
299804.000			8.855			-2.214
299904.000			8.853			-2.213
