# Acquired on 25/01/2024 17:37:42 
# SPIDER: Creep_-7mm_GRPCNT1454A-2
# CREEP MEASUREMENT

# time [ms]		force [N]		stiffness [N/mm]
1.000			27.342			-3.906
104.000			28.552			-4.079
204.000			28.397			-4.057
304.000			28.153			-4.022
404.000			27.972			-3.996
505.000			27.826			-3.975
604.000			27.701			-3.957
703.000			27.592			-3.942
805.000			27.409			-3.916
904.000			27.330			-3.904
1004.000			27.259			-3.894
1105.000			27.192			-3.885
1204.000			27.132			-3.876
1305.000			27.075			-3.868
1404.000			27.021			-3.860
1504.000			26.925			-3.846
1605.000			26.880			-3.840
1704.000			26.837			-3.834
1804.000			26.798			-3.828
1904.000			26.760			-3.823
2004.000			26.723			-3.818
2104.000			26.688			-3.813
2205.000			26.655			-3.808
2304.000			26.591			-3.799
2404.000			26.561			-3.794
2505.000			26.533			-3.790
2603.000			26.504			-3.786
2704.000			26.477			-3.782
2805.000			26.452			-3.779
2904.000			26.427			-3.775
3004.000			26.380			-3.769
3104.000			26.357			-3.765
3204.000			26.335			-3.762
3304.000			26.312			-3.759
3405.000			26.292			-3.756
3504.000			26.272			-3.753
3604.000			26.252			-3.750
3705.000			26.212			-3.745
3803.000			26.194			-3.742
3904.000			26.177			-3.740
4005.000			26.159			-3.737
4104.000			26.143			-3.735
4204.000			26.126			-3.732
4304.000			26.109			-3.730
4404.000			26.076			-3.725
4505.000			26.060			-3.723
4604.000			26.044			-3.721
4704.000			26.030			-3.719
4805.000			26.016			-3.717
4904.000			26.002			-3.715
5003.000			25.989			-3.713
5105.000			25.975			-3.711
5204.000			25.946			-3.707
5304.000			25.934			-3.705
5405.000			25.922			-3.703
5504.000			25.908			-3.701
5604.000			25.896			-3.699
5704.000			25.884			-3.698
5804.000			25.872			-3.696
5904.000			25.848			-3.693
6005.000			25.836			-3.691
6104.000			25.825			-3.689
6203.000			25.814			-3.688
6305.000			25.802			-3.686
6404.000			25.792			-3.685
6504.000			25.782			-3.683
6605.000			25.761			-3.680
6704.000			25.751			-3.679
6804.000			25.741			-3.677
6904.000			25.730			-3.676
7004.000			25.721			-3.674
7104.000			25.712			-3.673
7205.000			25.702			-3.672
7304.000			25.691			-3.670
7404.000			25.673			-3.668
7505.000			25.664			-3.666
7603.000			25.655			-3.665
7705.000			25.646			-3.664
7804.000			25.637			-3.662
7904.000			25.628			-3.661
8005.000			25.620			-3.660
8104.000			25.602			-3.657
8204.000			25.594			-3.656
8304.000			25.586			-3.655
8404.000			25.578			-3.654
8504.000			25.570			-3.653
8605.000			25.563			-3.652
8704.000			25.554			-3.651
8803.000			25.539			-3.648
8905.000			25.531			-3.647
9004.000			25.523			-3.646
9104.000			25.516			-3.645
9205.000			25.509			-3.644
9304.000			25.502			-3.643
9404.000			25.494			-3.642
9504.000			25.480			-3.640
9604.000			25.473			-3.639
9704.000			25.466			-3.638
9805.000			25.458			-3.637
9904.000			25.452			-3.636
10004.000			25.445			-3.635
10105.000			25.438			-3.634
10203.000			25.432			-3.633
10304.000			25.420			-3.631
10405.000			25.412			-3.630
10504.000			25.406			-3.629
10604.000			25.399			-3.628
10704.000			25.393			-3.628
10804.000			25.387			-3.627
10903.000			25.380			-3.626
11004.000			25.368			-3.624
11104.000			25.361			-3.623
11205.000			25.356			-3.622
11304.000			25.350			-3.621
11403.000			25.345			-3.621
11505.000			25.339			-3.620
11604.000			25.332			-3.619
11704.000			25.321			-3.617
11805.000			25.314			-3.616
11904.000			25.309			-3.616
12004.000			25.304			-3.615
12104.000			25.298			-3.614
12204.000			25.292			-3.613
12304.000			25.288			-3.613
12405.000			25.283			-3.612
12504.000			25.272			-3.610
12604.000			25.267			-3.610
12705.000			25.262			-3.609
12803.000			25.256			-3.608
12904.000			25.251			-3.607
13005.000			25.245			-3.606
13104.000			25.240			-3.606
13204.000			25.229			-3.604
13305.000			25.224			-3.603
13404.000			25.219			-3.603
13503.000			25.214			-3.602
13605.000			25.210			-3.601
13704.000			25.205			-3.601
13804.000			25.198			-3.600
13905.000			25.190			-3.599
14003.000			25.186			-3.598
14105.000			25.181			-3.597
14204.000			25.175			-3.596
14304.000			25.171			-3.596
14405.000			25.167			-3.595
14504.000			25.162			-3.595
14604.000			25.153			-3.593
14704.000			25.148			-3.593
14804.000			25.144			-3.592
14904.000			25.140			-3.591
15005.000			25.136			-3.591
15104.000			25.131			-3.590
15204.000			25.126			-3.589
15305.000			25.122			-3.589
15403.000			25.113			-3.588
15504.000			25.109			-3.587
15605.000			25.104			-3.586
15704.000			25.099			-3.586
15804.000			25.096			-3.585
15904.000			25.093			-3.585
16004.000			25.088			-3.584
16103.000			25.079			-3.583
16205.000			25.076			-3.582
16304.000			25.072			-3.582
16404.000			25.068			-3.581
16505.000			25.064			-3.581
16603.000			25.060			-3.580
16704.000			25.056			-3.579
16805.000			25.047			-3.578
16904.000			25.044			-3.578
17004.000			25.040			-3.577
17104.000			25.036			-3.577
17204.000			25.032			-3.576
17303.000			25.027			-3.575
17404.000			25.024			-3.575
17504.000			25.020			-3.574
17605.000			25.014			-3.573
17704.000			25.010			-3.573
17804.000			25.006			-3.572
17905.000			25.002			-3.572
18003.000			24.998			-3.571
18104.000			24.994			-3.571
18205.000			24.992			-3.570
18304.000			24.985			-3.569
18404.000			24.980			-3.569
18505.000			24.975			-3.568
18604.000			24.973			-3.568
18703.000			24.970			-3.567
18805.000			24.966			-3.567
18904.000			24.962			-3.566
19004.000			24.955			-3.565
19105.000			24.951			-3.564
19204.000			24.949			-3.564
19304.000			24.945			-3.564
19404.000			24.942			-3.563
19504.000			24.939			-3.563
19604.000			24.935			-3.562
19705.000			24.928			-3.561
19804.000			24.925			-3.561
19904.000			24.921			-3.560
20005.000			24.918			-3.560
20103.000			24.915			-3.559
20204.000			24.913			-3.559
20305.000			24.909			-3.558
20404.000			24.906			-3.558
20505.000			24.899			-3.557
20604.000			24.895			-3.556
20704.000			24.892			-3.556
20804.000			24.889			-3.556
20904.000			24.887			-3.555
21004.000			24.884			-3.555
21105.000			24.880			-3.554
21204.000			24.874			-3.553
21303.000			24.870			-3.553
21405.000			24.867			-3.552
21504.000			24.865			-3.552
21604.000			24.861			-3.552
21705.000			24.858			-3.551
21804.000			24.855			-3.551
21904.000			24.848			-3.550
22004.000			24.846			-3.549
22104.000			24.843			-3.549
22204.000			24.840			-3.549
22305.000			24.837			-3.548
22404.000			24.835			-3.548
22504.000			24.833			-3.548
22605.000			24.826			-3.547
22703.000			24.822			-3.546
22804.000			24.821			-3.546
22905.000			24.817			-3.545
23004.000			24.814			-3.545
23104.000			24.812			-3.545
23205.000			24.809			-3.544
23304.000			24.805			-3.544
23403.000			24.801			-3.543
23505.000			24.797			-3.542
23604.000			24.795			-3.542
23705.000			24.793			-3.542
23804.000			24.790			-3.541
23904.000			24.788			-3.541
24005.000			24.784			-3.541
24103.000			24.779			-3.540
24204.000			24.775			-3.539
24305.000			24.773			-3.539
24404.000			24.770			-3.539
24504.000			24.767			-3.538
24605.000			24.764			-3.538
24704.000			24.761			-3.537
24803.000			24.759			-3.537
24905.000			24.755			-3.536
25004.000			24.752			-3.536
25104.000			24.749			-3.536
25205.000			24.747			-3.535
25304.000			24.744			-3.535
25404.000			24.740			-3.534
25504.000			24.736			-3.534
25604.000			24.733			-3.533
25704.000			24.730			-3.533
25805.000			24.729			-3.533
25904.000			24.726			-3.532
26003.000			24.724			-3.532
26105.000			24.721			-3.532
26204.000			24.719			-3.531
26304.000			24.714			-3.531
26405.000			24.711			-3.530
26504.000			24.709			-3.530
26604.000			24.706			-3.529
26703.000			24.703			-3.529
26804.000			24.701			-3.529
26905.000			24.698			-3.528
27004.000			24.694			-3.528
27104.000			24.692			-3.527
27205.000			24.690			-3.527
27304.000			24.687			-3.527
27403.000			24.685			-3.526
27505.000			24.682			-3.526
27604.000			24.679			-3.526
27704.000			24.675			-3.525
27805.000			24.673			-3.525
27904.000			24.670			-3.524
28004.000			24.667			-3.524
28104.000			24.666			-3.524
28204.000			24.665			-3.524
28303.000			24.661			-3.523
28405.000			24.658			-3.523
28504.000			24.655			-3.522
28604.000			24.653			-3.522
28705.000			24.650			-3.521
28803.000			24.648			-3.521
28904.000			24.645			-3.521
29005.000			24.643			-3.520
29104.000			24.640			-3.520
29204.000			24.637			-3.520
29305.000			24.635			-3.519
29404.000			24.633			-3.519
29503.000			24.630			-3.519
29605.000			24.628			-3.518
29704.000			24.625			-3.518
29804.000			24.623			-3.518
29905.000			24.619			-3.517
30004.000			24.616			-3.517
30105.000			24.614			-3.516
30203.000			24.612			-3.516
30304.000			24.610			-3.516
30405.000			24.608			-3.515
30504.000			24.607			-3.515
30604.000			24.604			-3.515
30705.000			24.600			-3.514
30804.000			24.598			-3.514
30903.000			24.595			-3.514
31005.000			24.593			-3.513
31104.000			24.590			-3.513
31204.000			24.588			-3.513
31305.000			24.587			-3.512
31404.000			24.583			-3.512
31504.000			24.581			-3.512
31604.000			24.579			-3.511
31704.000			24.578			-3.511
31804.000			24.577			-3.511
31905.000			24.575			-3.511
32004.000			24.572			-3.510
32103.000			24.568			-3.510
32205.000			24.566			-3.509
32304.000			24.564			-3.509
32404.000			24.562			-3.509
32505.000			24.560			-3.509
32604.000			24.558			-3.508
32704.000			24.556			-3.508
32804.000			24.552			-3.507
32904.000			24.550			-3.507
33004.000			24.549			-3.507
33104.000			24.547			-3.507
33204.000			24.544			-3.506
33305.000			24.542			-3.506
33404.000			24.541			-3.506
33503.000			24.539			-3.506
33605.000			24.535			-3.505
33704.000			24.532			-3.505
33804.000			24.530			-3.504
33905.000			24.528			-3.504
34004.000			24.526			-3.504
34104.000			24.525			-3.504
34204.000			24.523			-3.503
34304.000			24.519			-3.503
34404.000			24.517			-3.502
34505.000			24.515			-3.502
34604.000			24.512			-3.502
34704.000			24.511			-3.502
34805.000			24.509			-3.501
34904.000			24.507			-3.501
35004.000			24.505			-3.501
35105.000			24.502			-3.500
35204.000			24.500			-3.500
35304.000			24.499			-3.500
35404.000			24.496			-3.499
35504.000			24.493			-3.499
35604.000			24.492			-3.499
35705.000			24.489			-3.498
35804.000			24.488			-3.498
35904.000			24.486			-3.498
36005.000			24.484			-3.498
36103.000			24.483			-3.498
36204.000			24.479			-3.497
36305.000			24.478			-3.497
36404.000			24.476			-3.497
36505.000			24.474			-3.496
36604.000			24.472			-3.496
36704.000			24.469			-3.496
36804.000			24.468			-3.495
36904.000			24.467			-3.495
37004.000			24.465			-3.495
37105.000			24.463			-3.495
37204.000			24.458			-3.494
37304.000			24.457			-3.494
37405.000			24.455			-3.494
37503.000			24.453			-3.493
37604.000			24.452			-3.493
37705.000			24.451			-3.493
37804.000			24.449			-3.493
37904.000			24.446			-3.492
38005.000			24.444			-3.492
38104.000			24.442			-3.492
38203.000			24.439			-3.491
38305.000			24.438			-3.491
38404.000			24.437			-3.491
38504.000			24.435			-3.491
38605.000			24.433			-3.490
38704.000			24.431			-3.490
38804.000			24.429			-3.490
38904.000			24.427			-3.490
39004.000			24.426			-3.489
39104.000			24.425			-3.489
39205.000			24.422			-3.489
39304.000			24.420			-3.489
39404.000			24.417			-3.488
39505.000			24.414			-3.488
39603.000			24.414			-3.488
39705.000			24.412			-3.487
39804.000			24.410			-3.487
39904.000			24.409			-3.487
40005.000			24.407			-3.487
40103.000			24.404			-3.486
40204.000			24.403			-3.486
40305.000			24.401			-3.486
40404.000			24.399			-3.486
40504.000			24.398			-3.485
40605.000			24.396			-3.485
40704.000			24.394			-3.485
40803.000			24.393			-3.485
40905.000			24.390			-3.484
41004.000			24.389			-3.484
41104.000			24.388			-3.484
41205.000			24.386			-3.484
41304.000			24.384			-3.483
41404.000			24.382			-3.483
41504.000			24.379			-3.483
41604.000			24.378			-3.483
41704.000			24.377			-3.482
41805.000			24.374			-3.482
41904.000			24.373			-3.482
42004.000			24.372			-3.482
42105.000			24.370			-3.481
42203.000			24.369			-3.481
42304.000			24.366			-3.481
42405.000			24.364			-3.481
42504.000			24.362			-3.480
42604.000			24.361			-3.480
42703.000			24.360			-3.480
42804.000			24.358			-3.480
42905.000			24.357			-3.480
43004.000			24.353			-3.479
43104.000			24.352			-3.479
43205.000			24.350			-3.479
43304.000			24.349			-3.478
43403.000			24.349			-3.478
43505.000			24.346			-3.478
43604.000			24.345			-3.478
43704.000			24.344			-3.478
43805.000			24.341			-3.477
43904.000			24.339			-3.477
44004.000			24.338			-3.477
44104.000			24.336			-3.477
44204.000			24.334			-3.476
44304.000			24.333			-3.476
44405.000			24.332			-3.476
44504.000			24.328			-3.475
44604.000			24.327			-3.475
44705.000			24.326			-3.475
44803.000			24.325			-3.475
44904.000			24.323			-3.475
45005.000			24.322			-3.475
45104.000			24.321			-3.474
45204.000			24.317			-3.474
45304.000			24.316			-3.474
45404.000			24.315			-3.474
45504.000			24.313			-3.473
45605.000			24.311			-3.473
45704.000			24.311			-3.473
45804.000			24.309			-3.473
45905.000			24.306			-3.472
46003.000			24.305			-3.472
46105.000			24.303			-3.472
46204.000			24.302			-3.472
46304.000			24.300			-3.471
46405.000			24.299			-3.471
46504.000			24.298			-3.471
46604.000			24.296			-3.471
46704.000			24.293			-3.470
46804.000			24.292			-3.470
46904.000			24.291			-3.470
47005.000			24.290			-3.470
47104.000			24.289			-3.470
47204.000			24.286			-3.469
47305.000			24.285			-3.469
47403.000			24.283			-3.469
47504.000			24.281			-3.469
47605.000			24.281			-3.469
47704.000			24.279			-3.468
47804.000			24.278			-3.468
47905.000			24.277			-3.468
48004.000			24.276			-3.468
48103.000			24.272			-3.467
48205.000			24.271			-3.467
48304.000			24.269			-3.467
48404.000			24.268			-3.467
48505.000			24.267			-3.467
48603.000			24.265			-3.466
48704.000			24.264			-3.466
48805.000			24.261			-3.466
48904.000			24.260			-3.466
49004.000			24.258			-3.465
49104.000			24.257			-3.465
49204.000			24.256			-3.465
49303.000			24.255			-3.465
49404.000			24.254			-3.465
49503.000			24.253			-3.465
49605.000			24.249			-3.464
49704.000			24.248			-3.464
49804.000			24.247			-3.464
49905.000			24.244			-3.463
50003.000			24.243			-3.463
50104.000			24.243			-3.463
50205.000			24.242			-3.463
50304.000			24.240			-3.463
50404.000			24.238			-3.463
50505.000			24.237			-3.462
50604.000			24.237			-3.462
50703.000			24.235			-3.462
50805.000			24.233			-3.462
50904.000			24.231			-3.462
51004.000			24.230			-3.461
51105.000			24.229			-3.461
51204.000			24.227			-3.461
51304.000			24.224			-3.461
51404.000			24.223			-3.460
51504.000			24.222			-3.460
51604.000			24.221			-3.460
51705.000			24.219			-3.460
51804.000			24.218			-3.460
51903.000			24.216			-3.459
52005.000			24.215			-3.459
52104.000			24.214			-3.459
52204.000			24.212			-3.459
52305.000			24.212			-3.459
52404.000			24.211			-3.459
52505.000			24.208			-3.458
52603.000			24.207			-3.458
52704.000			24.206			-3.458
52805.000			24.205			-3.458
52904.000			24.204			-3.458
53004.000			24.203			-3.458
53104.000			24.201			-3.457
53204.000			24.198			-3.457
53303.000			24.197			-3.457
53405.000			24.196			-3.457
53504.000			24.196			-3.457
53604.000			24.195			-3.456
53705.000			24.192			-3.456
53803.000			24.191			-3.456
53904.000			24.189			-3.456
54005.000			24.189			-3.456
54104.000			24.187			-3.455
54204.000			24.185			-3.455
54305.000			24.184			-3.455
54404.000			24.183			-3.455
54503.000			24.183			-3.455
54605.000			24.182			-3.455
54704.000			24.178			-3.454
54804.000			24.177			-3.454
54905.000			24.176			-3.454
55004.000			24.175			-3.454
55104.000			24.172			-3.453
55204.000			24.171			-3.453
55304.000			24.171			-3.453
55404.000			24.169			-3.453
55504.000			24.169			-3.453
55604.000			24.167			-3.452
55705.000			24.165			-3.452
55804.000			24.164			-3.452
55903.000			24.164			-3.452
56005.000			24.162			-3.452
56104.000			24.160			-3.451
56204.000			24.159			-3.451
56305.000			24.157			-3.451
56404.000			24.156			-3.451
56504.000			24.155			-3.451
56604.000			24.155			-3.451
56704.000			24.153			-3.450
56804.000			24.152			-3.450
56905.000			24.151			-3.450
57004.000			24.149			-3.450
57103.000			24.147			-3.450
57205.000			24.146			-3.449
57304.000			24.145			-3.449
57404.000			24.145			-3.449
57505.000			24.142			-3.449
57604.000			24.142			-3.449
57704.000			24.140			-3.449
57804.000			24.138			-3.448
57904.000			24.138			-3.448
58004.000			24.137			-3.448
58105.000			24.135			-3.448
58204.000			24.135			-3.448
58304.000			24.132			-3.447
58405.000			24.131			-3.447
58503.000			24.129			-3.447
58604.000			24.128			-3.447
58705.000			24.128			-3.447
58804.000			24.127			-3.447
58905.000			24.125			-3.446
59004.000			24.123			-3.446
59104.000			24.123			-3.446
59204.000			24.122			-3.446
59304.000			24.121			-3.446
59404.000			24.118			-3.445
59505.000			24.118			-3.445
59604.000			24.117			-3.445
59704.000			24.116			-3.445
59805.000			24.113			-3.445
59903.000			24.112			-3.445
60004.000			24.111			-3.444
60105.000			24.110			-3.444
60204.000			24.109			-3.444
60304.000			24.109			-3.444
60404.000			24.107			-3.444
60504.000			24.105			-3.444
60604.000			24.105			-3.444
60705.000			24.102			-3.443
60804.000			24.102			-3.443
60904.000			24.101			-3.443
61005.000			24.100			-3.443
61103.000			24.100			-3.443
61204.000			24.097			-3.442
61305.000			24.095			-3.442
61404.000			24.094			-3.442
61504.000			24.094			-3.442
61605.000			24.093			-3.442
61704.000			24.092			-3.442
61803.000			24.091			-3.442
61905.000			24.089			-3.441
62004.000			24.088			-3.441
62105.000			24.087			-3.441
62204.000			24.085			-3.441
62303.000			24.084			-3.441
62405.000			24.084			-3.441
62504.000			24.083			-3.440
62604.000			24.081			-3.440
62705.000			24.080			-3.440
62804.000			24.079			-3.440
62904.000			24.078			-3.440
63004.000			24.076			-3.439
63104.000			24.074			-3.439
63204.000			24.074			-3.439
63305.000			24.075			-3.439
63404.000			24.071			-3.439
63504.000			24.071			-3.439
63605.000			24.070			-3.439
63703.000			24.068			-3.438
63804.000			24.067			-3.438
63905.000			24.066			-3.438
64004.000			24.066			-3.438
64104.000			24.063			-3.438
64205.000			24.063			-3.438
64304.000			24.062			-3.437
64403.000			24.061			-3.437
64505.000			24.059			-3.437
64604.000			24.059			-3.437
64704.000			24.058			-3.437
64805.000			24.055			-3.436
64904.000			24.054			-3.436
65004.000			24.053			-3.436
65103.000			24.052			-3.436
65204.000			24.052			-3.436
65305.000			24.050			-3.436
65404.000			24.049			-3.436
65504.000			24.049			-3.436
65604.000			24.047			-3.435
65704.000			24.045			-3.435
65803.000			24.045			-3.435
65905.000			24.044			-3.435
66004.000			24.043			-3.435
66104.000			24.041			-3.434
66205.000			24.040			-3.434
66304.000			24.039			-3.434
66404.000			24.037			-3.434
66504.000			24.037			-3.434
66604.000			24.035			-3.434
66704.000			24.034			-3.433
66805.000			24.033			-3.433
66904.000			24.033			-3.433
67003.000			24.030			-3.433
67105.000			24.029			-3.433
67204.000			24.030			-3.433
67304.000			24.029			-3.433
67405.000			24.028			-3.433
67504.000			24.026			-3.432
67604.000			24.026			-3.432
67704.000			24.026			-3.432
67804.000			24.024			-3.432
67904.000			24.022			-3.432
68005.000			24.020			-3.431
68104.000			24.020			-3.431
68204.000			24.019			-3.431
68305.000			24.017			-3.431
68403.000			24.015			-3.431
68505.000			24.014			-3.431
68604.000			24.014			-3.431
68704.000			24.013			-3.430
68805.000			24.012			-3.430
68904.000			24.010			-3.430
69004.000			24.010			-3.430
69104.000			24.009			-3.430
69204.000			24.008			-3.430
69304.000			24.007			-3.430
69405.000			24.006			-3.429
69504.000			24.006			-3.429
69604.000			24.005			-3.429
69705.000			24.004			-3.429
69803.000			24.002			-3.429
69904.000			24.000			-3.429
70005.000			23.998			-3.428
70104.000			23.998			-3.428
70204.000			23.997			-3.428
70305.000			23.996			-3.428
70404.000			23.995			-3.428
70503.000			23.995			-3.428
70605.000			23.994			-3.428
70704.000			23.992			-3.427
70804.000			23.991			-3.427
70905.000			23.990			-3.427
71004.000			23.990			-3.427
71104.000			23.989			-3.427
71204.000			23.988			-3.427
71304.000			23.988			-3.427
71404.000			23.985			-3.426
71504.000			23.984			-3.426
71604.000			23.983			-3.426
71705.000			23.983			-3.426
71804.000			23.982			-3.426
71903.000			23.982			-3.426
72005.000			23.980			-3.426
72104.000			23.979			-3.426
72204.000			23.978			-3.425
72305.000			23.976			-3.425
72404.000			23.975			-3.425
72504.000			23.975			-3.425
72604.000			23.974			-3.425
72704.000			23.972			-3.425
72804.000			23.971			-3.424
72905.000			23.970			-3.424
73004.000			23.969			-3.424
73104.000			23.969			-3.424
73205.000			23.967			-3.424
73303.000			23.967			-3.424
73404.000			23.968			-3.424
73505.000			23.967			-3.424
73604.000			23.964			-3.423
73704.000			23.961			-3.423
73805.000			23.959			-3.423
73904.000			23.960			-3.423
74003.000			23.960			-3.423
74105.000			23.959			-3.423
74204.000			23.957			-3.422
74304.000			23.957			-3.422
74405.000			23.957			-3.422
74504.000			23.955			-3.422
74604.000			23.954			-3.422
74703.000			23.953			-3.422
74804.000			23.952			-3.422
74905.000			23.950			-3.421
75004.000			23.950			-3.421
75104.000			23.948			-3.421
75205.000			23.948			-3.421
75304.000			23.947			-3.421
75403.000			23.946			-3.421
75505.000			23.945			-3.421
75604.000			23.944			-3.421
75704.000			23.944			-3.421
75805.000			23.942			-3.420
75904.000			23.942			-3.420
76004.000			23.941			-3.420
76104.000			23.939			-3.420
76204.000			23.939			-3.420
76304.000			23.939			-3.420
76405.000			23.937			-3.420
76504.000			23.935			-3.419
76604.000			23.935			-3.419
76705.000			23.934			-3.419
76803.000			23.933			-3.419
76904.000			23.931			-3.419
77005.000			23.930			-3.419
77104.000			23.930			-3.419
77204.000			23.928			-3.418
77305.000			23.927			-3.418
77404.000			23.927			-3.418
77503.000			23.927			-3.418
77605.000			23.926			-3.418
77704.000			23.926			-3.418
77804.000			23.925			-3.418
77905.000			23.923			-3.418
78004.000			23.921			-3.417
78105.000			23.920			-3.417
78203.000			23.921			-3.417
78304.000			23.920			-3.417
78405.000			23.919			-3.417
78504.000			23.919			-3.417
78604.000			23.917			-3.417
78705.000			23.916			-3.417
78804.000			23.915			-3.416
78903.000			23.914			-3.416
79005.000			23.914			-3.416
79104.000			23.912			-3.416
79204.000			23.911			-3.416
79305.000			23.910			-3.416
79404.000			23.909			-3.416
79504.000			23.908			-3.415
79604.000			23.908			-3.415
79704.000			23.907			-3.415
79803.000			23.906			-3.415
79905.000			23.907			-3.415
80004.000			23.904			-3.415
80104.000			23.902			-3.415
80205.000			23.901			-3.414
80303.000			23.901			-3.414
80404.000			23.900			-3.414
80505.000			23.898			-3.414
80604.000			23.898			-3.414
80704.000			23.898			-3.414
80805.000			23.895			-3.414
80904.000			23.895			-3.414
81004.000			23.894			-3.413
81105.000			23.893			-3.413
81203.000			23.892			-3.413
81305.000			23.892			-3.413
81404.000			23.891			-3.413
81504.000			23.890			-3.413
81605.000			23.889			-3.413
81704.000			23.889			-3.413
81804.000			23.888			-3.413
81904.000			23.887			-3.412
82004.000			23.886			-3.412
82104.000			23.886			-3.412
82205.000			23.884			-3.412
82304.000			23.884			-3.412
82404.000			23.882			-3.412
82505.000			23.881			-3.412
82603.000			23.881			-3.412
82704.000			23.881			-3.412
82805.000			23.879			-3.411
82904.000			23.878			-3.411
83004.000			23.877			-3.411
83105.000			23.876			-3.411
83204.000			23.876			-3.411
83303.000			23.876			-3.411
83405.000			23.875			-3.411
83504.000			23.873			-3.410
83604.000			23.872			-3.410
83705.000			23.872			-3.410
83804.000			23.871			-3.410
83904.000			23.869			-3.410
84004.000			23.869			-3.410
84104.000			23.868			-3.410
84204.000			23.868			-3.410
84304.000			23.867			-3.410
84404.000			23.866			-3.409
84505.000			23.864			-3.409
84604.000			23.863			-3.409
84703.000			23.862			-3.409
84805.000			23.863			-3.409
84904.000			23.863			-3.409
85004.000			23.862			-3.409
85105.000			23.861			-3.409
85204.000			23.858			-3.408
85304.000			23.857			-3.408
85404.000			23.857			-3.408
85504.000			23.857			-3.408
85604.000			23.856			-3.408
85705.000			23.855			-3.408
85804.000			23.854			-3.408
85904.000			23.853			-3.408
86005.000			23.852			-3.407
86103.000			23.851			-3.407
86204.000			23.851			-3.407
86305.000			23.850			-3.407
86404.000			23.849			-3.407
86504.000			23.848			-3.407
86605.000			23.848			-3.407
86704.000			23.847			-3.407
86803.000			23.847			-3.407
86905.000			23.845			-3.406
87004.000			23.845			-3.406
87104.000			23.844			-3.406
87205.000			23.842			-3.406
87304.000			23.842			-3.406
87404.000			23.841			-3.406
87503.000			23.841			-3.406
87604.000			23.840			-3.406
87705.000			23.839			-3.406
87804.000			23.837			-3.405
87904.000			23.837			-3.405
88005.000			23.836			-3.405
88104.000			23.835			-3.405
88203.000			23.834			-3.405
88305.000			23.832			-3.405
88404.000			23.832			-3.405
88504.000			23.831			-3.404
88605.000			23.831			-3.404
88704.000			23.831			-3.404
88804.000			23.831			-3.404
88905.000			23.829			-3.404
89004.000			23.828			-3.404
89103.000			23.827			-3.404
89205.000			23.827			-3.404
89304.000			23.826			-3.404
89404.000			23.826			-3.404
89505.000			23.824			-3.403
89604.000			23.822			-3.403
89704.000			23.822			-3.403
89804.000			23.822			-3.403
89904.000			23.822			-3.403
90004.000			23.820			-3.403
90105.000			23.819			-3.403
90204.000			23.818			-3.403
90304.000			23.817			-3.402
90405.000			23.817			-3.402
90503.000			23.816			-3.402
90604.000			23.814			-3.402
90705.000			23.813			-3.402
90804.000			23.813			-3.402
90905.000			23.813			-3.402
91004.000			23.811			-3.402
91104.000			23.810			-3.401
91204.000			23.809			-3.401
91304.000			23.808			-3.401
91404.000			23.806			-3.401
91505.000			23.807			-3.401
91604.000			23.807			-3.401
91704.000			23.806			-3.401
91805.000			23.805			-3.401
91903.000			23.805			-3.401
92004.000			23.803			-3.400
92105.000			23.802			-3.400
92204.000			23.803			-3.400
92304.000			23.802			-3.400
92405.000			23.801			-3.400
92504.000			23.800			-3.400
92603.000			23.799			-3.400
92705.000			23.798			-3.400
92804.000			23.798			-3.400
92904.000			23.796			-3.399
93005.000			23.796			-3.399
93104.000			23.795			-3.399
93204.000			23.794			-3.399
93304.000			23.793			-3.399
93404.000			23.793			-3.399
93504.000			23.791			-3.399
93605.000			23.791			-3.399
93704.000			23.790			-3.399
93804.000			23.789			-3.398
93905.000			23.788			-3.398
94003.000			23.787			-3.398
94105.000			23.787			-3.398
94204.000			23.786			-3.398
94304.000			23.785			-3.398
94405.000			23.784			-3.398
94504.000			23.783			-3.398
94604.000			23.783			-3.398
94704.000			23.782			-3.397
94804.000			23.781			-3.397
94904.000			23.780			-3.397
95005.000			23.780			-3.397
95104.000			23.780			-3.397
95204.000			23.780			-3.397
95305.000			23.780			-3.397
95403.000			23.778			-3.397
95504.000			23.776			-3.397
95604.000			23.775			-3.396
95704.000			23.775			-3.396
95804.000			23.774			-3.396
95905.000			23.774			-3.396
96004.000			23.773			-3.396
96104.000			23.772			-3.396
96205.000			23.772			-3.396
96303.000			23.771			-3.396
96404.000			23.771			-3.396
96505.000			23.772			-3.396
96604.000			23.770			-3.396
96704.000			23.770			-3.396
96805.000			23.770			-3.396
96904.000			23.767			-3.395
97003.000			23.766			-3.395
97105.000			23.766			-3.395
97204.000			23.765			-3.395
97305.000			23.765			-3.395
97404.000			23.764			-3.395
97504.000			23.764			-3.395
97605.000			23.762			-3.395
97703.000			23.761			-3.394
97804.000			23.761			-3.394
97905.000			23.760			-3.394
98004.000			23.759			-3.394
98104.000			23.758			-3.394
98205.000			23.757			-3.394
98304.000			23.756			-3.394
98403.000			23.756			-3.394
98505.000			23.755			-3.394
98604.000			23.755			-3.394
98704.000			23.754			-3.393
98805.000			23.754			-3.393
98904.000			23.752			-3.393
99004.000			23.751			-3.393
99105.000			23.750			-3.393
99204.000			23.749			-3.393
99303.000			23.749			-3.393
99405.000			23.749			-3.393
99504.000			23.749			-3.393
99604.000			23.748			-3.393
99705.000			23.747			-3.392
99804.000			23.746			-3.392
99904.000			23.746			-3.392
100004.000			23.745			-3.392
100104.000			23.744			-3.392
100204.000			23.744			-3.392
100304.000			23.742			-3.392
100404.000			23.741			-3.392
100505.000			23.740			-3.391
100604.000			23.740			-3.391
100703.000			23.740			-3.391
100805.000			23.739			-3.391
100904.000			23.738			-3.391
101004.000			23.738			-3.391
101105.000			23.737			-3.391
101204.000			23.735			-3.391
101304.000			23.734			-3.391
101404.000			23.733			-3.390
101504.000			23.733			-3.390
101604.000			23.733			-3.390
101705.000			23.732			-3.390
101804.000			23.731			-3.390
101904.000			23.731			-3.390
102005.000			23.730			-3.390
102103.000			23.730			-3.390
102204.000			23.729			-3.390
102305.000			23.729			-3.390
102404.000			23.727			-3.390
102504.000			23.726			-3.389
102605.000			23.726			-3.389
102704.000			23.724			-3.389
102803.000			23.723			-3.389
102905.000			23.723			-3.389
103004.000			23.723			-3.389
103104.000			23.723			-3.389
103205.000			23.722			-3.389
103304.000			23.721			-3.389
103404.000			23.721			-3.389
103503.000			23.720			-3.389
103604.000			23.720			-3.389
103705.000			23.719			-3.388
103804.000			23.718			-3.388
103904.000			23.717			-3.388
104005.000			23.716			-3.388
104104.000			23.716			-3.388
104203.000			23.715			-3.388
104305.000			23.714			-3.388
104404.000			23.713			-3.388
104504.000			23.713			-3.388
104605.000			23.713			-3.388
104704.000			23.713			-3.388
104804.000			23.712			-3.387
104904.000			23.711			-3.387
105004.000			23.710			-3.387
105103.000			23.710			-3.387
105205.000			23.710			-3.387
105304.000			23.708			-3.387
105404.000			23.707			-3.387
105505.000			23.707			-3.387
105604.000			23.707			-3.387
105704.000			23.706			-3.387
105804.000			23.705			-3.386
105904.000			23.705			-3.386
106004.000			23.703			-3.386
106105.000			23.702			-3.386
106204.000			23.702			-3.386
106304.000			23.702			-3.386
106405.000			23.701			-3.386
106503.000			23.701			-3.386
106604.000			23.700			-3.386
106705.000			23.699			-3.386
106804.000			23.699			-3.386
106905.000			23.698			-3.385
107004.000			23.697			-3.385
107104.000			23.697			-3.385
107204.000			23.696			-3.385
107304.000			23.695			-3.385
107404.000			23.694			-3.385
107505.000			23.693			-3.385
107604.000			23.693			-3.385
107704.000			23.692			-3.385
107805.000			23.691			-3.384
107903.000			23.690			-3.384
108004.000			23.690			-3.384
108104.000			23.690			-3.384
108204.000			23.689			-3.384
108304.000			23.688			-3.384
108405.000			23.687			-3.384
108504.000			23.687			-3.384
108604.000			23.687			-3.384
108705.000			23.687			-3.384
108803.000			23.685			-3.384
108904.000			23.684			-3.383
109005.000			23.684			-3.383
109104.000			23.683			-3.383
109204.000			23.682			-3.383
109305.000			23.681			-3.383
109404.000			23.681			-3.383
109503.000			23.680			-3.383
109605.000			23.678			-3.383
109704.000			23.678			-3.383
109804.000			23.678			-3.383
109905.000			23.679			-3.383
110004.000			23.677			-3.382
110105.000			23.676			-3.382
110204.000			23.675			-3.382
110304.000			23.674			-3.382
110404.000			23.675			-3.382
110504.000			23.675			-3.382
110604.000			23.675			-3.382
110705.000			23.672			-3.382
110804.000			23.672			-3.382
110904.000			23.672			-3.382
111005.000			23.671			-3.382
111103.000			23.670			-3.381
111204.000			23.670			-3.381
111305.000			23.670			-3.381
111404.000			23.669			-3.381
111504.000			23.668			-3.381
111605.000			23.667			-3.381
111704.000			23.666			-3.381
111803.000			23.666			-3.381
111905.000			23.666			-3.381
112004.000			23.665			-3.381
112104.000			23.664			-3.381
112205.000			23.662			-3.380
112304.000			23.661			-3.380
112404.000			23.661			-3.380
112504.000			23.661			-3.380
112604.000			23.660			-3.380
112704.000			23.660			-3.380
112805.000			23.660			-3.380
112904.000			23.658			-3.380
113004.000			23.658			-3.380
113105.000			23.657			-3.380
113203.000			23.656			-3.379
113305.000			23.656			-3.379
113404.000			23.656			-3.379
113504.000			23.655			-3.379
113605.000			23.653			-3.379
113704.000			23.652			-3.379
113804.000			23.652			-3.379
113904.000			23.651			-3.379
114004.000			23.651			-3.379
114104.000			23.650			-3.379
114205.000			23.651			-3.379
114304.000			23.648			-3.378
114404.000			23.649			-3.378
114505.000			23.648			-3.378
114603.000			23.648			-3.378
114704.000			23.647			-3.378
114805.000			23.646			-3.378
114904.000			23.646			-3.378
115004.000			23.646			-3.378
115105.000			23.643			-3.378
115204.000			23.642			-3.377
115303.000			23.642			-3.377
115405.000			23.641			-3.377
115504.000			23.641			-3.377
115604.000			23.641			-3.377
115705.000			23.642			-3.377
115804.000			23.640			-3.377
115904.000			23.639			-3.377
116004.000			23.639			-3.377
116104.000			23.638			-3.377
116203.000			23.637			-3.377
116305.000			23.637			-3.377
116404.000			23.637			-3.377
116505.000			23.634			-3.376
116604.000			23.634			-3.376
116704.000			23.634			-3.376
116805.000			23.633			-3.376
116903.000			23.633			-3.376
117004.000			23.632			-3.376
117105.000			23.631			-3.376
117204.000			23.630			-3.376
117304.000			23.630			-3.376
117405.000			23.630			-3.376
117504.000			23.630			-3.376
117603.000			23.629			-3.376
117705.000			23.628			-3.375
117804.000			23.627			-3.375
117904.000			23.626			-3.375
118005.000			23.625			-3.375
118104.000			23.625			-3.375
118204.000			23.624			-3.375
118304.000			23.624			-3.375
118404.000			23.623			-3.375
118504.000			23.623			-3.375
118605.000			23.623			-3.375
118704.000			23.622			-3.375
118804.000			23.621			-3.374
118905.000			23.620			-3.374
119003.000			23.619			-3.374
119104.000			23.620			-3.374
119205.000			23.618			-3.374
119304.000			23.617			-3.374
119404.000			23.618			-3.374
119504.000			23.617			-3.374
119604.000			23.616			-3.374
119705.000			23.615			-3.374
119804.000			23.615			-3.374
119903.000			23.615			-3.374
120005.000			23.614			-3.373
120104.000			23.614			-3.373
120204.000			23.612			-3.373
120305.000			23.612			-3.373
120403.000			23.612			-3.373
120504.000			23.612			-3.373
120605.000			23.610			-3.373
120704.000			23.610			-3.373
120804.000			23.609			-3.373
120905.000			23.608			-3.373
121004.000			23.607			-3.372
121103.000			23.608			-3.373
121205.000			23.607			-3.372
121304.000			23.606			-3.372
121404.000			23.606			-3.372
121505.000			23.606			-3.372
121604.000			23.604			-3.372
121704.000			23.604			-3.372
121804.000			23.603			-3.372
121904.000			23.603			-3.372
122003.000			23.603			-3.372
122105.000			23.602			-3.372
122204.000			23.602			-3.372
122304.000			23.601			-3.372
122405.000			23.599			-3.371
122503.000			23.599			-3.371
122604.000			23.599			-3.371
122703.000			23.598			-3.371
122804.000			23.598			-3.371
122905.000			23.598			-3.371
123004.000			23.596			-3.371
123104.000			23.596			-3.371
123204.000			23.595			-3.371
123304.000			23.595			-3.371
123403.000			23.593			-3.370
123505.000			23.593			-3.370
123604.000			23.593			-3.370
123704.000			23.592			-3.370
123805.000			23.592			-3.370
123904.000			23.591			-3.370
124004.000			23.590			-3.370
124104.000			23.589			-3.370
124204.000			23.589			-3.370
124304.000			23.589			-3.370
124405.000			23.590			-3.370
124504.000			23.588			-3.370
124604.000			23.587			-3.370
124705.000			23.586			-3.369
124803.000			23.586			-3.369
124904.000			23.585			-3.369
125005.000			23.585			-3.369
125104.000			23.585			-3.369
125204.000			23.583			-3.369
125305.000			23.583			-3.369
125404.000			23.582			-3.369
125503.000			23.582			-3.369
125605.000			23.581			-3.369
125703.000			23.581			-3.369
125804.000			23.581			-3.369
125905.000			23.580			-3.369
126004.000			23.580			-3.369
126105.000			23.579			-3.368
126204.000			23.579			-3.368
126304.000			23.579			-3.368
126404.000			23.579			-3.368
126504.000			23.578			-3.368
126604.000			23.577			-3.368
126705.000			23.577			-3.368
126804.000			23.576			-3.368
126904.000			23.575			-3.368
127005.000			23.575			-3.368
127103.000			23.574			-3.368
127204.000			23.573			-3.368
127305.000			23.574			-3.368
127404.000			23.573			-3.368
127504.000			23.573			-3.368
127605.000			23.573			-3.368
127704.000			23.572			-3.367
127803.000			23.571			-3.367
127905.000			23.571			-3.367
128004.000			23.570			-3.367
128104.000			23.570			-3.367
128205.000			23.569			-3.367
128304.000			23.568			-3.367
128404.000			23.567			-3.367
128504.000			23.566			-3.367
128604.000			23.565			-3.366
128703.000			23.566			-3.367
128805.000			23.566			-3.366
128904.000			23.563			-3.366
129004.000			23.564			-3.366
129105.000			23.564			-3.366
129204.000			23.563			-3.366
129305.000			23.563			-3.366
129403.000			23.562			-3.366
129504.000			23.561			-3.366
129605.000			23.560			-3.366
129704.000			23.560			-3.366
129804.000			23.559			-3.366
129905.000			23.559			-3.366
130004.000			23.558			-3.365
130103.000			23.557			-3.365
130205.000			23.557			-3.365
130304.000			23.556			-3.365
130404.000			23.555			-3.365
130505.000			23.555			-3.365
130604.000			23.555			-3.365
130704.000			23.554			-3.365
130804.000			23.554			-3.365
130904.000			23.554			-3.365
131003.000			23.552			-3.365
131105.000			23.552			-3.365
131204.000			23.551			-3.364
131304.000			23.551			-3.364
131405.000			23.550			-3.364
131504.000			23.550			-3.364
131604.000			23.550			-3.364
131704.000			23.549			-3.364
131804.000			23.547			-3.364
131904.000			23.547			-3.364
132005.000			23.546			-3.364
132104.000			23.546			-3.364
132204.000			23.546			-3.364
132305.000			23.546			-3.364
132404.000			23.544			-3.363
132505.000			23.544			-3.363
132603.000			23.543			-3.363
132704.000			23.542			-3.363
132805.000			23.542			-3.363
132904.000			23.542			-3.363
133004.000			23.541			-3.363
133105.000			23.540			-3.363
133204.000			23.539			-3.363
133303.000			23.539			-3.363
133405.000			23.538			-3.363
133504.000			23.537			-3.362
133604.000			23.536			-3.362
133705.000			23.537			-3.362
133804.000			23.536			-3.362
133904.000			23.536			-3.362
134005.000			23.534			-3.362
134104.000			23.535			-3.362
134203.000			23.534			-3.362
134305.000			23.533			-3.362
134404.000			23.532			-3.362
134504.000			23.532			-3.362
134605.000			23.533			-3.362
134704.000			23.532			-3.362
134804.000			23.531			-3.362
134904.000			23.531			-3.362
135004.000			23.531			-3.362
135103.000			23.531			-3.362
135205.000			23.531			-3.362
135304.000			23.530			-3.361
135404.000			23.532			-3.362
135505.000			23.531			-3.362
135604.000			23.530			-3.361
135705.000			23.531			-3.362
135803.000			23.530			-3.361
135904.000			23.529			-3.361
136005.000			23.529			-3.361
136104.000			23.528			-3.361
136204.000			23.528			-3.361
136305.000			23.526			-3.361
136404.000			23.526			-3.361
136504.000			23.525			-3.361
136605.000			23.526			-3.361
136703.000			23.526			-3.361
136804.000			23.526			-3.361
136905.000			23.524			-3.361
137004.000			23.523			-3.360
137104.000			23.523			-3.360
137205.000			23.522			-3.360
137304.000			23.522			-3.360
137404.000			23.523			-3.360
137505.000			23.522			-3.360
137603.000			23.519			-3.360
137704.000			23.519			-3.360
137805.000			23.519			-3.360
137904.000			23.519			-3.360
138004.000			23.518			-3.360
138105.000			23.518			-3.360
138204.000			23.518			-3.360
138303.000			23.518			-3.360
138405.000			23.516			-3.359
138503.000			23.516			-3.359
138604.000			23.515			-3.359
138705.000			23.515			-3.359
138804.000			23.514			-3.359
138905.000			23.514			-3.359
139004.000			23.514			-3.359
139104.000			23.512			-3.359
139204.000			23.511			-3.359
139304.000			23.511			-3.359
139403.000			23.512			-3.359
139505.000			23.511			-3.359
139604.000			23.510			-3.359
139704.000			23.510			-3.359
139805.000			23.508			-3.358
139904.000			23.507			-3.358
140004.000			23.507			-3.358
140104.000			23.507			-3.358
140204.000			23.506			-3.358
140303.000			23.506			-3.358
140405.000			23.506			-3.358
140504.000			23.504			-3.358
140604.000			23.504			-3.358
140705.000			23.503			-3.358
140804.000			23.503			-3.358
140904.000			23.502			-3.357
141004.000			23.502			-3.357
141104.000			23.501			-3.357
141204.000			23.501			-3.357
141305.000			23.500			-3.357
141404.000			23.499			-3.357
141504.000			23.499			-3.357
141605.000			23.498			-3.357
141704.000			23.498			-3.357
141804.000			23.497			-3.357
141903.000			23.498			-3.357
142004.000			23.497			-3.357
142105.000			23.497			-3.357
142204.000			23.496			-3.357
142304.000			23.496			-3.357
142405.000			23.495			-3.356
142504.000			23.495			-3.356
142603.000			23.495			-3.356
142705.000			23.495			-3.356
142803.000			23.494			-3.356
142904.000			23.493			-3.356
143005.000			23.491			-3.356
143104.000			23.491			-3.356
143204.000			23.491			-3.356
143305.000			23.491			-3.356
143404.000			23.490			-3.356
143503.000			23.489			-3.356
143605.000			23.490			-3.356
143703.000			23.489			-3.356
143804.000			23.489			-3.356
143905.000			23.488			-3.355
144004.000			23.488			-3.355
144104.000			23.488			-3.355
144205.000			23.488			-3.355
144304.000			23.487			-3.355
144403.000			23.486			-3.355
144505.000			23.486			-3.355
144603.000			23.485			-3.355
144704.000			23.485			-3.355
144805.000			23.484			-3.355
144904.000			23.483			-3.355
145004.000			23.483			-3.355
145104.000			23.483			-3.355
145204.000			23.483			-3.355
145303.000			23.483			-3.355
145404.000			23.482			-3.355
145503.000			23.481			-3.354
145605.000			23.480			-3.354
145704.000			23.480			-3.354
145804.000			23.480			-3.354
145905.000			23.479			-3.354
146004.000			23.478			-3.354
146104.000			23.478			-3.354
146204.000			23.477			-3.354
146304.000			23.477			-3.354
146403.000			23.476			-3.354
146505.000			23.475			-3.354
146604.000			23.476			-3.354
146704.000			23.475			-3.354
146805.000			23.475			-3.354
146904.000			23.474			-3.353
147004.000			23.474			-3.353
147104.000			23.474			-3.353
147204.000			23.473			-3.353
147303.000			23.473			-3.353
147405.000			23.473			-3.353
147504.000			23.472			-3.353
147604.000			23.471			-3.353
147705.000			23.472			-3.353
147804.000			23.472			-3.353
147904.000			23.472			-3.353
148004.000			23.471			-3.353
148104.000			23.470			-3.353
148203.000			23.471			-3.353
148305.000			23.470			-3.353
148404.000			23.469			-3.353
148505.000			23.468			-3.353
148604.000			23.467			-3.352
148704.000			23.467			-3.352
148805.000			23.466			-3.352
148903.000			23.465			-3.352
149004.000			23.465			-3.352
149104.000			23.463			-3.352
149204.000			23.463			-3.352
149304.000			23.463			-3.352
149405.000			23.463			-3.352
149504.000			23.462			-3.352
149604.000			23.461			-3.352
149705.000			23.460			-3.351
149803.000			23.460			-3.351
149904.000			23.459			-3.351
150005.000			23.459			-3.351
150104.000			23.459			-3.351
150204.000			23.457			-3.351
150305.000			23.457			-3.351
150404.000			23.456			-3.351
150504.000			23.456			-3.351
150605.000			23.455			-3.351
150703.000			23.453			-3.350
150804.000			23.452			-3.350
150905.000			23.452			-3.350
151004.000			23.452			-3.350
151104.000			23.452			-3.350
151205.000			23.452			-3.350
151304.000			23.451			-3.350
151404.000			23.449			-3.350
151505.000			23.448			-3.350
151603.000			23.447			-3.350
151705.000			23.447			-3.350
151803.000			23.448			-3.350
151904.000			23.447			-3.350
152005.000			23.447			-3.350
152104.000			23.446			-3.349
152204.000			23.446			-3.349
152305.000			23.445			-3.349
152404.000			23.444			-3.349
152503.000			23.444			-3.349
152605.000			23.444			-3.349
152704.000			23.445			-3.349
152804.000			23.444			-3.349
152905.000			23.444			-3.349
153004.000			23.443			-3.349
153104.000			23.443			-3.349
153205.000			23.443			-3.349
153304.000			23.442			-3.349
153403.000			23.441			-3.349
153505.000			23.442			-3.349
153604.000			23.440			-3.349
153704.000			23.441			-3.349
153805.000			23.441			-3.349
153904.000			23.440			-3.349
154004.000			23.439			-3.348
154104.000			23.439			-3.348
154204.000			23.438			-3.348
154303.000			23.438			-3.348
154405.000			23.436			-3.348
154504.000			23.435			-3.348
154604.000			23.436			-3.348
154705.000			23.435			-3.348
154804.000			23.434			-3.348
154905.000			23.435			-3.348
155003.000			23.435			-3.348
155104.000			23.434			-3.348
155204.000			23.433			-3.348
155304.000			23.435			-3.348
155404.000			23.434			-3.348
155505.000			23.433			-3.348
155604.000			23.433			-3.348
155704.000			23.433			-3.348
155805.000			23.433			-3.348
155903.000			23.432			-3.347
156004.000			23.431			-3.347
156105.000			23.431			-3.347
156204.000			23.431			-3.347
156304.000			23.429			-3.347
156405.000			23.431			-3.347
156504.000			23.432			-3.347
156604.000			23.430			-3.347
156705.000			23.429			-3.347
156803.000			23.429			-3.347
156904.000			23.429			-3.347
157005.000			23.428			-3.347
157104.000			23.428			-3.347
157204.000			23.427			-3.347
157305.000			23.426			-3.347
157404.000			23.425			-3.346
157504.000			23.426			-3.347
157605.000			23.426			-3.347
157703.000			23.426			-3.347
157804.000			23.425			-3.346
157905.000			23.424			-3.346
158004.000			23.423			-3.346
158105.000			23.423			-3.346
158204.000			23.423			-3.346
158304.000			23.422			-3.346
158404.000			23.422			-3.346
158504.000			23.422			-3.346
158603.000			23.421			-3.346
158705.000			23.421			-3.346
158804.000			23.421			-3.346
158904.000			23.419			-3.346
159005.000			23.420			-3.346
159104.000			23.419			-3.346
159204.000			23.419			-3.346
159304.000			23.419			-3.346
159404.000			23.418			-3.345
159503.000			23.417			-3.345
159605.000			23.417			-3.345
159704.000			23.417			-3.345
159804.000			23.415			-3.345
159905.000			23.415			-3.345
160004.000			23.415			-3.345
160104.000			23.414			-3.345
160204.000			23.413			-3.345
160304.000			23.413			-3.345
160404.000			23.413			-3.345
160505.000			23.412			-3.345
160604.000			23.412			-3.345
160704.000			23.412			-3.345
160805.000			23.411			-3.344
160904.000			23.411			-3.344
161004.000			23.410			-3.344
161103.000			23.408			-3.344
161204.000			23.408			-3.344
161305.000			23.408			-3.344
161404.000			23.408			-3.344
161504.000			23.408			-3.344
161605.000			23.408			-3.344
161704.000			23.407			-3.344
161803.000			23.406			-3.344
161905.000			23.405			-3.344
162004.000			23.405			-3.344
162104.000			23.405			-3.344
162205.000			23.404			-3.343
162304.000			23.402			-3.343
162404.000			23.402			-3.343
162505.000			23.402			-3.343
162604.000			23.402			-3.343
162703.000			23.401			-3.343
162805.000			23.400			-3.343
162904.000			23.400			-3.343
163004.000			23.401			-3.343
163105.000			23.399			-3.343
163204.000			23.399			-3.343
163304.000			23.398			-3.343
163404.000			23.398			-3.343
163504.000			23.397			-3.342
163603.000			23.397			-3.342
163705.000			23.396			-3.342
163804.000			23.396			-3.342
163904.000			23.396			-3.342
164005.000			23.395			-3.342
164104.000			23.395			-3.342
164204.000			23.394			-3.342
164304.000			23.394			-3.342
164404.000			23.394			-3.342
164503.000			23.393			-3.342
164604.000			23.394			-3.342
164704.000			23.393			-3.342
164805.000			23.393			-3.342
164904.000			23.393			-3.342
165004.000			23.392			-3.342
165105.000			23.392			-3.342
165203.000			23.392			-3.342
165304.000			23.390			-3.341
165404.000			23.391			-3.342
165504.000			23.391			-3.342
165604.000			23.390			-3.341
165705.000			23.390			-3.341
165804.000			23.389			-3.341
165904.000			23.389			-3.341
166005.000			23.388			-3.341
166103.000			23.388			-3.341
166204.000			23.388			-3.341
166304.000			23.387			-3.341
166404.000			23.387			-3.341
166504.000			23.387			-3.341
166605.000			23.387			-3.341
166704.000			23.387			-3.341
166804.000			23.385			-3.341
166905.000			23.384			-3.341
167004.000			23.384			-3.341
167104.000			23.383			-3.340
167204.000			23.383			-3.340
167304.000			23.383			-3.340
167404.000			23.383			-3.340
167504.000			23.381			-3.340
167604.000			23.380			-3.340
167705.000			23.380			-3.340
167804.000			23.380			-3.340
167904.000			23.380			-3.340
168005.000			23.378			-3.340
168103.000			23.377			-3.340
168204.000			23.378			-3.340
168305.000			23.377			-3.340
168404.000			23.377			-3.340
168504.000			23.375			-3.339
168605.000			23.375			-3.339
168704.000			23.374			-3.339
168804.000			23.374			-3.339
168905.000			23.372			-3.339
169003.000			23.372			-3.339
169104.000			23.371			-3.339
169205.000			23.371			-3.339
169304.000			23.371			-3.339
169404.000			23.371			-3.339
169505.000			23.370			-3.339
169604.000			23.369			-3.338
169704.000			23.369			-3.338
169805.000			23.368			-3.338
169903.000			23.368			-3.338
170004.000			23.367			-3.338
170105.000			23.367			-3.338
170204.000			23.367			-3.338
170304.000			23.366			-3.338
170405.000			23.365			-3.338
170504.000			23.365			-3.338
170604.000			23.364			-3.338
170705.000			23.365			-3.338
170803.000			23.364			-3.338
170905.000			23.362			-3.337
171004.000			23.362			-3.337
171104.000			23.363			-3.338
171205.000			23.362			-3.337
171304.000			23.362			-3.337
171404.000			23.361			-3.337
171505.000			23.360			-3.337
171604.000			23.359			-3.337
171703.000			23.359			-3.337
171805.000			23.358			-3.337
171904.000			23.358			-3.337
172004.000			23.359			-3.337
172105.000			23.358			-3.337
172204.000			23.356			-3.337
172304.000			23.356			-3.337
172405.000			23.356			-3.337
172504.000			23.356			-3.337
172603.000			23.354			-3.336
172705.000			23.354			-3.336
172804.000			23.354			-3.336
172904.000			23.353			-3.336
173005.000			23.353			-3.336
173104.000			23.354			-3.336
173204.000			23.354			-3.336
173305.000			23.352			-3.336
173404.000			23.351			-3.336
173503.000			23.351			-3.336
173605.000			23.351			-3.336
173704.000			23.350			-3.336
173804.000			23.350			-3.336
173905.000			23.350			-3.336
174004.000			23.349			-3.336
174105.000			23.349			-3.336
174203.000			23.349			-3.336
174304.000			23.348			-3.335
174404.000			23.348			-3.335
174504.000			23.347			-3.335
174604.000			23.347			-3.335
174705.000			23.346			-3.335
174804.000			23.345			-3.335
174904.000			23.345			-3.335
175005.000			23.344			-3.335
175103.000			23.345			-3.335
175204.000			23.345			-3.335
175304.000			23.344			-3.335
175404.000			23.344			-3.335
175504.000			23.342			-3.335
175605.000			23.343			-3.335
175704.000			23.343			-3.335
175804.000			23.342			-3.335
175905.000			23.341			-3.334
176003.000			23.340			-3.334
176104.000			23.339			-3.334
176204.000			23.340			-3.334
176304.000			23.341			-3.334
176404.000			23.340			-3.334
176505.000			23.340			-3.334
176604.000			23.340			-3.334
176704.000			23.338			-3.334
176805.000			23.337			-3.334
176904.000			23.337			-3.334
177004.000			23.336			-3.334
177103.000			23.336			-3.334
177204.000			23.337			-3.334
177305.000			23.337			-3.334
177404.000			23.336			-3.334
177504.000			23.335			-3.334
177605.000			23.336			-3.334
177704.000			23.335			-3.334
177804.000			23.334			-3.333
177905.000			23.333			-3.333
178003.000			23.333			-3.333
178104.000			23.332			-3.333
178205.000			23.332			-3.333
178304.000			23.331			-3.333
178404.000			23.332			-3.333
178505.000			23.332			-3.333
178604.000			23.331			-3.333
178704.000			23.330			-3.333
178805.000			23.329			-3.333
178903.000			23.330			-3.333
179004.000			23.330			-3.333
179105.000			23.330			-3.333
179204.000			23.329			-3.333
179304.000			23.328			-3.333
179405.000			23.327			-3.332
179504.000			23.327			-3.332
179604.000			23.326			-3.332
179705.000			23.326			-3.332
179803.000			23.326			-3.332
179904.000			23.325			-3.332
180005.000			23.324			-3.332
180104.000			23.324			-3.332
180204.000			23.324			-3.332
180304.000			23.323			-3.332
180404.000			23.324			-3.332
180505.000			23.324			-3.332
180604.000			23.322			-3.332
180703.000			23.322			-3.332
180805.000			23.321			-3.332
180904.000			23.321			-3.332
181004.000			23.320			-3.331
181105.000			23.320			-3.331
181204.000			23.320			-3.331
181304.000			23.319			-3.331
181405.000			23.318			-3.331
181504.000			23.318			-3.331
181603.000			23.317			-3.331
181705.000			23.317			-3.331
181804.000			23.317			-3.331
181904.000			23.316			-3.331
182005.000			23.317			-3.331
182104.000			23.316			-3.331
182204.000			23.316			-3.331
182304.000			23.316			-3.331
182404.000			23.316			-3.331
182503.000			23.315			-3.331
182605.000			23.315			-3.331
182704.000			23.314			-3.331
182804.000			23.313			-3.330
182905.000			23.314			-3.331
183004.000			23.314			-3.331
183104.000			23.313			-3.330
183204.000			23.312			-3.330
183304.000			23.311			-3.330
183404.000			23.311			-3.330
183504.000			23.311			-3.330
183604.000			23.310			-3.330
183705.000			23.309			-3.330
183804.000			23.308			-3.330
183904.000			23.309			-3.330
184005.000			23.309			-3.330
184103.000			23.309			-3.330
184204.000			23.308			-3.330
184305.000			23.308			-3.330
184404.000			23.307			-3.330
184504.000			23.306			-3.329
184605.000			23.306			-3.329
184704.000			23.305			-3.329
184804.000			23.305			-3.329
184905.000			23.306			-3.329
185003.000			23.305			-3.329
185104.000			23.305			-3.329
185205.000			23.304			-3.329
185304.000			23.302			-3.329
185404.000			23.303			-3.329
185505.000			23.302			-3.329
185604.000			23.301			-3.329
185703.000			23.302			-3.329
185805.000			23.302			-3.329
185903.000			23.301			-3.329
186004.000			23.300			-3.329
186105.000			23.299			-3.328
186204.000			23.298			-3.328
186304.000			23.299			-3.328
186405.000			23.299			-3.328
186504.000			23.299			-3.328
186603.000			23.298			-3.328
186705.000			23.298			-3.328
186803.000			23.298			-3.328
186905.000			23.297			-3.328
187004.000			23.297			-3.328
187104.000			23.297			-3.328
187205.000			23.296			-3.328
187304.000			23.296			-3.328
187404.000			23.296			-3.328
187505.000			23.296			-3.328
187604.000			23.295			-3.328
187703.000			23.295			-3.328
187805.000			23.295			-3.328
187904.000			23.294			-3.328
188004.000			23.293			-3.328
188105.000			23.293			-3.328
188204.000			23.293			-3.328
188304.000			23.292			-3.327
188405.000			23.292			-3.327
188504.000			23.291			-3.327
188603.000			23.291			-3.327
188705.000			23.290			-3.327
188804.000			23.290			-3.327
188904.000			23.289			-3.327
189005.000			23.289			-3.327
189104.000			23.289			-3.327
189204.000			23.290			-3.327
189305.000			23.288			-3.327
189404.000			23.288			-3.327
189503.000			23.288			-3.327
189605.000			23.287			-3.327
189703.000			23.286			-3.327
189804.000			23.285			-3.326
189905.000			23.285			-3.326
190004.000			23.285			-3.326
190105.000			23.284			-3.326
190204.000			23.285			-3.326
190304.000			23.285			-3.326
190405.000			23.284			-3.326
190504.000			23.283			-3.326
190603.000			23.284			-3.326
190705.000			23.284			-3.326
190804.000			23.282			-3.326
190904.000			23.281			-3.326
191005.000			23.281			-3.326
191104.000			23.280			-3.326
191204.000			23.280			-3.326
191304.000			23.281			-3.326
191404.000			23.281			-3.326
191503.000			23.279			-3.326
191605.000			23.278			-3.325
191704.000			23.278			-3.325
191804.000			23.279			-3.326
191905.000			23.279			-3.326
192004.000			23.278			-3.325
192104.000			23.277			-3.325
192204.000			23.276			-3.325
192304.000			23.277			-3.325
192403.000			23.276			-3.325
192505.000			23.276			-3.325
192604.000			23.276			-3.325
192704.000			23.275			-3.325
192805.000			23.275			-3.325
192904.000			23.275			-3.325
193004.000			23.274			-3.325
193103.000			23.274			-3.325
193204.000			23.273			-3.325
193303.000			23.273			-3.325
193404.000			23.273			-3.325
193504.000			23.273			-3.325
193605.000			23.273			-3.325
193704.000			23.270			-3.324
193804.000			23.270			-3.324
193905.000			23.271			-3.324
194003.000			23.271			-3.324
194104.000			23.271			-3.324
194204.000			23.270			-3.324
194304.000			23.270			-3.324
194404.000			23.269			-3.324
194505.000			23.270			-3.324
194604.000			23.268			-3.324
194704.000			23.267			-3.324
194805.000			23.267			-3.324
194903.000			23.268			-3.324
195004.000			23.267			-3.324
195104.000			23.266			-3.324
195204.000			23.267			-3.324
195304.000			23.266			-3.324
195405.000			23.267			-3.324
195504.000			23.267			-3.324
195604.000			23.267			-3.324
195705.000			23.266			-3.324
195804.000			23.264			-3.323
195904.000			23.264			-3.323
196004.000			23.263			-3.323
196104.000			23.262			-3.323
196204.000			23.263			-3.323
196304.000			23.264			-3.323
196404.000			23.263			-3.323
196505.000			23.263			-3.323
196604.000			23.261			-3.323
196704.000			23.260			-3.323
196805.000			23.260			-3.323
196903.000			23.260			-3.323
197004.000			23.260			-3.323
197105.000			23.259			-3.323
197204.000			23.259			-3.323
197304.000			23.259			-3.323
197405.000			23.258			-3.323
197504.000			23.258			-3.323
197604.000			23.257			-3.322
197705.000			23.257			-3.322
197803.000			23.257			-3.322
197904.000			23.256			-3.322
198004.000			23.256			-3.322
198104.000			23.255			-3.322
198204.000			23.255			-3.322
198305.000			23.255			-3.322
198404.000			23.255			-3.322
198504.000			23.255			-3.322
198605.000			23.254			-3.322
198704.000			23.253			-3.322
198804.000			23.253			-3.322
198904.000			23.253			-3.322
199004.000			23.253			-3.322
199104.000			23.253			-3.322
199205.000			23.253			-3.322
199304.000			23.252			-3.322
199404.000			23.252			-3.322
199505.000			23.251			-3.322
199604.000			23.250			-3.321
199705.000			23.250			-3.321
199803.000			23.250			-3.321
199904.000			23.250			-3.321
200005.000			23.248			-3.321
200104.000			23.248			-3.321
200204.000			23.247			-3.321
200305.000			23.247			-3.321
200404.000			23.247			-3.321
200503.000			23.247			-3.321
200605.000			23.246			-3.321
200703.000			23.247			-3.321
200804.000			23.246			-3.321
200905.000			23.245			-3.321
201004.000			23.246			-3.321
201104.000			23.245			-3.321
201205.000			23.245			-3.321
201304.000			23.244			-3.321
201403.000			23.244			-3.321
201505.000			23.243			-3.320
201604.000			23.243			-3.320
201704.000			23.242			-3.320
201805.000			23.242			-3.320
201904.000			23.243			-3.320
202004.000			23.242			-3.320
202104.000			23.241			-3.320
202204.000			23.241			-3.320
202304.000			23.241			-3.320
202405.000			23.241			-3.320
202504.000			23.239			-3.320
202604.000			23.240			-3.320
202705.000			23.239			-3.320
202804.000			23.239			-3.320
202905.000			23.239			-3.320
203003.000			23.238			-3.320
203104.000			23.238			-3.320
203205.000			23.237			-3.320
203304.000			23.237			-3.320
203404.000			23.237			-3.320
203505.000			23.237			-3.320
203604.000			23.237			-3.320
203704.000			23.236			-3.319
203805.000			23.236			-3.319
203903.000			23.235			-3.319
204004.000			23.235			-3.319
204105.000			23.234			-3.319
204204.000			23.234			-3.319
204304.000			23.234			-3.319
204405.000			23.233			-3.319
204504.000			23.232			-3.319
204603.000			23.233			-3.319
204705.000			23.232			-3.319
204804.000			23.232			-3.319
204904.000			23.232			-3.319
205005.000			23.231			-3.319
205104.000			23.231			-3.319
205204.000			23.230			-3.319
205305.000			23.230			-3.319
205404.000			23.229			-3.318
205503.000			23.229			-3.318
205605.000			23.229			-3.318
205704.000			23.228			-3.318
205804.000			23.228			-3.318
205905.000			23.227			-3.318
206004.000			23.226			-3.318
206105.000			23.227			-3.318
206203.000			23.227			-3.318
206304.000			23.227			-3.318
206404.000			23.226			-3.318
206504.000			23.225			-3.318
206604.000			23.226			-3.318
206705.000			23.225			-3.318
206804.000			23.224			-3.318
206904.000			23.224			-3.318
207005.000			23.223			-3.318
207103.000			23.223			-3.318
207204.000			23.223			-3.318
207305.000			23.222			-3.317
207404.000			23.222			-3.317
207504.000			23.223			-3.318
207605.000			23.221			-3.317
207704.000			23.222			-3.317
207803.000			23.221			-3.317
207905.000			23.222			-3.317
208004.000			23.221			-3.317
208104.000			23.220			-3.317
208205.000			23.220			-3.317
208304.000			23.219			-3.317
208404.000			23.219			-3.317
208505.000			23.219			-3.317
208604.000			23.218			-3.317
208703.000			23.217			-3.317
208805.000			23.218			-3.317
208904.000			23.218			-3.317
209004.000			23.217			-3.317
209105.000			23.217			-3.317
209204.000			23.216			-3.317
209305.000			23.216			-3.317
209404.000			23.216			-3.317
209504.000			23.216			-3.317
209604.000			23.215			-3.316
209704.000			23.215			-3.316
209804.000			23.216			-3.317
209905.000			23.216			-3.317
210004.000			23.215			-3.316
210104.000			23.214			-3.316
210205.000			23.214			-3.316
210303.000			23.213			-3.316
210404.000			23.213			-3.316
210505.000			23.212			-3.316
210604.000			23.211			-3.316
210704.000			23.212			-3.316
210805.000			23.212			-3.316
210904.000			23.212			-3.316
211003.000			23.212			-3.316
211105.000			23.211			-3.316
211204.000			23.210			-3.316
211304.000			23.209			-3.316
211405.000			23.209			-3.316
211504.000			23.209			-3.316
211604.000			23.209			-3.316
211705.000			23.209			-3.316
211804.000			23.208			-3.315
211903.000			23.208			-3.315
212005.000			23.207			-3.315
212104.000			23.206			-3.315
212204.000			23.207			-3.315
212305.000			23.207			-3.315
212404.000			23.206			-3.315
212505.000			23.205			-3.315
212603.000			23.205			-3.315
212704.000			23.204			-3.315
212805.000			23.205			-3.315
212904.000			23.204			-3.315
213004.000			23.204			-3.315
213105.000			23.204			-3.315
213204.000			23.204			-3.315
213304.000			23.203			-3.315
213405.000			23.202			-3.315
213503.000			23.202			-3.315
213604.000			23.202			-3.315
213705.000			23.202			-3.315
213804.000			23.200			-3.314
213904.000			23.200			-3.314
214005.000			23.200			-3.314
214104.000			23.199			-3.314
214203.000			23.198			-3.314
214305.000			23.198			-3.314
214404.000			23.199			-3.314
214504.000			23.198			-3.314
214605.000			23.199			-3.314
214704.000			23.198			-3.314
214804.000			23.197			-3.314
214905.000			23.196			-3.314
215004.000			23.196			-3.314
215103.000			23.196			-3.314
215205.000			23.195			-3.314
215304.000			23.195			-3.314
215404.000			23.195			-3.314
215505.000			23.195			-3.314
215604.000			23.195			-3.314
215705.000			23.195			-3.314
215804.000			23.194			-3.313
215904.000			23.193			-3.313
216004.000			23.193			-3.313
216104.000			23.193			-3.313
216204.000			23.193			-3.313
216305.000			23.192			-3.313
216404.000			23.192			-3.313
216504.000			23.192			-3.313
216605.000			23.191			-3.313
216704.000			23.190			-3.313
216804.000			23.192			-3.313
216904.000			23.191			-3.313
217004.000			23.189			-3.313
217104.000			23.189			-3.313
217205.000			23.189			-3.313
217304.000			23.190			-3.313
217404.000			23.191			-3.313
217505.000			23.190			-3.313
217604.000			23.189			-3.313
217704.000			23.188			-3.313
217804.000			23.188			-3.313
217904.000			23.188			-3.313
218004.000			23.188			-3.313
218105.000			23.188			-3.313
218204.000			23.188			-3.313
218304.000			23.186			-3.312
218405.000			23.186			-3.312
218504.000			23.186			-3.312
218604.000			23.185			-3.312
218703.000			23.184			-3.312
218804.000			23.185			-3.312
218905.000			23.185			-3.312
219004.000			23.185			-3.312
219104.000			23.184			-3.312
219205.000			23.183			-3.312
219304.000			23.183			-3.312
219404.000			23.182			-3.312
219505.000			23.183			-3.312
219603.000			23.182			-3.312
219704.000			23.181			-3.312
219805.000			23.181			-3.312
219904.000			23.180			-3.311
220004.000			23.181			-3.312
220105.000			23.181			-3.312
220204.000			23.181			-3.312
220303.000			23.181			-3.312
220405.000			23.180			-3.311
220504.000			23.179			-3.311
220604.000			23.180			-3.311
220705.000			23.178			-3.311
220804.000			23.177			-3.311
220904.000			23.178			-3.311
221005.000			23.178			-3.311
221104.000			23.177			-3.311
221203.000			23.177			-3.311
221305.000			23.176			-3.311
221404.000			23.176			-3.311
221504.000			23.176			-3.311
221605.000			23.175			-3.311
221704.000			23.175			-3.311
221804.000			23.175			-3.311
221903.000			23.174			-3.311
222004.000			23.175			-3.311
222103.000			23.175			-3.311
222204.000			23.175			-3.311
222304.000			23.174			-3.311
222405.000			23.173			-3.310
222504.000			23.173			-3.310
222604.000			23.173			-3.310
222705.000			23.173			-3.310
222803.000			23.173			-3.310
222904.000			23.171			-3.310
223005.000			23.171			-3.310
223104.000			23.171			-3.310
223204.000			23.171			-3.310
223305.000			23.170			-3.310
223404.000			23.170			-3.310
223503.000			23.169			-3.310
223605.000			23.169			-3.310
223703.000			23.169			-3.310
223804.000			23.168			-3.310
223905.000			23.168			-3.310
224004.000			23.167			-3.310
224104.000			23.167			-3.310
224205.000			23.168			-3.310
224304.000			23.168			-3.310
224403.000			23.167			-3.310
224505.000			23.166			-3.309
224604.000			23.166			-3.309
224704.000			23.166			-3.309
224805.000			23.166			-3.309
224904.000			23.164			-3.309
225004.000			23.164			-3.309
225104.000			23.164			-3.309
225204.000			23.164			-3.309
225303.000			23.164			-3.309
225404.000			23.163			-3.309
225504.000			23.162			-3.309
225605.000			23.162			-3.309
225704.000			23.163			-3.309
225804.000			23.162			-3.309
225905.000			23.161			-3.309
226004.000			23.162			-3.309
226104.000			23.162			-3.309
226204.000			23.162			-3.309
226304.000			23.161			-3.309
226404.000			23.162			-3.309
226505.000			23.159			-3.308
226604.000			23.160			-3.309
226704.000			23.160			-3.309
226805.000			23.159			-3.308
226903.000			23.158			-3.308
227004.000			23.158			-3.308
227105.000			23.157			-3.308
227204.000			23.157			-3.308
227304.000			23.157			-3.308
227405.000			23.156			-3.308
227504.000			23.156			-3.308
227604.000			23.156			-3.308
227705.000			23.155			-3.308
227803.000			23.156			-3.308
227904.000			23.156			-3.308
228004.000			23.155			-3.308
228104.000			23.154			-3.308
228204.000			23.154			-3.308
228304.000			23.153			-3.308
228404.000			23.154			-3.308
228505.000			23.153			-3.308
228604.000			23.154			-3.308
228703.000			23.154			-3.308
228805.000			23.153			-3.308
228904.000			23.151			-3.307
229004.000			23.151			-3.307
229105.000			23.152			-3.307
229204.000			23.152			-3.307
229304.000			23.150			-3.307
229405.000			23.150			-3.307
229504.000			23.149			-3.307
229604.000			23.149			-3.307
229705.000			23.150			-3.307
229803.000			23.150			-3.307
229904.000			23.149			-3.307
230005.000			23.149			-3.307
230104.000			23.148			-3.307
230204.000			23.148			-3.307
230305.000			23.148			-3.307
230404.000			23.147			-3.307
230503.000			23.148			-3.307
230605.000			23.146			-3.307
230703.000			23.146			-3.307
230804.000			23.146			-3.307
230905.000			23.146			-3.307
231004.000			23.145			-3.306
231104.000			23.146			-3.307
231205.000			23.145			-3.306
231304.000			23.145			-3.306
231403.000			23.145			-3.306
231505.000			23.145			-3.306
231604.000			23.144			-3.306
231705.000			23.144			-3.306
231804.000			23.142			-3.306
231904.000			23.142			-3.306
232005.000			23.142			-3.306
232104.000			23.142			-3.306
232204.000			23.141			-3.306
232304.000			23.141			-3.306
232404.000			23.142			-3.306
232504.000			23.142			-3.306
232605.000			23.141			-3.306
232704.000			23.140			-3.306
232804.000			23.140			-3.306
232905.000			23.140			-3.306
233003.000			23.140			-3.306
233104.000			23.139			-3.306
233205.000			23.139			-3.306
233304.000			23.139			-3.306
233404.000			23.138			-3.305
233505.000			23.138			-3.305
233604.000			23.138			-3.305
233704.000			23.137			-3.305
233805.000			23.136			-3.305
233903.000			23.137			-3.305
234004.000			23.137			-3.305
234105.000			23.136			-3.305
234204.000			23.136			-3.305
234304.000			23.135			-3.305
234405.000			23.136			-3.305
234504.000			23.136			-3.305
234603.000			23.135			-3.305
234705.000			23.135			-3.305
234804.000			23.134			-3.305
234905.000			23.133			-3.305
235004.000			23.133			-3.305
235104.000			23.133			-3.305
235205.000			23.134			-3.305
235304.000			23.132			-3.305
235404.000			23.132			-3.305
235504.000			23.132			-3.305
235604.000			23.132			-3.305
235704.000			23.131			-3.304
235805.000			23.132			-3.305
235904.000			23.132			-3.305
236004.000			23.131			-3.304
236105.000			23.131			-3.304
236204.000			23.130			-3.304
236304.000			23.130			-3.304
236404.000			23.129			-3.304
236504.000			23.129			-3.304
236604.000			23.129			-3.304
236705.000			23.128			-3.304
236804.000			23.127			-3.304
236904.000			23.127			-3.304
237005.000			23.128			-3.304
237103.000			23.126			-3.304
237204.000			23.126			-3.304
237304.000			23.126			-3.304
237404.000			23.125			-3.304
237504.000			23.125			-3.304
237605.000			23.124			-3.303
237704.000			23.124			-3.303
237804.000			23.124			-3.303
237905.000			23.124			-3.303
238003.000			23.123			-3.303
238105.000			23.124			-3.303
238204.000			23.124			-3.303
238304.000			23.125			-3.304
238405.000			23.123			-3.303
238504.000			23.122			-3.303
238604.000			23.122			-3.303
238705.000			23.121			-3.303
238804.000			23.121			-3.303
238903.000			23.121			-3.303
239005.000			23.121			-3.303
239104.000			23.121			-3.303
239204.000			23.121			-3.303
239305.000			23.121			-3.303
239404.000			23.120			-3.303
239504.000			23.120			-3.303
239604.000			23.118			-3.303
239704.000			23.119			-3.303
239803.000			23.118			-3.303
239905.000			23.119			-3.303
240004.000			23.119			-3.303
240104.000			23.118			-3.303
240205.000			23.117			-3.302
240304.000			23.117			-3.302
240404.000			23.117			-3.302
240504.000			23.117			-3.302
240604.000			23.117			-3.302
240704.000			23.116			-3.302
240805.000			23.116			-3.302
240904.000			23.115			-3.302
241004.000			23.115			-3.302
241105.000			23.115			-3.302
241203.000			23.115			-3.302
241305.000			23.115			-3.302
241404.000			23.115			-3.302
241504.000			23.115			-3.302
241605.000			23.114			-3.302
241704.000			23.113			-3.302
241804.000			23.114			-3.302
241905.000			23.113			-3.302
242004.000			23.114			-3.302
242103.000			23.114			-3.302
242205.000			23.113			-3.302
242304.000			23.112			-3.302
242404.000			23.111			-3.302
242505.000			23.111			-3.302
242604.000			23.112			-3.302
242704.000			23.111			-3.302
242804.000			23.109			-3.301
242904.000			23.111			-3.302
243003.000			23.110			-3.301
243105.000			23.109			-3.301
243204.000			23.108			-3.301
243304.000			23.107			-3.301
243405.000			23.108			-3.301
243504.000			23.108			-3.301
243604.000			23.108			-3.301
243704.000			23.107			-3.301
243804.000			23.106			-3.301
243904.000			23.107			-3.301
244005.000			23.107			-3.301
244104.000			23.107			-3.301
244204.000			23.106			-3.301
244305.000			23.105			-3.301
244403.000			23.105			-3.301
244505.000			23.105			-3.301
244603.000			23.105			-3.301
244704.000			23.105			-3.301
244805.000			23.103			-3.300
244904.000			23.104			-3.301
245004.000			23.104			-3.301
245105.000			23.103			-3.300
245204.000			23.104			-3.301
245303.000			23.103			-3.300
245405.000			23.103			-3.300
245504.000			23.102			-3.300
245604.000			23.101			-3.300
245705.000			23.101			-3.300
245804.000			23.101			-3.300
245904.000			23.101			-3.300
246005.000			23.101			-3.300
246104.000			23.101			-3.300
246203.000			23.101			-3.300
246305.000			23.101			-3.300
246404.000			23.101			-3.300
246504.000			23.100			-3.300
246605.000			23.100			-3.300
246704.000			23.101			-3.300
246804.000			23.100			-3.300
246904.000			23.100			-3.300
247004.000			23.100			-3.300
247104.000			23.101			-3.300
247205.000			23.101			-3.300
247304.000			23.100			-3.300
247404.000			23.099			-3.300
247505.000			23.099			-3.300
247604.000			23.099			-3.300
247705.000			23.100			-3.300
247803.000			23.099			-3.300
247904.000			23.098			-3.300
248004.000			23.097			-3.300
248104.000			23.096			-3.299
248204.000			23.096			-3.299
248305.000			23.096			-3.299
248404.000			23.095			-3.299
248504.000			23.094			-3.299
248605.000			23.094			-3.299
248703.000			23.093			-3.299
248804.000			23.093			-3.299
248904.000			23.094			-3.299
249004.000			23.093			-3.299
249104.000			23.092			-3.299
249205.000			23.093			-3.299
249304.000			23.092			-3.299
249404.000			23.092			-3.299
249505.000			23.091			-3.299
249603.000			23.091			-3.299
249704.000			23.091			-3.299
249805.000			23.089			-3.298
249904.000			23.090			-3.299
250004.000			23.090			-3.299
250105.000			23.089			-3.298
250204.000			23.089			-3.298
250304.000			23.088			-3.298
250405.000			23.088			-3.298
250503.000			23.088			-3.298
250604.000			23.087			-3.298
250705.000			23.087			-3.298
250804.000			23.087			-3.298
250905.000			23.088			-3.298
251004.000			23.088			-3.298
251104.000			23.088			-3.298
251205.000			23.086			-3.298
251304.000			23.087			-3.298
251403.000			23.087			-3.298
251505.000			23.086			-3.298
251604.000			23.086			-3.298
251704.000			23.086			-3.298
251805.000			23.086			-3.298
251904.000			23.086			-3.298
252004.000			23.086			-3.298
252105.000			23.085			-3.298
252204.000			23.085			-3.298
252303.000			23.085			-3.298
252405.000			23.085			-3.298
252504.000			23.085			-3.298
252604.000			23.084			-3.298
252705.000			23.085			-3.298
252804.000			23.084			-3.298
252904.000			23.084			-3.298
253005.000			23.083			-3.298
253104.000			23.084			-3.298
253203.000			23.085			-3.298
253305.000			23.085			-3.298
253404.000			23.084			-3.298
253504.000			23.084			-3.298
253605.000			23.083			-3.298
253704.000			23.083			-3.298
253804.000			23.084			-3.298
253904.000			23.083			-3.298
254004.000			23.083			-3.298
254103.000			23.083			-3.298
254204.000			23.083			-3.298
254304.000			23.081			-3.297
254405.000			23.081			-3.297
254504.000			23.081			-3.297
254604.000			23.080			-3.297
254705.000			23.080			-3.297
254803.000			23.081			-3.297
254904.000			23.080			-3.297
255005.000			23.079			-3.297
255104.000			23.079			-3.297
255204.000			23.078			-3.297
255305.000			23.078			-3.297
255404.000			23.077			-3.297
255504.000			23.077			-3.297
255605.000			23.077			-3.297
255703.000			23.076			-3.297
255804.000			23.075			-3.296
255904.000			23.074			-3.296
256004.000			23.073			-3.296
256104.000			23.073			-3.296
256205.000			23.075			-3.296
256304.000			23.075			-3.296
256404.000			23.073			-3.296
256505.000			23.072			-3.296
256603.000			23.072			-3.296
256704.000			23.073			-3.296
256805.000			23.072			-3.296
256904.000			23.071			-3.296
257004.000			23.071			-3.296
257104.000			23.071			-3.296
257204.000			23.070			-3.296
257305.000			23.069			-3.296
257404.000			23.070			-3.296
257503.000			23.070			-3.296
257605.000			23.068			-3.295
257704.000			23.067			-3.295
257804.000			23.067			-3.295
257905.000			23.067			-3.295
258004.000			23.066			-3.295
258104.000			23.065			-3.295
258205.000			23.065			-3.295
258304.000			23.065			-3.295
258403.000			23.064			-3.295
258505.000			23.064			-3.295
258604.000			23.065			-3.295
258704.000			23.064			-3.295
258805.000			23.064			-3.295
258904.000			23.063			-3.295
259004.000			23.064			-3.295
259105.000			23.065			-3.295
259204.000			23.063			-3.295
259303.000			23.062			-3.295
259405.000			23.063			-3.295
259504.000			23.062			-3.295
259604.000			23.061			-3.294
259705.000			23.061			-3.294
259804.000			23.062			-3.295
259904.000			23.061			-3.294
260005.000			23.060			-3.294
260104.000			23.060			-3.294
260203.000			23.059			-3.294
260305.000			23.059			-3.294
260404.000			23.059			-3.294
260505.000			23.059			-3.294
260604.000			23.059			-3.294
260704.000			23.059			-3.294
260805.000			23.057			-3.294
260904.000			23.057			-3.294
261004.000			23.057			-3.294
261104.000			23.057			-3.294
261204.000			23.056			-3.294
261304.000			23.056			-3.294
261405.000			23.056			-3.294
261504.000			23.056			-3.294
261604.000			23.056			-3.294
261705.000			23.055			-3.294
261803.000			23.055			-3.294
261904.000			23.055			-3.294
262005.000			23.054			-3.293
262104.000			23.054			-3.293
262204.000			23.053			-3.293
262305.000			23.054			-3.293
262404.000			23.053			-3.293
262504.000			23.053			-3.293
262605.000			23.053			-3.293
262703.000			23.053			-3.293
262804.000			23.053			-3.293
262905.000			23.051			-3.293
263004.000			23.051			-3.293
263104.000			23.050			-3.293
263205.000			23.050			-3.293
263304.000			23.051			-3.293
263403.000			23.050			-3.293
263505.000			23.050			-3.293
263603.000			23.050			-3.293
263705.000			23.049			-3.293
263804.000			23.048			-3.293
263904.000			23.048			-3.293
264005.000			23.048			-3.293
264104.000			23.048			-3.293
264204.000			23.048			-3.293
264304.000			23.048			-3.293
264404.000			23.047			-3.292
264504.000			23.046			-3.292
264605.000			23.046			-3.292
264704.000			23.047			-3.292
264804.000			23.047			-3.292
264905.000			23.046			-3.292
265004.000			23.045			-3.292
265104.000			23.046			-3.292
265204.000			23.044			-3.292
265304.000			23.044			-3.292
265404.000			23.045			-3.292
265505.000			23.045			-3.292
265604.000			23.044			-3.292
265704.000			23.043			-3.292
265805.000			23.043			-3.292
265904.000			23.044			-3.292
266004.000			23.044			-3.292
266104.000			23.043			-3.292
266204.000			23.043			-3.292
266304.000			23.043			-3.292
266405.000			23.042			-3.292
266504.000			23.042			-3.292
266604.000			23.042			-3.292
266705.000			23.041			-3.292
266803.000			23.042			-3.292
266905.000			23.042			-3.292
267003.000			23.040			-3.291
267104.000			23.041			-3.292
267205.000			23.041			-3.292
267304.000			23.041			-3.292
267404.000			23.042			-3.292
267505.000			23.041			-3.292
267604.000			23.041			-3.292
267703.000			23.040			-3.291
267805.000			23.039			-3.291
267904.000			23.040			-3.291
268004.000			23.040			-3.291
268105.000			23.038			-3.291
268204.000			23.039			-3.291
268304.000			23.039			-3.291
268405.000			23.040			-3.291
268504.000			23.039			-3.291
268603.000			23.039			-3.291
268705.000			23.038			-3.291
268804.000			23.036			-3.291
268904.000			23.037			-3.291
269005.000			23.037			-3.291
269104.000			23.035			-3.291
269204.000			23.035			-3.291
269305.000			23.036			-3.291
269404.000			23.035			-3.291
269503.000			23.036			-3.291
269605.000			23.036			-3.291
269704.000			23.035			-3.291
269804.000			23.034			-3.291
269905.000			23.034			-3.291
270004.000			23.034			-3.291
270105.000			23.034			-3.291
270204.000			23.033			-3.290
270304.000			23.033			-3.290
270404.000			23.032			-3.290
270504.000			23.032			-3.290
270604.000			23.032			-3.290
270705.000			23.032			-3.290
270804.000			23.032			-3.290
270904.000			23.031			-3.290
271005.000			23.030			-3.290
271103.000			23.030			-3.290
271204.000			23.029			-3.290
271305.000			23.029			-3.290
271404.000			23.030			-3.290
271504.000			23.029			-3.290
271605.000			23.028			-3.290
271704.000			23.028			-3.290
271804.000			23.028			-3.290
271905.000			23.028			-3.290
272003.000			23.027			-3.290
272104.000			23.027			-3.290
272205.000			23.027			-3.290
272304.000			23.027			-3.290
272404.000			23.027			-3.290
272505.000			23.026			-3.289
272604.000			23.026			-3.289
272704.000			23.026			-3.289
272805.000			23.026			-3.289
272903.000			23.025			-3.289
273004.000			23.024			-3.289
273105.000			23.025			-3.289
273204.000			23.025			-3.289
273305.000			23.024			-3.289
273404.000			23.024			-3.289
273504.000			23.023			-3.289
273604.000			23.022			-3.289
273704.000			23.023			-3.289
273804.000			23.023			-3.289
273905.000			23.023			-3.289
274004.000			23.022			-3.289
274104.000			23.021			-3.289
274205.000			23.021			-3.289
274304.000			23.022			-3.289
274404.000			23.022			-3.289
274504.000			23.021			-3.289
274604.000			23.021			-3.289
274704.000			23.019			-3.288
274805.000			23.019			-3.288
274904.000			23.019			-3.288
275004.000			23.019			-3.288
275105.000			23.019			-3.288
275203.000			23.019			-3.288
275304.000			23.019			-3.288
275404.000			23.018			-3.288
275504.000			23.018			-3.288
275604.000			23.018			-3.288
275705.000			23.017			-3.288
275804.000			23.016			-3.288
275904.000			23.015			-3.288
276005.000			23.016			-3.288
276103.000			23.015			-3.288
276204.000			23.016			-3.288
276305.000			23.015			-3.288
276404.000			23.015			-3.288
276505.000			23.015			-3.288
276604.000			23.014			-3.288
276704.000			23.015			-3.288
276805.000			23.015			-3.288
276904.000			23.015			-3.288
277003.000			23.015			-3.288
277105.000			23.015			-3.288
277204.000			23.014			-3.288
277304.000			23.014			-3.288
277405.000			23.013			-3.288
277504.000			23.014			-3.288
277604.000			23.013			-3.288
277705.000			23.011			-3.287
277804.000			23.012			-3.287
277903.000			23.012			-3.287
278005.000			23.012			-3.287
278104.000			23.012			-3.287
278204.000			23.012			-3.287
278305.000			23.011			-3.287
278404.000			23.011			-3.287
278504.000			23.011			-3.287
278604.000			23.012			-3.287
278704.000			23.011			-3.287
278803.000			23.011			-3.287
278905.000			23.009			-3.287
279004.000			23.011			-3.287
279104.000			23.010			-3.287
279205.000			23.008			-3.287
279304.000			23.007			-3.287
279404.000			23.007			-3.287
279503.000			23.008			-3.287
279604.000			23.008			-3.287
279705.000			23.008			-3.287
279804.000			23.008			-3.287
279904.000			23.007			-3.287
280005.000			23.007			-3.287
280104.000			23.007			-3.287
280204.000			23.007			-3.287
280305.000			23.006			-3.287
280403.000			23.006			-3.287
280504.000			23.005			-3.286
280605.000			23.005			-3.286
280704.000			23.006			-3.287
280804.000			23.006			-3.287
280905.000			23.005			-3.286
281004.000			23.005			-3.286
281103.000			23.006			-3.287
281205.000			23.004			-3.286
281303.000			23.004			-3.286
281404.000			23.004			-3.286
281505.000			23.004			-3.286
281604.000			23.003			-3.286
281704.000			23.001			-3.286
281805.000			23.001			-3.286
281904.000			23.001			-3.286
282003.000			23.003			-3.286
282105.000			23.003			-3.286
282204.000			23.002			-3.286
282304.000			23.002			-3.286
282405.000			23.001			-3.286
282504.000			23.001			-3.286
282604.000			23.001			-3.286
282703.000			23.000			-3.286
282804.000			22.999			-3.286
282903.000			22.999			-3.286
283004.000			22.999			-3.286
283104.000			22.999			-3.286
283205.000			22.999			-3.286
283304.000			22.999			-3.286
283404.000			22.999			-3.286
283505.000			22.999			-3.286
283604.000			22.998			-3.285
283704.000			22.997			-3.285
283804.000			22.997			-3.285
283904.000			22.997			-3.285
284004.000			22.997			-3.285
284105.000			22.995			-3.285
284204.000			22.996			-3.285
284304.000			22.996			-3.285
284405.000			22.995			-3.285
284504.000			22.995			-3.285
284604.000			22.995			-3.285
284704.000			22.994			-3.285
284804.000			22.994			-3.285
284903.000			22.994			-3.285
285005.000			22.994			-3.285
285104.000			22.993			-3.285
285204.000			22.993			-3.285
285305.000			22.994			-3.285
285404.000			22.993			-3.285
285504.000			22.993			-3.285
285605.000			22.993			-3.285
285704.000			22.993			-3.285
285803.000			22.993			-3.285
285905.000			22.992			-3.285
286004.000			22.991			-3.284
286105.000			22.992			-3.285
286204.000			22.991			-3.284
286304.000			22.991			-3.284
286405.000			22.990			-3.284
286504.000			22.990			-3.284
286604.000			22.990			-3.284
286704.000			22.990			-3.284
286804.000			22.991			-3.284
286903.000			22.990			-3.284
287005.000			5.095			-0.728
287104.000			136.297			-19.471
287204.000			22.988			-3.284
287305.000			22.988			-3.284
287404.000			22.988			-3.284
287504.000			22.988			-3.284
287604.000			22.988			-3.284
287704.000			22.989			-3.284
287803.000			22.987			-3.284
287905.000			22.987			-3.284
288004.000			22.986			-3.284
288104.000			22.986			-3.284
288205.000			22.986			-3.284
288304.000			22.986			-3.284
288404.000			22.986			-3.284
288505.000			22.986			-3.284
288604.000			22.985			-3.284
288703.000			22.985			-3.284
288805.000			22.985			-3.284
288904.000			22.984			-3.283
289004.000			22.984			-3.283
289105.000			22.984			-3.283
289204.000			22.983			-3.283
289305.000			22.983			-3.283
289404.000			22.983			-3.283
289504.000			22.983			-3.283
289604.000			22.983			-3.283
289704.000			22.982			-3.283
289803.000			22.981			-3.283
289905.000			22.981			-3.283
290004.000			22.981			-3.283
290104.000			22.981			-3.283
290205.000			22.981			-3.283
290304.000			22.981			-3.283
290404.000			22.981			-3.283
290505.000			22.981			-3.283
290604.000			22.981			-3.283
290703.000			22.980			-3.283
290805.000			22.980			-3.283
290904.000			22.980			-3.283
291004.000			22.980			-3.283
291105.000			22.978			-3.283
291204.000			22.978			-3.283
291304.000			22.980			-3.283
291405.000			22.978			-3.283
291504.000			22.978			-3.283
291603.000			22.978			-3.283
291705.000			22.977			-3.282
291804.000			22.977			-3.282
291904.000			22.977			-3.282
292005.000			22.977			-3.282
292104.000			22.977			-3.282
292204.000			22.976			-3.282
292304.000			22.976			-3.282
292404.000			22.976			-3.282
292503.000			22.976			-3.282
292604.000			22.975			-3.282
292703.000			22.975			-3.282
292805.000			22.976			-3.282
292904.000			22.976			-3.282
293004.000			22.974			-3.282
293105.000			22.975			-3.282
293204.000			22.975			-3.282
293304.000			22.973			-3.282
293404.000			22.974			-3.282
293504.000			22.975			-3.282
293603.000			22.973			-3.282
293705.000			22.973			-3.282
293804.000			22.973			-3.282
293904.000			22.972			-3.282
294005.000			22.972			-3.282
294104.000			22.973			-3.282
294204.000			22.973			-3.282
294305.000			22.972			-3.282
294404.000			22.972			-3.282
294503.000			22.971			-3.282
294605.000			22.970			-3.281
294704.000			22.971			-3.282
294804.000			22.970			-3.281
294905.000			22.970			-3.281
295004.000			22.971			-3.282
295104.000			22.971			-3.282
295205.000			22.970			-3.281
295304.000			22.969			-3.281
295403.000			22.969			-3.281
295505.000			22.969			-3.281
295604.000			22.968			-3.281
295705.000			22.969			-3.281
295804.000			22.968			-3.281
295904.000			22.967			-3.281
296005.000			22.967			-3.281
296104.000			22.968			-3.281
296204.000			22.967			-3.281
296304.000			22.967			-3.281
296404.000			22.966			-3.281
296503.000			22.967			-3.281
296605.000			22.966			-3.281
296704.000			22.966			-3.281
296804.000			22.965			-3.281
296905.000			22.966			-3.281
297004.000			22.965			-3.281
297104.000			22.965			-3.281
297205.000			22.966			-3.281
297304.000			22.964			-3.281
297403.000			22.963			-3.280
297505.000			22.964			-3.281
297604.000			22.964			-3.281
297704.000			22.963			-3.280
297805.000			22.964			-3.281
297904.000			22.963			-3.280
298004.000			22.963			-3.280
298105.000			22.963			-3.280
298204.000			22.963			-3.280
298303.000			22.962			-3.280
298405.000			22.962			-3.280
298504.000			22.961			-3.280
298604.000			22.961			-3.280
298705.000			22.961			-3.280
298804.000			22.961			-3.280
298905.000			22.960			-3.280
299004.000			22.960			-3.280
299104.000			22.960			-3.280
299205.000			22.960			-3.280
299304.000			22.960			-3.280
299403.000			22.960			-3.280
299505.000			22.960			-3.280
299604.000			22.958			-3.280
299704.000			22.958			-3.280
299805.000			22.958			-3.280
299904.000			22.958			-3.280
