# Acquired on 26/01/2024 15:03:22 
# SPIDER: Creep_9mm_GRPCNT1454A-1
# CREEP MEASUREMENT

# time [ms]		force [N]		stiffness [N/mm]
0.000			-29.461			-3.273
103.000			-29.943			-3.327
204.000			-29.883			-3.320
305.000			-29.628			-3.292
404.000			-29.438			-3.271
504.000			-29.289			-3.254
604.000			-29.051			-3.228
704.000			-28.952			-3.217
805.000			-28.864			-3.207
904.000			-28.783			-3.198
1004.000			-28.711			-3.190
1105.000			-28.645			-3.183
1204.000			-28.582			-3.176
1303.000			-28.468			-3.163
1405.000			-28.418			-3.158
1504.000			-28.370			-3.152
1604.000			-28.324			-3.147
1705.000			-28.281			-3.142
1803.000			-28.240			-3.138
1904.000			-28.202			-3.134
2005.000			-28.165			-3.129
2104.000			-28.094			-3.122
2204.000			-28.060			-3.118
2305.000			-28.029			-3.114
2404.000			-27.999			-3.111
2503.000			-27.970			-3.108
2605.000			-27.941			-3.105
2704.000			-27.914			-3.102
2804.000			-27.861			-3.096
2905.000			-27.838			-3.093
3004.000			-27.813			-3.090
3104.000			-27.789			-3.088
3204.000			-27.767			-3.085
3304.000			-27.746			-3.083
3404.000			-27.725			-3.081
3505.000			-27.683			-3.076
3604.000			-27.663			-3.074
3703.000			-27.644			-3.072
3805.000			-27.625			-3.069
3904.000			-27.606			-3.067
4005.000			-27.588			-3.065
4104.000			-27.571			-3.063
4204.000			-27.555			-3.062
4305.000			-27.522			-3.058
4403.000			-27.506			-3.056
4504.000			-27.490			-3.054
4605.000			-27.475			-3.053
4704.000			-27.460			-3.051
4804.000			-27.445			-3.049
4905.000			-27.430			-3.048
5004.000			-27.401			-3.045
5103.000			-27.388			-3.043
5205.000			-27.373			-3.041
5304.000			-27.359			-3.040
5404.000			-27.347			-3.039
5505.000			-27.334			-3.037
5604.000			-27.322			-3.036
5704.000			-27.296			-3.033
5805.000			-27.284			-3.032
5904.000			-27.273			-3.030
6004.000			-27.261			-3.029
6105.000			-27.250			-3.028
6204.000			-27.238			-3.026
6303.000			-27.227			-3.025
6405.000			-27.204			-3.023
6504.000			-27.193			-3.021
6604.000			-27.183			-3.020
6705.000			-27.172			-3.019
6804.000			-27.162			-3.018
6904.000			-27.152			-3.017
7004.000			-27.143			-3.016
7104.000			-27.133			-3.015
7205.000			-27.113			-3.013
7304.000			-27.104			-3.012
7404.000			-27.095			-3.011
7504.000			-27.085			-3.009
7604.000			-27.076			-3.008
7704.000			-27.068			-3.008
7805.000			-27.058			-3.006
7904.000			-27.039			-3.004
8004.000			-27.031			-3.003
8105.000			-27.022			-3.002
8203.000			-27.014			-3.002
8304.000			-27.006			-3.001
8405.000			-26.998			-3.000
8504.000			-26.990			-2.999
8604.000			-26.974			-2.997
8704.000			-26.965			-2.996
8804.000			-26.957			-2.995
8904.000			-26.950			-2.994
9005.000			-26.942			-2.994
9104.000			-26.935			-2.993
9204.000			-26.928			-2.992
9305.000			-26.913			-2.990
9403.000			-26.905			-2.989
9504.000			-26.899			-2.989
9605.000			-26.892			-2.988
9704.000			-26.884			-2.987
9804.000			-26.876			-2.986
9905.000			-26.871			-2.986
10004.000			-26.864			-2.985
10103.000			-26.850			-2.983
10205.000			-26.844			-2.983
10304.000			-26.837			-2.982
10405.000			-26.830			-2.981
10504.000			-26.823			-2.980
10604.000			-26.817			-2.980
10705.000			-26.810			-2.979
10803.000			-26.798			-2.978
10904.000			-26.792			-2.977
11005.000			-26.786			-2.976
11104.000			-26.779			-2.975
11204.000			-26.773			-2.975
11305.000			-26.767			-2.974
11404.000			-26.761			-2.973
11503.000			-26.749			-2.972
11605.000			-26.743			-2.971
11704.000			-26.738			-2.971
11804.000			-26.733			-2.970
11905.000			-26.727			-2.970
12004.000			-26.721			-2.969
12104.000			-26.715			-2.968
12204.000			-26.704			-2.967
12304.000			-26.698			-2.966
12404.000			-26.692			-2.966
12505.000			-26.687			-2.965
12604.000			-26.681			-2.965
12703.000			-26.676			-2.964
12805.000			-26.671			-2.963
12904.000			-26.665			-2.963
13004.000			-26.655			-2.962
13105.000			-26.650			-2.961
13204.000			-26.644			-2.960
13304.000			-26.638			-2.960
13404.000			-26.632			-2.959
13504.000			-26.628			-2.959
13605.000			-26.623			-2.958
13704.000			-26.613			-2.957
13804.000			-26.608			-2.956
13905.000			-26.603			-2.956
14004.000			-26.598			-2.955
14103.000			-26.594			-2.955
14205.000			-26.589			-2.954
14304.000			-26.584			-2.954
14404.000			-26.575			-2.953
14505.000			-26.570			-2.952
14604.000			-26.565			-2.952
14704.000			-26.560			-2.951
14804.000			-26.555			-2.951
14904.000			-26.550			-2.950
15004.000			-26.546			-2.950
15105.000			-26.541			-2.949
15204.000			-26.534			-2.948
15304.000			-26.529			-2.948
15405.000			-26.525			-2.947
15503.000			-26.521			-2.947
15604.000			-26.515			-2.946
15705.000			-26.511			-2.946
15804.000			-26.507			-2.945
15904.000			-26.500			-2.944
16005.000			-26.496			-2.944
16104.000			-26.491			-2.943
16203.000			-26.486			-2.943
16305.000			-26.482			-2.942
16404.000			-26.479			-2.942
16504.000			-26.474			-2.942
16605.000			-26.467			-2.941
16704.000			-26.463			-2.940
16805.000			-26.458			-2.940
16903.000			-26.455			-2.939
17004.000			-26.451			-2.939
17105.000			-26.446			-2.938
17204.000			-26.443			-2.938
17304.000			-26.435			-2.937
17405.000			-26.431			-2.937
17504.000			-26.427			-2.936
17603.000			-26.424			-2.936
17705.000			-26.420			-2.936
17804.000			-26.416			-2.935
17904.000			-26.411			-2.935
18005.000			-26.406			-2.934
18104.000			-26.401			-2.933
18204.000			-26.398			-2.933
18304.000			-26.394			-2.933
18404.000			-26.390			-2.932
18504.000			-26.386			-2.932
18605.000			-26.384			-2.932
18704.000			-26.380			-2.931
18804.000			-26.372			-2.930
18905.000			-26.369			-2.930
19003.000			-26.366			-2.930
19104.000			-26.362			-2.929
19205.000			-26.358			-2.929
19304.000			-26.356			-2.928
19404.000			-26.352			-2.928
19504.000			-26.344			-2.927
19604.000			-26.341			-2.927
19704.000			-26.338			-2.926
19805.000			-26.335			-2.926
19904.000			-26.333			-2.926
20005.000			-26.330			-2.926
20104.000			-26.326			-2.925
20204.000			-26.318			-2.924
20305.000			-26.316			-2.924
20403.000			-26.312			-2.924
20504.000			-26.309			-2.923
20605.000			-26.306			-2.923
20704.000			-26.302			-2.922
20804.000			-26.299			-2.922
20904.000			-26.296			-2.922
21004.000			-26.291			-2.921
21103.000			-26.287			-2.921
21205.000			-26.284			-2.920
21304.000			-26.280			-2.920
21404.000			-26.277			-2.920
21505.000			-26.274			-2.919
21603.000			-26.271			-2.919
21704.000			-26.266			-2.918
21805.000			-26.263			-2.918
21904.000			-26.260			-2.918
22004.000			-26.257			-2.917
22105.000			-26.254			-2.917
22204.000			-26.251			-2.917
22303.000			-26.247			-2.916
22405.000			-26.241			-2.916
22504.000			-26.239			-2.915
22604.000			-26.236			-2.915
22705.000			-26.232			-2.915
22804.000			-26.230			-2.914
22904.000			-26.227			-2.914
23004.000			-26.224			-2.914
23104.000			-26.222			-2.914
23205.000			-26.216			-2.913
23304.000			-26.213			-2.913
23404.000			-26.210			-2.912
23505.000			-26.208			-2.912
23604.000			-26.204			-2.912
23703.000			-26.200			-2.911
23805.000			-26.198			-2.911
23904.000			-26.193			-2.910
24004.000			-26.191			-2.910
24105.000			-26.188			-2.910
24203.000			-26.186			-2.910
24304.000			-26.182			-2.909
24405.000			-26.179			-2.909
24504.000			-26.176			-2.908
24604.000			-26.171			-2.908
24705.000			-26.168			-2.908
24804.000			-26.166			-2.907
24903.000			-26.163			-2.907
25005.000			-26.161			-2.907
25104.000			-26.158			-2.906
25204.000			-26.157			-2.906
25305.000			-26.151			-2.906
25404.000			-26.147			-2.905
25504.000			-26.145			-2.905
25604.000			-26.143			-2.905
25704.000			-26.140			-2.904
25804.000			-26.138			-2.904
25905.000			-26.136			-2.904
26004.000			-26.134			-2.904
26103.000			-26.129			-2.903
26205.000			-26.126			-2.903
26304.000			-26.123			-2.903
26405.000			-26.120			-2.902
26504.000			-26.118			-2.902
26604.000			-26.115			-2.902
26705.000			-26.113			-2.901
26803.000			-26.108			-2.901
26904.000			-26.106			-2.901
27005.000			-26.103			-2.900
27104.000			-26.101			-2.900
27204.000			-26.099			-2.900
27305.000			-26.096			-2.900
27404.000			-26.093			-2.899
27503.000			-26.088			-2.899
27605.000			-26.086			-2.898
27704.000			-26.084			-2.898
27804.000			-26.081			-2.898
27905.000			-26.078			-2.898
28004.000			-26.076			-2.897
28104.000			-26.075			-2.897
28204.000			-26.070			-2.897
28304.000			-26.068			-2.896
28404.000			-26.065			-2.896
28505.000			-26.063			-2.896
28604.000			-26.061			-2.896
28704.000			-26.059			-2.895
28805.000			-26.056			-2.895
28903.000			-26.054			-2.895
29004.000			-26.049			-2.894
29105.000			-26.047			-2.894
29204.000			-26.044			-2.894
29304.000			-26.041			-2.893
29404.000			-26.040			-2.893
29504.000			-26.038			-2.893
29603.000			-26.035			-2.893
29704.000			-26.031			-2.892
29804.000			-26.028			-2.892
29905.000			-26.026			-2.892
30004.000			-26.025			-2.892
30103.000			-26.023			-2.891
30205.000			-26.021			-2.891
30304.000			-26.018			-2.891
30404.000			-26.013			-2.890
30505.000			-26.011			-2.890
30604.000			-26.010			-2.890
30704.000			-26.008			-2.890
30804.000			-26.006			-2.890
30904.000			-26.003			-2.889
31004.000			-26.000			-2.889
31105.000			-25.998			-2.889
31204.000			-25.995			-2.888
31304.000			-25.993			-2.888
31405.000			-25.990			-2.888
31503.000			-25.988			-2.888
31604.000			-25.986			-2.887
31705.000			-25.984			-2.887
31804.000			-25.981			-2.887
31904.000			-25.978			-2.886
32005.000			-25.975			-2.886
32104.000			-25.973			-2.886
32203.000			-25.972			-2.886
32305.000			-25.970			-2.886
32404.000			-25.967			-2.885
32504.000			-25.965			-2.885
32605.000			-25.962			-2.885
32704.000			-25.960			-2.884
32805.000			-25.958			-2.884
32903.000			-25.956			-2.884
33004.000			-25.954			-2.884
33105.000			-25.952			-2.884
33204.000			-25.950			-2.883
33304.000			-25.945			-2.883
33404.000			-25.942			-2.882
33504.000			-25.940			-2.882
33604.000			-25.939			-2.882
33705.000			-25.938			-2.882
33804.000			-25.936			-2.882
33904.000			-25.934			-2.882
34005.000			-25.932			-2.881
34103.000			-25.929			-2.881
34204.000			-25.926			-2.881
34305.000			-25.925			-2.881
34404.000			-25.923			-2.880
34504.000			-25.921			-2.880
34605.000			-25.918			-2.880
34704.000			-25.917			-2.880
34803.000			-25.912			-2.879
34905.000			-25.911			-2.879
35004.000			-25.909			-2.879
35104.000			-25.908			-2.879
35205.000			-25.906			-2.878
35304.000			-25.904			-2.878
35404.000			-25.901			-2.878
35504.000			-25.898			-2.878
35604.000			-25.897			-2.877
35704.000			-25.895			-2.877
35805.000			-25.894			-2.877
35904.000			-25.892			-2.877
36005.000			-25.890			-2.877
36104.000			-25.887			-2.876
36203.000			-25.885			-2.876
36305.000			-25.882			-2.876
36404.000			-25.881			-2.876
36504.000			-25.879			-2.875
36605.000			-25.877			-2.875
36704.000			-25.875			-2.875
36804.000			-25.872			-2.875
36904.000			-25.871			-2.875
37004.000			-25.869			-2.874
37104.000			-25.866			-2.874
37205.000			-25.864			-2.874
37304.000			-25.862			-2.874
37404.000			-25.861			-2.873
37505.000			-25.859			-2.873
37603.000			-25.857			-2.873
37704.000			-25.854			-2.873
37805.000			-25.852			-2.872
37904.000			-25.851			-2.872
38004.000			-25.849			-2.872
38105.000			-25.848			-2.872
38204.000			-25.845			-2.872
38303.000			-25.844			-2.872
38405.000			-25.841			-2.871
38504.000			-25.839			-2.871
38604.000			-25.836			-2.871
38705.000			-25.835			-2.871
38804.000			-25.834			-2.870
38904.000			-25.832			-2.870
39004.000			-25.830			-2.870
39104.000			-25.828			-2.870
39205.000			-25.824			-2.869
39304.000			-25.823			-2.869
39404.000			-25.823			-2.869
39505.000			-25.821			-2.869
39604.000			-25.818			-2.869
39703.000			-25.816			-2.868
39805.000			-25.815			-2.868
39904.000			-25.813			-2.868
40004.000			-25.811			-2.868
40105.000			-25.809			-2.868
40204.000			-25.806			-2.867
40304.000			-25.805			-2.867
40404.000			-25.803			-2.867
40504.000			-25.803			-2.867
40604.000			-25.798			-2.866
40705.000			-25.798			-2.866
40804.000			-25.797			-2.866
40904.000			-25.796			-2.866
41005.000			-25.793			-2.866
41103.000			-25.791			-2.866
41204.000			-25.789			-2.865
41305.000			-25.788			-2.865
41404.000			-25.785			-2.865
41504.000			-25.783			-2.865
41604.000			-25.782			-2.865
41704.000			-25.781			-2.865
41803.000			-25.779			-2.864
41905.000			-25.777			-2.864
42004.000			-25.775			-2.864
42104.000			-25.772			-2.864
42205.000			-25.771			-2.863
42304.000			-25.769			-2.863
42405.000			-25.767			-2.863
42503.000			-25.766			-2.863
42604.000			-25.766			-2.863
42705.000			-25.763			-2.863
42804.000			-25.760			-2.862
42904.000			-25.759			-2.862
43005.000			-25.757			-2.862
43104.000			-25.756			-2.862
43203.000			-25.756			-2.862
43305.000			-25.754			-2.862
43404.000			-25.752			-2.861
43504.000			-25.749			-2.861
43605.000			-25.747			-2.861
43704.000			-25.746			-2.861
43804.000			-25.743			-2.860
43904.000			-25.741			-2.860
44004.000			-25.741			-2.860
44104.000			-25.739			-2.860
44205.000			-25.737			-2.860
44304.000			-25.734			-2.859
44403.000			-25.733			-2.859
44505.000			-25.732			-2.859
44604.000			-25.731			-2.859
44704.000			-25.730			-2.859
44805.000			-25.728			-2.859
44904.000			-25.727			-2.859
45004.000			-25.724			-2.858
45104.000			-25.722			-2.858
45204.000			-25.721			-2.858
45304.000			-25.719			-2.858
45405.000			-25.717			-2.857
45504.000			-25.716			-2.857
45605.000			-25.715			-2.857
45704.000			-25.712			-2.857
45803.000			-25.711			-2.857
45905.000			-25.710			-2.857
46004.000			-25.708			-2.856
46104.000			-25.706			-2.856
46205.000			-25.705			-2.856
46304.000			-25.704			-2.856
46404.000			-25.700			-2.856
46504.000			-25.700			-2.856
46604.000			-25.698			-2.855
46704.000			-25.697			-2.855
46805.000			-25.696			-2.855
46904.000			-25.695			-2.855
47004.000			-25.693			-2.855
47105.000			-25.691			-2.855
47203.000			-25.689			-2.854
47304.000			-25.687			-2.854
47405.000			-25.686			-2.854
47504.000			-25.685			-2.854
47604.000			-25.683			-2.854
47705.000			-25.682			-2.854
47804.000			-25.680			-2.853
47903.000			-25.678			-2.853
48005.000			-25.677			-2.853
48104.000			-25.676			-2.853
48204.000			-25.674			-2.853
48305.000			-25.672			-2.852
48404.000			-25.671			-2.852
48504.000			-25.670			-2.852
48604.000			-25.668			-2.852
48704.000			-25.667			-2.852
48805.000			-25.664			-2.852
48904.000			-25.663			-2.851
49004.000			-25.662			-2.851
49105.000			-25.660			-2.851
49204.000			-25.659			-2.851
49303.000			-25.657			-2.851
49405.000			-25.655			-2.851
49504.000			-25.653			-2.850
49604.000			-25.652			-2.850
49705.000			-25.651			-2.850
49804.000			-25.649			-2.850
49904.000			-25.648			-2.850
50004.000			-25.647			-2.850
50104.000			-25.645			-2.849
50203.000			-25.643			-2.849
50305.000			-25.641			-2.849
50404.000			-25.641			-2.849
50504.000			-25.639			-2.849
50605.000			-25.637			-2.849
50703.000			-25.637			-2.849
50804.000			-25.634			-2.848
50905.000			-25.634			-2.848
51004.000			-25.631			-2.848
51104.000			-25.630			-2.848
51205.000			-25.629			-2.848
51304.000			-25.628			-2.848
51403.000			-25.627			-2.847
51505.000			-25.623			-2.847
51604.000			-25.623			-2.847
51704.000			-25.621			-2.847
51805.000			-25.620			-2.847
51904.000			-25.620			-2.847
52005.000			-25.619			-2.847
52103.000			-25.617			-2.846
52204.000			-25.615			-2.846
52305.000			-25.613			-2.846
52404.000			-25.611			-2.846
52504.000			-25.610			-2.846
52604.000			-25.609			-2.845
52704.000			-25.608			-2.845
52803.000			-25.607			-2.845
52905.000			-25.605			-2.845
53004.000			-25.603			-2.845
53104.000			-25.602			-2.845
53205.000			-25.601			-2.845
53303.000			-25.600			-2.844
53404.000			-25.598			-2.844
53505.000			-25.597			-2.844
53604.000			-25.596			-2.844
53704.000			-25.594			-2.844
53805.000			-25.593			-2.844
53904.000			-25.591			-2.843
54003.000			-25.590			-2.843
54105.000			-25.589			-2.843
54204.000			-25.587			-2.843
54304.000			-25.586			-2.843
54405.000			-25.583			-2.843
54504.000			-25.583			-2.843
54604.000			-25.582			-2.842
54704.000			-25.580			-2.842
54804.000			-25.579			-2.842
54904.000			-25.578			-2.842
55005.000			-25.576			-2.842
55104.000			-25.576			-2.842
55205.000			-25.574			-2.842
55304.000			-25.573			-2.841
55403.000			-25.571			-2.841
55505.000			-25.571			-2.841
55604.000			-25.570			-2.841
55704.000			-25.568			-2.841
55805.000			-25.567			-2.841
55904.000			-25.563			-2.840
56004.000			-25.562			-2.840
56104.000			-25.561			-2.840
56204.000			-25.560			-2.840
56304.000			-25.559			-2.840
56405.000			-25.559			-2.840
56504.000			-25.558			-2.840
56604.000			-25.555			-2.839
56705.000			-25.554			-2.839
56803.000			-25.553			-2.839
56904.000			-25.551			-2.839
57005.000			-25.550			-2.839
57104.000			-25.549			-2.839
57204.000			-25.548			-2.839
57305.000			-25.546			-2.838
57404.000			-25.545			-2.838
57503.000			-25.544			-2.838
57605.000			-25.543			-2.838
57704.000			-25.541			-2.838
57804.000			-25.541			-2.838
57905.000			-25.539			-2.838
58004.000			-25.538			-2.838
58104.000			-25.535			-2.837
58204.000			-25.535			-2.837
58304.000			-25.534			-2.837
58403.000			-25.533			-2.837
58504.000			-25.532			-2.837
58604.000			-25.531			-2.837
58705.000			-25.529			-2.837
58804.000			-25.526			-2.836
58903.000			-25.526			-2.836
59005.000			-25.525			-2.836
59104.000			-25.524			-2.836
59204.000			-25.524			-2.836
59305.000			-25.522			-2.836
59404.000			-25.521			-2.836
59504.000			-25.518			-2.835
59604.000			-25.517			-2.835
59704.000			-25.516			-2.835
59803.000			-25.515			-2.835
59905.000			-25.514			-2.835
60004.000			-25.514			-2.835
60104.000			-25.513			-2.835
60205.000			-25.512			-2.835
60303.000			-25.509			-2.834
60404.000			-25.508			-2.834
60505.000			-25.506			-2.834
60604.000			-25.506			-2.834
60704.000			-25.505			-2.834
60805.000			-25.504			-2.834
60904.000			-25.503			-2.834
61003.000			-25.502			-2.834
61105.000			-25.500			-2.833
61204.000			-25.498			-2.833
61304.000			-25.497			-2.833
61405.000			-25.496			-2.833
61504.000			-25.494			-2.833
61605.000			-25.494			-2.833
61703.000			-25.493			-2.833
61804.000			-25.492			-2.832
61905.000			-25.490			-2.832
62004.000			-25.489			-2.832
62104.000			-25.489			-2.832
62205.000			-25.487			-2.832
62304.000			-25.485			-2.832
62403.000			-25.485			-2.832
62505.000			-25.482			-2.831
62604.000			-25.481			-2.831
62704.000			-25.479			-2.831
62805.000			-25.479			-2.831
62904.000			-25.479			-2.831
63004.000			-25.478			-2.831
63104.000			-25.476			-2.831
63204.000			-25.475			-2.831
63304.000			-25.474			-2.830
63405.000			-25.473			-2.830
63504.000			-25.472			-2.830
63604.000			-25.471			-2.830
63705.000			-25.470			-2.830
63803.000			-25.469			-2.830
63904.000			-25.467			-2.830
64005.000			-25.464			-2.829
64104.000			-25.463			-2.829
64204.000			-25.463			-2.829
64304.000			-25.463			-2.829
64404.000			-25.462			-2.829
64504.000			-25.460			-2.829
64605.000			-25.459			-2.829
64704.000			-25.458			-2.829
64805.000			-25.457			-2.829
64904.000			-25.456			-2.828
65003.000			-25.453			-2.828
65105.000			-25.453			-2.828
65204.000			-25.453			-2.828
65304.000			-25.451			-2.828
65405.000			-25.450			-2.828
65504.000			-25.449			-2.828
65604.000			-25.448			-2.828
65704.000			-25.447			-2.827
65804.000			-25.446			-2.827
65904.000			-25.445			-2.827
66005.000			-25.444			-2.827
66104.000			-25.442			-2.827
66204.000			-25.441			-2.827
66305.000			-25.439			-2.827
66403.000			-25.438			-2.826
66504.000			-25.438			-2.826
66605.000			-25.436			-2.826
66704.000			-25.435			-2.826
66804.000			-25.434			-2.826
66905.000			-25.433			-2.826
67004.000			-25.432			-2.826
67103.000			-25.431			-2.826
67205.000			-25.430			-2.826
67304.000			-25.430			-2.826
67404.000			-25.428			-2.825
67505.000			-25.427			-2.825
67604.000			-25.426			-2.825
67704.000			-25.424			-2.825
67804.000			-25.422			-2.825
67904.000			-25.422			-2.825
68003.000			-25.421			-2.825
68104.000			-25.421			-2.825
68204.000			-25.419			-2.824
68305.000			-25.417			-2.824
68404.000			-25.417			-2.824
68503.000			-25.416			-2.824
68605.000			-25.415			-2.824
68704.000			-25.413			-2.824
68804.000			-25.413			-2.824
68905.000			-25.413			-2.824
69004.000			-25.411			-2.823
69104.000			-25.411			-2.823
69204.000			-25.409			-2.823
69304.000			-25.408			-2.823
69404.000			-25.406			-2.823
69505.000			-25.406			-2.823
69604.000			-25.404			-2.823
69704.000			-25.403			-2.823
69805.000			-25.403			-2.823
69903.000			-25.402			-2.822
70004.000			-25.401			-2.822
70105.000			-25.399			-2.822
70204.000			-25.398			-2.822
70304.000			-25.397			-2.822
70405.000			-25.396			-2.822
70504.000			-25.393			-2.821
70603.000			-25.394			-2.822
70705.000			-25.393			-2.821
70804.000			-25.392			-2.821
70904.000			-25.391			-2.821
71005.000			-25.390			-2.821
71104.000			-25.390			-2.821
71205.000			-25.387			-2.821
71303.000			-25.385			-2.821
71404.000			-25.385			-2.821
71505.000			-25.384			-2.820
71604.000			-25.383			-2.820
71704.000			-25.382			-2.820
71805.000			-25.382			-2.820
71904.000			-25.379			-2.820
72003.000			-25.379			-2.820
72105.000			-25.378			-2.820
72204.000			-25.377			-2.820
72304.000			-25.377			-2.820
72405.000			-25.375			-2.819
72504.000			-25.375			-2.819
72604.000			-25.374			-2.819
72704.000			-25.372			-2.819
72804.000			-25.371			-2.819
72904.000			-25.370			-2.819
73005.000			-25.369			-2.819
73104.000			-25.369			-2.819
73204.000			-25.368			-2.819
73305.000			-25.366			-2.818
73404.000			-25.365			-2.818
73504.000			-25.363			-2.818
73604.000			-25.363			-2.818
73704.000			-25.363			-2.818
73804.000			-25.362			-2.818
73905.000			-25.361			-2.818
74004.000			-25.361			-2.818
74104.000			-25.358			-2.818
74205.000			-25.356			-2.817
74303.000			-25.356			-2.817
74405.000			-25.356			-2.817
74504.000			-25.356			-2.817
74604.000			-25.355			-2.817
74705.000			-25.353			-2.817
74804.000			-25.352			-2.817
74904.000			-25.351			-2.817
75004.000			-25.351			-2.817
75104.000			-25.349			-2.817
75204.000			-25.347			-2.816
75305.000			-25.347			-2.816
75404.000			-25.346			-2.816
75504.000			-25.344			-2.816
75605.000			-25.343			-2.816
75703.000			-25.343			-2.816
75804.000			-25.342			-2.816
75905.000			-25.341			-2.816
76004.000			-25.339			-2.815
76104.000			-25.339			-2.815
76205.000			-25.339			-2.815
76304.000			-25.337			-2.815
76403.000			-25.336			-2.815
76505.000			-25.336			-2.815
76604.000			-25.335			-2.815
76704.000			-25.334			-2.815
76805.000			-25.334			-2.815
76904.000			-25.333			-2.815
77004.000			-25.331			-2.815
77104.000			-25.329			-2.814
77204.000			-25.328			-2.814
77304.000			-25.329			-2.814
77405.000			-25.328			-2.814
77504.000			-25.327			-2.814
77605.000			-25.326			-2.814
77704.000			-25.324			-2.814
77803.000			-25.324			-2.814
77905.000			-25.323			-2.814
78004.000			-25.322			-2.814
78104.000			-25.321			-2.813
78205.000			-25.321			-2.813
78304.000			-25.320			-2.813
78404.000			-25.319			-2.813
78504.000			-25.318			-2.813
78604.000			-25.317			-2.813
78704.000			-25.316			-2.813
78805.000			-25.315			-2.813
78904.000			-25.314			-2.813
79004.000			-25.313			-2.813
79105.000			-25.312			-2.812
79203.000			-25.310			-2.812
79304.000			-25.310			-2.812
79405.000			-25.309			-2.812
79504.000			-25.308			-2.812
79604.000			-25.307			-2.812
79705.000			-25.307			-2.812
79804.000			-25.306			-2.812
79903.000			-25.304			-2.812
80005.000			-25.304			-2.812
80104.000			-25.303			-2.811
80204.000			-25.302			-2.811
80305.000			-25.301			-2.811
80403.000			-25.301			-2.811
80504.000			-25.300			-2.811
80604.000			-25.299			-2.811
80704.000			-25.297			-2.811
80805.000			-25.296			-2.811
80904.000			-25.296			-2.811
81004.000			-25.295			-2.811
81105.000			-25.293			-2.810
81204.000			-25.292			-2.810
81303.000			-25.291			-2.810
81405.000			-25.291			-2.810
81504.000			-25.290			-2.810
81604.000			-25.289			-2.810
81705.000			-25.288			-2.810
81804.000			-25.287			-2.810
81904.000			-25.287			-2.810
82004.000			-25.286			-2.810
82104.000			-25.284			-2.809
82204.000			-25.284			-2.809
82305.000			-25.284			-2.809
82404.000			-25.282			-2.809
82504.000			-25.282			-2.809
82605.000			-25.281			-2.809
82703.000			-25.280			-2.809
82804.000			-25.279			-2.809
82905.000			-25.278			-2.809
83004.000			-25.277			-2.809
83104.000			-25.276			-2.808
83205.000			-25.275			-2.808
83304.000			-25.274			-2.808
83403.000			-25.274			-2.808
83505.000			-25.274			-2.808
83604.000			-25.272			-2.808
83704.000			-25.271			-2.808
83805.000			-25.270			-2.808
83904.000			-25.270			-2.808
84005.000			-25.269			-2.808
84103.000			-25.268			-2.808
84204.000			-25.267			-2.807
84305.000			-25.265			-2.807
84404.000			-25.265			-2.807
84504.000			-25.265			-2.807
84605.000			-25.263			-2.807
84704.000			-25.263			-2.807
84803.000			-25.263			-2.807
84905.000			-25.261			-2.807
85004.000			-25.259			-2.807
85104.000			-25.259			-2.807
85205.000			-25.258			-2.806
85304.000			-25.257			-2.806
85404.000			-25.256			-2.806
85504.000			-25.256			-2.806
85604.000			-25.255			-2.806
85704.000			-25.253			-2.806
85805.000			-25.252			-2.806
85904.000			-25.252			-2.806
86004.000			-25.251			-2.806
86105.000			-25.251			-2.806
86203.000			-25.249			-2.805
86304.000			-25.249			-2.805
86405.000			-25.249			-2.805
86504.000			-25.247			-2.805
86604.000			-25.246			-2.805
86705.000			-25.245			-2.805
86804.000			-25.244			-2.805
86903.000			-25.243			-2.805
87005.000			-25.243			-2.805
87104.000			-25.242			-2.805
87205.000			-25.241			-2.805
87304.000			-25.241			-2.805
87404.000			-25.240			-2.804
87505.000			-25.239			-2.804
87603.000			-25.239			-2.804
87704.000			-25.238			-2.804
87805.000			-25.236			-2.804
87904.000			-25.236			-2.804
88004.000			-25.235			-2.804
88105.000			-25.234			-2.804
88204.000			-25.233			-2.804
88303.000			-25.232			-2.804
88405.000			-25.231			-2.803
88504.000			-25.230			-2.803
88604.000			-25.230			-2.803
88705.000			-25.228			-2.803
88804.000			-25.227			-2.803
88904.000			-25.227			-2.803
89004.000			-25.227			-2.803
89104.000			-25.226			-2.803
89204.000			-25.225			-2.803
89305.000			-25.224			-2.803
89404.000			-25.222			-2.802
89504.000			-25.222			-2.802
89605.000			-25.222			-2.802
89703.000			-25.221			-2.802
89804.000			-25.220			-2.802
89905.000			-25.218			-2.802
90004.000			-25.218			-2.802
90104.000			-25.218			-2.802
90205.000			-25.217			-2.802
90304.000			-25.217			-2.802
90403.000			-25.216			-2.802
90504.000			-25.214			-2.802
90604.000			-25.213			-2.801
90705.000			-25.213			-2.801
90804.000			-25.212			-2.801
90904.000			-25.211			-2.801
91005.000			-25.211			-2.801
91103.000			-25.210			-2.801
91204.000			-25.208			-2.801
91305.000			-25.208			-2.801
91404.000			-25.208			-2.801
91504.000			-25.206			-2.801
91605.000			-25.204			-2.800
91704.000			-25.205			-2.801
91803.000			-25.204			-2.800
91905.000			-25.204			-2.800
92004.000			-25.202			-2.800
92104.000			-25.202			-2.800
92205.000			-25.202			-2.800
92304.000			-25.200			-2.800
92404.000			-25.199			-2.800
92504.000			-25.199			-2.800
92604.000			-25.198			-2.800
92704.000			-25.197			-2.800
92805.000			-25.195			-2.799
92904.000			-25.195			-2.799
93004.000			-25.195			-2.799
93105.000			-25.193			-2.799
93203.000			-25.193			-2.799
93304.000			-25.193			-2.799
93405.000			-25.192			-2.799
93504.000			-25.191			-2.799
93605.000			-25.190			-2.799
93704.000			-25.190			-2.799
93804.000			-25.189			-2.799
93904.000			-25.187			-2.799
94004.000			-25.186			-2.798
94104.000			-25.186			-2.798
94205.000			-25.185			-2.798
94304.000			-25.184			-2.798
94404.000			-25.184			-2.798
94505.000			-25.182			-2.798
94603.000			-25.182			-2.798
94704.000			-25.182			-2.798
94805.000			-25.181			-2.798
94904.000			-25.181			-2.798
95004.000			-25.181			-2.798
95105.000			-25.180			-2.798
95204.000			-25.177			-2.797
95303.000			-25.177			-2.797
95405.000			-25.176			-2.797
95504.000			-25.176			-2.797
95604.000			-25.176			-2.797
95705.000			-25.175			-2.797
95804.000			-25.174			-2.797
95904.000			-25.173			-2.797
96004.000			-25.172			-2.797
96104.000			-25.170			-2.797
96204.000			-25.169			-2.797
96305.000			-25.168			-2.796
96404.000			-25.168			-2.796
96504.000			-25.168			-2.796
96605.000			-25.167			-2.796
96703.000			-25.166			-2.796
96805.000			-25.166			-2.796
96904.000			-25.165			-2.796
97004.000			-25.165			-2.796
97105.000			-25.164			-2.796
97204.000			-25.163			-2.796
97304.000			-25.162			-2.796
97404.000			-25.160			-2.796
97504.000			-25.160			-2.796
97604.000			-25.160			-2.796
97705.000			-25.160			-2.796
97804.000			-25.160			-2.796
97904.000			-25.158			-2.795
98005.000			-25.157			-2.795
98103.000			-25.156			-2.795
98204.000			-25.156			-2.795
98305.000			-25.155			-2.795
98404.000			-25.154			-2.795
98504.000			-25.154			-2.795
98605.000			-25.153			-2.795
98704.000			-25.152			-2.795
98803.000			-25.151			-2.795
98905.000			-25.150			-2.794
99004.000			-25.149			-2.794
99104.000			-25.149			-2.794
99205.000			-25.149			-2.794
99304.000			-25.149			-2.794
99404.000			-25.147			-2.794
99504.000			-25.146			-2.794
99604.000			-25.145			-2.794
99704.000			-25.146			-2.794
99805.000			-25.145			-2.794
99904.000			-25.144			-2.794
100005.000			-25.143			-2.794
100104.000			-25.142			-2.794
100203.000			-25.141			-2.793
100305.000			-25.141			-2.793
100404.000			-25.140			-2.793
100504.000			-25.138			-2.793
100605.000			-25.139			-2.793
100704.000			-25.138			-2.793
100804.000			-25.137			-2.793
100904.000			-25.136			-2.793
101004.000			-25.136			-2.793
101104.000			-25.133			-2.793
101205.000			-25.133			-2.793
101304.000			-25.133			-2.793
101404.000			-25.132			-2.792
101505.000			-25.132			-2.792
101603.000			-25.131			-2.792
101704.000			-25.130			-2.792
101805.000			-25.130			-2.792
101904.000			-25.129			-2.792
102004.000			-25.129			-2.792
102105.000			-25.128			-2.792
102204.000			-25.126			-2.792
102303.000			-25.126			-2.792
102405.000			-25.126			-2.792
102504.000			-25.125			-2.792
102604.000			-25.124			-2.792
102705.000			-25.122			-2.791
102804.000			-25.122			-2.791
102904.000			-25.121			-2.791
103004.000			-25.121			-2.791
103104.000			-25.121			-2.791
103205.000			-25.121			-2.791
103304.000			-25.120			-2.791
103404.000			-25.119			-2.791
103505.000			-25.118			-2.791
103604.000			-25.118			-2.791
103703.000			-25.118			-2.791
103805.000			-25.117			-2.791
103904.000			-25.116			-2.791
104004.000			-25.115			-2.791
104105.000			-25.115			-2.791
104204.000			-25.114			-2.790
104304.000			-25.113			-2.790
104404.000			-25.112			-2.790
104504.000			-25.111			-2.790
104604.000			-25.110			-2.790
104705.000			-25.110			-2.790
104804.000			-25.110			-2.790
104903.000			-25.109			-2.790
105005.000			-25.109			-2.790
105103.000			-25.109			-2.790
105204.000			-25.106			-2.790
105305.000			-25.104			-2.789
105404.000			-25.105			-2.789
105504.000			-25.104			-2.789
105604.000			-25.104			-2.789
105704.000			-25.103			-2.789
105803.000			-25.102			-2.789
105905.000			-25.102			-2.789
106004.000			-25.101			-2.789
106104.000			-25.100			-2.789
106205.000			-25.099			-2.789
106303.000			-25.100			-2.789
106405.000			-25.099			-2.789
106503.000			-25.098			-2.789
106604.000			-25.097			-2.789
106705.000			-25.096			-2.788
106804.000			-25.095			-2.788
106904.000			-25.095			-2.788
107005.000			-25.095			-2.788
107104.000			-25.094			-2.788
107203.000			-25.093			-2.788
107305.000			-25.092			-2.788
107404.000			-25.091			-2.788
107504.000			-25.091			-2.788
107605.000			-25.091			-2.788
107704.000			-25.088			-2.788
107804.000			-25.088			-2.788
107904.000			-25.087			-2.787
108004.000			-25.086			-2.787
108104.000			-25.087			-2.787
108205.000			-25.086			-2.787
108304.000			-25.084			-2.787
108404.000			-25.084			-2.787
108505.000			-25.084			-2.787
108603.000			-25.083			-2.787
108704.000			-25.083			-2.787
108804.000			-25.082			-2.787
108904.000			-25.082			-2.787
109004.000			-25.082			-2.787
109105.000			-25.081			-2.787
109204.000			-25.079			-2.787
109304.000			-25.078			-2.786
109405.000			-25.078			-2.786
109503.000			-25.077			-2.786
109605.000			-25.078			-2.786
109704.000			-25.076			-2.786
109804.000			-25.074			-2.786
109905.000			-25.074			-2.786
110004.000			-25.074			-2.786
110104.000			-25.074			-2.786
110204.000			-25.072			-2.786
110304.000			-25.071			-2.786
110404.000			-25.071			-2.786
110505.000			-25.070			-2.786
110604.000			-25.070			-2.786
110704.000			-25.070			-2.786
110805.000			-25.068			-2.785
110903.000			-25.068			-2.785
111004.000			-25.068			-2.785
111105.000			-25.067			-2.785
111204.000			-25.066			-2.785
111304.000			-25.066			-2.785
111405.000			-25.065			-2.785
111504.000			-25.064			-2.785
111603.000			-25.064			-2.785
111705.000			-25.063			-2.785
111804.000			-25.063			-2.785
111904.000			-25.062			-2.785
112005.000			-25.062			-2.785
112104.000			-25.061			-2.785
112204.000			-25.060			-2.784
112304.000			-25.059			-2.784
112404.000			-25.058			-2.784
112504.000			-25.058			-2.784
112605.000			-25.058			-2.784
112704.000			-25.057			-2.784
112805.000			-25.056			-2.784
112904.000			-25.056			-2.784
113003.000			-25.055			-2.784
113105.000			-25.054			-2.784
113204.000			-25.054			-2.784
113304.000			-25.054			-2.784
113405.000			-25.052			-2.784
113504.000			-25.052			-2.784
113604.000			-25.052			-2.784
113704.000			-25.052			-2.784
113804.000			-25.051			-2.783
113903.000			-25.049			-2.783
114005.000			-25.048			-2.783
114104.000			-25.048			-2.783
114204.000			-25.047			-2.783
114305.000			-25.047			-2.783
114404.000			-25.047			-2.783
114504.000			-25.045			-2.783
114604.000			-25.045			-2.783
114704.000			-25.044			-2.783
114804.000			-25.044			-2.783
114905.000			-25.043			-2.783
115004.000			-25.042			-2.782
115104.000			-25.042			-2.782
115205.000			-25.041			-2.782
115303.000			-25.040			-2.782
115404.000			-25.041			-2.782
115505.000			-25.040			-2.782
115604.000			-25.039			-2.782
115704.000			-25.039			-2.782
115805.000			-25.037			-2.782
115904.000			-25.037			-2.782
116003.000			-25.037			-2.782
116104.000			-25.036			-2.782
116204.000			-25.035			-2.782
116305.000			-25.034			-2.782
116404.000			-25.033			-2.781
116504.000			-25.034			-2.782
116605.000			-25.034			-2.782
116703.000			-25.033			-2.781
116804.000			-25.033			-2.781
116905.000			-25.031			-2.781
117004.000			-25.030			-2.781
117104.000			-25.029			-2.781
117205.000			-25.029			-2.781
117304.000			-25.029			-2.781
117403.000			-25.028			-2.781
117505.000			-25.026			-2.781
117604.000			-25.026			-2.781
117704.000			-25.025			-2.781
117805.000			-25.026			-2.781
117904.000			-25.025			-2.781
118004.000			-25.023			-2.780
118104.000			-25.024			-2.780
118204.000			-25.023			-2.780
118304.000			-25.023			-2.780
118405.000			-25.023			-2.780
118504.000			-25.021			-2.780
118604.000			-25.020			-2.780
118705.000			-25.019			-2.780
118803.000			-25.020			-2.780
118904.000			-25.018			-2.780
119005.000			-25.018			-2.780
119104.000			-25.017			-2.780
119205.000			-25.016			-2.780
119304.000			-25.016			-2.780
119404.000			-25.014			-2.779
119504.000			-25.014			-2.779
119604.000			-25.016			-2.780
119704.000			-25.016			-2.780
119805.000			-25.014			-2.779
119904.000			-25.013			-2.779
120004.000			-25.013			-2.779
120105.000			-25.011			-2.779
120203.000			-25.010			-2.779
120304.000			-25.010			-2.779
120405.000			-25.010			-2.779
120504.000			-25.011			-2.779
120604.000			-25.009			-2.779
120705.000			-25.008			-2.779
120804.000			-25.006			-2.778
120903.000			-25.005			-2.778
121005.000			-25.005			-2.778
121104.000			-25.004			-2.778
121204.000			-25.005			-2.778
121305.000			-25.005			-2.778
121404.000			-25.003			-2.778
121504.000			-25.003			-2.778
121604.000			-25.003			-2.778
121704.000			-25.003			-2.778
121804.000			-25.003			-2.778
121905.000			-25.002			-2.778
122004.000			-25.001			-2.778
122103.000			-25.000			-2.778
122205.000			-24.999			-2.778
122303.000			-24.998			-2.778
122405.000			-24.997			-2.777
122504.000			-24.998			-2.778
122604.000			-24.996			-2.777
122705.000			-24.995			-2.777
122804.000			-24.996			-2.777
122904.000			-24.996			-2.777
123004.000			-24.996			-2.777
123104.000			-24.994			-2.777
123204.000			-24.994			-2.777
123305.000			-24.992			-2.777
123404.000			-24.991			-2.777
123504.000			-24.992			-2.777
123605.000			-24.991			-2.777
123703.000			-24.991			-2.777
123804.000			-24.989			-2.777
123904.000			-24.988			-2.776
124004.000			-24.987			-2.776
124104.000			-24.987			-2.776
124205.000			-24.987			-2.776
124304.000			-24.987			-2.776
124404.000			-24.986			-2.776
124505.000			-24.986			-2.776
124603.000			-24.985			-2.776
124704.000			-24.984			-2.776
124805.000			-24.984			-2.776
124904.000			-24.984			-2.776
125004.000			-24.982			-2.776
125105.000			-24.983			-2.776
125204.000			-24.982			-2.776
125303.000			-24.981			-2.776
125405.000			-24.981			-2.776
125503.000			-24.980			-2.776
125605.000			-24.980			-2.776
125704.000			-24.978			-2.775
125804.000			-24.978			-2.775
125905.000			-24.978			-2.775
126004.000			-24.977			-2.775
126104.000			-24.977			-2.775
126204.000			-24.976			-2.775
126304.000			-24.976			-2.775
126404.000			-24.975			-2.775
126505.000			-24.974			-2.775
126604.000			-24.973			-2.775
126704.000			-24.973			-2.775
126805.000			-24.974			-2.775
126904.000			-24.973			-2.775
127004.000			-24.972			-2.775
127104.000			-24.970			-2.774
127204.000			-24.970			-2.774
127304.000			-24.970			-2.774
127405.000			-24.969			-2.774
127504.000			-24.968			-2.774
127604.000			-24.967			-2.774
127705.000			-24.968			-2.774
127803.000			-24.967			-2.774
127904.000			-24.966			-2.774
128005.000			-24.965			-2.774
128104.000			-24.966			-2.774
128204.000			-24.966			-2.774
128305.000			-24.965			-2.774
128404.000			-24.964			-2.774
128503.000			-24.964			-2.774
128605.000			-24.962			-2.774
128703.000			-24.962			-2.774
128805.000			-24.963			-2.774
128904.000			-24.961			-2.773
129004.000			-24.959			-2.773
129105.000			-24.959			-2.773
129204.000			-24.960			-2.773
129304.000			-24.959			-2.773
129404.000			-24.956			-2.773
129504.000			-24.956			-2.773
129604.000			-24.957			-2.773
129705.000			-24.957			-2.773
129804.000			-24.955			-2.773
129904.000			-24.956			-2.773
130005.000			-24.956			-2.773
130104.000			-24.954			-2.773
130204.000			-24.953			-2.773
130304.000			-24.952			-2.772
130404.000			-24.952			-2.772
130504.000			-24.952			-2.772
130605.000			-24.951			-2.772
130704.000			-24.951			-2.772
130804.000			-24.950			-2.772
130905.000			-24.950			-2.772
131003.000			-24.948			-2.772
131104.000			-24.948			-2.772
131205.000			-24.949			-2.772
131304.000			-24.948			-2.772
131404.000			-24.947			-2.772
131505.000			-24.947			-2.772
131604.000			-24.946			-2.772
131703.000			-24.946			-2.772
131805.000			-24.945			-2.772
131903.000			-24.944			-2.772
132005.000			-24.944			-2.772
132104.000			-24.944			-2.772
132204.000			-24.943			-2.771
132305.000			-24.942			-2.771
132404.000			-24.941			-2.771
132504.000			-24.941			-2.771
132604.000			-24.941			-2.771
132704.000			-24.939			-2.771
132803.000			-24.939			-2.771
132905.000			-24.940			-2.771
133004.000			-24.939			-2.771
133104.000			-24.937			-2.771
133205.000			-24.937			-2.771
133304.000			-24.937			-2.771
133404.000			-24.936			-2.771
133504.000			-24.935			-2.771
133604.000			-24.934			-2.770
133703.000			-24.933			-2.770
133805.000			-24.933			-2.770
133904.000			-24.933			-2.770
134004.000			-24.933			-2.770
134105.000			-24.933			-2.770
134204.000			-24.932			-2.770
134304.000			-24.931			-2.770
134404.000			-24.930			-2.770
134504.000			-24.929			-2.770
134604.000			-24.929			-2.770
134705.000			-24.929			-2.770
134804.000			-24.929			-2.770
134904.000			-24.929			-2.770
135005.000			-24.929			-2.770
135104.000			-24.928			-2.770
135205.000			-24.927			-2.770
135303.000			-24.926			-2.770
135404.000			-24.926			-2.770
135505.000			-24.925			-2.769
135604.000			-24.925			-2.769
135704.000			-24.924			-2.769
135805.000			-24.923			-2.769
135904.000			-24.922			-2.769
136004.000			-24.921			-2.769
136105.000			-24.921			-2.769
136203.000			-24.921			-2.769
136304.000			-24.921			-2.769
136405.000			-24.920			-2.769
136504.000			-24.920			-2.769
136604.000			-24.920			-2.769
136705.000			-24.918			-2.769
136804.000			-24.917			-2.769
136904.000			-24.918			-2.769
137005.000			-24.918			-2.769
137103.000			-24.917			-2.769
137204.000			-24.917			-2.769
137304.000			-24.917			-2.769
137404.000			-24.915			-2.768
137504.000			-24.914			-2.768
137605.000			-24.914			-2.768
137704.000			-24.914			-2.768
137804.000			-24.913			-2.768
137905.000			-24.914			-2.768
138003.000			-24.913			-2.768
138104.000			-24.911			-2.768
138204.000			-24.911			-2.768
138304.000			-24.911			-2.768
138405.000			-24.911			-2.768
138504.000			-24.909			-2.768
138604.000			-24.908			-2.768
138705.000			-24.908			-2.768
138804.000			-24.908			-2.768
138903.000			-24.908			-2.768
139005.000			-24.907			-2.767
139103.000			-24.906			-2.767
139204.000			-24.907			-2.767
139305.000			-24.905			-2.767
139404.000			-24.904			-2.767
139504.000			-24.903			-2.767
139605.000			-24.904			-2.767
139704.000			-24.902			-2.767
139804.000			-24.902			-2.767
139905.000			-24.903			-2.767
140003.000			-24.902			-2.767
140104.000			-24.902			-2.767
140205.000			-24.901			-2.767
140304.000			-24.900			-2.767
140404.000			-24.898			-2.766
140505.000			-24.898			-2.766
140604.000			-24.899			-2.767
140703.000			-24.899			-2.767
140805.000			-24.898			-2.766
140903.000			-24.897			-2.766
141004.000			-24.896			-2.766
141105.000			-24.896			-2.766
141204.000			-24.897			-2.766
141304.000			-24.896			-2.766
141405.000			-24.896			-2.766
141504.000			-24.895			-2.766
141605.000			-24.894			-2.766
141704.000			-24.893			-2.766
141803.000			-24.892			-2.766
141905.000			-24.891			-2.766
142004.000			-24.891			-2.766
142104.000			-24.891			-2.766
142205.000			-24.892			-2.766
142304.000			-24.890			-2.766
142404.000			-24.889			-2.765
142505.000			-24.889			-2.765
142604.000			-24.888			-2.765
142703.000			-24.887			-2.765
142805.000			-24.887			-2.765
142904.000			-24.887			-2.765
143004.000			-24.887			-2.765
143105.000			-24.887			-2.765
143204.000			-24.885			-2.765
143304.000			-24.885			-2.765
143405.000			-24.885			-2.765
143504.000			-24.884			-2.765
143603.000			-24.884			-2.765
143705.000			-24.884			-2.765
143803.000			-24.882			-2.765
143904.000			-24.882			-2.765
144005.000			-24.882			-2.765
144104.000			-24.881			-2.765
144204.000			-24.880			-2.764
144305.000			-24.880			-2.764
144404.000			-24.880			-2.764
144503.000			-24.880			-2.764
144605.000			-24.878			-2.764
144703.000			-24.878			-2.764
144805.000			-24.878			-2.764
144904.000			-24.877			-2.764
145004.000			-24.877			-2.764
145105.000			-24.876			-2.764
145204.000			-24.875			-2.764
145304.000			-24.875			-2.764
145405.000			-24.875			-2.764
145504.000			-24.874			-2.764
145603.000			-24.874			-2.764
145705.000			-24.873			-2.764
145804.000			-24.873			-2.764
145904.000			-24.872			-2.764
146005.000			-24.873			-2.764
146104.000			-24.871			-2.763
146204.000			-24.871			-2.763
146305.000			-24.870			-2.763
146404.000			-24.869			-2.763
146503.000			-24.870			-2.763
146605.000			-24.870			-2.763
146704.000			-24.869			-2.763
146804.000			-24.866			-2.763
146905.000			-24.866			-2.763
147004.000			-24.867			-2.763
147104.000			-24.865			-2.763
147205.000			-24.865			-2.763
147304.000			-24.865			-2.763
147403.000			-24.865			-2.763
147505.000			-24.863			-2.763
147603.000			-24.864			-2.763
147704.000			-24.863			-2.763
147805.000			-24.862			-2.762
147904.000			-24.863			-2.763
148005.000			-24.862			-2.762
148104.000			-24.860			-2.762
148204.000			-24.860			-2.762
148304.000			-24.860			-2.762
148404.000			-24.859			-2.762
148503.000			-24.859			-2.762
148605.000			-24.858			-2.762
148704.000			-24.857			-2.762
148804.000			-24.857			-2.762
148905.000			-24.857			-2.762
149004.000			-24.856			-2.762
149104.000			-24.856			-2.762
149205.000			-24.855			-2.762
149304.000			-24.855			-2.762
149403.000			-24.855			-2.762
149505.000			-24.855			-2.762
149604.000			-24.854			-2.762
149704.000			-24.854			-2.762
149805.000			-24.854			-2.762
149904.000			-24.853			-2.761
150004.000			-24.853			-2.761
150105.000			-24.852			-2.761
150204.000			-24.852			-2.761
150303.000			-24.850			-2.761
150405.000			-24.851			-2.761
150504.000			-24.851			-2.761
150604.000			-24.848			-2.761
150705.000			-24.848			-2.761
150804.000			-24.848			-2.761
150904.000			-24.847			-2.761
151005.000			-24.848			-2.761
151104.000			-24.848			-2.761
151203.000			-24.846			-2.761
151304.000			-24.846			-2.761
151404.000			-24.845			-2.761
151505.000			-24.844			-2.760
151604.000			-24.844			-2.760
151704.000			-24.845			-2.761
151805.000			-24.845			-2.761
151904.000			-24.843			-2.760
152004.000			-24.842			-2.760
152104.000			-24.842			-2.760
152204.000			-24.842			-2.760
152304.000			-24.841			-2.760
152405.000			-24.841			-2.760
152504.000			-24.840			-2.760
152604.000			-24.839			-2.760
152705.000			-24.840			-2.760
152804.000			-24.840			-2.760
152904.000			-24.838			-2.760
153004.000			-24.839			-2.760
153104.000			-24.838			-2.760
153204.000			-24.838			-2.760
153305.000			-24.835			-2.759
153404.000			-24.835			-2.759
153504.000			-24.834			-2.759
153605.000			-24.834			-2.759
153704.000			-24.835			-2.759
153804.000			-24.834			-2.759
153904.000			-24.834			-2.759
154004.000			-24.833			-2.759
154104.000			-24.832			-2.759
154205.000			-24.832			-2.759
154304.000			-24.832			-2.759
154405.000			-24.830			-2.759
154504.000			-24.829			-2.759
154604.000			-24.830			-2.759
154705.000			-24.830			-2.759
154803.000			-24.827			-2.759
154904.000			-24.827			-2.759
155005.000			-24.826			-2.758
155104.000			-24.826			-2.758
155204.000			-24.826			-2.758
155305.000			-24.826			-2.758
155404.000			-24.824			-2.758
155504.000			-24.824			-2.758
155605.000			-24.824			-2.758
155703.000			-24.823			-2.758
155804.000			-24.822			-2.758
155905.000			-24.822			-2.758
156004.000			-24.821			-2.758
156104.000			-24.820			-2.758
156205.000			-24.821			-2.758
156304.000			-24.821			-2.758
156404.000			-24.820			-2.758
156505.000			-24.820			-2.758
156603.000			-24.819			-2.758
156704.000			-24.818			-2.758
156805.000			-24.817			-2.757
156904.000			-24.817			-2.757
157004.000			-24.816			-2.757
157105.000			-24.816			-2.757
157204.000			-24.816			-2.757
157304.000			-24.816			-2.757
157405.000			-24.815			-2.757
157503.000			-24.815			-2.757
157605.000			-24.815			-2.757
157704.000			-24.814			-2.757
157804.000			-24.813			-2.757
157905.000			-24.813			-2.757
158004.000			-24.812			-2.757
158104.000			-24.811			-2.757
158205.000			-24.811			-2.757
158304.000			-24.811			-2.757
158403.000			-24.811			-2.757
158505.000			-24.810			-2.757
158604.000			-24.810			-2.757
158704.000			-24.809			-2.757
158805.000			-24.808			-2.756
158904.000			-24.808			-2.756
159004.000			-24.808			-2.756
159105.000			-24.806			-2.756
159204.000			-24.805			-2.756
159303.000			-24.806			-2.756
159405.000			-24.806			-2.756
159504.000			-24.805			-2.756
159604.000			-24.805			-2.756
159705.000			-24.804			-2.756
159804.000			-24.804			-2.756
159904.000			-24.804			-2.756
160005.000			-24.803			-2.756
160104.000			-24.803			-2.756
160203.000			-24.803			-2.756
160305.000			-24.803			-2.756
160403.000			-24.802			-2.756
160504.000			-24.801			-2.756
160605.000			-24.800			-2.756
160704.000			-24.801			-2.756
160805.000			-24.801			-2.756
160904.000			-24.800			-2.756
161004.000			-24.800			-2.756
161104.000			-24.800			-2.756
161204.000			-24.799			-2.755
161303.000			-24.798			-2.755
161405.000			-24.799			-2.755
161504.000			-24.799			-2.755
161604.000			-24.798			-2.755
161705.000			-24.797			-2.755
161804.000			-24.798			-2.755
161904.000			-24.797			-2.755
162004.000			-24.796			-2.755
162104.000			-24.796			-2.755
162203.000			-24.796			-2.755
162305.000			-24.796			-2.755
162404.000			-24.795			-2.755
162504.000			-24.793			-2.755
162605.000			-24.794			-2.755
162704.000			-24.793			-2.755
162804.000			-24.793			-2.755
162905.000			-24.793			-2.755
163004.000			-24.792			-2.755
163103.000			-24.791			-2.755
163205.000			-24.790			-2.754
163304.000			-24.791			-2.755
163404.000			-24.791			-2.755
163505.000			-24.789			-2.754
163604.000			-24.789			-2.754
163704.000			-24.790			-2.754
163805.000			-24.788			-2.754
163904.000			-24.788			-2.754
164003.000			-24.788			-2.754
164104.000			-24.788			-2.754
164204.000			-24.786			-2.754
164305.000			-24.785			-2.754
164404.000			-24.785			-2.754
164504.000			-24.785			-2.754
164605.000			-24.785			-2.754
164704.000			-24.785			-2.754
164804.000			-24.783			-2.754
164904.000			-24.783			-2.754
165004.000			-24.782			-2.754
165103.000			-24.782			-2.754
165205.000			-24.782			-2.754
165304.000			-24.782			-2.754
165404.000			-24.781			-2.753
165505.000			-24.780			-2.753
165604.000			-24.780			-2.753
165704.000			-24.779			-2.753
165805.000			-24.779			-2.753
165904.000			-24.778			-2.753
166003.000			-24.778			-2.753
166105.000			-24.777			-2.753
166204.000			-24.776			-2.753
166304.000			-24.776			-2.753
166405.000			-24.775			-2.753
166504.000			-24.774			-2.753
166604.000			-24.774			-2.753
166705.000			-24.773			-2.753
166804.000			-24.773			-2.753
166903.000			-24.773			-2.753
167005.000			-24.772			-2.752
167104.000			-24.770			-2.752
167205.000			-24.771			-2.752
167304.000			-24.770			-2.752
167404.000			-24.770			-2.752
167505.000			-24.769			-2.752
167604.000			-24.769			-2.752
167704.000			-24.769			-2.752
167804.000			-24.769			-2.752
167904.000			-24.767			-2.752
168003.000			-24.767			-2.752
168105.000			-24.767			-2.752
168204.000			-24.766			-2.752
168304.000			-24.766			-2.752
168405.000			-24.767			-2.752
168504.000			-24.766			-2.752
168604.000			-24.765			-2.752
168705.000			-24.765			-2.752
168804.000			-24.763			-2.751
168903.000			-24.763			-2.751
169005.000			-24.764			-2.752
169104.000			-24.763			-2.751
169204.000			-24.763			-2.751
169305.000			-24.763			-2.751
169404.000			-24.762			-2.751
169504.000			-24.761			-2.751
169605.000			-24.761			-2.751
169704.000			-24.760			-2.751
169803.000			-24.761			-2.751
169905.000			-24.761			-2.751
170004.000			-24.760			-2.751
170104.000			-24.761			-2.751
170205.000			-24.760			-2.751
170304.000			-24.759			-2.751
170405.000			-24.759			-2.751
170504.000			-24.759			-2.751
170604.000			-24.760			-2.751
170704.000			-24.759			-2.751
170804.000			-24.758			-2.751
170904.000			-24.757			-2.751
171005.000			-24.758			-2.751
171104.000			-24.757			-2.751
171204.000			-24.756			-2.751
171305.000			-24.756			-2.751
171404.000			-24.756			-2.751
171504.000			-24.755			-2.751
171604.000			-24.754			-2.750
171704.000			-24.755			-2.751
171804.000			-24.755			-2.751
171905.000			-24.754			-2.750
172004.000			-24.753			-2.750
172104.000			-24.752			-2.750
172205.000			-24.752			-2.750
172304.000			-24.752			-2.750
172404.000			-24.752			-2.750
172504.000			-24.752			-2.750
172604.000			-24.752			-2.750
172704.000			-24.751			-2.750
172805.000			-24.750			-2.750
172904.000			-24.751			-2.750
173004.000			-24.750			-2.750
173105.000			-24.750			-2.750
173204.000			-24.749			-2.750
173304.000			-24.748			-2.750
173404.000			-24.748			-2.750
173504.000			-24.748			-2.750
173605.000			-24.746			-2.750
173704.000			-24.748			-2.750
173804.000			-24.746			-2.750
173905.000			-24.746			-2.750
174004.000			-24.746			-2.750
174104.000			-24.746			-2.750
174205.000			-24.746			-2.750
174303.000			-24.745			-2.749
174404.000			-24.744			-2.749
174505.000			-24.744			-2.749
174604.000			-24.744			-2.749
174704.000			-24.743			-2.749
174805.000			-24.744			-2.749
174904.000			-24.743			-2.749
175004.000			-24.742			-2.749
175105.000			-24.741			-2.749
175203.000			-24.740			-2.749
175304.000			-24.741			-2.749
175405.000			-24.741			-2.749
175504.000			-24.739			-2.749
175604.000			-24.741			-2.749
175705.000			-24.740			-2.749
175804.000			-24.739			-2.749
175904.000			-24.738			-2.749
176005.000			-24.738			-2.749
176103.000			-24.739			-2.749
176204.000			-24.739			-2.749
176304.000			-24.737			-2.749
176404.000			-24.737			-2.749
176504.000			-24.737			-2.749
176605.000			-24.737			-2.749
176704.000			-24.735			-2.748
176805.000			-24.736			-2.748
176904.000			-24.736			-2.748
177004.000			-24.736			-2.748
177105.000			-24.735			-2.748
177203.000			-24.734			-2.748
177304.000			-24.734			-2.748
177405.000			-24.733			-2.748
177504.000			-24.732			-2.748
177604.000			-24.732			-2.748
177705.000			-24.732			-2.748
177804.000			-24.731			-2.748
177904.000			-24.731			-2.748
178005.000			-24.731			-2.748
178103.000			-24.730			-2.748
178204.000			-24.729			-2.748
178305.000			-24.729			-2.748
178404.000			-24.729			-2.748
178504.000			-24.728			-2.748
178605.000			-24.728			-2.748
178704.000			-24.728			-2.748
178804.000			-24.727			-2.747
178905.000			-24.727			-2.747
179003.000			-24.726			-2.747
179104.000			-24.726			-2.747
179204.000			-24.726			-2.747
179304.000			-24.727			-2.747
179404.000			-24.726			-2.747
179505.000			-24.724			-2.747
179604.000			-24.724			-2.747
179704.000			-24.724			-2.747
179805.000			-24.724			-2.747
179904.000			-24.723			-2.747
180005.000			-24.723			-2.747
180103.000			-24.723			-2.747
180204.000			-24.721			-2.747
180305.000			-24.721			-2.747
180404.000			-24.722			-2.747
180504.000			-24.722			-2.747
180605.000			-24.720			-2.747
180704.000			-24.720			-2.747
180803.000			-24.720			-2.747
180905.000			-24.719			-2.747
181003.000			-24.719			-2.747
181104.000			-24.718			-2.746
181205.000			-24.718			-2.746
181304.000			-24.718			-2.746
181404.000			-24.717			-2.746
181505.000			-24.717			-2.746
181604.000			-24.719			-2.747
181703.000			-24.717			-2.746
181805.000			-24.715			-2.746
181903.000			-24.714			-2.746
182004.000			-24.715			-2.746
182105.000			-24.715			-2.746
182204.000			-24.714			-2.746
182304.000			-24.714			-2.746
182405.000			-24.713			-2.746
182504.000			-24.712			-2.746
182603.000			-24.712			-2.746
182705.000			-24.711			-2.746
182804.000			-24.710			-2.746
182904.000			-24.710			-2.746
183005.000			-24.710			-2.746
183104.000			-24.709			-2.745
183205.000			-24.709			-2.745
183304.000			-24.709			-2.745
183404.000			-24.709			-2.745
183504.000			-24.708			-2.745
183604.000			-24.708			-2.745
183703.000			-24.708			-2.745
183805.000			-24.707			-2.745
183904.000			-24.706			-2.745
184004.000			-24.706			-2.745
184105.000			-24.705			-2.745
184204.000			-24.704			-2.745
184304.000			-24.705			-2.745
184404.000			-24.704			-2.745
184504.000			-24.703			-2.745
184603.000			-24.702			-2.745
184705.000			-24.702			-2.745
184804.000			-24.701			-2.745
184904.000			-24.701			-2.745
185005.000			-24.701			-2.745
185104.000			-24.702			-2.745
185204.000			-24.700			-2.744
185304.000			-24.699			-2.744
185404.000			-24.699			-2.744
185503.000			-24.699			-2.744
185605.000			-24.699			-2.744
185704.000			-24.700			-2.744
185804.000			-24.699			-2.744
185905.000			-24.698			-2.744
186004.000			-24.698			-2.744
186104.000			-24.698			-2.744
186205.000			-24.697			-2.744
186304.000			-24.697			-2.744
186403.000			-24.696			-2.744
186504.000			-24.696			-2.744
186603.000			-24.695			-2.744
186705.000			-24.694			-2.744
186804.000			-24.694			-2.744
186904.000			-24.695			-2.744
187005.000			-24.695			-2.744
187104.000			-24.694			-2.744
187204.000			-24.694			-2.744
187305.000			-24.695			-2.744
187404.000			-24.694			-2.744
187503.000			-24.693			-2.744
187605.000			-24.692			-2.744
187704.000			-24.691			-2.743
187804.000			-24.691			-2.743
187905.000			-24.692			-2.744
188004.000			-24.690			-2.743
188104.000			-24.690			-2.743
188205.000			-24.690			-2.743
188304.000			-24.689			-2.743
188403.000			-24.689			-2.743
188505.000			-24.689			-2.743
188603.000			-24.689			-2.743
188704.000			-24.689			-2.743
188805.000			-24.690			-2.743
188904.000			-24.688			-2.743
189004.000			-24.687			-2.743
189105.000			-24.687			-2.743
189204.000			-24.687			-2.743
189303.000			-24.687			-2.743
189405.000			-24.687			-2.743
189503.000			-24.686			-2.743
189605.000			-24.685			-2.743
189704.000			-24.684			-2.743
189804.000			-24.684			-2.743
189905.000			-24.684			-2.743
190004.000			-24.684			-2.743
190104.000			-24.683			-2.743
190205.000			-24.684			-2.743
190304.000			-24.683			-2.743
190403.000			-24.682			-2.742
190505.000			-24.683			-2.743
190604.000			-24.682			-2.742
190704.000			-24.681			-2.742
190805.000			-24.681			-2.742
190904.000			-24.681			-2.742
191004.000			-24.680			-2.742
191105.000			-24.679			-2.742
191204.000			-24.680			-2.742
191303.000			-24.679			-2.742
191405.000			-24.678			-2.742
191504.000			-24.679			-2.742
191604.000			-24.678			-2.742
191705.000			-24.677			-2.742
191804.000			-24.677			-2.742
191904.000			-24.676			-2.742
192005.000			-24.677			-2.742
192104.000			-24.676			-2.742
192204.000			-24.676			-2.742
192305.000			-24.676			-2.742
192403.000			-24.676			-2.742
192504.000			-24.675			-2.742
192605.000			-24.675			-2.742
192704.000			-24.674			-2.742
192805.000			-24.674			-2.742
192904.000			-24.673			-2.741
193004.000			-24.673			-2.741
193105.000			-24.674			-2.742
193204.000			-24.672			-2.741
193303.000			-24.672			-2.741
193405.000			-24.671			-2.741
193504.000			-24.671			-2.741
193604.000			-24.671			-2.741
193705.000			-24.671			-2.741
193804.000			-24.670			-2.741
193904.000			-24.670			-2.741
194005.000			-24.669			-2.741
194104.000			-24.669			-2.741
194203.000			-24.669			-2.741
194305.000			-24.668			-2.741
194403.000			-24.669			-2.741
194504.000			-24.669			-2.741
194605.000			-24.668			-2.741
194704.000			-24.667			-2.741
194804.000			-24.667			-2.741
194905.000			-24.667			-2.741
195004.000			-24.666			-2.741
195104.000			-24.666			-2.741
195205.000			-24.665			-2.741
195303.000			-24.665			-2.741
195404.000			-24.664			-2.740
195505.000			-24.664			-2.740
195604.000			-24.664			-2.740
195704.000			-24.663			-2.740
195805.000			-24.663			-2.740
195904.000			-24.664			-2.740
196005.000			-24.663			-2.740
196104.000			-24.662			-2.740
196203.000			-24.662			-2.740
196305.000			-24.661			-2.740
196403.000			-24.660			-2.740
196504.000			-24.659			-2.740
196605.000			-24.660			-2.740
196704.000			-24.660			-2.740
196804.000			-24.659			-2.740
196905.000			-24.659			-2.740
197004.000			-24.658			-2.740
197104.000			-24.658			-2.740
197205.000			-24.657			-2.740
197303.000			-24.658			-2.740
197404.000			-24.658			-2.740
197505.000			-24.657			-2.740
197604.000			-24.656			-2.740
197704.000			-24.656			-2.740
197805.000			-24.655			-2.739
197904.000			-24.654			-2.739
198004.000			-24.655			-2.739
198105.000			-24.655			-2.739
198203.000			-24.654			-2.739
198304.000			-24.653			-2.739
198405.000			-24.653			-2.739
198504.000			-24.652			-2.739
198604.000			-24.652			-2.739
198705.000			-24.652			-2.739
198804.000			-24.652			-2.739
198904.000			-24.652			-2.739
199005.000			-24.652			-2.739
199103.000			-24.650			-2.739
199205.000			-24.650			-2.739
199303.000			-24.651			-2.739
199404.000			-24.651			-2.739
199505.000			-24.650			-2.739
199604.000			-24.649			-2.739
199704.000			-24.648			-2.739
199805.000			-24.648			-2.739
199904.000			-24.648			-2.739
200004.000			-24.648			-2.739
200105.000			-24.647			-2.739
200203.000			-24.646			-2.738
200304.000			-24.647			-2.739
200405.000			-24.646			-2.738
200504.000			-24.646			-2.738
200604.000			-24.645			-2.738
200705.000			-24.644			-2.738
200804.000			-24.644			-2.738
200904.000			-24.645			-2.738
201005.000			-24.644			-2.738
201103.000			-24.644			-2.738
201204.000			-24.644			-2.738
201305.000			-24.643			-2.738
201404.000			-24.642			-2.738
201504.000			-24.642			-2.738
201605.000			-24.641			-2.738
201704.000			-24.641			-2.738
201803.000			-24.642			-2.738
201905.000			-24.641			-2.738
202004.000			-24.641			-2.738
202104.000			-24.640			-2.738
202205.000			-24.640			-2.738
202304.000			-24.640			-2.738
202405.000			-24.640			-2.738
202504.000			-24.638			-2.738
202604.000			-24.638			-2.738
202704.000			-24.637			-2.737
202804.000			-24.636			-2.737
202904.000			-24.636			-2.737
203005.000			-24.637			-2.737
203104.000			-24.637			-2.737
203204.000			-24.636			-2.737
203305.000			-24.636			-2.737
203404.000			-24.636			-2.737
203504.000			-24.634			-2.737
203604.000			-24.635			-2.737
203704.000			-24.634			-2.737
203804.000			-24.634			-2.737
203905.000			-24.633			-2.737
204004.000			-24.633			-2.737
204104.000			-24.634			-2.737
204205.000			-24.633			-2.737
204303.000			-24.633			-2.737
204404.000			-24.633			-2.737
204504.000			-24.633			-2.737
204604.000			-24.631			-2.737
204704.000			-24.631			-2.737
204805.000			-24.631			-2.737
204904.000			-24.630			-2.737
205004.000			-24.631			-2.737
205105.000			-24.631			-2.737
205203.000			-24.631			-2.737
205304.000			-24.630			-2.737
205405.000			-24.630			-2.737
205504.000			-24.629			-2.737
205605.000			-24.628			-2.736
205704.000			-24.628			-2.736
205804.000			-24.627			-2.736
205905.000			-24.626			-2.736
206004.000			-24.625			-2.736
206103.000			-24.626			-2.736
206205.000			-24.626			-2.736
206304.000			-24.624			-2.736
206404.000			-24.624			-2.736
206505.000			-24.626			-2.736
206604.000			-24.625			-2.736
206704.000			-24.625			-2.736
206804.000			-24.624			-2.736
206904.000			-24.623			-2.736
207003.000			-24.624			-2.736
207105.000			-24.622			-2.736
207204.000			-24.621			-2.736
207304.000			-24.621			-2.736
207405.000			-24.622			-2.736
207504.000			-24.621			-2.736
207604.000			-24.621			-2.736
207704.000			-24.621			-2.736
207804.000			-24.620			-2.736
207903.000			-24.619			-2.735
208005.000			-24.620			-2.736
208104.000			-24.619			-2.735
208204.000			-24.618			-2.735
208305.000			-24.618			-2.735
208404.000			-24.618			-2.735
208504.000			-24.617			-2.735
208604.000			-24.617			-2.735
208704.000			-24.619			-2.735
208805.000			-24.618			-2.735
208904.000			-24.617			-2.735
209004.000			-24.616			-2.735
209105.000			-24.616			-2.735
209204.000			-24.616			-2.735
209304.000			-24.615			-2.735
209405.000			-24.614			-2.735
209503.000			-24.613			-2.735
209604.000			-24.613			-2.735
209705.000			-24.614			-2.735
209804.000			-24.613			-2.735
209904.000			-24.612			-2.735
210005.000			-24.612			-2.735
210104.000			-24.613			-2.735
210204.000			-24.612			-2.735
210305.000			-24.611			-2.735
210403.000			-24.611			-2.735
210504.000			-24.610			-2.734
210605.000			-24.610			-2.734
210704.000			-24.610			-2.734
210804.000			-24.610			-2.734
210905.000			-24.610			-2.734
211004.000			-24.609			-2.734
211103.000			-24.609			-2.734
211205.000			-24.608			-2.734
211303.000			-24.608			-2.734
211404.000			-24.608			-2.734
211505.000			-24.607			-2.734
211604.000			-24.607			-2.734
211704.000			-24.606			-2.734
211805.000			-24.606			-2.734
211904.000			-24.606			-2.734
212003.000			-24.606			-2.734
212104.000			-24.605			-2.734
212203.000			-24.606			-2.734
212305.000			-24.605			-2.734
212404.000			-24.603			-2.734
212504.000			-24.604			-2.734
212605.000			-24.604			-2.734
212704.000			-24.603			-2.734
212804.000			-24.602			-2.734
212904.000			-24.603			-2.734
213004.000			-24.602			-2.734
213104.000			-24.602			-2.734
213205.000			-24.602			-2.734
213304.000			-24.601			-2.733
213404.000			-24.601			-2.733
213505.000			-24.600			-2.733
213603.000			-24.600			-2.733
213704.000			-24.600			-2.733
213804.000			-24.599			-2.733
213904.000			-24.599			-2.733
214004.000			-24.599			-2.733
214105.000			-24.598			-2.733
214204.000			-24.598			-2.733
214304.000			-24.598			-2.733
214405.000			-24.597			-2.733
214503.000			-24.597			-2.733
214604.000			-24.597			-2.733
214704.000			-24.596			-2.733
214804.000			-24.595			-2.733
214904.000			-24.596			-2.733
215005.000			-24.596			-2.733
215104.000			-24.595			-2.733
215205.000			-24.594			-2.733
215304.000			-24.595			-2.733
215403.000			-24.594			-2.733
215505.000			-24.593			-2.733
215603.000			-24.593			-2.733
215704.000			-24.593			-2.733
215805.000			-24.594			-2.733
215904.000			-24.593			-2.733
216004.000			-24.592			-2.732
216105.000			-24.592			-2.732
216204.000			-24.591			-2.732
216303.000			-24.592			-2.732
216405.000			-24.592			-2.732
216503.000			-24.591			-2.732
216604.000			-24.591			-2.732
216705.000			-24.591			-2.732
216804.000			-24.590			-2.732
216904.000			-24.590			-2.732
217005.000			-24.588			-2.732
217104.000			-24.589			-2.732
217203.000			-24.589			-2.732
217305.000			-24.587			-2.732
217403.000			-24.587			-2.732
217504.000			-24.587			-2.732
217605.000			-24.587			-2.732
217704.000			-24.587			-2.732
217804.000			-24.587			-2.732
217905.000			-24.587			-2.732
218004.000			-24.585			-2.732
218104.000			-24.584			-2.732
218205.000			-24.583			-2.731
218303.000			-24.584			-2.732
218405.000			-24.585			-2.732
218504.000			-24.585			-2.732
218604.000			-24.584			-2.732
218705.000			-24.585			-2.732
218804.000			-24.584			-2.732
218904.000			-24.582			-2.731
219005.000			-24.581			-2.731
219104.000			-24.581			-2.731
219203.000			-24.582			-2.731
219305.000			-24.582			-2.731
219404.000			-24.581			-2.731
219504.000			-24.580			-2.731
219605.000			-24.581			-2.731
219704.000			-24.581			-2.731
219804.000			-24.579			-2.731
219905.000			-24.579			-2.731
220004.000			-24.579			-2.731
220103.000			-24.579			-2.731
220205.000			-24.578			-2.731
220304.000			-24.578			-2.731
220404.000			-24.577			-2.731
220505.000			-24.577			-2.731
220604.000			-24.577			-2.731
220704.000			-24.577			-2.731
220805.000			-24.577			-2.731
220904.000			-24.576			-2.731
221003.000			-24.576			-2.731
221105.000			-24.576			-2.731
221204.000			-24.576			-2.731
221304.000			-24.576			-2.731
221405.000			-24.577			-2.731
221504.000			-24.576			-2.731
221605.000			-24.574			-2.730
221704.000			-24.572			-2.730
221804.000			-24.574			-2.730
221904.000			-24.574			-2.730
222004.000			-24.573			-2.730
222104.000			-24.573			-2.730
222205.000			-24.573			-2.730
222304.000			-24.571			-2.730
222404.000			-24.571			-2.730
222505.000			-24.570			-2.730
222604.000			-24.571			-2.730
222704.000			-24.570			-2.730
222804.000			-24.571			-2.730
222904.000			-24.570			-2.730
223004.000			-24.570			-2.730
223105.000			-24.570			-2.730
223204.000			-24.570			-2.730
223304.000			-24.570			-2.730
223405.000			-24.570			-2.730
223503.000			-24.569			-2.730
223604.000			-24.569			-2.730
223704.000			-24.569			-2.730
223804.000			-24.567			-2.730
223904.000			-24.566			-2.730
224005.000			-24.566			-2.730
224104.000			-24.567			-2.730
224204.000			-24.567			-2.730
224305.000			-24.566			-2.730
224403.000			-24.566			-2.730
224504.000			-24.565			-2.729
224604.000			-24.564			-2.729
224704.000			-24.564			-2.729
224805.000			-24.565			-2.729
224904.000			-24.563			-2.729
225004.000			-24.562			-2.729
225105.000			-24.562			-2.729
225204.000			-24.563			-2.729
225303.000			-24.563			-2.729
225405.000			-24.563			-2.729
225503.000			-24.561			-2.729
225604.000			-24.560			-2.729
225705.000			-24.560			-2.729
225804.000			-24.560			-2.729
225904.000			-24.561			-2.729
226005.000			-24.562			-2.729
226104.000			-24.561			-2.729
226203.000			-24.560			-2.729
226305.000			-24.559			-2.729
226404.000			-24.559			-2.729
226504.000			-24.558			-2.729
226605.000			-24.557			-2.729
226704.000			-24.560			-2.729
226804.000			-24.560			-2.729
226905.000			-24.558			-2.729
227004.000			-24.557			-2.729
227103.000			-24.557			-2.729
227205.000			-24.557			-2.729
227304.000			-24.557			-2.729
227404.000			-24.555			-2.728
227505.000			-24.555			-2.728
227604.000			-24.554			-2.728
227704.000			-24.554			-2.728
227805.000			-24.554			-2.728
227904.000			-24.554			-2.728
228003.000			-24.555			-2.728
228104.000			-24.555			-2.728
228203.000			-24.553			-2.728
228305.000			-24.554			-2.728
228404.000			-24.555			-2.728
228504.000			-24.553			-2.728
228605.000			-24.552			-2.728
228704.000			-24.553			-2.728
228804.000			-24.552			-2.728
228904.000			-24.551			-2.728
229004.000			-24.551			-2.728
229103.000			-24.550			-2.728
229205.000			-24.550			-2.728
229304.000			-24.550			-2.728
229404.000			-24.549			-2.728
229505.000			-24.549			-2.728
229604.000			-24.550			-2.728
229704.000			-24.550			-2.728
229804.000			-24.549			-2.728
229904.000			-24.549			-2.728
230003.000			-24.548			-2.728
230105.000			-24.548			-2.728
230204.000			-24.548			-2.728
230304.000			-24.546			-2.727
230405.000			-24.547			-2.727
230504.000			-24.546			-2.727
230604.000			-24.546			-2.727
230704.000			-24.546			-2.727
230804.000			-24.547			-2.727
230903.000			-24.546			-2.727
231005.000			-24.544			-2.727
231104.000			-24.544			-2.727
231205.000			-24.545			-2.727
231304.000			-24.544			-2.727
231404.000			-24.544			-2.727
231505.000			-24.543			-2.727
231603.000			-24.543			-2.727
231704.000			-24.543			-2.727
231805.000			-24.543			-2.727
231904.000			-24.543			-2.727
232004.000			-24.542			-2.727
232105.000			-24.541			-2.727
232204.000			-24.542			-2.727
232304.000			-24.542			-2.727
232405.000			-24.540			-2.727
232503.000			-24.541			-2.727
232604.000			-24.540			-2.727
232705.000			-24.539			-2.727
232804.000			-24.538			-2.726
232904.000			-24.539			-2.727
233005.000			-24.538			-2.726
233104.000			-24.539			-2.727
233203.000			-24.538			-2.726
233305.000			-24.537			-2.726
233403.000			-24.538			-2.726
233504.000			-24.537			-2.726
233605.000			-24.537			-2.726
233704.000			-24.537			-2.726
233804.000			-24.537			-2.726
233905.000			-24.536			-2.726
234004.000			-24.536			-2.726
234103.000			-24.535			-2.726
234205.000			-24.535			-2.726
234303.000			-24.534			-2.726
234405.000			-24.534			-2.726
234504.000			-24.534			-2.726
234604.000			-24.534			-2.726
234705.000			-24.533			-2.726
234804.000			-24.534			-2.726
234904.000			-24.533			-2.726
235004.000			-24.532			-2.726
235104.000			-24.531			-2.726
235203.000			-24.531			-2.726
235305.000			-24.531			-2.726
235404.000			-24.531			-2.726
235504.000			-24.531			-2.726
235605.000			-24.532			-2.726
235704.000			-24.530			-2.726
235804.000			-24.529			-2.725
235904.000			-24.528			-2.725
236004.000			-24.529			-2.725
236103.000			-24.529			-2.725
236205.000			-24.529			-2.725
236304.000			-24.528			-2.725
236404.000			-24.527			-2.725
236505.000			-24.527			-2.725
236604.000			-24.527			-2.725
236704.000			-24.527			-2.725
236804.000			-24.526			-2.725
236904.000			-24.526			-2.725
237003.000			-24.525			-2.725
237105.000			-24.525			-2.725
237204.000			-24.525			-2.725
237304.000			-24.525			-2.725
237405.000			-24.525			-2.725
237504.000			-24.525			-2.725
237605.000			-24.524			-2.725
237703.000			-24.524			-2.725
237804.000			-24.524			-2.725
237904.000			-24.524			-2.725
238004.000			-24.524			-2.725
238104.000			-24.523			-2.725
238205.000			-24.522			-2.725
238304.000			-24.522			-2.725
238404.000			-24.521			-2.725
238505.000			-24.521			-2.725
238603.000			-24.522			-2.725
238704.000			-24.522			-2.725
238805.000			-24.521			-2.725
238904.000			-24.520			-2.724
239004.000			-24.519			-2.724
239105.000			-24.520			-2.724
239204.000			-24.519			-2.724
239304.000			-24.519			-2.724
239405.000			-24.519			-2.724
239503.000			-24.520			-2.724
239604.000			-24.519			-2.724
239704.000			-24.518			-2.724
239804.000			-24.517			-2.724
239904.000			-24.516			-2.724
240005.000			-24.517			-2.724
240104.000			-24.517			-2.724
240204.000			-24.517			-2.724
240305.000			-24.517			-2.724
240403.000			-24.516			-2.724
240504.000			-24.515			-2.724
240605.000			-24.514			-2.724
240704.000			-24.514			-2.724
240805.000			-24.514			-2.724
240904.000			-24.514			-2.724
241004.000			-24.515			-2.724
241105.000			-24.514			-2.724
241204.000			-24.514			-2.724
241303.000			-24.515			-2.724
241405.000			-24.514			-2.724
241504.000			-24.513			-2.724
241604.000			-24.513			-2.724
241705.000			-24.513			-2.724
241804.000			-24.512			-2.724
241904.000			-24.511			-2.723
242004.000			-24.512			-2.724
242104.000			-24.511			-2.723
242203.000			-24.510			-2.723
242305.000			-24.511			-2.723
242404.000			-24.511			-2.723
242504.000			-24.510			-2.723
242605.000			-24.509			-2.723
242704.000			-24.508			-2.723
242804.000			-24.508			-2.723
242904.000			-24.509			-2.723
243004.000			-24.509			-2.723
243104.000			-24.508			-2.723
243205.000			-24.508			-2.723
243304.000			-24.508			-2.723
243404.000			-24.507			-2.723
243505.000			-24.507			-2.723
243604.000			-24.506			-2.723
243704.000			-24.507			-2.723
243804.000			-24.506			-2.723
243904.000			-24.505			-2.723
244005.000			-24.506			-2.723
244104.000			-24.506			-2.723
244204.000			-24.504			-2.723
244305.000			-24.504			-2.723
244404.000			-24.503			-2.723
244504.000			-24.503			-2.723
244605.000			-24.503			-2.723
244703.000			-24.502			-2.722
244804.000			-24.502			-2.722
244905.000			-24.502			-2.722
245004.000			-24.502			-2.722
245104.000			-24.502			-2.722
245205.000			-24.502			-2.722
245304.000			-24.502			-2.722
245403.000			-24.501			-2.722
245505.000			-24.500			-2.722
245604.000			-24.500			-2.722
245704.000			-24.501			-2.722
245805.000			-24.500			-2.722
245904.000			-24.499			-2.722
246004.000			-24.499			-2.722
246105.000			-24.499			-2.722
246204.000			-24.499			-2.722
246303.000			-24.498			-2.722
246405.000			-24.498			-2.722
246504.000			-24.498			-2.722
246604.000			-24.498			-2.722
246705.000			-24.498			-2.722
246804.000			-24.497			-2.722
246904.000			-24.496			-2.722
247005.000			-24.496			-2.722
247104.000			-24.496			-2.722
247203.000			-24.496			-2.722
247304.000			-24.496			-2.722
247403.000			-24.496			-2.722
247505.000			-24.496			-2.722
247604.000			-24.496			-2.722
247704.000			-24.495			-2.722
247805.000			-24.496			-2.722
247904.000			-24.495			-2.722
248004.000			-24.495			-2.722
248105.000			-24.494			-2.722
248204.000			-24.494			-2.722
248303.000			-24.494			-2.722
248405.000			-24.494			-2.722
248504.000			-24.492			-2.721
248604.000			-24.491			-2.721
248705.000			-24.491			-2.721
248804.000			-24.492			-2.721
248904.000			-24.492			-2.721
249005.000			-24.492			-2.721
249104.000			-24.491			-2.721
249203.000			-24.490			-2.721
249305.000			-24.490			-2.721
249404.000			-24.490			-2.721
249504.000			-24.490			-2.721
249605.000			-24.490			-2.721
249704.000			-24.490			-2.721
249804.000			-24.489			-2.721
249905.000			-24.489			-2.721
250004.000			-24.488			-2.721
250103.000			-24.488			-2.721
250205.000			-24.488			-2.721
250303.000			-24.488			-2.721
250405.000			-24.488			-2.721
250504.000			-24.488			-2.721
250604.000			-24.487			-2.721
250705.000			-24.487			-2.721
250804.000			-24.487			-2.721
250904.000			-24.486			-2.721
251004.000			-24.487			-2.721
251104.000			-24.487			-2.721
251203.000			-24.486			-2.721
251305.000			-24.486			-2.721
251404.000			-24.484			-2.720
251504.000			-24.485			-2.721
251605.000			-24.485			-2.721
251704.000			-24.485			-2.721
251804.000			-24.484			-2.720
251904.000			-24.482			-2.720
252004.000			-24.483			-2.720
252103.000			-24.483			-2.720
252205.000			-24.483			-2.720
252304.000			-24.483			-2.720
252404.000			-24.483			-2.720
252505.000			-24.483			-2.720
252604.000			-24.481			-2.720
252704.000			-24.480			-2.720
252804.000			-24.481			-2.720
252904.000			-24.480			-2.720
253003.000			-24.480			-2.720
253105.000			-24.480			-2.720
253204.000			-24.480			-2.720
253304.000			-24.480			-2.720
253405.000			-24.479			-2.720
253504.000			-24.479			-2.720
253605.000			-24.480			-2.720
253704.000			-24.479			-2.720
253804.000			-24.477			-2.720
253904.000			-24.477			-2.720
254004.000			-24.478			-2.720
254104.000			-24.476			-2.720
254205.000			-24.476			-2.720
254304.000			-24.478			-2.720
254404.000			-24.478			-2.720
254505.000			-24.477			-2.720
254604.000			-24.476			-2.720
254704.000			-24.476			-2.720
254804.000			-24.476			-2.720
254904.000			-24.475			-2.719
255004.000			-24.474			-2.719
255105.000			-24.475			-2.719
255204.000			-24.475			-2.719
255304.000			-24.474			-2.719
255405.000			-24.473			-2.719
255504.000			-24.473			-2.719
255604.000			-24.473			-2.719
255704.000			-24.473			-2.719
255804.000			-24.473			-2.719
255904.000			-24.472			-2.719
256005.000			-24.471			-2.719
256104.000			-24.471			-2.719
256204.000			-24.471			-2.719
256305.000			-24.471			-2.719
256404.000			-24.471			-2.719
256504.000			-24.471			-2.719
256604.000			-24.471			-2.719
256704.000			-24.470			-2.719
256805.000			-24.469			-2.719
256904.000			-24.469			-2.719
257004.000			-24.470			-2.719
257105.000			-24.468			-2.719
257204.000			-24.468			-2.719
257304.000			-24.469			-2.719
257405.000			-24.468			-2.719
257503.000			-24.467			-2.719
257604.000			-24.468			-2.719
257705.000			-24.468			-2.719
257804.000			-24.467			-2.719
257904.000			-24.466			-2.718
258005.000			-24.466			-2.718
258104.000			-24.466			-2.718
258204.000			-24.467			-2.719
258305.000			-24.466			-2.718
258403.000			-24.465			-2.718
258504.000			-24.464			-2.718
258604.000			-24.464			-2.718
258704.000			-24.464			-2.718
258804.000			-24.463			-2.718
258905.000			-24.463			-2.718
259004.000			-24.464			-2.718
259104.000			-24.463			-2.718
259205.000			-24.464			-2.718
259303.000			-24.463			-2.718
259404.000			-24.461			-2.718
259504.000			-24.462			-2.718
259604.000			-24.461			-2.718
259704.000			-24.462			-2.718
259805.000			-24.461			-2.718
259904.000			-24.460			-2.718
260005.000			-24.460			-2.718
260104.000			-24.461			-2.718
260203.000			-24.460			-2.718
260305.000			-24.460			-2.718
260403.000			-24.460			-2.718
260504.000			-24.460			-2.718
260605.000			-24.458			-2.718
260704.000			-24.458			-2.718
260804.000			-24.459			-2.718
260905.000			-24.458			-2.718
261004.000			-24.458			-2.718
261103.000			-24.458			-2.718
261205.000			-24.458			-2.718
261304.000			-24.458			-2.718
261404.000			-24.457			-2.717
261505.000			-24.457			-2.717
261604.000			-24.456			-2.717
261704.000			-24.456			-2.717
261805.000			-24.456			-2.717
261904.000			-24.456			-2.717
262003.000			-24.455			-2.717
262105.000			-24.454			-2.717
262204.000			-24.455			-2.717
262304.000			-24.453			-2.717
262405.000			-24.454			-2.717
262504.000			-24.454			-2.717
262604.000			-24.454			-2.717
262705.000			-24.453			-2.717
262804.000			-24.453			-2.717
262903.000			-24.454			-2.717
263005.000			-24.453			-2.717
263104.000			-24.453			-2.717
263205.000			-24.453			-2.717
263304.000			-24.453			-2.717
263404.000			-24.453			-2.717
263505.000			-24.452			-2.717
263603.000			-24.451			-2.717
263704.000			-24.450			-2.717
263804.000			-24.451			-2.717
263904.000			-24.451			-2.717
264004.000			-24.450			-2.717
264105.000			-24.449			-2.717
264204.000			-24.450			-2.717
264304.000			-24.449			-2.717
264405.000			-24.448			-2.716
264503.000			-24.448			-2.716
264604.000			-24.449			-2.717
264704.000			-24.448			-2.716
264804.000			-24.448			-2.716
264904.000			-24.448			-2.716
265005.000			-24.447			-2.716
265104.000			-24.446			-2.716
265204.000			-24.447			-2.716
265305.000			-24.446			-2.716
265403.000			-24.446			-2.716
265504.000			-24.447			-2.716
265604.000			-24.445			-2.716
265704.000			-24.445			-2.716
265804.000			-24.446			-2.716
265905.000			-24.443			-2.716
266004.000			-24.444			-2.716
266104.000			-24.444			-2.716
266205.000			-24.444			-2.716
266303.000			-24.444			-2.716
266405.000			-24.444			-2.716
266503.000			-24.444			-2.716
266604.000			-24.444			-2.716
266705.000			-24.442			-2.716
266804.000			-24.442			-2.716
266904.000			-24.441			-2.716
267005.000			-24.441			-2.716
267104.000			-24.440			-2.716
267203.000			-24.440			-2.716
267305.000			-24.441			-2.716
267404.000			-24.440			-2.716
267504.000			-24.439			-2.715
267605.000			-24.439			-2.715
267704.000			-24.440			-2.716
267804.000			-24.439			-2.715
267905.000			-24.438			-2.715
268004.000			-24.438			-2.715
268103.000			-24.437			-2.715
268205.000			-24.437			-2.715
268303.000			-24.437			-2.715
268404.000			-24.438			-2.715
268505.000			-24.437			-2.715
268604.000			-24.437			-2.715
268704.000			-24.436			-2.715
268805.000			-24.436			-2.715
268904.000			-24.436			-2.715
269003.000			-24.436			-2.715
269105.000			-24.435			-2.715
269203.000			-24.434			-2.715
269304.000			-24.433			-2.715
269405.000			-24.433			-2.715
269504.000			-24.433			-2.715
269605.000			-24.434			-2.715
269704.000			-24.433			-2.715
269804.000			-24.433			-2.715
269904.000			-24.433			-2.715
270004.000			-24.433			-2.715
270103.000			-24.433			-2.715
270205.000			-24.432			-2.715
270304.000			-24.432			-2.715
270404.000			-24.431			-2.715
270505.000			-24.431			-2.715
270604.000			-24.431			-2.715
270704.000			-24.432			-2.715
270804.000			-24.432			-2.715
270904.000			-24.431			-2.715
271004.000			-24.431			-2.715
271105.000			-24.430			-2.714
271204.000			-24.430			-2.714
271304.000			-24.430			-2.714
271405.000			-24.429			-2.714
271504.000			-24.428			-2.714
271604.000			-24.428			-2.714
271704.000			-24.429			-2.714
271804.000			-24.429			-2.714
271904.000			-24.428			-2.714
272005.000			-24.427			-2.714
272104.000			-24.428			-2.714
272204.000			-24.428			-2.714
272305.000			-24.428			-2.714
272404.000			-24.426			-2.714
272504.000			-24.426			-2.714
272604.000			-24.427			-2.714
272704.000			-24.426			-2.714
272805.000			-24.425			-2.714
272904.000			-24.425			-2.714
273004.000			-24.426			-2.714
273105.000			-24.426			-2.714
273204.000			-24.424			-2.714
273303.000			-24.425			-2.714
273405.000			-24.425			-2.714
273503.000			-24.423			-2.714
273604.000			-24.423			-2.714
273705.000			-24.423			-2.714
273804.000			-24.424			-2.714
273904.000			-24.423			-2.714
274005.000			-24.422			-2.714
274104.000			-24.422			-2.714
274203.000			-24.423			-2.714
274305.000			-24.423			-2.714
274404.000			-24.422			-2.714
274504.000			-24.422			-2.714
274605.000			-24.421			-2.713
274704.000			-24.421			-2.713
274804.000			-24.421			-2.713
274905.000			-24.421			-2.713
275004.000			-24.421			-2.713
275103.000			-24.420			-2.713
275205.000			-24.420			-2.713
275304.000			-24.420			-2.713
275404.000			-24.420			-2.713
275505.000			-24.419			-2.713
275604.000			-24.419			-2.713
275704.000			-24.419			-2.713
275805.000			-24.418			-2.713
275904.000			-24.418			-2.713
276003.000			-24.418			-2.713
276104.000			-24.417			-2.713
276203.000			-24.416			-2.713
276305.000			-24.417			-2.713
276404.000			-24.417			-2.713
276504.000			-24.417			-2.713
276605.000			-24.415			-2.713
276704.000			-24.416			-2.713
276804.000			-24.415			-2.713
276904.000			-24.414			-2.713
277004.000			-24.415			-2.713
277103.000			-24.415			-2.713
277205.000			-24.415			-2.713
277304.000			-24.414			-2.713
277404.000			-24.414			-2.713
277505.000			-24.414			-2.713
277604.000			-24.413			-2.713
277704.000			-24.414			-2.713
277804.000			-24.413			-2.713
277904.000			-24.412			-2.712
278003.000			-24.412			-2.712
278105.000			-24.412			-2.712
278204.000			-24.412			-2.712
278304.000			-24.412			-2.712
278405.000			-24.411			-2.712
278504.000			-24.411			-2.712
278604.000			-24.411			-2.712
278704.000			-24.411			-2.712
278804.000			-24.410			-2.712
278904.000			-24.410			-2.712
279005.000			-24.410			-2.712
279104.000			-24.410			-2.712
279205.000			-24.409			-2.712
279304.000			-24.409			-2.712
279404.000			-24.410			-2.712
279505.000			-24.409			-2.712
279603.000			-24.409			-2.712
279704.000			-24.409			-2.712
279804.000			-24.409			-2.712
279904.000			-24.408			-2.712
280004.000			-24.407			-2.712
280105.000			-24.407			-2.712
280204.000			-24.407			-2.712
280304.000			-24.407			-2.712
280405.000			-24.407			-2.712
280503.000			-24.406			-2.712
280604.000			-24.406			-2.712
280705.000			-24.405			-2.712
280804.000			-24.405			-2.712
280904.000			-24.405			-2.712
281005.000			-24.405			-2.712
281104.000			-24.405			-2.712
281204.000			-24.405			-2.712
281305.000			-24.405			-2.712
281403.000			-24.404			-2.712
281504.000			-24.403			-2.711
281605.000			-24.404			-2.712
281704.000			-24.403			-2.711
281804.000			-24.402			-2.711
281905.000			-24.402			-2.711
282004.000			-24.401			-2.711
282104.000			-24.402			-2.711
282205.000			-24.403			-2.711
282303.000			-24.402			-2.711
282405.000			-24.401			-2.711
282504.000			-24.401			-2.711
282604.000			-24.401			-2.711
282705.000			-24.401			-2.711
282804.000			-24.400			-2.711
282904.000			-24.399			-2.711
283004.000			-24.399			-2.711
283104.000			-24.399			-2.711
283203.000			-24.400			-2.711
283305.000			-24.401			-2.711
283404.000			-24.399			-2.711
283504.000			-24.400			-2.711
283605.000			-24.400			-2.711
283704.000			-24.398			-2.711
283804.000			-24.398			-2.711
283904.000			-24.398			-2.711
284004.000			-24.398			-2.711
284103.000			-24.398			-2.711
284205.000			-24.398			-2.711
284304.000			-24.397			-2.711
284404.000			-24.397			-2.711
284505.000			-24.397			-2.711
284604.000			-24.395			-2.711
284704.000			-24.395			-2.711
284805.000			-24.395			-2.711
284904.000			-24.395			-2.711
285003.000			-24.396			-2.711
285105.000			-24.395			-2.711
285204.000			-24.394			-2.710
285304.000			-24.395			-2.711
285405.000			-24.395			-2.711
285504.000			-24.394			-2.710
285605.000			-24.395			-2.711
285704.000			-24.394			-2.710
285804.000			-24.393			-2.710
285904.000			-24.392			-2.710
286004.000			-24.392			-2.710
286104.000			-24.392			-2.710
286205.000			-24.393			-2.710
286304.000			-24.391			-2.710
286404.000			-24.391			-2.710
286505.000			-24.392			-2.710
286604.000			-24.392			-2.710
286704.000			-24.392			-2.710
286804.000			-24.391			-2.710
286904.000			-24.390			-2.710
287004.000			-24.390			-2.710
287105.000			-24.389			-2.710
287204.000			-24.389			-2.710
287304.000			-24.388			-2.710
287405.000			-24.389			-2.710
287504.000			-24.389			-2.710
287604.000			-24.389			-2.710
287704.000			-24.388			-2.710
287804.000			-24.387			-2.710
287903.000			-24.387			-2.710
288005.000			-24.388			-2.710
288104.000			-24.388			-2.710
288204.000			-24.387			-2.710
288305.000			-24.387			-2.710
288404.000			-24.386			-2.710
288504.000			-24.385			-2.709
288605.000			-24.385			-2.709
288704.000			-24.385			-2.709
288803.000			-24.386			-2.710
288904.000			-24.386			-2.710
289003.000			-24.386			-2.710
289105.000			-24.386			-2.710
289204.000			-24.385			-2.709
289304.000			-24.385			-2.709
289405.000			-24.384			-2.709
289504.000			-24.384			-2.709
289604.000			-24.384			-2.709
289704.000			-24.384			-2.709
289804.000			-24.384			-2.709
289903.000			-24.382			-2.709
290005.000			-24.381			-2.709
290104.000			-24.382			-2.709
290204.000			-24.383			-2.709
290305.000			-24.382			-2.709
290404.000			-24.381			-2.709
290504.000			-24.380			-2.709
290604.000			-24.381			-2.709
290704.000			-24.381			-2.709
290803.000			-24.380			-2.709
290905.000			-24.380			-2.709
291004.000			-24.379			-2.709
291104.000			-24.379			-2.709
291205.000			-24.379			-2.709
291304.000			-24.380			-2.709
291404.000			-24.379			-2.709
291504.000			-24.378			-2.709
291604.000			-24.377			-2.709
291704.000			-24.377			-2.709
291805.000			-24.377			-2.709
291904.000			-24.377			-2.709
292005.000			-24.377			-2.709
292104.000			-24.376			-2.708
292204.000			-24.376			-2.708
292305.000			-24.376			-2.708
292403.000			-24.375			-2.708
292504.000			-24.376			-2.708
292605.000			-24.375			-2.708
292704.000			-24.375			-2.708
292804.000			-24.375			-2.708
292905.000			-24.374			-2.708
293004.000			-24.374			-2.708
293104.000			-24.374			-2.708
293205.000			-24.373			-2.708
293303.000			-24.374			-2.708
293404.000			-24.373			-2.708
293505.000			-24.374			-2.708
293604.000			-24.374			-2.708
293704.000			-24.372			-2.708
293805.000			-24.371			-2.708
293904.000			-24.372			-2.708
294004.000			-24.372			-2.708
294105.000			-24.371			-2.708
294203.000			-24.371			-2.708
294304.000			-24.371			-2.708
294405.000			-24.370			-2.708
294504.000			-24.371			-2.708
294604.000			-24.371			-2.708
294705.000			-24.371			-2.708
294804.000			-24.370			-2.708
294904.000			-24.371			-2.708
295005.000			-24.370			-2.708
295103.000			-24.369			-2.708
295205.000			-24.368			-2.708
295304.000			-24.368			-2.708
295404.000			-24.369			-2.708
295505.000			-24.369			-2.708
295604.000			-24.368			-2.708
295704.000			-24.368			-2.708
295805.000			-24.367			-2.707
295904.000			-24.367			-2.707
296003.000			-24.367			-2.707
296105.000			-24.366			-2.707
296203.000			-24.367			-2.707
296304.000			-24.368			-2.708
296405.000			-24.367			-2.707
296504.000			-24.367			-2.707
296604.000			-24.367			-2.707
296705.000			-24.366			-2.707
296804.000			-24.365			-2.707
296904.000			-24.365			-2.707
297005.000			-24.365			-2.707
297103.000			-24.366			-2.707
297204.000			-24.365			-2.707
297305.000			-24.365			-2.707
297404.000			-24.365			-2.707
297504.000			-24.364			-2.707
297605.000			-24.364			-2.707
297704.000			-24.364			-2.707
297804.000			-24.364			-2.707
297905.000			-24.363			-2.707
298003.000			-24.363			-2.707
298104.000			-24.362			-2.707
298205.000			-24.362			-2.707
298304.000			-24.363			-2.707
298405.000			-24.363			-2.707
298504.000			-24.362			-2.707
298604.000			-24.361			-2.707
298705.000			-24.361			-2.707
298804.000			-24.361			-2.707
298903.000			-24.360			-2.707
299005.000			-24.360			-2.707
299104.000			-24.360			-2.707
299204.000			-24.360			-2.707
299305.000			-24.359			-2.707
299404.000			-24.359			-2.707
299504.000			-24.359			-2.707
299605.000			-24.358			-2.706
299704.000			-24.358			-2.706
299804.000			-24.357			-2.706
299905.000			-24.358			-2.706
