# Acquired on 25/01/2024 14:17:17 
# SPIDER: Creep_5mm_GRPCNT1454A-3
# CREEP MEASUREMENT

# time [ms]		force [N]		stiffness [N/mm]
1.000			-21.731			-4.346
104.000			-22.307			-4.461
205.000			-22.312			-4.462
304.000			-22.109			-4.422
404.000			-21.944			-4.389
505.000			-21.710			-4.342
604.000			-21.619			-4.324
703.000			-21.539			-4.308
805.000			-21.468			-4.294
904.000			-21.404			-4.281
1005.000			-21.345			-4.269
1104.000			-21.293			-4.259
1203.000			-21.198			-4.240
1305.000			-21.155			-4.231
1404.000			-21.116			-4.223
1504.000			-21.078			-4.216
1605.000			-21.043			-4.209
1703.000			-21.009			-4.202
1804.000			-20.978			-4.196
1905.000			-20.917			-4.183
2004.000			-20.890			-4.178
2104.000			-20.864			-4.173
2205.000			-20.839			-4.168
2304.000			-20.815			-4.163
2403.000			-20.793			-4.159
2505.000			-20.769			-4.154
2604.000			-20.747			-4.149
2704.000			-20.706			-4.141
2805.000			-20.687			-4.137
2904.000			-20.668			-4.134
3004.000			-20.650			-4.130
3104.000			-20.632			-4.126
3204.000			-20.614			-4.123
3304.000			-20.596			-4.119
3405.000			-20.564			-4.113
3504.000			-20.548			-4.110
3603.000			-20.533			-4.107
3705.000			-20.518			-4.104
3804.000			-20.504			-4.101
3904.000			-20.490			-4.098
4005.000			-20.476			-4.095
4104.000			-20.450			-4.090
4205.000			-20.436			-4.087
4303.000			-20.423			-4.085
4404.000			-20.411			-4.082
4505.000			-20.399			-4.080
4604.000			-20.388			-4.078
4704.000			-20.376			-4.075
4804.000			-20.366			-4.073
4904.000			-20.344			-4.069
5004.000			-20.331			-4.066
5105.000			-20.321			-4.064
5204.000			-20.311			-4.062
5304.000			-20.300			-4.060
5405.000			-20.291			-4.058
5503.000			-20.282			-4.056
5604.000			-20.261			-4.052
5705.000			-20.252			-4.050
5804.000			-20.242			-4.048
5904.000			-20.234			-4.047
6004.000			-20.226			-4.045
6104.000			-20.217			-4.043
6204.000			-20.208			-4.042
6305.000			-20.190			-4.038
6404.000			-20.182			-4.036
6504.000			-20.174			-4.035
6605.000			-20.166			-4.033
6704.000			-20.158			-4.032
6804.000			-20.150			-4.030
6905.000			-20.142			-4.028
7004.000			-20.128			-4.026
7104.000			-20.120			-4.024
7203.000			-20.113			-4.023
7304.000			-20.106			-4.021
7405.000			-20.098			-4.020
7504.000			-20.092			-4.018
7604.000			-20.085			-4.017
7705.000			-20.078			-4.016
7804.000			-20.064			-4.013
7903.000			-20.058			-4.012
8005.000			-20.050			-4.010
8104.000			-20.044			-4.009
8204.000			-20.037			-4.007
8305.000			-20.031			-4.006
8403.000			-20.024			-4.005
8504.000			-20.013			-4.003
8605.000			-20.007			-4.001
8704.000			-20.000			-4.000
8804.000			-19.994			-3.999
8905.000			-19.989			-3.998
9004.000			-19.982			-3.996
9103.000			-19.977			-3.995
9205.000			-19.966			-3.993
9304.000			-19.961			-3.992
9404.000			-19.955			-3.991
9505.000			-19.950			-3.990
9604.000			-19.944			-3.989
9704.000			-19.938			-3.988
9804.000			-19.933			-3.987
9904.000			-19.922			-3.984
10004.000			-19.917			-3.983
10105.000			-19.913			-3.983
10204.000			-19.907			-3.981
10303.000			-19.901			-3.980
10405.000			-19.897			-3.979
10504.000			-19.891			-3.978
10605.000			-19.887			-3.977
10704.000			-19.878			-3.976
10804.000			-19.871			-3.974
10905.000			-19.866			-3.973
11004.000			-19.862			-3.972
11104.000			-19.858			-3.972
11204.000			-19.854			-3.971
11304.000			-19.848			-3.970
11404.000			-19.841			-3.968
11505.000			-19.836			-3.967
11604.000			-19.831			-3.966
11704.000			-19.826			-3.965
11805.000			-19.821			-3.964
11904.000			-19.816			-3.963
12004.000			-19.812			-3.962
12105.000			-19.805			-3.961
12204.000			-19.801			-3.960
12304.000			-19.797			-3.959
12404.000			-19.792			-3.958
12504.000			-19.788			-3.958
12603.000			-19.785			-3.957
12705.000			-19.781			-3.956
12804.000			-19.771			-3.954
12904.000			-19.768			-3.954
13005.000			-19.764			-3.953
13103.000			-19.760			-3.952
13204.000			-19.756			-3.951
13304.000			-19.752			-3.950
13404.000			-19.748			-3.950
13504.000			-19.745			-3.949
13604.000			-19.737			-3.947
13704.000			-19.733			-3.947
13805.000			-19.729			-3.946
13904.000			-19.725			-3.945
14003.000			-19.721			-3.944
14105.000			-19.718			-3.944
14204.000			-19.715			-3.943
14304.000			-19.708			-3.942
14405.000			-19.705			-3.941
14504.000			-19.701			-3.940
14604.000			-19.697			-3.939
14704.000			-19.693			-3.939
14804.000			-19.690			-3.938
14904.000			-19.686			-3.937
15005.000			-19.680			-3.936
15104.000			-19.676			-3.935
15204.000			-19.673			-3.935
15305.000			-19.670			-3.934
15403.000			-19.667			-3.933
15504.000			-19.663			-3.933
15605.000			-19.659			-3.932
15704.000			-19.653			-3.931
15804.000			-19.650			-3.930
15905.000			-19.647			-3.929
16004.000			-19.644			-3.929
16103.000			-19.641			-3.928
16205.000			-19.638			-3.928
16304.000			-19.635			-3.927
16404.000			-19.632			-3.926
16505.000			-19.624			-3.925
16604.000			-19.622			-3.924
16704.000			-19.619			-3.924
16803.000			-19.616			-3.923
16904.000			-19.613			-3.923
17005.000			-19.610			-3.922
17104.000			-19.607			-3.921
17204.000			-19.601			-3.920
17305.000			-19.598			-3.920
17404.000			-19.595			-3.919
17503.000			-19.592			-3.918
17605.000			-19.589			-3.918
17704.000			-19.586			-3.917
17804.000			-19.583			-3.917
17905.000			-19.578			-3.916
18004.000			-19.574			-3.915
18104.000			-19.573			-3.915
18204.000			-19.568			-3.914
18304.000			-19.566			-3.913
18404.000			-19.564			-3.913
18505.000			-19.561			-3.912
18604.000			-19.555			-3.911
18704.000			-19.553			-3.911
18805.000			-19.550			-3.910
18903.000			-19.549			-3.910
19004.000			-19.546			-3.909
19105.000			-19.542			-3.908
19204.000			-19.539			-3.908
19304.000			-19.538			-3.908
19405.000			-19.532			-3.906
19504.000			-19.529			-3.906
19603.000			-19.527			-3.905
19705.000			-19.524			-3.905
19804.000			-19.522			-3.904
19904.000			-19.520			-3.904
20005.000			-19.517			-3.903
20104.000			-19.512			-3.902
20205.000			-19.509			-3.902
20303.000			-19.506			-3.901
20404.000			-19.504			-3.901
20505.000			-19.502			-3.900
20604.000			-19.499			-3.900
20704.000			-19.497			-3.899
20804.000			-19.492			-3.898
20904.000			-19.490			-3.898
21003.000			-19.487			-3.897
21105.000			-19.484			-3.897
21204.000			-19.483			-3.897
21304.000			-19.479			-3.896
21405.000			-19.477			-3.895
21503.000			-19.475			-3.895
21604.000			-19.472			-3.894
21705.000			-19.469			-3.894
21804.000			-19.466			-3.893
21904.000			-19.464			-3.893
22005.000			-19.462			-3.892
22104.000			-19.460			-3.892
22203.000			-19.457			-3.891
22305.000			-19.453			-3.891
22404.000			-19.450			-3.890
22504.000			-19.447			-3.889
22605.000			-19.445			-3.889
22704.000			-19.443			-3.889
22804.000			-19.441			-3.888
22904.000			-19.440			-3.888
23004.000			-19.435			-3.887
23104.000			-19.433			-3.887
23204.000			-19.430			-3.886
23304.000			-19.427			-3.885
23405.000			-19.425			-3.885
23504.000			-19.423			-3.885
23603.000			-19.421			-3.884
23705.000			-19.417			-3.883
23804.000			-19.415			-3.883
23904.000			-19.413			-3.883
24005.000			-19.411			-3.882
24104.000			-19.409			-3.882
24204.000			-19.407			-3.881
24304.000			-19.405			-3.881
24404.000			-19.402			-3.880
24504.000			-19.399			-3.880
24605.000			-19.396			-3.879
24704.000			-19.394			-3.879
24803.000			-19.392			-3.878
24905.000			-19.390			-3.878
25003.000			-19.388			-3.878
25104.000			-19.385			-3.877
25205.000			-19.381			-3.876
25304.000			-19.381			-3.876
25404.000			-19.379			-3.876
25504.000			-19.377			-3.875
25604.000			-19.374			-3.875
25703.000			-19.371			-3.874
25805.000			-19.370			-3.874
25904.000			-19.365			-3.873
26004.000			-19.364			-3.873
26105.000			-19.364			-3.873
26203.000			-19.362			-3.872
26304.000			-19.359			-3.872
26405.000			-19.355			-3.871
26504.000			-19.354			-3.871
26605.000			-19.351			-3.870
26704.000			-19.349			-3.870
26804.000			-19.348			-3.870
26904.000			-19.346			-3.869
27004.000			-19.344			-3.869
27104.000			-19.343			-3.869
27205.000			-19.341			-3.868
27304.000			-19.339			-3.868
27404.000			-19.334			-3.867
27505.000			-19.332			-3.866
27603.000			-19.330			-3.866
27704.000			-19.328			-3.866
27805.000			-19.327			-3.865
27904.000			-19.326			-3.865
28004.000			-19.324			-3.865
28105.000			-19.320			-3.864
28204.000			-19.319			-3.864
28303.000			-19.317			-3.863
28405.000			-19.314			-3.863
28504.000			-19.313			-3.863
28604.000			-19.312			-3.862
28705.000			-19.310			-3.862
28804.000			-19.306			-3.861
28904.000			-19.305			-3.861
29004.000			-19.304			-3.861
29104.000			-19.301			-3.860
29204.000			-19.300			-3.860
29305.000			-19.298			-3.860
29404.000			-19.297			-3.859
29504.000			-19.293			-3.859
29605.000			-19.291			-3.858
29703.000			-19.289			-3.858
29805.000			-19.288			-3.858
29904.000			-19.287			-3.857
30004.000			-19.285			-3.857
30105.000			-19.283			-3.857
30204.000			-19.281			-3.856
30304.000			-19.276			-3.855
30404.000			-19.276			-3.855
30504.000			-19.275			-3.855
30604.000			-19.272			-3.854
30705.000			-19.271			-3.854
30804.000			-19.270			-3.854
30903.000			-19.267			-3.853
31005.000			-19.264			-3.853
31104.000			-19.263			-3.853
31204.000			-19.262			-3.852
31305.000			-19.260			-3.852
31404.000			-19.258			-3.852
31504.000			-19.256			-3.851
31604.000			-19.255			-3.851
31704.000			-19.252			-3.850
31804.000			-19.250			-3.850
31905.000			-19.249			-3.850
32004.000			-19.248			-3.850
32104.000			-19.245			-3.849
32205.000			-19.244			-3.849
32303.000			-19.243			-3.849
32404.000			-19.241			-3.848
32505.000			-19.240			-3.848
32604.000			-19.237			-3.847
32704.000			-19.235			-3.847
32804.000			-19.233			-3.847
32904.000			-19.231			-3.846
33003.000			-19.230			-3.846
33104.000			-19.229			-3.846
33204.000			-19.225			-3.845
33305.000			-19.224			-3.845
33404.000			-19.223			-3.845
33503.000			-19.222			-3.844
33605.000			-19.220			-3.844
33704.000			-19.218			-3.844
33804.000			-19.217			-3.843
33905.000			-19.214			-3.843
34004.000			-19.214			-3.843
34104.000			-19.212			-3.842
34204.000			-19.210			-3.842
34304.000			-19.208			-3.842
34404.000			-19.207			-3.841
34505.000			-19.206			-3.841
34604.000			-19.203			-3.841
34704.000			-19.201			-3.840
34805.000			-19.200			-3.840
34903.000			-19.198			-3.840
35004.000			-19.197			-3.839
35105.000			-19.196			-3.839
35204.000			-19.194			-3.839
35304.000			-19.190			-3.838
35405.000			-19.189			-3.838
35504.000			-19.188			-3.838
35603.000			-19.187			-3.837
35705.000			-19.186			-3.837
35804.000			-19.185			-3.837
35904.000			-19.183			-3.837
36005.000			-19.182			-3.836
36103.000			-19.179			-3.836
36205.000			-19.178			-3.836
36304.000			-19.175			-3.835
36404.000			-19.174			-3.835
36505.000			-19.173			-3.835
36604.000			-19.171			-3.834
36704.000			-19.170			-3.834
36804.000			-19.167			-3.833
36904.000			-19.167			-3.833
37004.000			-19.166			-3.833
37105.000			-19.165			-3.833
37204.000			-19.163			-3.833
37304.000			-19.161			-3.832
37405.000			-19.160			-3.832
37503.000			-19.157			-3.831
37604.000			-19.155			-3.831
37705.000			-19.154			-3.831
37804.000			-19.153			-3.831
37904.000			-19.152			-3.830
38005.000			-19.150			-3.830
38104.000			-19.149			-3.830
38203.000			-19.148			-3.830
38305.000			-19.145			-3.829
38404.000			-19.144			-3.829
38504.000			-19.144			-3.829
38605.000			-19.142			-3.828
38704.000			-19.140			-3.828
38804.000			-19.139			-3.828
38904.000			-19.137			-3.827
39004.000			-19.135			-3.827
39104.000			-19.134			-3.827
39204.000			-19.133			-3.827
39304.000			-19.132			-3.826
39405.000			-19.130			-3.826
39504.000			-19.129			-3.826
39603.000			-19.128			-3.826
39705.000			-19.125			-3.825
39804.000			-19.124			-3.825
39904.000			-19.122			-3.824
40005.000			-19.121			-3.824
40104.000			-19.119			-3.824
40204.000			-19.118			-3.824
40304.000			-19.117			-3.823
40404.000			-19.114			-3.823
40504.000			-19.114			-3.823
40605.000			-19.113			-3.823
40704.000			-19.112			-3.822
40803.000			-19.111			-3.822
40905.000			-19.109			-3.822
41004.000			-19.107			-3.821
41104.000			-19.106			-3.821
41205.000			-19.105			-3.821
41304.000			-19.102			-3.820
41404.000			-19.102			-3.820
41504.000			-19.101			-3.820
41604.000			-19.100			-3.820
41704.000			-19.098			-3.820
41805.000			-19.097			-3.819
41904.000			-19.095			-3.819
42004.000			-19.094			-3.819
42105.000			-19.093			-3.819
42203.000			-19.091			-3.818
42304.000			-19.090			-3.818
42405.000			-19.089			-3.818
42504.000			-19.088			-3.818
42605.000			-19.085			-3.817
42704.000			-19.085			-3.817
42804.000			-19.084			-3.817
42904.000			-19.082			-3.816
43004.000			-19.080			-3.816
43104.000			-19.079			-3.816
43205.000			-19.078			-3.816
43304.000			-19.078			-3.816
43404.000			-19.076			-3.815
43505.000			-19.074			-3.815
43603.000			-19.073			-3.815
43704.000			-19.072			-3.814
43805.000			-19.071			-3.814
43904.000			-19.070			-3.814
44004.000			-19.068			-3.814
44105.000			-19.066			-3.813
44204.000			-19.065			-3.813
44303.000			-19.064			-3.813
44405.000			-19.063			-3.813
44504.000			-19.061			-3.812
44604.000			-19.059			-3.812
44705.000			-19.058			-3.812
44804.000			-19.055			-3.811
44904.000			-19.055			-3.811
45004.000			-19.054			-3.811
45104.000			-19.053			-3.811
45204.000			-19.052			-3.810
45305.000			-19.051			-3.810
45404.000			-19.051			-3.810
45503.000			-19.048			-3.810
45605.000			-19.048			-3.810
45704.000			-19.046			-3.809
45805.000			-19.045			-3.809
45904.000			-19.044			-3.809
46004.000			-19.042			-3.808
46105.000			-19.041			-3.808
46203.000			-19.040			-3.808
46304.000			-19.038			-3.808
46405.000			-19.037			-3.807
46504.000			-19.036			-3.807
46604.000			-19.035			-3.807
46705.000			-19.035			-3.807
46804.000			-19.034			-3.807
46903.000			-19.032			-3.806
47005.000			-19.029			-3.806
47104.000			-19.028			-3.806
47204.000			-19.026			-3.805
47305.000			-19.026			-3.805
47404.000			-19.026			-3.805
47504.000			-19.025			-3.805
47604.000			-19.023			-3.805
47704.000			-19.021			-3.804
47804.000			-19.021			-3.804
47905.000			-19.019			-3.804
48004.000			-19.017			-3.803
48104.000			-19.017			-3.803
48205.000			-19.017			-3.803
48303.000			-19.016			-3.803
48404.000			-19.014			-3.803
48505.000			-19.012			-3.802
48604.000			-19.011			-3.802
48704.000			-19.010			-3.802
48804.000			-19.009			-3.802
48904.000			-19.008			-3.802
49003.000			-19.007			-3.801
49104.000			-19.006			-3.801
49204.000			-19.004			-3.801
49305.000			-19.003			-3.801
49404.000			-19.003			-3.801
49504.000			-19.002			-3.800
49605.000			-19.001			-3.800
49704.000			-19.000			-3.800
49804.000			-18.998			-3.800
49905.000			-18.997			-3.799
50004.000			-18.996			-3.799
50104.000			-18.995			-3.799
50205.000			-18.993			-3.799
50304.000			-18.991			-3.798
50403.000			-18.990			-3.798
50505.000			-18.990			-3.798
50604.000			-18.988			-3.798
50704.000			-18.987			-3.797
50805.000			-18.986			-3.797
50904.000			-18.985			-3.797
51004.000			-18.984			-3.797
51104.000			-18.983			-3.797
51204.000			-18.982			-3.796
51304.000			-18.980			-3.796
51405.000			-18.978			-3.796
51504.000			-18.978			-3.796
51604.000			-18.977			-3.795
51705.000			-18.976			-3.795
51803.000			-18.975			-3.795
51904.000			-18.974			-3.795
52005.000			-18.973			-3.795
52104.000			-18.973			-3.795
52205.000			-18.971			-3.794
52304.000			-18.970			-3.794
52404.000			-18.969			-3.794
52504.000			-18.968			-3.794
52604.000			-18.967			-3.793
52704.000			-18.966			-3.793
52805.000			-18.965			-3.793
52904.000			-18.964			-3.793
53004.000			-18.962			-3.792
53105.000			-18.960			-3.792
53203.000			-18.960			-3.792
53304.000			-18.959			-3.792
53405.000			-18.959			-3.792
53504.000			-18.956			-3.791
53604.000			-18.956			-3.791
53705.000			-18.955			-3.791
53804.000			-18.955			-3.791
53903.000			-18.954			-3.791
54005.000			-18.952			-3.790
54104.000			-18.952			-3.790
54204.000			-18.949			-3.790
54305.000			-18.948			-3.790
54404.000			-18.948			-3.790
54504.000			-18.947			-3.789
54604.000			-18.946			-3.789
54704.000			-18.945			-3.789
54804.000			-18.944			-3.789
54905.000			-18.944			-3.789
55004.000			-18.941			-3.788
55104.000			-18.941			-3.788
55205.000			-18.940			-3.788
55303.000			-18.939			-3.788
55405.000			-18.937			-3.787
55504.000			-18.937			-3.787
55604.000			-18.935			-3.787
55705.000			-18.933			-3.787
55804.000			-18.933			-3.787
55904.000			-18.933			-3.787
56004.000			-18.933			-3.787
56104.000			-18.931			-3.786
56204.000			-18.931			-3.786
56305.000			-18.929			-3.786
56404.000			-18.927			-3.785
56504.000			-18.926			-3.785
56605.000			-18.926			-3.785
56703.000			-18.925			-3.785
56804.000			-18.923			-3.785
56905.000			-18.923			-3.785
57004.000			-18.921			-3.784
57104.000			-18.920			-3.784
57205.000			-18.919			-3.784
57304.000			-18.919			-3.784
57403.000			-18.919			-3.784
57505.000			-18.917			-3.783
57604.000			-18.916			-3.783
57704.000			-18.915			-3.783
57805.000			-18.915			-3.783
57904.000			-18.913			-3.783
58004.000			-18.911			-3.782
58104.000			-18.910			-3.782
58204.000			-18.909			-3.782
58304.000			-18.908			-3.782
58404.000			-18.909			-3.782
58504.000			-18.908			-3.782
58605.000			-18.905			-3.781
58704.000			-18.905			-3.781
58803.000			-18.904			-3.781
58905.000			-18.904			-3.781
59004.000			-18.902			-3.780
59104.000			-18.901			-3.780
59205.000			-18.900			-3.780
59304.000			-18.899			-3.780
59404.000			-18.898			-3.780
59504.000			-18.897			-3.779
59604.000			-18.897			-3.779
59704.000			-18.896			-3.779
59805.000			-18.895			-3.779
59904.000			-18.894			-3.779
60004.000			-18.892			-3.778
60105.000			-18.891			-3.778
60203.000			-18.891			-3.778
60304.000			-18.890			-3.778
60405.000			-18.889			-3.778
60504.000			-18.889			-3.778
60604.000			-18.887			-3.777
60705.000			-18.887			-3.777
60804.000			-18.885			-3.777
60903.000			-18.884			-3.777
61005.000			-18.884			-3.777
61104.000			-18.883			-3.777
61204.000			-18.883			-3.777
61305.000			-18.882			-3.776
61404.000			-18.881			-3.776
61504.000			-18.879			-3.776
61603.000			-18.879			-3.776
61704.000			-18.877			-3.775
61805.000			-18.876			-3.775
61904.000			-18.875			-3.775
62004.000			-18.874			-3.775
62105.000			-18.874			-3.775
62204.000			-18.873			-3.775
62303.000			-18.872			-3.774
62405.000			-18.871			-3.774
62504.000			-18.870			-3.774
62604.000			-18.869			-3.774
62705.000			-18.870			-3.774
62804.000			-18.868			-3.774
62904.000			-18.867			-3.773
63004.000			-18.865			-3.773
63104.000			-18.864			-3.773
63204.000			-18.864			-3.773
63305.000			-18.863			-3.773
63404.000			-18.862			-3.772
63504.000			-18.862			-3.772
63605.000			-18.861			-3.772
63703.000			-18.859			-3.772
63804.000			-18.858			-3.772
63905.000			-18.857			-3.771
64004.000			-18.857			-3.771
64104.000			-18.857			-3.771
64205.000			-18.856			-3.771
64304.000			-18.856			-3.771
64403.000			-18.853			-3.771
64505.000			-18.853			-3.771
64604.000			-18.853			-3.771
64704.000			-18.851			-3.770
64805.000			-18.851			-3.770
64904.000			-18.850			-3.770
65005.000			-18.849			-3.770
65103.000			-18.847			-3.769
65204.000			-18.846			-3.769
65305.000			-18.845			-3.769
65404.000			-18.845			-3.769
65504.000			-18.844			-3.769
65605.000			-18.843			-3.769
65704.000			-18.842			-3.768
65803.000			-18.841			-3.768
65905.000			-18.840			-3.768
66004.000			-18.840			-3.768
66104.000			-18.839			-3.768
66205.000			-18.838			-3.768
66304.000			-18.838			-3.768
66404.000			-18.836			-3.767
66504.000			-18.836			-3.767
66604.000			-18.836			-3.767
66704.000			-18.834			-3.767
66805.000			-18.832			-3.766
66904.000			-18.831			-3.766
67004.000			-18.831			-3.766
67105.000			-18.830			-3.766
67203.000			-18.830			-3.766
67304.000			-18.829			-3.766
67405.000			-18.828			-3.766
67504.000			-18.827			-3.765
67604.000			-18.827			-3.765
67705.000			-18.827			-3.765
67804.000			-18.825			-3.765
67903.000			-18.825			-3.765
68005.000			-18.823			-3.765
68104.000			-18.822			-3.764
68205.000			-18.821			-3.764
68304.000			-18.822			-3.764
68404.000			-18.821			-3.764
68505.000			-18.821			-3.764
68604.000			-18.819			-3.764
68704.000			-18.818			-3.764
68804.000			-18.817			-3.763
68904.000			-18.816			-3.763
69004.000			-18.814			-3.763
69105.000			-18.814			-3.763
69204.000			-18.814			-3.763
69304.000			-18.813			-3.763
69405.000			-18.812			-3.762
69503.000			-18.811			-3.762
69604.000			-18.810			-3.762
69705.000			-18.810			-3.762
69804.000			-18.809			-3.762
69904.000			-18.808			-3.762
70005.000			-18.807			-3.761
70104.000			-18.806			-3.761
70203.000			-18.805			-3.761
70305.000			-18.805			-3.761
70404.000			-18.805			-3.761
70504.000			-18.803			-3.761
70605.000			-18.801			-3.760
70704.000			-18.801			-3.760
70804.000			-18.801			-3.760
70904.000			-18.800			-3.760
71004.000			-18.798			-3.760
71104.000			-18.798			-3.760
71204.000			-18.798			-3.760
71304.000			-18.797			-3.759
71405.000			-18.796			-3.759
71504.000			-18.795			-3.759
71603.000			-18.795			-3.759
71705.000			-18.795			-3.759
71804.000			-18.794			-3.759
71904.000			-18.792			-3.758
72005.000			-18.791			-3.758
72104.000			-18.790			-3.758
72204.000			-18.790			-3.758
72304.000			-18.789			-3.758
72404.000			-18.788			-3.758
72504.000			-18.787			-3.757
72605.000			-18.787			-3.757
72704.000			-18.786			-3.757
72804.000			-18.785			-3.757
72905.000			-18.784			-3.757
73003.000			-18.784			-3.757
73104.000			-18.783			-3.757
73205.000			-18.782			-3.756
73304.000			-18.781			-3.756
73404.000			-18.781			-3.756
73505.000			-18.781			-3.756
73604.000			-18.780			-3.756
73703.000			-18.779			-3.756
73805.000			-18.778			-3.756
73903.000			-18.777			-3.755
74004.000			-18.775			-3.755
74105.000			-18.774			-3.755
74204.000			-18.773			-3.755
74304.000			-18.773			-3.755
74404.000			-18.773			-3.755
74504.000			-18.772			-3.754
74603.000			-18.771			-3.754
74704.000			-18.771			-3.754
74804.000			-18.769			-3.754
74905.000			-18.768			-3.754
75004.000			-18.767			-3.753
75104.000			-18.766			-3.753
75205.000			-18.767			-3.753
75303.000			-18.765			-3.753
75404.000			-18.765			-3.753
75505.000			-18.764			-3.753
75604.000			-18.763			-3.753
75704.000			-18.763			-3.753
75805.000			-18.763			-3.753
75904.000			-18.762			-3.752
76003.000			-18.762			-3.752
76105.000			-18.761			-3.752
76204.000			-18.760			-3.752
76304.000			-18.759			-3.752
76405.000			-18.759			-3.752
76504.000			-18.759			-3.752
76604.000			-18.759			-3.752
76704.000			-18.758			-3.752
76804.000			-18.757			-3.751
76904.000			-18.755			-3.751
77005.000			-18.754			-3.751
77104.000			-18.754			-3.751
77204.000			-18.753			-3.751
77305.000			-18.752			-3.750
77403.000			-18.752			-3.750
77504.000			-18.751			-3.750
77605.000			-18.750			-3.750
77704.000			-18.749			-3.750
77805.000			-18.748			-3.750
77904.000			-18.747			-3.749
78004.000			-18.747			-3.749
78105.000			-18.747			-3.749
78204.000			-18.745			-3.749
78303.000			-18.745			-3.749
78405.000			-18.744			-3.749
78504.000			-18.743			-3.749
78604.000			-18.743			-3.749
78705.000			-18.743			-3.749
78804.000			-18.742			-3.748
78904.000			-18.742			-3.748
79004.000			-18.740			-3.748
79104.000			-18.739			-3.748
79204.000			-18.738			-3.748
79305.000			-18.738			-3.748
79404.000			-18.737			-3.747
79504.000			-18.737			-3.747
79605.000			-18.736			-3.747
79703.000			-18.735			-3.747
79804.000			-18.735			-3.747
79905.000			-18.733			-3.747
80004.000			-18.732			-3.746
80104.000			-18.732			-3.746
80205.000			-18.733			-3.747
80304.000			-18.732			-3.746
80403.000			-18.730			-3.746
80505.000			-18.729			-3.746
80604.000			-18.728			-3.746
80704.000			-18.728			-3.746
80805.000			-18.728			-3.746
80904.000			-18.728			-3.746
81005.000			-18.727			-3.745
81104.000			-18.725			-3.745
81204.000			-18.724			-3.745
81304.000			-18.725			-3.745
81404.000			-18.724			-3.745
81504.000			-18.723			-3.745
81605.000			-18.722			-3.744
81704.000			-18.722			-3.744
81803.000			-18.722			-3.744
81905.000			-18.720			-3.744
82004.000			-18.720			-3.744
82104.000			-18.719			-3.744
82205.000			-18.719			-3.744
82304.000			-18.718			-3.744
82404.000			-18.718			-3.744
82504.000			-18.716			-3.743
82604.000			-18.716			-3.743
82703.000			-18.716			-3.743
82805.000			-18.714			-3.743
82904.000			-18.714			-3.743
83004.000			-18.713			-3.743
83105.000			-18.712			-3.742
83204.000			-18.711			-3.742
83304.000			-18.710			-3.742
83404.000			-18.710			-3.742
83504.000			-18.709			-3.742
83604.000			-18.709			-3.742
83705.000			-18.708			-3.742
83804.000			-18.708			-3.742
83904.000			-18.708			-3.742
84005.000			-18.707			-3.741
84103.000			-18.705			-3.741
84205.000			-18.705			-3.741
84304.000			-18.704			-3.741
84404.000			-18.704			-3.741
84505.000			-18.704			-3.741
84604.000			-18.703			-3.741
84704.000			-18.700			-3.740
84804.000			-18.700			-3.740
84904.000			-18.701			-3.740
85004.000			-18.700			-3.740
85105.000			-18.700			-3.740
85204.000			-18.699			-3.740
85304.000			-18.697			-3.739
85405.000			-18.697			-3.739
85503.000			-18.696			-3.739
85604.000			-18.695			-3.739
85705.000			-18.695			-3.739
85804.000			-18.695			-3.739
85904.000			-18.694			-3.739
86005.000			-18.694			-3.739
86104.000			-18.693			-3.739
86203.000			-18.691			-3.738
86305.000			-18.691			-3.738
86404.000			-18.690			-3.738
86504.000			-18.690			-3.738
86605.000			-18.690			-3.738
86704.000			-18.689			-3.738
86804.000			-18.689			-3.738
86904.000			-18.688			-3.738
87004.000			-18.687			-3.737
87103.000			-18.686			-3.737
87205.000			-18.686			-3.737
87304.000			-18.685			-3.737
87405.000			-18.684			-3.737
87504.000			-18.683			-3.737
87604.000			-18.682			-3.736
87705.000			-18.683			-3.737
87803.000			-18.681			-3.736
87904.000			-18.680			-3.736
88005.000			-18.680			-3.736
88104.000			-18.680			-3.736
88204.000			-18.680			-3.736
88305.000			-18.679			-3.736
88404.000			-18.678			-3.736
88503.000			-18.678			-3.736
88605.000			-18.677			-3.735
88704.000			-18.676			-3.735
88804.000			-18.674			-3.735
88905.000			-18.674			-3.735
89004.000			-18.675			-3.735
89104.000			-18.672			-3.734
89204.000			-18.672			-3.734
89304.000			-18.673			-3.735
89404.000			-18.672			-3.734
89505.000			-18.671			-3.734
89604.000			-18.670			-3.734
89704.000			-18.670			-3.734
89805.000			-18.669			-3.734
89904.000			-18.668			-3.734
90004.000			-18.667			-3.733
90104.000			-18.666			-3.733
90204.000			-18.666			-3.733
90304.000			-18.667			-3.733
90404.000			-18.666			-3.733
90504.000			-18.665			-3.733
90605.000			-18.664			-3.733
90704.000			-18.664			-3.733
90803.000			-18.663			-3.733
90905.000			-18.663			-3.733
91004.000			-18.661			-3.732
91104.000			-18.661			-3.732
91205.000			-18.660			-3.732
91304.000			-18.660			-3.732
91404.000			-18.659			-3.732
91504.000			-18.658			-3.732
91604.000			-18.658			-3.732
91704.000			-18.658			-3.732
91805.000			-18.657			-3.731
91904.000			-18.656			-3.731
92004.000			-18.656			-3.731
92105.000			-18.655			-3.731
92203.000			-18.655			-3.731
92304.000			-18.654			-3.731
92405.000			-18.653			-3.731
92504.000			-18.652			-3.730
92604.000			-18.653			-3.731
92705.000			-18.652			-3.730
92804.000			-18.651			-3.730
92903.000			-18.651			-3.730
93005.000			-18.651			-3.730
93104.000			-18.650			-3.730
93204.000			-18.649			-3.730
93305.000			-18.648			-3.730
93404.000			-18.647			-3.729
93504.000			-18.645			-3.729
93603.000			-18.645			-3.729
93704.000			-18.645			-3.729
93805.000			-18.645			-3.729
93904.000			-18.645			-3.729
94004.000			-18.644			-3.729
94105.000			-18.644			-3.729
94204.000			-18.643			-3.729
94303.000			-18.642			-3.728
94405.000			-18.641			-3.728
94504.000			-18.640			-3.728
94604.000			-18.639			-3.728
94705.000			-18.639			-3.728
94804.000			-18.639			-3.728
94904.000			-18.639			-3.728
95004.000			-18.638			-3.728
95104.000			-18.637			-3.727
95204.000			-18.636			-3.727
95305.000			-18.636			-3.727
95404.000			-18.636			-3.727
95504.000			-18.635			-3.727
95605.000			-18.635			-3.727
95703.000			-18.634			-3.727
95804.000			-18.634			-3.727
95905.000			-18.633			-3.727
96004.000			-18.631			-3.726
96104.000			-18.631			-3.726
96205.000			-18.631			-3.726
96304.000			-18.631			-3.726
96403.000			-18.629			-3.726
96505.000			-18.628			-3.726
96604.000			-18.629			-3.726
96704.000			-18.627			-3.725
96805.000			-18.627			-3.725
96904.000			-18.627			-3.725
97005.000			-18.626			-3.725
97104.000			-18.625			-3.725
97204.000			-18.625			-3.725
97304.000			-18.624			-3.725
97404.000			-18.623			-3.725
97504.000			-18.623			-3.725
97605.000			-18.624			-3.725
97704.000			-18.623			-3.725
97804.000			-18.621			-3.724
97905.000			-18.620			-3.724
98003.000			-18.621			-3.724
98104.000			-18.621			-3.724
98205.000			-18.619			-3.724
98304.000			-18.618			-3.724
98404.000			-18.618			-3.724
98505.000			-18.617			-3.723
98604.000			-18.617			-3.723
98703.000			-18.616			-3.723
98805.000			-18.616			-3.723
98904.000			-18.615			-3.723
99004.000			-18.615			-3.723
99105.000			-18.614			-3.723
99204.000			-18.613			-3.723
99304.000			-18.613			-3.723
99404.000			-18.612			-3.722
99504.000			-18.611			-3.722
99604.000			-18.611			-3.722
99705.000			-18.610			-3.722
99804.000			-18.609			-3.722
99904.000			-18.610			-3.722
100005.000			-18.610			-3.722
100103.000			-18.609			-3.722
100205.000			-18.608			-3.722
100304.000			-18.607			-3.721
100404.000			-18.607			-3.721
100505.000			-18.607			-3.721
100604.000			-18.607			-3.721
100704.000			-18.605			-3.721
100804.000			-18.603			-3.721
100904.000			-18.603			-3.721
101004.000			-18.603			-3.721
101105.000			-18.602			-3.720
101204.000			-18.602			-3.720
101304.000			-18.602			-3.720
101405.000			-18.601			-3.720
101503.000			-18.601			-3.720
101604.000			-18.600			-3.720
101705.000			-18.600			-3.720
101804.000			-18.600			-3.720
101904.000			-18.599			-3.720
102005.000			-18.598			-3.720
102104.000			-18.597			-3.719
102204.000			-18.597			-3.719
102305.000			-18.597			-3.719
102403.000			-18.597			-3.719
102504.000			-18.597			-3.719
102605.000			-18.596			-3.719
102704.000			-18.594			-3.719
102804.000			-18.594			-3.719
102905.000			-18.593			-3.719
103004.000			-18.592			-3.718
103103.000			-18.591			-3.718
103205.000			-18.591			-3.718
103304.000			-18.590			-3.718
103405.000			-18.590			-3.718
103504.000			-18.590			-3.718
103604.000			-18.589			-3.718
103705.000			-18.589			-3.718
103803.000			-18.588			-3.718
103904.000			-18.588			-3.718
104005.000			-18.587			-3.717
104104.000			-18.588			-3.718
104204.000			-18.586			-3.717
104305.000			-18.586			-3.717
104404.000			-18.586			-3.717
104503.000			-18.585			-3.717
104605.000			-18.584			-3.717
104703.000			-18.584			-3.717
104804.000			-18.582			-3.716
104905.000			-18.581			-3.716
105004.000			-18.581			-3.716
105104.000			-18.582			-3.716
105205.000			-18.581			-3.716
105304.000			-18.581			-3.716
105403.000			-18.581			-3.716
105505.000			-18.580			-3.716
105604.000			-18.579			-3.716
105704.000			-18.579			-3.716
105805.000			-18.577			-3.715
105904.000			-18.577			-3.715
106004.000			-18.577			-3.715
106104.000			-18.577			-3.715
106204.000			-18.577			-3.715
106303.000			-18.575			-3.715
106405.000			-18.575			-3.715
106504.000			-18.575			-3.715
106605.000			-18.573			-3.715
106704.000			-18.573			-3.715
106804.000			-18.574			-3.715
106905.000			-18.573			-3.715
107003.000			-18.572			-3.714
107104.000			-18.572			-3.714
107205.000			-18.572			-3.714
107304.000			-18.570			-3.714
107404.000			-18.570			-3.714
107505.000			-18.570			-3.714
107604.000			-18.569			-3.714
107703.000			-18.568			-3.714
107805.000			-18.568			-3.714
107904.000			-18.568			-3.714
108004.000			-18.566			-3.713
108105.000			-18.566			-3.713
108204.000			-18.566			-3.713
108304.000			-18.566			-3.713
108404.000			-18.564			-3.713
108504.000			-18.563			-3.713
108603.000			-18.563			-3.713
108705.000			-18.563			-3.713
108804.000			-18.563			-3.713
108904.000			-18.562			-3.712
109005.000			-18.562			-3.712
109104.000			-18.562			-3.712
109204.000			-18.561			-3.712
109304.000			-18.560			-3.712
109404.000			-18.560			-3.712
109504.000			-18.558			-3.712
109604.000			-18.559			-3.712
109704.000			-18.558			-3.712
109805.000			-18.558			-3.712
109904.000			-18.557			-3.711
110003.000			-18.556			-3.711
110105.000			-18.556			-3.711
110204.000			-18.556			-3.711
110304.000			-18.555			-3.711
110405.000			-18.555			-3.711
110504.000			-18.554			-3.711
110604.000			-18.554			-3.711
110704.000			-18.554			-3.711
110804.000			-18.553			-3.711
110904.000			-18.552			-3.710
111005.000			-18.551			-3.710
111104.000			-18.551			-3.710
111204.000			-18.550			-3.710
111305.000			-18.550			-3.710
111403.000			-18.550			-3.710
111504.000			-18.549			-3.710
111605.000			-18.548			-3.710
111704.000			-18.548			-3.710
111804.000			-18.547			-3.709
111905.000			-18.546			-3.709
112004.000			-18.546			-3.709
112104.000			-18.545			-3.709
112205.000			-18.544			-3.709
112303.000			-18.544			-3.709
112404.000			-18.544			-3.709
112505.000			-18.543			-3.709
112604.000			-18.543			-3.709
112704.000			-18.543			-3.709
112804.000			-18.542			-3.708
112904.000			-18.542			-3.708
113003.000			-18.541			-3.708
113104.000			-18.540			-3.708
113204.000			-18.540			-3.708
113305.000			-18.540			-3.708
113404.000			-18.540			-3.708
113504.000			-18.540			-3.708
113605.000			-18.539			-3.708
113703.000			-18.538			-3.708
113804.000			-18.536			-3.707
113905.000			-18.538			-3.708
114004.000			-18.536			-3.707
114104.000			-18.535			-3.707
114205.000			-18.536			-3.707
114304.000			-18.536			-3.707
114403.000			-18.534			-3.707
114505.000			-18.534			-3.707
114604.000			-18.533			-3.707
114704.000			-18.533			-3.707
114805.000			-18.534			-3.707
114904.000			-18.532			-3.706
115004.000			-18.531			-3.706
115104.000			-18.531			-3.706
115204.000			-18.531			-3.706
115304.000			-18.530			-3.706
115405.000			-18.529			-3.706
115504.000			-18.530			-3.706
115604.000			-18.529			-3.706
115705.000			-18.529			-3.706
115803.000			-18.528			-3.706
115904.000			-18.527			-3.705
116005.000			-18.526			-3.705
116104.000			-18.526			-3.705
116205.000			-18.526			-3.705
116304.000			-18.525			-3.705
116404.000			-18.525			-3.705
116505.000			-18.525			-3.705
116604.000			-18.524			-3.705
116703.000			-18.524			-3.705
116805.000			-18.524			-3.705
116904.000			-18.523			-3.705
117004.000			-18.521			-3.704
117105.000			-18.521			-3.704
117204.000			-18.522			-3.704
117304.000			-18.521			-3.704
117404.000			-18.520			-3.704
117504.000			-18.520			-3.704
117604.000			-18.519			-3.704
117705.000			-18.518			-3.704
117804.000			-18.519			-3.704
117904.000			-18.518			-3.704
118005.000			-18.517			-3.703
118103.000			-18.516			-3.703
118204.000			-18.515			-3.703
118305.000			-18.516			-3.703
118404.000			-18.515			-3.703
118504.000			-18.515			-3.703
118605.000			-18.514			-3.703
118704.000			-18.513			-3.703
118804.000			-18.513			-3.703
118905.000			-18.512			-3.702
119003.000			-18.511			-3.702
119104.000			-18.511			-3.702
119205.000			-18.512			-3.702
119304.000			-18.512			-3.702
119405.000			-18.511			-3.702
119504.000			-18.511			-3.702
119604.000			-18.510			-3.702
119704.000			-18.509			-3.702
119804.000			-18.508			-3.702
119904.000			-18.507			-3.701
120005.000			-18.508			-3.702
120104.000			-18.507			-3.701
120204.000			-18.506			-3.701
120305.000			-18.505			-3.701
120403.000			-18.505			-3.701
120504.000			-18.505			-3.701
120605.000			-18.505			-3.701
120704.000			-18.503			-3.701
120804.000			-18.502			-3.700
120905.000			-18.502			-3.700
121004.000			-18.503			-3.701
121103.000			-18.502			-3.700
121205.000			-18.502			-3.700
121304.000			-18.500			-3.700
121404.000			-18.500			-3.700
121505.000			-18.499			-3.700
121604.000			-18.500			-3.700
121704.000			-18.499			-3.700
121804.000			-18.498			-3.700
121904.000			-18.497			-3.699
122003.000			-18.497			-3.699
122105.000			-18.496			-3.699
122204.000			-18.496			-3.699
122304.000			-18.495			-3.699
122405.000			-18.494			-3.699
122504.000			-18.494			-3.699
122605.000			-18.492			-3.698
122703.000			-18.493			-3.699
122804.000			-18.492			-3.698
122905.000			-18.492			-3.698
123004.000			-18.492			-3.698
123104.000			-18.492			-3.698
123205.000			-18.491			-3.698
123304.000			-18.491			-3.698
123403.000			-18.490			-3.698
123505.000			-18.489			-3.698
123604.000			-18.489			-3.698
123704.000			-18.489			-3.698
123805.000			-18.488			-3.698
123904.000			-18.488			-3.698
124004.000			-18.486			-3.697
124104.000			-18.486			-3.697
124204.000			-18.486			-3.697
124303.000			-18.486			-3.697
124405.000			-18.485			-3.697
124504.000			-18.484			-3.697
124604.000			-18.484			-3.697
124705.000			-18.484			-3.697
124804.000			-18.484			-3.697
124904.000			-18.484			-3.697
125004.000			-18.483			-3.697
125104.000			-18.482			-3.696
125204.000			-18.482			-3.696
125305.000			-18.482			-3.696
125404.000			-18.482			-3.696
125504.000			-18.482			-3.696
125605.000			-18.482			-3.696
125703.000			-18.481			-3.696
125805.000			-18.479			-3.696
125904.000			-18.480			-3.696
126004.000			-18.481			-3.696
126105.000			-18.480			-3.696
126204.000			-18.479			-3.696
126304.000			-18.478			-3.696
126404.000			-18.477			-3.695
126504.000			-18.478			-3.696
126603.000			-18.477			-3.695
126705.000			-18.477			-3.695
126804.000			-18.477			-3.695
126904.000			-18.476			-3.695
127005.000			-18.476			-3.695
127104.000			-18.474			-3.695
127204.000			-18.475			-3.695
127304.000			-18.475			-3.695
127404.000			-18.475			-3.695
127504.000			-18.476			-3.695
127605.000			-18.473			-3.695
127704.000			-18.473			-3.695
127804.000			-18.473			-3.695
127905.000			-18.472			-3.694
128004.000			-18.471			-3.694
128104.000			-18.472			-3.694
128204.000			-18.471			-3.694
128304.000			-18.469			-3.694
128404.000			-18.470			-3.694
128505.000			-18.469			-3.694
128604.000			-18.469			-3.694
128704.000			-18.470			-3.694
128805.000			-18.469			-3.694
128903.000			-18.468			-3.694
129005.000			-18.468			-3.694
129104.000			-18.467			-3.693
129204.000			-18.466			-3.693
129305.000			-18.465			-3.693
129404.000			-18.465			-3.693
129504.000			-18.465			-3.693
129604.000			-18.466			-3.693
129704.000			-18.466			-3.693
129803.000			-18.465			-3.693
129905.000			-18.465			-3.693
130004.000			-18.464			-3.693
130104.000			-18.464			-3.693
130205.000			-18.464			-3.693
130304.000			-18.463			-3.693
130404.000			-18.461			-3.692
130504.000			-18.461			-3.692
130604.000			-18.461			-3.692
130704.000			-18.460			-3.692
130805.000			-18.459			-3.692
130904.000			-18.459			-3.692
131004.000			-18.459			-3.692
131105.000			-18.459			-3.692
131203.000			-18.457			-3.691
131304.000			-18.458			-3.692
131405.000			-18.458			-3.692
131504.000			-18.457			-3.691
131604.000			-18.456			-3.691
131705.000			-18.457			-3.691
131804.000			-18.457			-3.691
131904.000			-18.455			-3.691
132005.000			-18.454			-3.691
132103.000			-18.454			-3.691
132205.000			-18.454			-3.691
132304.000			-18.453			-3.691
132404.000			-18.453			-3.691
132505.000			-18.453			-3.691
132604.000			-18.452			-3.690
132704.000			-18.452			-3.690
132805.000			-18.451			-3.690
132904.000			-18.451			-3.690
133003.000			-18.451			-3.690
133105.000			-18.450			-3.690
133204.000			-18.450			-3.690
133304.000			-18.450			-3.690
133405.000			-18.448			-3.690
133504.000			-18.448			-3.690
133604.000			-18.448			-3.690
133705.000			-18.448			-3.690
133804.000			-18.448			-3.690
133903.000			-18.448			-3.690
134005.000			-18.447			-3.689
134104.000			-18.447			-3.689
134204.000			-18.446			-3.689
134305.000			-18.446			-3.689
134404.000			-18.444			-3.689
134504.000			-18.444			-3.689
134604.000			-18.444			-3.689
134704.000			-18.444			-3.689
134803.000			-18.444			-3.689
134905.000			-18.443			-3.689
135004.000			-18.443			-3.689
135104.000			-18.441			-3.688
135205.000			-18.441			-3.688
135304.000			-18.442			-3.688
135405.000			-18.441			-3.688
135503.000			-18.441			-3.688
135604.000			-18.440			-3.688
135704.000			-18.440			-3.688
135804.000			-18.440			-3.688
135904.000			-18.440			-3.688
136005.000			-18.439			-3.688
136104.000			-18.439			-3.688
136204.000			-18.438			-3.688
136305.000			-18.437			-3.687
136403.000			-18.438			-3.688
136504.000			-18.437			-3.687
136604.000			-18.436			-3.687
136704.000			-18.436			-3.687
136804.000			-18.436			-3.687
136905.000			-18.435			-3.687
137004.000			-18.435			-3.687
137104.000			-18.434			-3.687
137205.000			-18.433			-3.687
137303.000			-18.433			-3.687
137404.000			-18.432			-3.686
137504.000			-18.433			-3.687
137604.000			-18.434			-3.687
137704.000			-18.433			-3.687
137805.000			-18.431			-3.686
137904.000			-18.431			-3.686
138004.000			-18.431			-3.686
138105.000			-18.431			-3.686
138203.000			-18.431			-3.686
138304.000			-18.430			-3.686
138405.000			-18.429			-3.686
138504.000			-18.430			-3.686
138605.000			-18.430			-3.686
138704.000			-18.429			-3.686
138804.000			-18.427			-3.685
138905.000			-18.427			-3.685
139004.000			-18.427			-3.685
139103.000			-18.427			-3.685
139205.000			-18.426			-3.685
139304.000			-18.425			-3.685
139404.000			-18.425			-3.685
139505.000			-18.424			-3.685
139604.000			-18.424			-3.685
139704.000			-18.424			-3.685
139805.000			-18.423			-3.685
139904.000			-18.424			-3.685
140003.000			-18.424			-3.685
140105.000			-18.423			-3.685
140204.000			-18.422			-3.684
140304.000			-18.421			-3.684
140405.000			-18.421			-3.684
140504.000			-18.421			-3.684
140604.000			-18.421			-3.684
140705.000			-18.420			-3.684
140804.000			-18.419			-3.684
140903.000			-18.419			-3.684
141005.000			-18.418			-3.684
141104.000			-18.419			-3.684
141204.000			-18.419			-3.684
141305.000			-18.418			-3.684
141404.000			-18.416			-3.683
141504.000			-18.417			-3.683
141604.000			-18.417			-3.683
141704.000			-18.416			-3.683
141803.000			-18.416			-3.683
141904.000			-18.416			-3.683
142004.000			-18.416			-3.683
142105.000			-18.415			-3.683
142204.000			-18.415			-3.683
142304.000			-18.414			-3.683
142405.000			-18.414			-3.683
142503.000			-18.413			-3.683
142604.000			-18.413			-3.683
142704.000			-18.412			-3.682
142804.000			-18.412			-3.682
142904.000			-18.411			-3.682
143005.000			-18.411			-3.682
143104.000			-18.412			-3.682
143204.000			-18.410			-3.682
143305.000			-18.409			-3.682
143403.000			-18.409			-3.682
143504.000			-18.408			-3.682
143605.000			-18.408			-3.682
143704.000			-18.408			-3.682
143804.000			-18.408			-3.682
143905.000			-18.407			-3.681
144004.000			-18.407			-3.681
144104.000			-18.407			-3.681
144205.000			-18.407			-3.681
144303.000			-18.407			-3.681
144404.000			-18.405			-3.681
144505.000			-18.405			-3.681
144604.000			-18.404			-3.681
144704.000			-18.405			-3.681
144804.000			-18.404			-3.681
144904.000			-18.404			-3.681
145005.000			-18.404			-3.681
145104.000			-18.402			-3.680
145203.000			-18.401			-3.680
145305.000			-18.403			-3.681
145404.000			-18.402			-3.680
145504.000			-18.401			-3.680
145605.000			-18.402			-3.680
145704.000			-18.401			-3.680
145804.000			-18.401			-3.680
145904.000			-18.400			-3.680
146004.000			-18.399			-3.680
146103.000			-18.397			-3.679
146205.000			-18.397			-3.679
146304.000			-18.398			-3.680
146404.000			-18.397			-3.679
146505.000			-18.398			-3.680
146604.000			-18.397			-3.679
146704.000			-18.397			-3.679
146804.000			-18.397			-3.679
146904.000			-18.396			-3.679
147003.000			-18.396			-3.679
147105.000			-18.396			-3.679
147204.000			-18.395			-3.679
147304.000			-18.394			-3.679
147405.000			-18.394			-3.679
147504.000			-18.394			-3.679
147604.000			-18.393			-3.679
147705.000			-18.393			-3.679
147804.000			-18.392			-3.678
147903.000			-18.393			-3.679
148005.000			-18.391			-3.678
148104.000			-18.391			-3.678
148205.000			-18.390			-3.678
148304.000			-18.390			-3.678
148404.000			-18.390			-3.678
148505.000			-18.390			-3.678
148604.000			-18.389			-3.678
148704.000			-18.389			-3.678
148804.000			-18.388			-3.678
148904.000			-18.388			-3.678
149003.000			-18.388			-3.678
149105.000			-18.388			-3.678
149204.000			-18.387			-3.677
149304.000			-18.387			-3.677
149405.000			-18.386			-3.677
149504.000			-18.385			-3.677
149604.000			-18.385			-3.677
149705.000			-18.385			-3.677
149804.000			-18.386			-3.677
149903.000			-18.385			-3.677
150005.000			-18.384			-3.677
150104.000			-18.383			-3.677
150204.000			-18.383			-3.677
150305.000			-18.383			-3.677
150404.000			-18.383			-3.677
150504.000			-18.383			-3.677
150605.000			-18.384			-3.677
150704.000			-18.382			-3.676
150803.000			-18.381			-3.676
150905.000			-18.381			-3.676
151004.000			-18.381			-3.676
151104.000			-18.380			-3.676
151205.000			-18.380			-3.676
151304.000			-18.380			-3.676
151405.000			-18.379			-3.676
151504.000			-18.379			-3.676
151604.000			-18.378			-3.676
151704.000			-18.378			-3.676
151804.000			-18.377			-3.675
151904.000			-18.377			-3.675
152005.000			-18.376			-3.675
152104.000			-18.377			-3.675
152204.000			-18.377			-3.675
152305.000			-18.376			-3.675
152404.000			-18.375			-3.675
152504.000			-18.374			-3.675
152604.000			-18.374			-3.675
152704.000			-18.374			-3.675
152804.000			-18.375			-3.675
152905.000			-18.375			-3.675
153004.000			-18.374			-3.675
153104.000			-18.375			-3.675
153205.000			-18.373			-3.675
153304.000			-18.373			-3.675
153404.000			-18.373			-3.675
153504.000			-18.373			-3.675
153604.000			-18.372			-3.674
153704.000			-18.371			-3.674
153805.000			-18.371			-3.674
153904.000			-18.372			-3.674
154004.000			-18.372			-3.674
154105.000			-18.370			-3.674
154204.000			-18.369			-3.674
154304.000			-18.369			-3.674
154403.000			-18.368			-3.674
154504.000			-18.369			-3.674
154603.000			-18.368			-3.674
154704.000			-18.367			-3.673
154804.000			-18.368			-3.674
154905.000			-18.367			-3.673
155004.000			-18.366			-3.673
155104.000			-18.367			-3.673
155205.000			-18.366			-3.673
155303.000			-18.365			-3.673
155404.000			-18.365			-3.673
155504.000			-18.364			-3.673
155604.000			-18.364			-3.673
155704.000			-18.364			-3.673
155805.000			-18.364			-3.673
155904.000			-18.363			-3.673
156004.000			-18.363			-3.673
156105.000			-18.363			-3.673
156203.000			-18.362			-3.672
156304.000			-18.362			-3.672
156404.000			-18.362			-3.672
156504.000			-18.362			-3.672
156604.000			-18.361			-3.672
156705.000			-18.360			-3.672
156804.000			-18.360			-3.672
156904.000			-18.360			-3.672
157005.000			-18.359			-3.672
157104.000			-18.359			-3.672
157204.000			-18.359			-3.672
157304.000			-18.359			-3.672
157404.000			-18.357			-3.671
157504.000			-18.358			-3.672
157604.000			-18.358			-3.672
157704.000			-18.357			-3.671
157805.000			-18.357			-3.671
157904.000			-18.357			-3.671
158004.000			-18.356			-3.671
158105.000			-18.356			-3.671
158203.000			-18.355			-3.671
158304.000			-18.354			-3.671
158405.000			-18.354			-3.671
158504.000			-18.354			-3.671
158604.000			-18.355			-3.671
158705.000			-18.353			-3.671
158804.000			-18.353			-3.671
158904.000			-18.353			-3.671
159005.000			-18.353			-3.671
159103.000			-18.352			-3.670
159204.000			-18.351			-3.670
159305.000			-18.351			-3.670
159404.000			-18.351			-3.670
159504.000			-18.350			-3.670
159605.000			-18.351			-3.670
159704.000			-18.350			-3.670
159804.000			-18.349			-3.670
159905.000			-18.348			-3.670
160003.000			-18.349			-3.670
160104.000			-18.348			-3.670
160205.000			-18.348			-3.670
160304.000			-18.347			-3.669
160404.000			-18.347			-3.669
160505.000			-18.347			-3.669
160604.000			-18.347			-3.669
160704.000			-18.346			-3.669
160805.000			-18.344			-3.669
160903.000			-18.344			-3.669
161005.000			-18.346			-3.669
161104.000			-18.346			-3.669
161204.000			-18.345			-3.669
161305.000			-18.345			-3.669
161404.000			-18.344			-3.669
161504.000			-18.344			-3.669
161605.000			-18.343			-3.669
161704.000			-18.342			-3.668
161803.000			-18.342			-3.668
161905.000			-18.343			-3.669
162004.000			-18.343			-3.669
162104.000			-18.341			-3.668
162205.000			-18.340			-3.668
162304.000			-18.341			-3.668
162404.000			-18.340			-3.668
162504.000			-18.341			-3.668
162604.000			-18.341			-3.668
162703.000			-18.340			-3.668
162805.000			-18.339			-3.668
162904.000			-18.339			-3.668
163004.000			-18.339			-3.668
163105.000			-18.339			-3.668
163204.000			-18.337			-3.667
163304.000			-18.336			-3.667
163404.000			-18.338			-3.668
163504.000			-18.337			-3.667
163603.000			-18.337			-3.667
163705.000			-18.336			-3.667
163804.000			-18.336			-3.667
163904.000			-18.336			-3.667
164005.000			-18.335			-3.667
164104.000			-18.336			-3.667
164205.000			-18.336			-3.667
164303.000			-18.335			-3.667
164404.000			-18.334			-3.667
164504.000			-18.333			-3.667
164604.000			-18.333			-3.667
164704.000			-18.333			-3.667
164805.000			-18.332			-3.666
164904.000			-18.332			-3.666
165004.000			-18.333			-3.667
165105.000			-18.333			-3.667
165203.000			-18.332			-3.666
165304.000			-18.332			-3.666
165405.000			-18.330			-3.666
165504.000			-18.330			-3.666
165604.000			-18.330			-3.666
165705.000			-18.330			-3.666
165804.000			-18.330			-3.666
165904.000			-18.329			-3.666
166005.000			-18.328			-3.666
166103.000			-18.328			-3.666
166204.000			-18.328			-3.666
166304.000			-18.328			-3.666
166404.000			-18.327			-3.665
166504.000			-18.327			-3.665
166605.000			-18.327			-3.665
166704.000			-18.327			-3.665
166804.000			-18.326			-3.665
166905.000			-18.326			-3.665
167003.000			-18.327			-3.665
167104.000			-18.325			-3.665
167203.000			-18.324			-3.665
167304.000			-18.324			-3.665
167405.000			-18.325			-3.665
167504.000			-18.324			-3.665
167604.000			-18.324			-3.665
167705.000			-18.322			-3.664
167804.000			-18.321			-3.664
167903.000			-18.321			-3.664
168005.000			-18.322			-3.664
168104.000			-18.321			-3.664
168204.000			-18.321			-3.664
168305.000			-18.321			-3.664
168404.000			-18.319			-3.664
168504.000			-18.319			-3.664
168605.000			-18.319			-3.664
168704.000			-18.320			-3.664
168803.000			-18.319			-3.664
168905.000			-18.319			-3.664
169003.000			-18.318			-3.664
169104.000			-18.318			-3.664
169205.000			-18.318			-3.664
169304.000			-18.318			-3.664
169404.000			-18.318			-3.664
169505.000			-18.318			-3.664
169604.000			-18.317			-3.663
169703.000			-18.317			-3.663
169805.000			-18.316			-3.663
169903.000			-18.315			-3.663
170004.000			-18.314			-3.663
170105.000			-18.315			-3.663
170204.000			-18.314			-3.663
170304.000			-18.314			-3.663
170404.000			-18.313			-3.663
170504.000			-18.314			-3.663
170603.000			-18.313			-3.663
170704.000			-18.313			-3.663
170803.000			-18.312			-3.662
170905.000			-18.311			-3.662
171004.000			-18.312			-3.662
171104.000			-18.312			-3.662
171205.000			-18.312			-3.662
171304.000			-18.311			-3.662
171404.000			-18.310			-3.662
171504.000			-18.311			-3.662
171604.000			-18.310			-3.662
171704.000			-18.309			-3.662
171805.000			-18.310			-3.662
171904.000			-18.310			-3.662
172004.000			-18.309			-3.662
172105.000			-18.309			-3.662
172204.000			-18.307			-3.661
172304.000			-18.306			-3.661
172404.000			-18.307			-3.661
172504.000			-18.308			-3.662
172604.000			-18.307			-3.661
172705.000			-18.307			-3.661
172804.000			-18.307			-3.661
172904.000			-18.306			-3.661
173005.000			-18.306			-3.661
173104.000			-18.305			-3.661
173204.000			-18.304			-3.661
173304.000			-18.304			-3.661
173404.000			-18.304			-3.661
173504.000			-18.304			-3.661
173604.000			-18.303			-3.661
173704.000			-18.303			-3.661
173805.000			-18.304			-3.661
173904.000			-18.303			-3.661
174004.000			-18.302			-3.660
174105.000			-18.301			-3.660
174203.000			-18.301			-3.660
174304.000			-18.301			-3.660
174405.000			-18.301			-3.660
174504.000			-18.301			-3.660
174604.000			-18.300			-3.660
174705.000			-18.300			-3.660
174804.000			-18.300			-3.660
174903.000			-18.300			-3.660
175005.000			-18.300			-3.660
175103.000			-18.300			-3.660
175204.000			-18.299			-3.660
175305.000			-18.298			-3.660
175404.000			-18.298			-3.660
175504.000			-18.297			-3.659
175605.000			-18.298			-3.660
175704.000			-18.298			-3.660
175804.000			-18.296			-3.659
175905.000			-18.297			-3.659
176003.000			-18.297			-3.659
176104.000			-18.296			-3.659
176205.000			-18.296			-3.659
176304.000			-18.296			-3.659
176404.000			-18.295			-3.659
176505.000			-18.294			-3.659
176604.000			-18.294			-3.659
176704.000			-18.294			-3.659
176805.000			-18.294			-3.659
176903.000			-18.294			-3.659
177005.000			-18.293			-3.659
177104.000			-18.293			-3.659
177204.000			-18.293			-3.659
177305.000			-18.292			-3.658
177404.000			-18.291			-3.658
177504.000			-18.291			-3.658
177605.000			-18.291			-3.658
177704.000			-18.291			-3.658
177803.000			-18.290			-3.658
177905.000			-18.290			-3.658
178003.000			-18.290			-3.658
178104.000			-18.290			-3.658
178205.000			-18.289			-3.658
178304.000			-18.289			-3.658
178404.000			-18.290			-3.658
178505.000			-18.288			-3.658
178604.000			-18.288			-3.658
178704.000			-18.288			-3.658
178805.000			-18.287			-3.657
178903.000			-18.286			-3.657
179004.000			-18.286			-3.657
179105.000			-18.287			-3.657
179204.000			-18.286			-3.657
179304.000			-18.287			-3.657
179405.000			-18.286			-3.657
179504.000			-18.285			-3.657
179604.000			-18.285			-3.657
179705.000			-18.285			-3.657
179803.000			-18.285			-3.657
179904.000			-18.285			-3.657
180003.000			-18.285			-3.657
180104.000			-18.284			-3.657
180205.000			-18.284			-3.657
180304.000			-18.283			-3.657
180404.000			-18.283			-3.657
180505.000			-18.282			-3.656
180604.000			-18.282			-3.656
180703.000			-18.282			-3.656
180805.000			-18.281			-3.656
180903.000			-18.281			-3.656
181004.000			-18.281			-3.656
181105.000			-18.281			-3.656
181204.000			-18.280			-3.656
181304.000			-18.279			-3.656
181405.000			-18.280			-3.656
181504.000			-18.279			-3.656
181603.000			-18.279			-3.656
181705.000			-18.279			-3.656
181803.000			-18.278			-3.656
181904.000			-18.278			-3.656
182005.000			-18.278			-3.656
182104.000			-18.278			-3.656
182204.000			-18.277			-3.655
182305.000			-18.276			-3.655
182404.000			-18.276			-3.655
182503.000			-18.276			-3.655
182605.000			-18.275			-3.655
182703.000			-18.274			-3.655
182804.000			-18.276			-3.655
182905.000			-18.275			-3.655
183004.000			-18.275			-3.655
183104.000			-18.275			-3.655
183204.000			-18.275			-3.655
183304.000			-18.275			-3.655
183403.000			-18.274			-3.655
183504.000			-18.274			-3.655
183603.000			-18.273			-3.655
183705.000			-18.273			-3.655
183804.000			-18.273			-3.655
183904.000			-18.271			-3.654
184005.000			-18.272			-3.654
184104.000			-18.272			-3.654
184204.000			-18.271			-3.654
184304.000			-18.271			-3.654
184404.000			-18.271			-3.654
184503.000			-18.271			-3.654
184605.000			-18.271			-3.654
184704.000			-18.270			-3.654
184804.000			-18.270			-3.654
184905.000			-18.269			-3.654
185004.000			-18.269			-3.654
185104.000			-18.268			-3.654
185204.000			-18.267			-3.653
185304.000			-18.267			-3.653
185403.000			-18.267			-3.653
185505.000			-18.268			-3.654
185604.000			-18.267			-3.653
185704.000			-18.266			-3.653
185805.000			-18.267			-3.653
185904.000			-18.266			-3.653
186004.000			-18.266			-3.653
186104.000			-18.266			-3.653
186204.000			-18.266			-3.653
186303.000			-18.266			-3.653
186405.000			-18.265			-3.653
186504.000			-18.263			-3.653
186605.000			-18.263			-3.653
186704.000			-18.264			-3.653
186804.000			-18.264			-3.653
186905.000			-18.264			-3.653
187004.000			-18.263			-3.653
187104.000			-18.263			-3.653
187204.000			-18.263			-3.653
187304.000			-18.261			-3.652
187404.000			-18.262			-3.652
187505.000			-18.261			-3.652
187604.000			-18.261			-3.652
187704.000			-18.261			-3.652
187805.000			-18.261			-3.652
187904.000			-18.261			-3.652
188004.000			-18.260			-3.652
188104.000			-18.260			-3.652
188204.000			-18.259			-3.652
188304.000			-18.258			-3.652
188405.000			-18.259			-3.652
188504.000			-18.259			-3.652
188604.000			-18.258			-3.652
188705.000			-18.257			-3.651
188804.000			-18.258			-3.652
188904.000			-18.257			-3.651
189004.000			-18.256			-3.651
189104.000			-18.257			-3.651
189203.000			-18.257			-3.651
189305.000			-18.256			-3.651
189404.000			-18.255			-3.651
189504.000			-18.255			-3.651
189605.000			-18.255			-3.651
189704.000			-18.254			-3.651
189805.000			-18.254			-3.651
189904.000			-18.255			-3.651
190004.000			-18.254			-3.651
190104.000			-18.254			-3.651
190204.000			-18.253			-3.651
190304.000			-18.252			-3.650
190405.000			-18.252			-3.650
190504.000			-18.252			-3.650
190604.000			-18.253			-3.651
190705.000			-18.253			-3.651
190803.000			-18.252			-3.650
190904.000			-18.252			-3.650
191005.000			-18.252			-3.650
191104.000			-18.252			-3.650
191204.000			-18.251			-3.650
191305.000			-18.251			-3.650
191404.000			-18.251			-3.650
191504.000			-18.250			-3.650
191605.000			-18.248			-3.650
191703.000			-18.249			-3.650
191804.000			-18.250			-3.650
191905.000			-18.248			-3.650
192004.000			-18.248			-3.650
192104.000			-18.248			-3.650
192205.000			-18.247			-3.649
192304.000			-18.247			-3.649
192404.000			-18.246			-3.649
192505.000			-18.246			-3.649
192603.000			-18.246			-3.649
192704.000			-18.247			-3.649
192805.000			-18.247			-3.649
192904.000			-18.247			-3.649
193005.000			-18.246			-3.649
193104.000			-18.244			-3.649
193204.000			-18.244			-3.649
193305.000			-18.243			-3.649
193404.000			-18.243			-3.649
193503.000			-18.244			-3.649
193605.000			-18.243			-3.649
193704.000			-18.241			-3.648
193804.000			-18.241			-3.648
193905.000			-18.241			-3.648
194004.000			-18.240			-3.648
194104.000			-18.239			-3.648
194205.000			-18.239			-3.648
194304.000			-18.239			-3.648
194403.000			-18.239			-3.648
194505.000			-18.239			-3.648
194604.000			-18.239			-3.648
194704.000			-18.239			-3.648
194805.000			-18.238			-3.648
194904.000			-18.238			-3.648
195004.000			-18.237			-3.647
195105.000			-18.238			-3.648
195204.000			-18.238			-3.648
195303.000			-18.237			-3.647
195405.000			-18.236			-3.647
195504.000			-18.236			-3.647
195604.000			-18.236			-3.647
195705.000			-18.236			-3.647
195804.000			-18.236			-3.647
195904.000			-18.236			-3.647
196004.000			-18.235			-3.647
196104.000			-18.234			-3.647
196203.000			-18.234			-3.647
196304.000			-18.235			-3.647
196403.000			-18.235			-3.647
196505.000			-18.234			-3.647
196604.000			-18.234			-3.647
196704.000			-18.233			-3.647
196805.000			-18.234			-3.647
196904.000			-18.234			-3.647
197004.000			-18.234			-3.647
197105.000			-18.233			-3.647
197204.000			-18.233			-3.647
197303.000			-18.233			-3.647
197405.000			-18.232			-3.646
197504.000			-18.232			-3.646
197604.000			-18.232			-3.646
197705.000			-18.232			-3.646
197804.000			-18.231			-3.646
197904.000			-18.231			-3.646
198005.000			-18.231			-3.646
198104.000			-18.231			-3.646
198203.000			-18.231			-3.646
198305.000			-18.231			-3.646
198404.000			-18.230			-3.646
198504.000			-18.230			-3.646
198605.000			-18.230			-3.646
198704.000			-18.229			-3.646
198804.000			-18.229			-3.646
198905.000			-18.229			-3.646
199004.000			-18.229			-3.646
199103.000			-18.229			-3.646
199205.000			-18.228			-3.646
199303.000			-18.227			-3.645
199405.000			-18.227			-3.645
199504.000			-18.227			-3.645
199604.000			-18.227			-3.645
199705.000			-18.226			-3.645
199804.000			-18.226			-3.645
199904.000			-18.225			-3.645
200005.000			-18.226			-3.645
200104.000			-18.225			-3.645
200203.000			-18.224			-3.645
200305.000			-18.225			-3.645
200404.000			-18.224			-3.645
200504.000			-18.224			-3.645
200605.000			-18.225			-3.645
200704.000			-18.225			-3.645
200804.000			-18.224			-3.645
200904.000			-18.224			-3.645
201004.000			-18.223			-3.645
201103.000			-18.223			-3.645
201205.000			-18.222			-3.644
201304.000			-18.222			-3.644
201404.000			-18.223			-3.645
201505.000			-18.223			-3.645
201604.000			-18.223			-3.645
201704.000			-18.223			-3.645
201804.000			-18.222			-3.644
201904.000			-18.220			-3.644
202004.000			-18.220			-3.644
202105.000			-18.220			-3.644
202204.000			-18.220			-3.644
202304.000			-18.220			-3.644
202405.000			-18.219			-3.644
202503.000			-18.220			-3.644
202605.000			-18.219			-3.644
202703.000			-18.219			-3.644
202804.000			-18.219			-3.644
202905.000			-18.219			-3.644
203004.000			-18.219			-3.644
203104.000			-18.218			-3.644
203205.000			-18.217			-3.643
203304.000			-18.217			-3.643
203403.000			-18.218			-3.644
203505.000			-18.217			-3.643
203604.000			-18.217			-3.643
203704.000			-18.216			-3.643
203805.000			-18.216			-3.643
203904.000			-18.216			-3.643
204004.000			-18.215			-3.643
204104.000			-18.215			-3.643
204204.000			-18.214			-3.643
204303.000			-18.214			-3.643
204405.000			-18.214			-3.643
204504.000			-18.214			-3.643
204604.000			-18.213			-3.643
204705.000			-18.214			-3.643
204804.000			-18.214			-3.643
204904.000			-18.214			-3.643
205004.000			-18.213			-3.643
205104.000			-18.212			-3.642
205204.000			-18.213			-3.643
205305.000			-18.213			-3.643
205404.000			-18.211			-3.642
205504.000			-18.211			-3.642
205605.000			-18.212			-3.642
205704.000			-18.211			-3.642
205805.000			-18.210			-3.642
205903.000			-18.210			-3.642
206004.000			-18.210			-3.642
206105.000			-18.210			-3.642
206204.000			-18.210			-3.642
206304.000			-18.210			-3.642
206405.000			-18.210			-3.642
206504.000			-18.209			-3.642
206603.000			-18.209			-3.642
206705.000			-18.209			-3.642
206804.000			-18.209			-3.642
206904.000			-18.208			-3.642
207005.000			-18.208			-3.642
207104.000			-18.207			-3.641
207204.000			-18.206			-3.641
207305.000			-18.207			-3.641
207404.000			-18.207			-3.641
207503.000			-18.207			-3.641
207605.000			-18.207			-3.641
207704.000			-18.206			-3.641
207804.000			-18.206			-3.641
207905.000			-18.205			-3.641
208004.000			-18.205			-3.641
208104.000			-18.204			-3.641
208205.000			-18.205			-3.641
208304.000			-18.203			-3.641
208403.000			-18.203			-3.641
208505.000			-18.203			-3.641
208604.000			-18.203			-3.641
208704.000			-18.203			-3.641
208805.000			-18.203			-3.641
208904.000			-18.203			-3.641
209005.000			-18.202			-3.640
209104.000			-18.202			-3.640
209204.000			-18.203			-3.641
209304.000			-18.202			-3.640
209404.000			-18.202			-3.640
209504.000			-18.202			-3.640
209605.000			-18.201			-3.640
209704.000			-18.201			-3.640
209804.000			-18.200			-3.640
209905.000			-18.200			-3.640
210003.000			-18.199			-3.640
210104.000			-18.199			-3.640
210204.000			-18.199			-3.640
210304.000			-18.199			-3.640
210404.000			-18.198			-3.640
210505.000			-18.198			-3.640
210604.000			-18.199			-3.640
210704.000			-18.199			-3.640
210805.000			-18.198			-3.640
210903.000			-18.198			-3.640
211004.000			-18.197			-3.639
211105.000			-18.197			-3.639
211204.000			-18.197			-3.639
211304.000			-18.197			-3.639
211405.000			-18.194			-3.639
211504.000			-18.195			-3.639
211604.000			-18.196			-3.639
211705.000			-18.196			-3.639
211803.000			-18.195			-3.639
211904.000			-18.194			-3.639
212005.000			-18.194			-3.639
212104.000			-18.195			-3.639
212205.000			-18.193			-3.639
212304.000			-18.193			-3.639
212404.000			-18.193			-3.639
212505.000			-18.193			-3.639
212604.000			-18.192			-3.638
212703.000			-18.192			-3.638
212805.000			-18.192			-3.638
212904.000			-18.192			-3.638
213004.000			-18.191			-3.638
213105.000			-18.191			-3.638
213204.000			-18.191			-3.638
213304.000			-18.190			-3.638
213404.000			-18.191			-3.638
213504.000			-18.191			-3.638
213603.000			-18.190			-3.638
213705.000			-18.190			-3.638
213804.000			-18.190			-3.638
213904.000			-18.189			-3.638
214005.000			-18.189			-3.638
214104.000			-18.189			-3.638
214204.000			-18.190			-3.638
214304.000			-18.188			-3.638
214404.000			-18.187			-3.637
214503.000			-18.187			-3.637
214605.000			-18.187			-3.637
214704.000			-18.187			-3.637
214804.000			-18.186			-3.637
214905.000			-18.185			-3.637
215004.000			-18.185			-3.637
215104.000			-18.185			-3.637
215204.000			-18.186			-3.637
215304.000			-18.186			-3.637
215403.000			-18.185			-3.637
215504.000			-18.183			-3.637
215604.000			-18.184			-3.637
215705.000			-18.183			-3.637
215804.000			-18.183			-3.637
215904.000			-18.184			-3.637
216005.000			-18.184			-3.637
216103.000			-18.183			-3.637
216204.000			-18.183			-3.637
216304.000			-18.182			-3.636
216404.000			-18.181			-3.636
216504.000			-18.181			-3.636
216605.000			-18.182			-3.636
216704.000			-18.182			-3.636
216804.000			-18.182			-3.636
216905.000			-18.182			-3.636
217003.000			-18.183			-3.637
217104.000			-18.181			-3.636
217205.000			-18.180			-3.636
217304.000			-18.180			-3.636
217404.000			-18.180			-3.636
217505.000			-18.180			-3.636
217604.000			-18.180			-3.636
217704.000			-18.180			-3.636
217805.000			-18.179			-3.636
217903.000			-18.179			-3.636
218004.000			-18.179			-3.636
218105.000			-18.180			-3.636
218204.000			-18.179			-3.636
218304.000			-18.178			-3.636
218404.000			-18.177			-3.635
218504.000			-18.177			-3.635
218605.000			-18.177			-3.635
218704.000			-18.177			-3.635
218803.000			-18.176			-3.635
218905.000			-18.176			-3.635
219004.000			-18.176			-3.635
219104.000			-18.175			-3.635
219205.000			-18.174			-3.635
219304.000			-18.174			-3.635
219404.000			-18.175			-3.635
219505.000			-18.174			-3.635
219604.000			-18.174			-3.635
219703.000			-18.174			-3.635
219805.000			-18.174			-3.635
219904.000			-18.172			-3.634
220004.000			-18.173			-3.635
220105.000			-18.174			-3.635
220204.000			-18.173			-3.635
220304.000			-18.173			-3.635
220405.000			-18.172			-3.634
220504.000			-18.172			-3.634
220603.000			-18.172			-3.634
220705.000			-18.173			-3.635
220804.000			-18.173			-3.635
220904.000			-18.172			-3.634
221005.000			-18.172			-3.634
221104.000			-18.171			-3.634
221204.000			-18.170			-3.634
221304.000			-18.171			-3.634
221404.000			-18.170			-3.634
221503.000			-18.170			-3.634
221605.000			-18.170			-3.634
221704.000			-18.169			-3.634
221805.000			-18.169			-3.634
221904.000			-18.170			-3.634
222004.000			-18.170			-3.634
222105.000			-18.169			-3.634
222203.000			-18.168			-3.634
222304.000			-18.168			-3.634
222404.000			-18.167			-3.633
222504.000			-18.168			-3.634
222604.000			-18.167			-3.633
222705.000			-18.167			-3.633
222804.000			-18.167			-3.633
222904.000			-18.168			-3.634
223005.000			-18.167			-3.633
223103.000			-18.166			-3.633
223204.000			-18.166			-3.633
223305.000			-18.166			-3.633
223404.000			-18.165			-3.633
223504.000			-18.166			-3.633
223605.000			-18.165			-3.633
223704.000			-18.163			-3.633
223804.000			-18.165			-3.633
223905.000			-18.166			-3.633
224003.000			-18.165			-3.633
224104.000			-18.165			-3.633
224205.000			-18.164			-3.633
224304.000			-18.164			-3.633
224404.000			-18.163			-3.633
224505.000			-18.164			-3.633
224604.000			-18.164			-3.633
224704.000			-18.164			-3.633
224805.000			-18.163			-3.633
224903.000			-18.162			-3.632
225005.000			-18.163			-3.633
225104.000			-18.163			-3.633
225204.000			-18.162			-3.632
225305.000			-18.161			-3.632
225404.000			-18.162			-3.632
225504.000			-18.161			-3.632
225605.000			-18.161			-3.632
225704.000			-18.160			-3.632
225803.000			-18.160			-3.632
225905.000			-18.161			-3.632
226004.000			-18.160			-3.632
226104.000			-18.160			-3.632
226205.000			-18.160			-3.632
226304.000			-18.159			-3.632
226404.000			-18.159			-3.632
226504.000			-18.158			-3.632
226604.000			-18.158			-3.632
226703.000			-18.158			-3.632
226805.000			-18.158			-3.632
226904.000			-18.157			-3.631
227004.000			-18.157			-3.631
227105.000			-18.155			-3.631
227204.000			-18.155			-3.631
227304.000			-18.156			-3.631
227404.000			-18.156			-3.631
227504.000			-18.156			-3.631
227603.000			-18.156			-3.631
227705.000			-18.156			-3.631
227804.000			-18.156			-3.631
227904.000			-18.155			-3.631
228005.000			-18.154			-3.631
228104.000			-18.154			-3.631
228205.000			-18.155			-3.631
228304.000			-18.153			-3.631
228404.000			-18.154			-3.631
228504.000			-18.154			-3.631
228604.000			-18.152			-3.630
228704.000			-18.152			-3.630
228805.000			-18.152			-3.630
228904.000			-18.152			-3.630
229004.000			-18.152			-3.630
229105.000			-18.152			-3.630
229203.000			-18.152			-3.630
229304.000			-18.152			-3.630
229404.000			-18.152			-3.630
229504.000			-18.151			-3.630
229604.000			-18.152			-3.630
229705.000			-18.151			-3.630
229804.000			-18.150			-3.630
229904.000			-18.150			-3.630
230005.000			-18.150			-3.630
230103.000			-18.149			-3.630
230204.000			-18.149			-3.630
230304.000			-18.149			-3.630
230404.000			-18.149			-3.630
230504.000			-18.149			-3.630
230605.000			-18.148			-3.630
230704.000			-18.148			-3.630
230804.000			-18.148			-3.630
230905.000			-18.148			-3.630
231003.000			-18.147			-3.629
231104.000			-18.148			-3.630
231205.000			-18.148			-3.630
231304.000			-18.147			-3.629
231405.000			-18.146			-3.629
231504.000			-18.147			-3.629
231604.000			-18.147			-3.629
231705.000			-18.145			-3.629
231804.000			-18.145			-3.629
231903.000			-18.146			-3.629
232005.000			-18.145			-3.629
232104.000			-18.146			-3.629
232204.000			-18.146			-3.629
232305.000			-18.145			-3.629
232404.000			-18.144			-3.629
232504.000			-18.144			-3.629
232605.000			-18.145			-3.629
232704.000			-18.144			-3.629
232803.000			-18.144			-3.629
232905.000			-18.144			-3.629
233004.000			-18.142			-3.628
233104.000			-18.143			-3.629
233205.000			-18.143			-3.629
233304.000			-18.143			-3.629
233404.000			-18.143			-3.629
233504.000			-18.143			-3.629
233604.000			-18.142			-3.628
233703.000			-18.141			-3.628
233805.000			-18.142			-3.628
233904.000			-18.141			-3.628
234004.000			-18.140			-3.628
234105.000			-18.140			-3.628
234204.000			-18.139			-3.628
234304.000			-18.139			-3.628
234403.000			-18.140			-3.628
234504.000			-18.140			-3.628
234603.000			-18.140			-3.628
234704.000			-18.140			-3.628
234804.000			-18.140			-3.628
234905.000			-18.139			-3.628
235004.000			-18.139			-3.628
235104.000			-18.139			-3.628
235205.000			-18.138			-3.628
235303.000			-18.138			-3.628
235404.000			-18.138			-3.628
235505.000			-18.137			-3.627
235604.000			-18.137			-3.627
235704.000			-18.137			-3.627
235805.000			-18.137			-3.627
235904.000			-18.136			-3.627
236004.000			-18.135			-3.627
236105.000			-18.136			-3.627
236203.000			-18.136			-3.627
236304.000			-18.136			-3.627
236405.000			-18.135			-3.627
236504.000			-18.134			-3.627
236604.000			-18.135			-3.627
236705.000			-18.134			-3.627
236804.000			-18.134			-3.627
236904.000			-18.133			-3.627
237005.000			-18.134			-3.627
237103.000			-18.134			-3.627
237204.000			-18.133			-3.627
237305.000			-18.133			-3.627
237404.000			-18.132			-3.626
237504.000			-18.132			-3.626
237604.000			-18.133			-3.627
237704.000			-18.132			-3.626
237805.000			-18.131			-3.626
237904.000			-18.131			-3.626
238003.000			-18.130			-3.626
238105.000			-18.130			-3.626
238204.000			-18.130			-3.626
238304.000			-18.130			-3.626
238405.000			-18.130			-3.626
238504.000			-18.130			-3.626
238604.000			-18.130			-3.626
238704.000			-18.129			-3.626
238804.000			-18.129			-3.626
238903.000			-18.129			-3.626
239005.000			-18.128			-3.626
239104.000			-18.127			-3.625
239204.000			-18.128			-3.626
239305.000			-18.127			-3.625
239404.000			-18.128			-3.626
239504.000			-18.127			-3.625
239605.000			-18.127			-3.625
239704.000			-18.126			-3.625
239803.000			-18.126			-3.625
239905.000			-18.126			-3.625
240004.000			-18.126			-3.625
240104.000			-18.126			-3.625
240205.000			-18.126			-3.625
240304.000			-18.126			-3.625
240404.000			-18.126			-3.625
240504.000			-18.125			-3.625
240604.000			-18.125			-3.625
240703.000			-18.125			-3.625
240805.000			-18.125			-3.625
240904.000			-18.124			-3.625
241005.000			-18.126			-3.625
241104.000			-18.124			-3.625
241204.000			-18.124			-3.625
241305.000			-18.124			-3.625
241403.000			-18.123			-3.625
241504.000			-18.124			-3.625
241605.000			-18.123			-3.625
241704.000			-18.122			-3.624
241804.000			-18.122			-3.624
241905.000			-18.122			-3.624
242004.000			-18.122			-3.624
242104.000			-18.122			-3.624
242205.000			-18.123			-3.625
242303.000			-18.122			-3.624
242404.000			-18.122			-3.624
242505.000			-18.122			-3.624
242604.000			-18.122			-3.624
242704.000			-18.121			-3.624
242805.000			-18.121			-3.624
242904.000			-18.121			-3.624
243003.000			-18.120			-3.624
243105.000			-18.121			-3.624
243204.000			-18.119			-3.624
243304.000			-18.119			-3.624
243405.000			-18.119			-3.624
243504.000			-18.118			-3.624
243604.000			-18.120			-3.624
243705.000			-18.119			-3.624
243804.000			-18.118			-3.624
243903.000			-18.119			-3.624
244005.000			-18.119			-3.624
244104.000			-18.117			-3.623
244205.000			-18.116			-3.623
244304.000			-18.117			-3.623
244404.000			-18.117			-3.623
244505.000			-18.116			-3.623
244604.000			-18.117			-3.623
244704.000			-18.117			-3.623
244804.000			-18.116			-3.623
244904.000			-18.116			-3.623
245004.000			-18.116			-3.623
245105.000			-18.115			-3.623
245204.000			-18.115			-3.623
245304.000			-18.115			-3.623
245405.000			-18.115			-3.623
245504.000			-18.114			-3.623
245604.000			-18.114			-3.623
245704.000			-18.114			-3.623
245804.000			-18.113			-3.623
245904.000			-18.113			-3.623
246005.000			-18.113			-3.623
246104.000			-18.114			-3.623
246204.000			-18.114			-3.623
246305.000			-18.113			-3.623
246404.000			-18.113			-3.623
246504.000			-18.112			-3.622
246604.000			-18.112			-3.622
246704.000			-18.112			-3.622
246804.000			-18.111			-3.622
246905.000			-18.111			-3.622
247004.000			-18.110			-3.622
247104.000			-18.110			-3.622
247205.000			-18.111			-3.622
247303.000			-18.110			-3.622
247405.000			-18.110			-3.622
247503.000			-18.110			-3.622
247604.000			-18.110			-3.622
247705.000			-18.109			-3.622
247804.000			-18.109			-3.622
247904.000			-18.108			-3.622
248005.000			-18.108			-3.622
248104.000			-18.108			-3.622
248203.000			-18.108			-3.622
248305.000			-18.107			-3.621
248403.000			-18.107			-3.621
248504.000			-18.108			-3.622
248605.000			-18.109			-3.622
248704.000			-18.108			-3.622
248804.000			-18.108			-3.622
248905.000			-18.107			-3.621
249004.000			-18.107			-3.621
249103.000			-18.107			-3.621
249205.000			-18.107			-3.621
249303.000			-18.107			-3.621
249404.000			-18.106			-3.621
249505.000			-18.105			-3.621
249604.000			-18.105			-3.621
249704.000			-18.105			-3.621
249805.000			-18.105			-3.621
249904.000			-18.104			-3.621
250003.000			-18.104			-3.621
250105.000			-18.104			-3.621
250204.000			-18.105			-3.621
250304.000			-18.105			-3.621
250405.000			-18.102			-3.620
250504.000			-18.102			-3.620
250605.000			-18.103			-3.621
250704.000			-18.102			-3.620
250804.000			-18.101			-3.620
250904.000			-18.101			-3.620
251004.000			-18.100			-3.620
251104.000			-18.100			-3.620
251205.000			-18.100			-3.620
251304.000			-18.100			-3.620
251404.000			-18.099			-3.620
251505.000			-18.099			-3.620
251603.000			-18.100			-3.620
251704.000			-18.099			-3.620
251804.000			-18.099			-3.620
251904.000			-18.098			-3.620
252004.000			-18.098			-3.620
252105.000			-18.097			-3.619
252204.000			-18.097			-3.619
252304.000			-18.097			-3.619
252405.000			-18.098			-3.620
252503.000			-18.098			-3.620
252604.000			-18.098			-3.620
252704.000			-18.098			-3.620
252804.000			-18.097			-3.619
252904.000			-18.096			-3.619
253005.000			-18.095			-3.619
253104.000			-18.095			-3.619
253204.000			-18.095			-3.619
253305.000			-18.094			-3.619
253403.000			-18.093			-3.619
253504.000			-18.093			-3.619
253603.000			-18.093			-3.619
253704.000			-18.093			-3.619
253805.000			-18.092			-3.618
253904.000			-18.092			-3.618
254004.000			-18.091			-3.618
254105.000			-18.090			-3.618
254204.000			-18.090			-3.618
254303.000			-18.090			-3.618
254405.000			-18.090			-3.618
254504.000			-18.089			-3.618
254604.000			-18.089			-3.618
254705.000			-18.088			-3.618
254804.000			-18.088			-3.618
254904.000			-18.089			-3.618
255005.000			-18.087			-3.617
255104.000			-18.087			-3.617
255203.000			-18.087			-3.617
255305.000			-18.087			-3.617
255403.000			-18.087			-3.617
255504.000			-18.087			-3.617
255605.000			-18.086			-3.617
255704.000			-18.086			-3.617
255804.000			-18.087			-3.617
255905.000			-18.087			-3.617
256004.000			-18.086			-3.617
256104.000			-18.086			-3.617
256205.000			-18.086			-3.617
256303.000			-18.086			-3.617
256404.000			-18.086			-3.617
256505.000			-18.087			-3.617
256604.000			-18.086			-3.617
256704.000			-18.086			-3.617
256804.000			-18.085			-3.617
256904.000			-18.085			-3.617
257005.000			-18.085			-3.617
257104.000			-18.084			-3.617
257203.000			-18.084			-3.617
257305.000			-18.085			-3.617
257404.000			-18.085			-3.617
257504.000			-18.084			-3.617
257605.000			-18.084			-3.617
257704.000			-18.084			-3.617
257804.000			-18.085			-3.617
257905.000			-18.084			-3.617
258004.000			-18.083			-3.617
258103.000			-18.083			-3.617
258205.000			-18.083			-3.617
258304.000			-18.084			-3.617
258404.000			-18.082			-3.616
258505.000			-18.082			-3.616
258604.000			-18.083			-3.617
258704.000			-18.083			-3.617
258805.000			-18.082			-3.616
258904.000			-18.081			-3.616
259003.000			-18.081			-3.616
259105.000			-18.081			-3.616
259204.000			-18.081			-3.616
259304.000			-18.080			-3.616
259405.000			-18.080			-3.616
259504.000			-18.080			-3.616
259604.000			-18.080			-3.616
259705.000			-18.080			-3.616
259804.000			-18.079			-3.616
259903.000			-18.079			-3.616
260005.000			-18.078			-3.616
260104.000			-18.078			-3.616
260205.000			-18.079			-3.616
260304.000			-18.079			-3.616
260404.000			-18.079			-3.616
260505.000			-18.078			-3.616
260604.000			-18.077			-3.615
260704.000			-18.077			-3.615
260804.000			-18.077			-3.615
260904.000			-18.078			-3.616
261003.000			-18.077			-3.615
261105.000			-18.076			-3.615
261204.000			-18.077			-3.615
261304.000			-18.077			-3.615
261405.000			-18.077			-3.615
261504.000			-18.077			-3.615
261604.000			-18.077			-3.615
261704.000			-18.076			-3.615
261804.000			-18.075			-3.615
261904.000			-18.074			-3.615
262005.000			-18.074			-3.615
262104.000			-18.074			-3.615
262204.000			-18.074			-3.615
262305.000			-18.074			-3.615
262404.000			-18.073			-3.615
262504.000			-18.073			-3.615
262604.000			-18.073			-3.615
262704.000			-18.073			-3.615
262804.000			-18.072			-3.614
262905.000			-18.071			-3.614
263004.000			-18.070			-3.614
263104.000			-18.071			-3.614
263205.000			-18.071			-3.614
263304.000			-18.071			-3.614
263405.000			-18.071			-3.614
263503.000			-18.071			-3.614
263604.000			-18.071			-3.614
263705.000			-18.070			-3.614
263804.000			-18.069			-3.614
263904.000			-18.071			-3.614
264005.000			-18.071			-3.614
264104.000			-18.070			-3.614
264204.000			-18.069			-3.614
264305.000			-18.069			-3.614
264403.000			-18.070			-3.614
264504.000			-18.070			-3.614
264605.000			-18.069			-3.614
264704.000			-18.069			-3.614
264804.000			-18.069			-3.614
264905.000			-18.068			-3.614
265004.000			-18.069			-3.614
265104.000			-18.068			-3.614
265205.000			-18.068			-3.614
265303.000			-18.068			-3.614
265404.000			-18.067			-3.613
265505.000			-18.068			-3.614
265604.000			-18.066			-3.613
265704.000			-18.067			-3.613
265805.000			-18.067			-3.613
265904.000			-18.067			-3.613
266003.000			-18.067			-3.613
266105.000			-18.067			-3.613
266203.000			-18.067			-3.613
266304.000			-18.067			-3.613
266405.000			-18.066			-3.613
266504.000			-18.067			-3.613
266605.000			-18.066			-3.613
266704.000			-18.064			-3.613
266804.000			-18.063			-3.613
266904.000			-18.064			-3.613
267004.000			-18.064			-3.613
267103.000			-18.064			-3.613
267205.000			-18.064			-3.613
267304.000			-18.064			-3.613
267404.000			-18.064			-3.613
267505.000			-18.063			-3.613
267604.000			-18.062			-3.612
267704.000			-18.062			-3.612
267804.000			-18.062			-3.612
267904.000			-18.062			-3.612
268003.000			-18.062			-3.612
268105.000			-18.062			-3.612
268204.000			-18.061			-3.612
268304.000			-18.061			-3.612
268405.000			-18.061			-3.612
268504.000			-18.061			-3.612
268604.000			-18.061			-3.612
268704.000			-18.061			-3.612
268804.000			-18.060			-3.612
268903.000			-18.060			-3.612
269005.000			-18.060			-3.612
269104.000			-18.061			-3.612
269204.000			-18.059			-3.612
269305.000			-18.060			-3.612
269404.000			-18.059			-3.612
269504.000			-18.059			-3.612
269603.000			-18.058			-3.612
269704.000			-18.059			-3.612
269803.000			-18.059			-3.612
269904.000			-18.059			-3.612
270004.000			-18.058			-3.612
270105.000			-18.058			-3.612
270204.000			-18.056			-3.611
270304.000			-18.056			-3.611
270405.000			-18.056			-3.611
270503.000			-18.056			-3.611
270604.000			-18.057			-3.611
270704.000			-18.056			-3.611
270804.000			-18.056			-3.611
270904.000			-18.057			-3.611
271005.000			-18.056			-3.611
271104.000			-18.055			-3.611
271204.000			-18.055			-3.611
271305.000			-18.054			-3.611
271403.000			-18.054			-3.611
271504.000			-18.055			-3.611
271605.000			-18.055			-3.611
271704.000			-18.054			-3.611
271804.000			-18.054			-3.611
271905.000			-18.053			-3.611
272004.000			-18.053			-3.611
272104.000			-18.053			-3.611
272205.000			-18.053			-3.611
272303.000			-18.053			-3.611
272404.000			-18.052			-3.610
272505.000			-18.053			-3.611
272604.000			-18.051			-3.610
272704.000			-18.051			-3.610
272804.000			-18.050			-3.610
272904.000			-18.050			-3.610
273005.000			-18.051			-3.610
273104.000			-18.051			-3.610
273203.000			-18.050			-3.610
273305.000			-18.051			-3.610
273404.000			-18.051			-3.610
273504.000			-18.051			-3.610
273605.000			-18.050			-3.610
273704.000			-18.051			-3.610
273804.000			-18.050			-3.610
273904.000			-18.049			-3.610
274004.000			-18.049			-3.610
274103.000			-18.047			-3.609
274205.000			-18.048			-3.610
274304.000			-18.049			-3.610
274404.000			-18.049			-3.610
274505.000			-18.049			-3.610
274604.000			-18.049			-3.610
274704.000			-18.049			-3.610
274804.000			-18.048			-3.610
274904.000			-18.047			-3.609
275003.000			-18.047			-3.609
275105.000			-18.048			-3.610
275204.000			-18.049			-3.610
275304.000			-18.048			-3.610
275405.000			-18.048			-3.610
275504.000			-18.046			-3.609
275604.000			-18.046			-3.609
275704.000			-18.047			-3.609
275804.000			-18.047			-3.609
275903.000			-18.046			-3.609
276005.000			-18.046			-3.609
276104.000			-18.046			-3.609
276205.000			-18.045			-3.609
276304.000			-18.045			-3.609
276404.000			-18.045			-3.609
276505.000			-18.045			-3.609
276603.000			-18.045			-3.609
276704.000			-18.045			-3.609
276804.000			-18.045			-3.609
276904.000			-18.045			-3.609
277004.000			-18.044			-3.609
277105.000			-18.043			-3.609
277204.000			-18.043			-3.609
277304.000			-18.044			-3.609
277405.000			-18.044			-3.609
277503.000			-18.044			-3.609
277604.000			-18.043			-3.609
277705.000			-18.043			-3.609
277804.000			-18.042			-3.608
277904.000			-18.043			-3.609
278005.000			-18.043			-3.609
278104.000			-18.041			-3.608
278204.000			-18.042			-3.608
278305.000			-18.042			-3.608
278403.000			-18.041			-3.608
278504.000			-18.041			-3.608
278605.000			-18.041			-3.608
278704.000			-18.041			-3.608
278804.000			-18.040			-3.608
278905.000			-18.040			-3.608
279004.000			-18.039			-3.608
279104.000			-18.038			-3.608
279205.000			-18.039			-3.608
279303.000			-18.040			-3.608
279405.000			-18.039			-3.608
279504.000			-18.039			-3.608
279604.000			-18.038			-3.608
279705.000			-18.038			-3.608
279804.000			-18.039			-3.608
279904.000			-18.038			-3.608
280005.000			-18.037			-3.607
280104.000			-18.037			-3.607
280203.000			-18.038			-3.608
280305.000			-18.037			-3.607
280404.000			-18.036			-3.607
280504.000			-18.037			-3.607
280605.000			-18.035			-3.607
280704.000			-18.035			-3.607
280804.000			-18.037			-3.607
280905.000			-18.038			-3.608
281004.000			-18.036			-3.607
281103.000			-18.036			-3.607
281205.000			-18.036			-3.607
281304.000			-18.037			-3.607
281404.000			-18.037			-3.607
281505.000			-18.036			-3.607
281604.000			-18.035			-3.607
281704.000			-18.036			-3.607
281805.000			-18.036			-3.607
281904.000			-18.035			-3.607
282003.000			-18.035			-3.607
282105.000			-18.036			-3.607
282204.000			-18.035			-3.607
282304.000			-18.034			-3.607
282405.000			-18.034			-3.607
282504.000			-18.034			-3.607
282605.000			-18.035			-3.607
282703.000			-18.035			-3.607
282804.000			-18.035			-3.607
282904.000			-18.034			-3.607
283004.000			-18.034			-3.607
283104.000			-18.034			-3.607
283205.000			-18.033			-3.607
283304.000			-18.031			-3.606
283404.000			-18.032			-3.606
283505.000			-18.031			-3.606
283603.000			-18.031			-3.606
283704.000			-18.031			-3.606
283805.000			-18.031			-3.606
283904.000			-18.030			-3.606
284004.000			-18.030			-3.606
284105.000			-18.030			-3.606
284204.000			-18.030			-3.606
284304.000			-18.030			-3.606
284405.000			-18.030			-3.606
284503.000			-18.029			-3.606
284604.000			-18.029			-3.606
284705.000			-18.029			-3.606
284804.000			-18.028			-3.606
284904.000			-18.028			-3.606
285005.000			-18.028			-3.606
285104.000			-18.028			-3.606
285204.000			-18.027			-3.605
285305.000			-18.027			-3.605
285403.000			-18.027			-3.605
285504.000			-18.026			-3.605
285605.000			-18.028			-3.606
285704.000			-18.027			-3.605
285805.000			-18.027			-3.605
285904.000			-18.026			-3.605
286004.000			-18.026			-3.605
286105.000			-18.026			-3.605
286204.000			-18.025			-3.605
286303.000			-18.025			-3.605
286405.000			-18.025			-3.605
286504.000			-18.025			-3.605
286604.000			-18.025			-3.605
286705.000			-18.026			-3.605
286804.000			-18.024			-3.605
286904.000			-18.024			-3.605
287005.000			-18.023			-3.605
287104.000			-18.023			-3.605
287203.000			-18.023			-3.605
287305.000			-18.024			-3.605
287404.000			-18.023			-3.605
287504.000			-18.023			-3.605
287605.000			-18.023			-3.605
287704.000			-18.022			-3.604
287804.000			-18.022			-3.604
287905.000			-18.021			-3.604
288004.000			-18.021			-3.604
288103.000			-18.022			-3.604
288205.000			-18.021			-3.604
288304.000			-18.020			-3.604
288404.000			-18.021			-3.604
288505.000			-18.020			-3.604
288604.000			-18.020			-3.604
288704.000			-18.020			-3.604
288804.000			-18.020			-3.604
288904.000			-18.019			-3.604
289003.000			-18.020			-3.604
289104.000			-18.020			-3.604
289204.000			-18.019			-3.604
289305.000			-18.018			-3.604
289404.000			-18.018			-3.604
289504.000			-18.018			-3.604
289605.000			-18.018			-3.604
289704.000			-18.018			-3.604
289804.000			-18.018			-3.604
289904.000			-18.018			-3.604
290004.000			-18.017			-3.603
290104.000			-18.016			-3.603
290205.000			-18.015			-3.603
290304.000			-18.015			-3.603
290404.000			-18.015			-3.603
290505.000			-18.015			-3.603
290604.000			-18.015			-3.603
290704.000			-18.015			-3.603
290804.000			-18.015			-3.603
290904.000			-18.014			-3.603
291004.000			-18.015			-3.603
291105.000			-18.014			-3.603
291204.000			-18.012			-3.602
291304.000			-18.012			-3.602
291405.000			-18.012			-3.602
291503.000			-18.013			-3.603
291604.000			-18.013			-3.603
291705.000			-18.012			-3.602
291804.000			-18.013			-3.603
291904.000			-18.014			-3.603
292004.000			-18.013			-3.603
292104.000			-18.013			-3.603
292205.000			-18.013			-3.603
292304.000			-18.013			-3.603
292403.000			-18.012			-3.602
292505.000			-18.012			-3.602
292604.000			-18.011			-3.602
292704.000			-18.011			-3.602
292805.000			-18.012			-3.602
292904.000			-18.012			-3.602
293004.000			-18.011			-3.602
293105.000			-18.011			-3.602
293204.000			-18.011			-3.602
293303.000			-18.012			-3.602
293405.000			-18.012			-3.602
293504.000			-18.013			-3.603
293604.000			-18.012			-3.602
293705.000			-18.012			-3.602
293804.000			-18.012			-3.602
293904.000			-18.012			-3.602
294004.000			-18.011			-3.602
294104.000			-18.010			-3.602
294203.000			-18.010			-3.602
294305.000			-18.009			-3.602
294404.000			-18.010			-3.602
294504.000			-18.010			-3.602
294605.000			-18.010			-3.602
294704.000			-18.010			-3.602
294804.000			-18.011			-3.602
294904.000			-18.011			-3.602
295004.000			-18.010			-3.602
295104.000			-18.008			-3.602
295204.000			-18.009			-3.602
295304.000			-18.009			-3.602
295405.000			-18.009			-3.602
295504.000			-18.009			-3.602
295604.000			-18.008			-3.602
295705.000			-18.008			-3.602
295803.000			-18.008			-3.602
295904.000			-18.006			-3.601
296005.000			-18.007			-3.601
296104.000			-18.008			-3.602
296204.000			-18.008			-3.602
296305.000			-18.007			-3.601
296404.000			-18.007			-3.601
296504.000			-18.007			-3.601
296605.000			-18.008			-3.602
296703.000			-18.007			-3.601
296804.000			-18.006			-3.601
296905.000			-18.006			-3.601
297004.000			-18.006			-3.601
297104.000			-18.006			-3.601
297205.000			-18.006			-3.601
297304.000			-18.006			-3.601
297404.000			-18.007			-3.601
297505.000			-18.005			-3.601
297603.000			-18.005			-3.601
297704.000			-18.005			-3.601
297805.000			-18.005			-3.601
297904.000			-18.005			-3.601
298004.000			-18.005			-3.601
298105.000			-18.004			-3.601
298204.000			-18.004			-3.601
298304.000			-18.004			-3.601
298405.000			-18.003			-3.601
298503.000			-18.003			-3.601
298605.000			-18.004			-3.601
298704.000			-18.004			-3.601
298804.000			-18.003			-3.601
298905.000			-18.003			-3.601
299004.000			-18.003			-3.601
299104.000			-18.002			-3.600
299205.000			-18.002			-3.600
299304.000			-18.001			-3.600
299403.000			-18.001			-3.600
299505.000			-18.000			-3.600
299604.000			-18.001			-3.600
299704.000			-18.002			-3.600
299805.000			-18.001			-3.600
299904.000			-18.001			-3.600
