# Acquired on 10/01/2024 10:21:43 
# SPIDER: Creep_-10mm_07714532B-2
# CREEP MEASUREMENT

# time [ms]		force [N]		stiffness [N/mm]
0.000			46.380			-4.638
101.000			47.781			-4.778
200.000			48.166			-4.817
300.000			47.960			-4.796
402.000			47.705			-4.771
501.000			47.510			-4.751
600.000			47.208			-4.721
701.000			47.085			-4.708
800.000			46.975			-4.698
900.000			46.875			-4.688
1001.000			46.784			-4.678
1101.000			46.702			-4.670
1201.000			46.626			-4.663
1301.000			46.489			-4.649
1400.000			46.425			-4.642
1501.000			46.366			-4.637
1600.000			46.310			-4.631
1700.000			46.257			-4.626
1801.000			46.206			-4.621
1901.000			46.158			-4.616
2001.000			46.069			-4.607
2101.000			46.028			-4.603
2200.000			45.987			-4.599
2300.000			45.948			-4.595
2401.000			45.911			-4.591
2500.000			45.875			-4.588
2601.000			45.840			-4.584
2702.000			45.775			-4.578
2800.000			45.743			-4.574
2900.000			45.712			-4.571
3001.000			45.683			-4.568
3100.000			45.654			-4.565
3200.000			45.627			-4.563
3301.000			45.600			-4.560
3401.000			45.573			-4.557
3501.000			45.522			-4.552
3601.000			45.497			-4.550
3700.000			45.474			-4.547
3800.000			45.450			-4.545
3901.000			45.427			-4.543
4000.000			45.406			-4.541
4100.000			45.385			-4.538
4202.000			45.341			-4.534
4301.000			45.322			-4.532
4400.000			45.302			-4.530
4501.000			45.282			-4.528
4600.000			45.264			-4.526
4701.000			45.244			-4.524
4800.000			45.226			-4.523
4900.000			45.208			-4.521
5002.000			45.171			-4.517
5101.000			45.155			-4.515
5200.000			45.139			-4.514
5301.000			45.122			-4.512
5400.000			45.105			-4.511
5500.000			45.089			-4.509
5601.000			45.073			-4.507
5701.000			45.043			-4.504
5801.000			45.027			-4.503
5901.000			45.013			-4.501
6000.000			44.999			-4.500
6100.000			44.984			-4.498
6201.000			44.970			-4.497
6300.000			44.956			-4.496
6400.000			44.928			-4.493
6502.000			44.915			-4.492
6601.000			44.902			-4.490
6700.000			44.888			-4.489
6801.000			44.876			-4.488
6900.000			44.864			-4.486
7000.000			44.851			-4.485
7101.000			44.826			-4.483
7201.000			44.814			-4.481
7301.000			44.802			-4.480
7401.000			44.790			-4.479
7500.000			44.778			-4.478
7600.000			44.766			-4.477
7701.000			44.755			-4.475
7800.000			44.743			-4.474
7901.000			44.722			-4.472
8001.000			44.712			-4.471
8101.000			44.701			-4.470
8201.000			44.690			-4.469
8300.000			44.681			-4.468
8400.000			44.670			-4.467
8501.000			44.659			-4.466
8600.000			44.640			-4.464
8700.000			44.629			-4.463
8802.000			44.618			-4.462
8901.000			44.607			-4.461
9000.000			44.598			-4.460
9101.000			44.588			-4.459
9200.000			44.580			-4.458
9300.000			44.562			-4.456
9401.000			44.554			-4.455
9500.000			44.544			-4.454
9601.000			44.534			-4.453
9702.000			44.525			-4.452
9800.000			44.516			-4.452
9900.000			44.508			-4.451
10001.000			44.499			-4.450
10100.000			44.481			-4.448
10200.000			44.473			-4.447
10301.000			44.465			-4.446
10401.000			44.456			-4.446
10501.000			44.447			-4.445
10601.000			44.439			-4.444
10700.000			44.432			-4.443
10800.000			44.416			-4.442
10901.000			44.408			-4.441
11000.000			44.400			-4.440
11102.000			44.392			-4.439
11201.000			44.385			-4.438
11300.000			44.377			-4.438
11401.000			44.369			-4.437
11500.000			44.354			-4.435
11600.000			44.348			-4.435
11701.000			44.340			-4.434
11800.000			44.333			-4.433
11901.000			44.325			-4.432
12002.000			44.318			-4.432
12100.000			44.311			-4.431
12200.000			44.303			-4.430
12301.000			44.289			-4.429
12400.000			44.283			-4.428
12500.000			44.276			-4.428
12601.000			44.269			-4.427
12701.000			44.263			-4.426
12801.000			44.255			-4.426
12901.000			44.248			-4.425
13000.000			44.234			-4.423
13100.000			44.229			-4.423
13201.000			44.223			-4.422
13300.000			44.217			-4.422
13400.000			44.210			-4.421
13502.000			44.203			-4.420
13601.000			44.196			-4.420
13700.000			44.184			-4.418
13801.000			44.178			-4.418
13900.000			44.172			-4.417
14000.000			44.165			-4.417
14101.000			44.159			-4.416
14200.000			44.154			-4.415
14302.000			44.148			-4.415
14401.000			44.137			-4.414
14500.000			44.131			-4.413
14601.000			44.125			-4.412
14700.000			44.119			-4.412
14800.000			44.114			-4.411
14901.000			44.108			-4.411
15000.000			44.101			-4.410
15101.000			44.096			-4.410
15202.000			44.085			-4.409
15300.000			44.078			-4.408
15400.000			44.072			-4.407
15501.000			44.068			-4.407
15600.000			44.063			-4.406
15700.000			44.056			-4.406
15801.000			44.052			-4.405
15901.000			44.042			-4.404
16001.000			44.036			-4.404
16101.000			44.030			-4.403
16200.000			44.024			-4.402
16300.000			44.021			-4.402
16401.000			44.016			-4.402
16500.000			44.010			-4.401
16601.000			43.999			-4.400
16702.000			43.995			-4.399
16800.000			43.990			-4.399
16900.000			43.986			-4.399
17001.000			43.981			-4.398
17100.000			43.976			-4.398
17200.000			43.969			-4.397
17301.000			43.965			-4.396
17401.000			43.956			-4.396
17502.000			43.951			-4.395
17601.000			43.946			-4.395
17700.000			43.941			-4.394
17801.000			43.937			-4.394
17900.000			43.933			-4.393
18000.000			43.928			-4.393
18101.000			43.917			-4.392
18200.000			43.913			-4.391
18301.000			43.908			-4.391
18402.000			43.904			-4.390
18500.000			43.900			-4.390
18600.000			43.896			-4.390
18701.000			43.891			-4.389
18800.000			43.882			-4.388
18900.000			43.877			-4.388
19001.000			43.872			-4.387
19101.000			43.868			-4.387
19201.000			43.863			-4.386
19301.000			43.858			-4.386
19400.000			43.855			-4.385
19500.000			43.850			-4.385
19601.000			43.841			-4.384
19700.000			43.837			-4.384
19800.000			43.833			-4.383
19902.000			43.829			-4.383
20001.000			43.824			-4.382
20100.000			43.820			-4.382
20201.000			43.816			-4.382
20300.000			43.809			-4.381
20400.000			43.805			-4.380
20501.000			43.800			-4.380
20600.000			43.796			-4.380
20702.000			43.792			-4.379
20801.000			43.789			-4.379
20900.000			43.784			-4.378
21001.000			43.775			-4.378
21100.000			43.772			-4.377
21200.000			43.767			-4.377
21301.000			43.763			-4.376
21400.000			43.759			-4.376
21501.000			43.755			-4.376
21602.000			43.752			-4.375
21700.000			43.745			-4.374
21800.000			43.741			-4.374
21901.000			43.737			-4.374
22000.000			43.733			-4.373
22100.000			43.728			-4.373
22201.000			43.725			-4.372
22301.000			43.721			-4.372
22401.000			43.718			-4.372
22501.000			43.709			-4.371
22600.000			43.706			-4.371
22700.000			43.703			-4.370
22801.000			43.700			-4.370
22900.000			43.696			-4.370
23001.000			43.691			-4.369
23102.000			43.687			-4.369
23200.000			43.680			-4.368
23300.000			43.678			-4.368
23401.000			43.674			-4.367
23500.000			43.670			-4.367
23600.000			43.667			-4.367
23701.000			43.664			-4.366
23801.000			43.660			-4.366
23902.000			43.652			-4.365
24001.000			43.649			-4.365
24100.000			43.645			-4.365
24201.000			43.641			-4.364
24300.000			43.637			-4.364
24400.000			43.635			-4.363
24501.000			43.632			-4.363
24601.000			43.628			-4.363
24701.000			43.620			-4.362
24801.000			43.617			-4.362
24900.000			43.614			-4.361
25000.000			43.610			-4.361
25101.000			43.607			-4.361
25200.000			43.604			-4.360
25300.000			43.601			-4.360
25402.000			43.593			-4.359
25501.000			43.590			-4.359
25600.000			43.586			-4.359
25701.000			43.584			-4.358
25800.000			43.581			-4.358
25900.000			43.577			-4.358
26001.000			43.574			-4.357
26100.000			43.567			-4.357
26201.000			43.564			-4.356
26302.000			43.561			-4.356
26400.000			43.556			-4.356
26500.000			43.553			-4.355
26601.000			43.551			-4.355
26700.000			43.548			-4.355
26800.000			43.545			-4.354
26901.000			43.539			-4.354
27001.000			43.536			-4.354
27102.000			43.532			-4.353
27201.000			43.528			-4.353
27300.000			43.525			-4.352
27401.000			43.523			-4.352
27500.000			43.520			-4.352
27600.000			43.513			-4.351
27701.000			43.510			-4.351
27801.000			43.507			-4.351
27901.000			43.503			-4.350
28001.000			43.500			-4.350
28100.000			43.498			-4.350
28200.000			43.495			-4.350
28301.000			43.489			-4.349
28400.000			43.487			-4.349
28500.000			43.485			-4.348
28602.000			43.482			-4.348
28701.000			43.479			-4.348
28801.000			43.475			-4.347
28901.000			43.472			-4.347
29000.000			43.470			-4.347
29100.000			43.464			-4.346
29201.000			43.459			-4.346
29300.000			43.458			-4.346
29400.000			43.457			-4.346
29502.000			43.453			-4.345
29601.000			43.450			-4.345
29700.000			43.446			-4.345
29801.000			43.441			-4.344
29900.000			43.437			-4.344
30000.000			43.434			-4.343
30101.000			43.433			-4.343
30200.000			43.431			-4.343
30302.000			43.428			-4.343
30401.000			43.425			-4.342
30500.000			43.417			-4.342
30601.000			43.416			-4.342
30700.000			43.413			-4.341
30800.000			43.411			-4.341
30901.000			43.407			-4.341
31001.000			43.404			-4.340
31101.000			43.402			-4.340
31201.000			43.399			-4.340
31300.000			43.393			-4.339
31400.000			43.392			-4.339
31501.000			43.389			-4.339
31600.000			43.386			-4.339
31700.000			43.384			-4.338
31802.000			43.381			-4.338
31901.000			43.378			-4.338
32000.000			43.374			-4.337
32101.000			43.372			-4.337
32200.000			43.369			-4.337
32300.000			43.366			-4.337
32401.000			43.363			-4.336
32500.000			43.360			-4.336
32601.000			43.358			-4.336
32702.000			43.352			-4.335
32800.000			43.349			-4.335
32900.000			43.346			-4.335
33001.000			43.345			-4.334
33100.000			43.343			-4.334
33200.000			43.340			-4.334
33301.000			43.337			-4.334
33401.000			43.333			-4.333
33502.000			43.329			-4.333
33600.000			43.326			-4.333
33700.000			43.324			-4.332
33801.000			43.323			-4.332
33900.000			43.320			-4.332
34000.000			43.317			-4.332
34101.000			43.314			-4.331
34201.000			43.310			-4.331
34301.000			43.307			-4.331
34401.000			43.303			-4.330
34500.000			43.301			-4.330
34600.000			43.300			-4.330
34701.000			43.297			-4.330
34800.000			43.294			-4.329
34901.000			43.290			-4.329
35002.000			43.288			-4.329
35101.000			43.286			-4.329
35200.000			43.282			-4.328
35301.000			43.280			-4.328
35400.000			43.278			-4.328
35500.000			43.276			-4.328
35601.000			43.271			-4.327
35701.000			43.268			-4.327
35801.000			43.266			-4.327
35902.000			43.264			-4.326
36000.000			43.262			-4.326
36100.000			43.260			-4.326
36201.000			43.257			-4.326
36300.000			43.254			-4.325
36400.000			43.249			-4.325
36502.000			43.247			-4.325
36601.000			43.245			-4.324
36701.000			43.242			-4.324
36800.000			43.240			-4.324
36900.000			43.238			-4.324
37001.000			43.237			-4.324
37100.000			43.232			-4.323
37200.000			43.229			-4.323
37302.000			43.226			-4.323
37401.000			43.224			-4.322
37500.000			43.222			-4.322
37601.000			43.220			-4.322
37700.000			43.218			-4.322
37800.000			43.214			-4.321
37901.000			43.212			-4.321
38000.000			43.208			-4.321
38101.000			43.206			-4.321
38202.000			43.203			-4.320
38300.000			43.201			-4.320
38400.000			43.199			-4.320
38501.000			43.198			-4.320
38600.000			43.193			-4.319
38700.000			43.192			-4.319
38801.000			43.189			-4.319
38901.000			43.186			-4.319
39001.000			43.184			-4.318
39101.000			43.181			-4.318
39200.000			43.180			-4.318
39300.000			43.175			-4.318
39401.000			43.173			-4.317
39500.000			43.171			-4.317
39600.000			43.168			-4.317
39702.000			43.167			-4.317
39801.000			43.165			-4.317
39902.000			43.163			-4.316
40000.000			43.159			-4.316
40100.000			43.156			-4.316
40201.000			43.153			-4.315
40300.000			43.152			-4.315
40400.000			43.150			-4.315
40502.000			43.147			-4.315
40601.000			43.146			-4.315
40700.000			43.144			-4.314
40801.000			43.140			-4.314
40900.000			43.139			-4.314
41000.000			43.136			-4.314
41101.000			43.135			-4.313
41200.000			43.132			-4.313
41301.000			43.130			-4.313
41402.000			43.128			-4.313
41500.000			43.124			-4.312
41600.000			43.122			-4.312
41701.000			43.119			-4.312
41800.000			43.117			-4.312
41900.000			43.114			-4.311
42001.000			43.113			-4.311
42101.000			43.111			-4.311
42201.000			43.108			-4.311
42301.000			43.107			-4.311
42400.000			43.104			-4.310
42500.000			43.102			-4.310
42601.000			43.099			-4.310
42700.000			43.098			-4.310
42801.000			43.096			-4.310
42902.000			43.092			-4.309
43001.000			43.090			-4.309
43101.000			43.089			-4.309
43200.000			43.087			-4.309
43300.000			43.085			-4.308
43401.000			43.082			-4.308
43500.000			43.081			-4.308
43600.000			43.079			-4.308
43702.000			43.075			-4.307
43801.000			43.073			-4.307
43900.000			43.071			-4.307
44001.000			43.070			-4.307
44100.000			43.067			-4.307
44200.000			43.066			-4.307
44301.000			43.064			-4.306
44401.000			43.059			-4.306
44501.000			43.058			-4.306
44601.000			43.057			-4.306
44700.000			43.055			-4.305
44800.000			43.052			-4.305
44901.000			43.050			-4.305
45000.000			43.048			-4.305
45100.000			43.045			-4.305
45202.000			43.043			-4.304
45301.000			43.041			-4.304
45400.000			43.039			-4.304
45501.000			43.037			-4.304
45600.000			43.036			-4.304
45700.000			43.034			-4.303
45801.000			43.033			-4.303
45900.000			43.029			-4.303
46001.000			43.027			-4.303
46102.000			43.024			-4.302
46200.000			43.023			-4.302
46301.000			43.022			-4.302
46400.000			43.019			-4.302
46500.000			43.018			-4.302
46601.000			43.015			-4.301
46700.000			43.012			-4.301
46801.000			43.011			-4.301
46902.000			43.008			-4.301
47000.000			43.007			-4.301
47100.000			43.005			-4.301
47201.000			43.004			-4.300
47300.000			42.999			-4.300
47400.000			42.998			-4.300
47501.000			42.996			-4.300
47601.000			42.995			-4.299
47701.000			42.993			-4.299
47801.000			42.992			-4.299
47900.000			42.989			-4.299
48000.000			42.988			-4.299
48101.000			42.985			-4.298
48200.000			42.983			-4.298
48300.000			42.982			-4.298
48402.000			42.980			-4.298
48501.000			42.978			-4.298
48600.000			42.976			-4.298
48701.000			42.974			-4.297
48800.000			42.971			-4.297
48900.000			42.969			-4.297
49001.000			42.966			-4.297
49100.000			42.965			-4.296
49201.000			42.963			-4.296
49302.000			42.963			-4.296
49401.000			42.961			-4.296
49501.000			42.957			-4.296
49600.000			42.956			-4.296
49700.000			42.955			-4.295
49801.000			42.952			-4.295
49900.000			42.951			-4.295
50000.000			42.949			-4.295
50102.000			42.948			-4.295
50201.000			42.947			-4.295
50300.000			42.942			-4.294
50401.000			42.941			-4.294
50500.000			42.939			-4.294
50600.000			42.937			-4.294
50701.000			42.935			-4.294
50800.000			42.933			-4.293
50901.000			42.932			-4.293
51002.000			42.930			-4.293
51100.000			42.928			-4.293
51200.000			42.927			-4.293
51301.000			42.924			-4.292
51400.000			42.922			-4.292
51500.000			42.921			-4.292
51601.000			42.919			-4.292
51701.000			42.917			-4.292
51801.000			42.915			-4.292
51901.000			42.913			-4.291
52000.000			42.911			-4.291
52100.000			42.908			-4.291
52201.000			42.907			-4.291
52300.000			42.907			-4.291
52400.000			42.903			-4.290
52502.000			42.902			-4.290
52601.000			42.900			-4.290
52701.000			42.899			-4.290
52800.000			42.897			-4.290
52900.000			42.896			-4.290
53001.000			42.894			-4.289
53100.000			42.892			-4.289
53200.000			42.889			-4.289
53302.000			42.887			-4.289
53401.000			42.886			-4.289
53500.000			42.885			-4.288
53601.000			42.883			-4.288
53700.000			42.881			-4.288
53800.000			42.880			-4.288
53901.000			42.876			-4.288
54000.000			42.875			-4.287
54101.000			42.874			-4.287
54202.000			42.873			-4.287
54300.000			42.871			-4.287
54400.000			42.869			-4.287
54501.000			42.867			-4.287
54600.000			42.864			-4.286
54700.000			42.863			-4.286
54801.000			42.861			-4.286
54901.000			42.859			-4.286
55001.000			42.859			-4.286
55101.000			42.857			-4.286
55200.000			42.855			-4.286
55300.000			42.854			-4.285
55401.000			42.850			-4.285
55500.000			42.849			-4.285
55600.000			42.848			-4.285
55702.000			42.847			-4.285
55801.000			42.845			-4.284
55901.000			42.843			-4.284
56000.000			42.841			-4.284
56100.000			42.839			-4.284
56201.000			42.838			-4.284
56300.000			42.836			-4.284
56400.000			42.834			-4.283
56502.000			42.832			-4.283
56601.000			42.831			-4.283
56700.000			42.829			-4.283
56801.000			42.826			-4.283
56900.000			42.825			-4.282
57000.000			42.824			-4.282
57101.000			42.823			-4.282
57200.000			42.821			-4.282
57301.000			42.820			-4.282
57402.000			42.818			-4.282
57500.000			42.817			-4.282
57600.000			42.815			-4.281
57701.000			42.813			-4.281
57800.000			42.811			-4.281
57900.000			42.809			-4.281
58001.000			42.807			-4.281
58101.000			42.806			-4.281
58201.000			42.804			-4.280
58301.000			42.802			-4.280
58400.000			42.801			-4.280
58500.000			42.799			-4.280
58601.000			42.797			-4.280
58700.000			42.796			-4.280
58800.000			42.795			-4.280
58901.000			42.794			-4.279
59001.000			42.791			-4.279
59102.000			42.789			-4.279
59200.000			42.788			-4.279
59300.000			42.787			-4.279
59401.000			42.785			-4.279
59500.000			42.784			-4.278
59600.000			42.783			-4.278
59701.000			42.781			-4.278
59801.000			42.777			-4.278
59901.000			42.777			-4.278
60001.000			42.775			-4.278
60100.000			42.773			-4.277
60200.000			42.772			-4.277
60301.000			42.772			-4.277
60400.000			42.770			-4.277
60500.000			42.767			-4.277
60602.000			42.766			-4.277
60701.000			42.765			-4.276
60800.000			42.762			-4.276
60901.000			42.762			-4.276
61000.000			42.761			-4.276
61100.000			42.758			-4.276
61201.000			42.756			-4.276
61300.000			42.755			-4.276
61401.000			42.753			-4.275
61502.000			42.752			-4.275
61600.000			42.751			-4.275
61700.000			42.750			-4.275
61801.000			42.748			-4.275
61900.000			42.745			-4.275
62000.000			42.744			-4.274
62101.000			42.742			-4.274
62201.000			42.741			-4.274
62302.000			42.741			-4.274
62400.000			42.740			-4.274
62500.000			42.737			-4.274
62601.000			42.736			-4.274
62700.000			42.734			-4.273
62800.000			42.732			-4.273
62901.000			42.730			-4.273
63001.000			42.729			-4.273
63101.000			42.727			-4.273
63201.000			42.726			-4.273
63300.000			42.724			-4.272
63400.000			42.722			-4.272
63501.000			42.722			-4.272
63600.000			42.720			-4.272
63700.000			42.719			-4.272
63802.000			42.718			-4.272
63901.000			42.716			-4.272
64000.000			42.714			-4.271
64101.000			42.713			-4.271
64200.000			42.712			-4.271
64300.000			42.711			-4.271
64401.000			42.708			-4.271
64501.000			42.708			-4.271
64601.000			42.706			-4.271
64702.000			42.705			-4.271
64800.000			42.704			-4.270
64900.000			42.700			-4.270
65001.000			42.699			-4.270
65100.000			42.697			-4.270
65200.000			42.696			-4.270
65301.000			42.695			-4.269
65401.000			42.695			-4.269
65502.000			42.694			-4.269
65600.000			42.691			-4.269
65700.000			42.689			-4.269
65801.000			42.689			-4.269
65900.000			42.687			-4.269
66000.000			42.685			-4.269
66101.000			42.685			-4.268
66201.000			42.683			-4.268
66301.000			42.680			-4.268
66401.000			42.679			-4.268
66500.000			42.677			-4.268
66600.000			42.675			-4.268
66701.000			42.674			-4.267
66800.000			42.674			-4.267
66900.000			42.673			-4.267
67002.000			42.670			-4.267
67101.000			42.668			-4.267
67201.000			42.667			-4.267
67301.000			42.667			-4.267
67400.000			42.665			-4.267
67500.000			42.664			-4.266
67601.000			42.662			-4.266
67700.000			42.661			-4.266
67800.000			42.659			-4.266
67902.000			42.658			-4.266
68001.000			42.657			-4.266
68100.000			42.655			-4.265
68201.000			42.653			-4.265
68300.000			42.653			-4.265
68400.000			42.652			-4.265
68501.000			42.649			-4.265
68600.000			42.648			-4.265
68702.000			42.647			-4.265
68801.000			42.647			-4.265
68900.000			42.645			-4.265
69001.000			42.644			-4.264
69100.000			42.642			-4.264
69200.000			42.640			-4.264
69301.000			42.639			-4.264
69400.000			42.637			-4.264
69501.000			42.636			-4.264
69602.000			42.635			-4.263
69701.000			42.634			-4.263
69800.000			42.632			-4.263
69901.000			42.631			-4.263
70000.000			42.628			-4.263
70100.000			42.627			-4.263
70201.000			42.626			-4.263
70300.000			42.624			-4.262
70401.000			42.624			-4.262
70502.000			42.624			-4.262
70600.000			42.623			-4.262
70700.000			42.619			-4.262
70801.000			42.617			-4.262
70900.000			42.616			-4.262
71000.000			42.616			-4.262
71101.000			42.615			-4.262
71201.000			42.614			-4.261
71301.000			42.612			-4.261
71401.000			42.610			-4.261
71500.000			42.610			-4.261
71600.000			42.607			-4.261
71701.000			42.606			-4.261
71800.000			42.605			-4.260
71901.000			42.603			-4.260
72001.000			42.602			-4.260
72101.000			42.602			-4.260
72201.000			42.601			-4.260
72300.000			42.600			-4.260
72400.000			42.599			-4.260
72501.000			42.597			-4.260
72600.000			42.595			-4.260
72700.000			42.594			-4.259
72802.000			42.593			-4.259
72901.000			42.591			-4.259
73000.000			42.589			-4.259
73101.000			42.588			-4.259
73200.000			42.588			-4.259
73300.000			42.587			-4.259
73401.000			42.585			-4.258
73500.000			42.585			-4.258
73601.000			42.581			-4.258
73702.000			42.582			-4.258
73800.000			42.581			-4.258
73900.000			42.578			-4.258
74001.000			42.577			-4.258
74100.000			42.576			-4.258
74200.000			42.575			-4.258
74301.000			42.574			-4.257
74401.000			42.572			-4.257
74501.000			42.570			-4.257
74601.000			42.569			-4.257
74700.000			42.568			-4.257
74800.000			42.567			-4.257
74901.000			42.566			-4.257
75000.000			42.565			-4.256
75101.000			42.563			-4.256
75201.000			42.562			-4.256
75301.000			42.560			-4.256
75402.000			42.559			-4.256
75500.000			42.558			-4.256
75600.000			42.558			-4.256
75701.000			42.556			-4.256
75800.000			42.552			-4.255
75900.000			42.551			-4.255
76001.000			42.551			-4.255
76101.000			42.551			-4.255
76201.000			42.549			-4.255
76301.000			42.548			-4.255
76400.000			42.547			-4.255
76500.000			42.545			-4.255
76601.000			42.543			-4.254
76700.000			42.543			-4.254
76800.000			42.542			-4.254
76902.000			42.540			-4.254
77001.000			42.539			-4.254
77100.000			42.539			-4.254
77201.000			42.538			-4.254
77300.000			42.536			-4.254
77400.000			42.534			-4.253
77501.000			42.533			-4.253
77600.000			42.532			-4.253
77701.000			42.531			-4.253
77802.000			42.530			-4.253
77900.000			42.528			-4.253
78000.000			42.526			-4.253
78101.000			42.526			-4.253
78200.000			42.524			-4.252
78301.000			42.522			-4.252
78400.000			42.523			-4.252
78501.000			42.522			-4.252
78602.000			42.520			-4.252
78700.000			42.519			-4.252
78800.000			42.517			-4.252
78901.000			42.515			-4.252
79000.000			42.514			-4.251
79100.000			42.514			-4.251
79201.000			42.513			-4.251
79301.000			42.512			-4.251
79401.000			42.510			-4.251
79501.000			42.509			-4.251
79600.000			42.508			-4.251
79700.000			42.507			-4.251
79801.000			42.505			-4.250
79900.000			42.504			-4.250
80000.000			42.504			-4.250
80101.000			42.503			-4.250
80201.000			42.501			-4.250
80301.000			42.500			-4.250
80401.000			42.499			-4.250
80500.000			42.497			-4.250
80600.000			42.496			-4.250
80701.000			42.496			-4.250
80800.000			42.495			-4.249
80900.000			42.491			-4.249
81002.000			42.490			-4.249
81101.000			42.489			-4.249
81200.000			42.489			-4.249
81301.000			42.488			-4.249
81400.000			42.487			-4.249
81501.000			42.485			-4.248
81600.000			42.484			-4.248
81700.000			42.483			-4.248
81802.000			42.482			-4.248
81901.000			42.482			-4.248
82000.000			42.481			-4.248
82101.000			42.480			-4.248
82200.000			42.479			-4.248
82300.000			42.478			-4.248
82401.000			42.474			-4.247
82500.000			42.473			-4.247
82601.000			42.472			-4.247
82702.000			42.471			-4.247
82800.000			42.471			-4.247
82900.000			42.470			-4.247
83001.000			42.468			-4.247
83100.000			42.467			-4.247
83200.000			42.465			-4.247
83301.000			42.464			-4.246
83401.000			42.463			-4.246
83501.000			42.463			-4.246
83602.000			42.463			-4.246
83700.000			42.461			-4.246
83800.000			42.460			-4.246
83901.000			42.458			-4.246
84000.000			42.456			-4.246
84100.000			42.456			-4.246
84201.000			42.455			-4.246
84301.000			42.454			-4.245
84401.000			42.454			-4.245
84501.000			42.453			-4.245
84600.000			42.449			-4.245
84701.000			42.449			-4.245
84800.000			42.448			-4.245
84900.000			42.447			-4.245
85001.000			42.446			-4.245
85101.000			42.445			-4.244
85201.000			42.444			-4.244
85301.000			42.442			-4.244
85400.000			42.442			-4.244
85500.000			42.441			-4.244
85601.000			42.440			-4.244
85700.000			42.439			-4.244
85800.000			42.437			-4.244
85902.000			42.437			-4.244
86001.000			42.434			-4.243
86100.000			42.432			-4.243
86201.000			42.431			-4.243
86300.000			42.431			-4.243
86400.000			42.430			-4.243
86501.000			42.429			-4.243
86600.000			42.429			-4.243
86701.000			42.428			-4.243
86802.000			42.425			-4.243
86900.000			42.424			-4.242
87000.000			42.423			-4.242
87101.000			42.424			-4.242
87200.000			42.421			-4.242
87300.000			42.420			-4.242
87401.000			42.420			-4.242
87501.000			42.418			-4.242
87601.000			42.417			-4.242
87701.000			42.416			-4.242
87800.000			42.416			-4.242
87901.000			42.415			-4.242
88000.000			42.413			-4.241
88100.000			42.412			-4.241
88201.000			42.411			-4.241
88301.000			42.411			-4.241
88401.000			42.409			-4.241
88502.000			42.408			-4.241
88600.000			42.407			-4.241
88700.000			42.406			-4.241
88801.000			42.405			-4.240
88900.000			42.404			-4.240
89000.000			42.403			-4.240
89101.000			42.401			-4.240
89201.000			42.400			-4.240
89301.000			42.400			-4.240
89401.000			42.400			-4.240
89500.000			42.398			-4.240
89600.000			42.396			-4.240
89701.000			42.394			-4.239
89800.000			42.394			-4.239
89900.000			42.394			-4.239
90002.000			42.392			-4.239
90101.000			42.391			-4.239
90200.000			42.390			-4.239
90301.000			42.389			-4.239
90400.000			42.388			-4.239
90500.000			42.386			-4.239
90601.000			42.384			-4.238
90700.000			42.385			-4.238
90801.000			42.383			-4.238
90902.000			42.383			-4.238
91001.000			42.382			-4.238
91101.000			42.381			-4.238
91200.000			42.377			-4.238
91300.000			42.375			-4.238
91401.000			42.376			-4.238
91500.000			42.376			-4.238
91600.000			42.374			-4.237
91702.000			42.373			-4.237
91801.000			42.373			-4.237
91900.000			42.371			-4.237
92001.000			42.371			-4.237
92100.000			42.370			-4.237
92200.000			42.368			-4.237
92301.000			42.368			-4.237
92400.000			42.366			-4.237
92501.000			42.365			-4.236
92602.000			42.365			-4.237
92700.000			42.363			-4.236
92800.000			42.361			-4.236
92901.000			42.361			-4.236
93000.000			42.361			-4.236
93100.000			42.360			-4.236
93201.000			42.358			-4.236
93301.000			42.357			-4.236
93401.000			42.357			-4.236
93501.000			42.356			-4.236
93600.000			42.355			-4.235
93700.000			42.354			-4.235
93801.000			42.352			-4.235
93900.000			42.351			-4.235
94000.000			42.350			-4.235
94102.000			42.350			-4.235
94201.000			42.347			-4.235
94301.000			42.346			-4.235
94400.000			42.346			-4.235
94500.000			42.346			-4.235
94601.000			42.344			-4.234
94700.000			42.343			-4.234
94800.000			42.342			-4.234
94902.000			42.341			-4.234
95001.000			42.341			-4.234
95100.000			42.339			-4.234
95201.000			42.339			-4.234
95300.000			42.338			-4.234
95400.000			42.336			-4.234
95501.000			42.335			-4.234
95600.000			42.334			-4.233
95701.000			42.333			-4.233
95802.000			42.332			-4.233
95900.000			42.332			-4.233
96000.000			42.331			-4.233
96101.000			42.331			-4.233
96200.000			42.328			-4.233
96300.000			42.327			-4.233
96401.000			42.326			-4.233
96501.000			42.325			-4.232
96601.000			42.324			-4.232
96701.000			42.323			-4.232
96800.000			42.323			-4.232
96900.000			42.322			-4.232
97001.000			42.318			-4.232
97100.000			42.318			-4.232
97200.000			42.318			-4.232
97302.000			42.317			-4.232
97401.000			42.315			-4.232
97502.000			42.315			-4.232
97600.000			42.314			-4.231
97700.000			42.312			-4.231
97801.000			42.311			-4.231
97900.000			42.311			-4.231
98000.000			42.310			-4.231
98101.000			42.309			-4.231
98201.000			42.309			-4.231
98301.000			42.307			-4.231
98401.000			42.306			-4.231
98500.000			42.305			-4.230
98600.000			42.304			-4.230
98701.000			42.303			-4.230
98800.000			42.303			-4.230
98900.000			42.302			-4.230
99002.000			42.301			-4.230
99101.000			42.301			-4.230
99200.000			42.300			-4.230
99301.000			42.299			-4.230
99400.000			42.297			-4.230
99500.000			42.296			-4.230
99601.000			42.295			-4.229
99700.000			42.294			-4.229
99801.000			42.293			-4.229
99902.000			42.291			-4.229
100001.000			42.291			-4.229
100100.000			42.291			-4.229
100201.000			42.289			-4.229
100300.000			42.288			-4.229
100400.000			42.288			-4.229
100501.000			42.287			-4.229
100601.000			42.284			-4.228
100702.000			42.283			-4.228
100801.000			42.283			-4.228
100900.000			42.282			-4.228
101001.000			42.280			-4.228
101100.000			42.280			-4.228
101200.000			42.280			-4.228
101301.000			42.280			-4.228
101400.000			42.278			-4.228
101501.000			42.277			-4.228
101602.000			42.276			-4.228
101700.000			42.275			-4.228
101800.000			42.274			-4.227
101901.000			42.274			-4.227
102000.000			42.274			-4.227
102100.000			42.271			-4.227
102201.000			42.269			-4.227
102301.000			42.268			-4.227
102401.000			42.269			-4.227
102501.000			42.269			-4.227
102600.000			42.269			-4.227
102700.000			42.267			-4.227
102801.000			42.267			-4.227
102900.000			42.264			-4.226
103000.000			42.264			-4.226
103102.000			42.263			-4.226
103201.000			42.262			-4.226
103300.000			42.261			-4.226
103401.000			42.260			-4.226
103500.000			42.261			-4.226
103600.000			42.260			-4.226
103701.000			42.258			-4.226
103800.000			42.257			-4.226
103901.000			42.257			-4.226
104001.000			42.255			-4.226
104101.000			42.255			-4.225
104201.000			42.254			-4.225
104300.000			42.253			-4.225
104400.000			42.252			-4.225
104501.000			42.251			-4.225
104600.000			42.250			-4.225
104700.000			42.249			-4.225
104802.000			42.248			-4.225
104901.000			42.248			-4.225
105000.000			42.246			-4.225
105101.000			42.245			-4.225
105200.000			42.244			-4.224
105300.000			42.244			-4.224
105401.000			42.243			-4.224
105500.000			42.242			-4.224
105601.000			42.241			-4.224
105702.000			42.240			-4.224
105800.000			42.240			-4.224
105900.000			42.238			-4.224
106001.000			42.237			-4.224
106100.000			42.235			-4.224
106200.000			42.234			-4.223
106301.000			42.234			-4.223
106401.000			42.233			-4.223
106501.000			42.232			-4.223
106601.000			42.231			-4.223
106700.000			42.231			-4.223
106800.000			42.229			-4.223
106901.000			42.228			-4.223
107000.000			42.228			-4.223
107101.000			42.228			-4.223
107201.000			42.226			-4.223
107301.000			42.226			-4.223
107402.000			42.225			-4.222
107500.000			42.223			-4.222
107600.000			42.223			-4.222
107701.000			42.221			-4.222
107800.000			42.220			-4.222
107900.000			42.219			-4.222
108001.000			42.218			-4.222
108101.000			42.216			-4.222
108201.000			42.215			-4.222
108301.000			42.215			-4.222
108400.000			42.215			-4.221
108500.000			42.214			-4.221
108601.000			42.214			-4.221
108700.000			42.211			-4.221
108800.000			42.211			-4.221
108902.000			42.210			-4.221
109001.000			42.209			-4.221
109100.000			42.209			-4.221
109201.000			42.207			-4.221
109300.000			42.207			-4.221
109400.000			42.206			-4.221
109501.000			42.206			-4.221
109600.000			42.205			-4.221
109701.000			42.204			-4.220
109802.000			42.204			-4.220
109901.000			42.202			-4.220
110000.000			42.201			-4.220
110101.000			42.201			-4.220
110200.000			42.200			-4.220
110301.000			42.199			-4.220
110400.000			42.199			-4.220
110500.000			42.198			-4.220
110602.000			42.196			-4.220
110701.000			42.195			-4.219
110800.000			42.195			-4.220
110901.000			42.194			-4.219
111000.000			42.194			-4.219
111100.000			42.193			-4.219
111201.000			42.192			-4.219
111300.000			42.190			-4.219
111401.000			42.191			-4.219
111502.000			42.191			-4.219
111600.000			42.189			-4.219
111700.000			42.188			-4.219
111801.000			42.187			-4.219
111900.000			42.186			-4.219
112000.000			42.186			-4.219
112101.000			42.185			-4.219
112201.000			42.183			-4.218
112301.000			42.182			-4.218
112401.000			42.181			-4.218
112500.000			42.182			-4.218
112600.000			42.180			-4.218
112701.000			42.180			-4.218
112800.000			42.180			-4.218
112900.000			42.178			-4.218
113002.000			42.177			-4.218
113101.000			42.177			-4.218
113200.000			42.175			-4.218
113301.000			42.173			-4.217
113400.000			42.173			-4.217
113501.000			42.174			-4.217
113600.000			42.173			-4.217
113700.000			42.173			-4.217
113802.000			42.171			-4.217
113901.000			42.169			-4.217
114000.000			42.168			-4.217
114101.000			42.167			-4.217
114200.000			42.167			-4.217
114300.000			42.167			-4.217
114401.000			42.166			-4.217
114500.000			42.164			-4.216
114600.000			42.164			-4.216
114702.000			42.163			-4.216
114801.000			42.163			-4.216
114900.000			42.162			-4.216
115001.000			42.160			-4.216
115100.000			42.160			-4.216
115200.000			42.160			-4.216
115301.000			42.158			-4.216
115400.000			42.157			-4.216
115501.000			42.158			-4.216
115602.000			42.157			-4.216
115700.000			42.154			-4.215
115800.000			42.153			-4.215
115901.000			42.154			-4.215
116000.000			42.152			-4.215
116100.000			42.151			-4.215
116201.000			42.150			-4.215
116301.000			42.150			-4.215
116401.000			42.149			-4.215
116501.000			42.148			-4.215
116600.000			42.148			-4.215
116701.000			42.145			-4.215
116800.000			42.145			-4.214
116900.000			42.144			-4.214
117001.000			42.145			-4.214
117101.000			42.144			-4.214
117201.000			42.143			-4.214
117302.000			42.143			-4.214
117400.000			42.141			-4.214
117500.000			42.140			-4.214
117601.000			42.139			-4.214
117700.000			42.139			-4.214
117800.000			42.138			-4.214
117901.000			42.137			-4.214
118001.000			42.136			-4.214
118101.000			42.136			-4.214
118201.000			42.135			-4.213
118300.000			42.133			-4.213
118400.000			42.133			-4.213
118501.000			42.131			-4.213
118600.000			42.130			-4.213
118700.000			42.130			-4.213
118802.000			42.130			-4.213
118901.000			42.129			-4.213
119000.000			42.129			-4.213
119101.000			42.127			-4.213
119200.000			42.126			-4.213
119300.000			42.126			-4.213
119401.000			42.125			-4.213
119500.000			42.124			-4.212
119601.000			42.123			-4.212
119702.000			42.122			-4.212
119801.000			42.120			-4.212
119901.000			42.119			-4.212
120000.000			42.119			-4.212
120100.000			42.120			-4.212
120201.000			42.119			-4.212
120300.000			42.118			-4.212
120400.000			42.115			-4.212
120502.000			42.116			-4.212
120601.000			42.115			-4.211
120700.000			42.114			-4.211
120801.000			42.114			-4.211
120900.000			42.114			-4.211
121000.000			42.111			-4.211
121101.000			42.109			-4.211
121200.000			42.109			-4.211
121301.000			42.109			-4.211
121402.000			42.109			-4.211
121500.000			42.107			-4.211
121600.000			42.106			-4.211
121701.000			42.107			-4.211
121800.000			42.104			-4.210
121900.000			42.104			-4.210
122001.000			42.103			-4.210
122101.000			42.102			-4.210
122201.000			42.101			-4.210
122301.000			42.101			-4.210
122400.000			42.100			-4.210
122500.000			42.099			-4.210
122601.000			42.098			-4.210
122700.000			42.097			-4.210
122800.000			42.097			-4.210
122902.000			42.096			-4.210
123001.000			42.095			-4.210
123101.000			42.095			-4.209
123200.000			42.094			-4.209
123300.000			42.093			-4.209
123401.000			42.091			-4.209
123500.000			42.091			-4.209
123600.000			42.091			-4.209
123702.000			42.089			-4.209
123801.000			42.089			-4.209
123900.000			42.089			-4.209
124001.000			42.087			-4.209
124100.000			42.086			-4.209
124200.000			42.086			-4.209
124301.000			42.086			-4.209
124400.000			42.084			-4.208
124500.000			42.084			-4.208
124602.000			42.083			-4.208
124701.000			42.081			-4.208
124800.000			42.079			-4.208
124901.000			42.078			-4.208
125000.000			42.079			-4.208
125100.000			42.078			-4.208
125201.000			42.077			-4.208
125300.000			42.077			-4.208
125401.000			42.076			-4.208
125502.000			42.075			-4.207
125600.000			42.074			-4.207
125700.000			42.073			-4.207
125801.000			42.072			-4.207
125900.000			42.072			-4.207
126000.000			42.071			-4.207
126101.000			42.070			-4.207
126201.000			42.071			-4.207
126302.000			42.069			-4.207
126400.000			42.068			-4.207
126500.000			42.067			-4.207
126601.000			42.066			-4.207
126700.000			42.066			-4.207
126800.000			42.065			-4.206
126901.000			42.064			-4.206
127000.000			42.062			-4.206
127101.000			42.062			-4.206
127202.000			42.062			-4.206
127300.000			42.061			-4.206
127400.000			42.061			-4.206
127501.000			42.061			-4.206
127600.000			42.060			-4.206
127700.000			42.058			-4.206
127801.000			42.055			-4.206
127901.000			42.055			-4.205
128001.000			42.056			-4.206
128101.000			42.056			-4.206
128200.000			42.055			-4.205
128300.000			42.052			-4.205
128401.000			42.050			-4.205
128500.000			42.051			-4.205
128600.000			42.052			-4.205
128702.000			42.051			-4.205
128801.000			42.050			-4.205
128900.000			42.047			-4.205
129001.000			42.046			-4.205
129100.000			42.046			-4.205
129200.000			42.046			-4.205
129301.000			42.045			-4.205
129400.000			42.045			-4.204
129501.000			42.044			-4.204
129601.000			42.043			-4.204
129701.000			42.043			-4.204
129801.000			42.043			-4.204
129900.000			42.042			-4.204
130000.000			42.040			-4.204
130101.000			42.038			-4.204
130200.000			42.038			-4.204
130300.000			42.038			-4.204
130402.000			42.038			-4.204
130501.000			42.036			-4.204
130600.000			42.035			-4.204
130701.000			42.034			-4.203
130800.000			42.033			-4.203
130900.000			42.033			-4.203
131001.000			42.032			-4.203
131100.000			42.032			-4.203
131201.000			42.032			-4.203
131302.000			42.030			-4.203
131401.000			42.030			-4.203
131500.000			42.029			-4.203
131601.000			42.029			-4.203
131700.000			42.027			-4.203
131800.000			42.026			-4.203
131901.000			42.026			-4.203
132000.000			42.025			-4.202
132101.000			42.025			-4.202
132202.000			42.024			-4.202
132301.000			42.024			-4.202
132400.000			42.023			-4.202
132501.000			42.022			-4.202
132600.000			42.021			-4.202
132701.000			42.021			-4.202
132800.000			42.020			-4.202
132900.000			42.019			-4.202
133002.000			42.018			-4.202
133101.000			42.018			-4.202
133200.000			42.018			-4.202
133301.000			42.016			-4.202
133400.000			42.016			-4.202
133500.000			42.015			-4.201
133601.000			42.015			-4.201
133700.000			42.013			-4.201
133800.000			42.013			-4.201
133902.000			42.013			-4.201
134001.000			42.012			-4.201
134100.000			42.011			-4.201
134201.000			42.011			-4.201
134300.000			42.010			-4.201
134400.000			42.009			-4.201
134501.000			42.007			-4.201
134600.000			42.006			-4.201
134700.000			42.006			-4.201
134802.000			42.006			-4.201
134901.000			42.005			-4.201
135000.000			42.004			-4.200
135101.000			42.004			-4.200
135200.000			42.003			-4.200
135300.000			42.003			-4.200
135401.000			42.002			-4.200
135500.000			42.001			-4.200
135600.000			41.999			-4.200
135702.000			41.998			-4.200
135801.000			41.997			-4.200
135901.000			41.997			-4.200
136000.000			41.997			-4.200
136100.000			41.997			-4.200
136201.000			41.996			-4.200
136300.000			41.995			-4.199
136400.000			41.994			-4.199
136501.000			41.993			-4.199
136601.000			41.993			-4.199
136701.000			41.992			-4.199
136802.000			41.992			-4.199
136900.000			41.992			-4.199
137000.000			41.991			-4.199
137101.000			41.990			-4.199
137200.000			41.988			-4.199
137300.000			41.988			-4.199
137401.000			41.987			-4.199
137500.000			41.985			-4.199
137601.000			41.985			-4.199
137702.000			41.985			-4.199
137801.000			41.985			-4.198
137900.000			41.983			-4.198
138001.000			41.983			-4.198
138100.000			41.983			-4.198
138200.000			41.982			-4.198
138301.000			41.982			-4.198
138400.000			41.981			-4.198
138500.000			41.980			-4.198
138602.000			41.978			-4.198
138701.000			41.978			-4.198
138800.000			41.978			-4.198
138901.000			41.978			-4.198
139000.000			41.977			-4.198
139101.000			41.976			-4.198
139200.000			41.976			-4.198
139300.000			41.975			-4.197
139401.000			41.974			-4.197
139501.000			41.973			-4.197
139601.000			41.972			-4.197
139702.000			41.971			-4.197
139800.000			41.970			-4.197
139900.000			41.970			-4.197
140001.000			41.969			-4.197
140100.000			41.967			-4.197
140200.000			41.967			-4.197
140301.000			41.966			-4.197
140400.000			41.966			-4.197
140501.000			41.966			-4.197
140602.000			41.965			-4.196
140700.000			41.964			-4.196
140800.000			41.964			-4.196
140901.000			41.964			-4.196
141000.000			41.963			-4.196
141100.000			41.962			-4.196
141201.000			41.961			-4.196
141300.000			41.960			-4.196
141401.000			41.960			-4.196
141502.000			41.960			-4.196
141600.000			41.959			-4.196
141700.000			41.958			-4.196
141801.000			41.958			-4.196
141900.000			41.956			-4.196
142000.000			41.955			-4.196
142101.000			41.956			-4.196
142200.000			41.956			-4.196
142302.000			41.954			-4.195
142401.000			41.954			-4.195
142501.000			41.953			-4.195
142601.000			41.952			-4.195
142700.000			41.951			-4.195
142800.000			41.951			-4.195
142901.000			41.950			-4.195
143000.000			41.948			-4.195
143100.000			41.948			-4.195
143201.000			41.948			-4.195
143301.000			41.948			-4.195
143401.000			41.947			-4.195
143501.000			41.946			-4.195
143600.000			41.945			-4.194
143700.000			41.945			-4.194
143801.000			41.943			-4.194
143900.000			41.943			-4.194
144000.000			41.942			-4.194
144101.000			41.941			-4.194
144201.000			41.941			-4.194
144301.000			41.941			-4.194
144401.000			41.940			-4.194
144500.000			41.940			-4.194
144600.000			41.939			-4.194
144701.000			41.938			-4.194
144800.000			41.937			-4.194
144900.000			41.937			-4.194
145001.000			41.937			-4.194
145101.000			41.935			-4.193
145201.000			41.934			-4.193
145301.000			41.933			-4.193
145400.000			41.933			-4.193
145501.000			41.932			-4.193
145600.000			41.932			-4.193
145700.000			41.931			-4.193
145801.000			41.931			-4.193
145900.000			41.930			-4.193
146000.000			41.928			-4.193
146102.000			41.929			-4.193
146201.000			41.928			-4.193
146300.000			41.927			-4.193
146401.000			41.926			-4.193
146500.000			41.925			-4.192
146600.000			41.925			-4.193
146701.000			41.925			-4.192
146800.000			41.925			-4.192
146900.000			41.924			-4.192
147002.000			41.923			-4.192
147101.000			41.923			-4.192
147200.000			41.923			-4.192
147301.000			41.921			-4.192
147400.000			41.920			-4.192
147500.000			41.920			-4.192
147601.000			41.919			-4.192
147700.000			41.918			-4.192
147800.000			41.918			-4.192
147902.000			41.916			-4.192
148001.000			41.916			-4.192
148101.000			41.916			-4.192
148201.000			41.914			-4.191
148300.000			41.914			-4.191
148400.000			41.913			-4.191
148501.000			41.913			-4.191
148600.000			41.913			-4.191
148701.000			41.913			-4.191
148800.000			41.913			-4.191
148901.000			41.910			-4.191
149002.000			41.910			-4.191
149100.000			41.909			-4.191
149200.000			41.909			-4.191
149301.000			41.908			-4.191
149400.000			41.907			-4.191
149500.000			41.906			-4.191
149601.000			41.906			-4.191
149700.000			41.904			-4.190
149801.000			41.904			-4.190
149902.000			41.903			-4.190
150001.000			41.902			-4.190
150100.000			41.901			-4.190
150201.000			41.901			-4.190
150300.000			41.902			-4.190
150400.000			41.901			-4.190
150501.000			41.902			-4.190
150600.000			41.900			-4.190
150701.000			41.899			-4.190
150802.000			41.900			-4.190
150901.000			41.898			-4.190
151000.000			41.897			-4.190
151101.000			41.896			-4.190
151200.000			41.896			-4.190
151300.000			41.895			-4.190
151401.000			41.895			-4.189
151500.000			41.894			-4.189
151600.000			41.894			-4.189
151702.000			41.893			-4.189
151801.000			41.893			-4.189
151901.000			41.892			-4.189
152000.000			41.892			-4.189
152100.000			41.891			-4.189
152201.000			41.891			-4.189
152300.000			41.890			-4.189
152400.000			41.889			-4.189
152501.000			41.889			-4.189
152601.000			41.889			-4.189
152701.000			41.888			-4.189
152802.000			41.888			-4.189
152900.000			41.887			-4.189
153000.000			41.886			-4.189
153101.000			41.886			-4.189
153200.000			41.885			-4.188
153300.000			41.883			-4.188
153401.000			41.883			-4.188
153500.000			41.883			-4.188
153601.000			41.883			-4.188
153702.000			41.882			-4.188
153800.000			41.882			-4.188
153900.000			41.881			-4.188
154001.000			41.879			-4.188
154100.000			41.878			-4.188
154200.000			41.877			-4.188
154301.000			41.878			-4.188
154400.000			41.877			-4.188
154500.000			41.876			-4.188
154602.000			41.875			-4.188
154701.000			41.874			-4.187
154800.000			41.874			-4.187
154901.000			41.874			-4.187
155000.000			41.873			-4.187
155101.000			41.873			-4.187
155200.000			41.872			-4.187
155300.000			41.872			-4.187
155401.000			41.872			-4.187
155501.000			41.871			-4.187
155601.000			41.870			-4.187
155701.000			41.869			-4.187
155800.000			41.868			-4.187
155900.000			41.867			-4.187
156001.000			41.867			-4.187
156100.000			41.866			-4.187
156200.000			41.866			-4.187
156301.000			41.865			-4.187
156401.000			41.865			-4.186
156501.000			41.865			-4.186
156602.000			41.864			-4.186
156700.000			41.864			-4.186
156800.000			41.863			-4.186
156901.000			41.861			-4.186
157000.000			41.860			-4.186
157100.000			41.860			-4.186
157201.000			41.860			-4.186
157300.000			41.859			-4.186
157401.000			41.859			-4.186
157502.000			41.859			-4.186
157601.000			41.857			-4.186
157700.000			41.856			-4.186
157801.000			41.856			-4.186
157900.000			41.856			-4.186
158000.000			41.855			-4.186
158101.000			41.855			-4.185
158200.000			41.854			-4.185
158301.000			41.853			-4.185
158401.000			41.852			-4.185
158501.000			41.851			-4.185
158601.000			41.850			-4.185
158700.000			41.850			-4.185
158800.000			41.850			-4.185
158901.000			41.849			-4.185
159000.000			41.849			-4.185
159100.000			41.847			-4.185
159201.000			41.846			-4.185
159300.000			41.846			-4.185
159401.000			41.845			-4.185
159502.000			41.844			-4.184
159600.000			41.845			-4.184
159700.000			41.844			-4.184
159801.000			41.842			-4.184
159900.000			41.842			-4.184
160000.000			41.842			-4.184
160101.000			41.841			-4.184
160200.000			41.839			-4.184
160301.000			41.840			-4.184
160402.000			41.840			-4.184
160501.000			41.839			-4.184
160600.000			41.837			-4.184
160701.000			41.837			-4.184
160800.000			41.837			-4.184
160900.000			41.836			-4.184
161001.000			41.836			-4.184
161100.000			41.835			-4.184
161200.000			41.835			-4.183
161302.000			41.833			-4.183
161401.000			41.834			-4.183
161501.000			41.833			-4.183
161600.000			41.833			-4.183
161700.000			41.831			-4.183
161801.000			41.831			-4.183
161900.000			41.830			-4.183
162000.000			41.830			-4.183
162101.000			41.828			-4.183
162201.000			41.828			-4.183
162301.000			41.828			-4.183
162401.000			41.827			-4.183
162500.000			41.827			-4.183
162600.000			41.827			-4.183
162701.000			41.826			-4.183
162800.000			41.824			-4.182
162900.000			41.823			-4.182
163001.000			41.823			-4.182
163101.000			41.822			-4.182
163201.000			41.823			-4.182
163301.000			41.823			-4.182
163400.000			41.821			-4.182
163500.000			41.820			-4.182
163601.000			41.820			-4.182
163700.000			41.819			-4.182
163800.000			41.819			-4.182
163901.000			41.818			-4.182
164001.000			41.817			-4.182
164101.000			41.816			-4.182
164202.000			41.815			-4.182
164300.000			41.814			-4.181
164400.000			41.814			-4.181
164501.000			41.815			-4.181
164600.000			41.814			-4.181
164701.000			41.814			-4.181
164800.000			41.813			-4.181
164900.000			41.813			-4.181
165002.000			41.812			-4.181
165101.000			41.812			-4.181
165200.000			41.811			-4.181
165301.000			41.810			-4.181
165400.000			41.808			-4.181
165500.000			41.808			-4.181
165601.000			41.808			-4.181
165700.000			41.808			-4.181
165800.000			41.807			-4.181
165902.000			41.807			-4.181
166001.000			41.806			-4.181
166100.000			41.807			-4.181
166201.000			41.805			-4.181
166300.000			41.804			-4.180
166400.000			41.804			-4.180
166501.000			41.803			-4.180
166600.000			41.802			-4.180
166700.000			41.801			-4.180
166802.000			41.801			-4.180
166901.000			41.801			-4.180
167001.000			41.801			-4.180
167101.000			41.800			-4.180
167200.000			41.800			-4.180
167300.000			41.799			-4.180
167401.000			41.799			-4.180
167500.000			41.799			-4.180
167600.000			41.798			-4.180
167701.000			41.798			-4.180
167801.000			41.797			-4.180
167902.000			41.794			-4.179
168001.000			41.795			-4.179
168100.000			41.795			-4.180
168201.000			41.795			-4.179
168300.000			41.794			-4.179
168400.000			41.794			-4.179
168501.000			41.793			-4.179
168600.000			41.792			-4.179
168700.000			41.791			-4.179
168802.000			41.790			-4.179
168901.000			41.790			-4.179
169000.000			41.789			-4.179
169101.000			41.789			-4.179
169200.000			41.788			-4.179
169300.000			41.787			-4.179
169401.000			41.788			-4.179
169500.000			41.787			-4.179
169600.000			41.787			-4.179
169701.000			41.786			-4.179
169801.000			41.785			-4.178
169901.000			41.784			-4.178
170001.000			41.784			-4.178
170100.000			41.783			-4.178
170200.000			41.782			-4.178
170301.000			41.782			-4.178
170400.000			41.781			-4.178
170500.000			41.780			-4.178
170601.000			41.780			-4.178
170701.000			41.780			-4.178
170801.000			41.779			-4.178
170902.000			41.779			-4.178
171000.000			41.778			-4.178
171101.000			41.777			-4.178
171200.000			41.777			-4.178
171300.000			41.776			-4.178
171401.000			41.775			-4.177
171500.000			41.775			-4.177
171600.000			41.774			-4.177
171702.000			41.774			-4.177
171801.000			41.774			-4.177
171900.000			41.773			-4.177
172001.000			41.773			-4.177
172100.000			41.772			-4.177
172200.000			41.771			-4.177
172301.000			41.770			-4.177
172400.000			41.770			-4.177
172500.000			41.770			-4.177
172602.000			41.770			-4.177
172701.000			41.769			-4.177
172801.000			41.768			-4.177
172901.000			41.767			-4.177
173000.000			41.766			-4.177
173100.000			41.765			-4.177
173201.000			41.765			-4.177
173300.000			41.765			-4.176
173400.000			41.764			-4.176
173501.000			41.763			-4.176
173601.000			41.763			-4.176
173701.000			41.762			-4.176
173801.000			41.762			-4.176
173900.000			41.762			-4.176
174000.000			41.761			-4.176
174101.000			41.761			-4.176
174200.000			41.760			-4.176
174301.000			41.759			-4.176
174400.000			41.759			-4.176
174501.000			41.759			-4.176
174602.000			41.758			-4.176
174701.000			41.756			-4.176
174800.000			41.756			-4.176
174901.000			41.756			-4.176
175000.000			41.756			-4.176
175100.000			41.755			-4.175
175201.000			41.753			-4.175
175300.000			41.753			-4.175
175400.000			41.752			-4.175
175502.000			41.751			-4.175
175601.000			41.752			-4.175
175700.000			41.752			-4.175
175801.000			41.751			-4.175
175900.000			41.751			-4.175
176000.000			41.750			-4.175
176101.000			41.749			-4.175
176200.000			41.749			-4.175
176300.000			41.748			-4.175
176402.000			41.747			-4.175
176501.000			41.746			-4.175
176601.000			41.746			-4.175
176701.000			41.745			-4.174
176800.000			41.744			-4.174
176900.000			41.743			-4.174
177001.000			41.743			-4.174
177100.000			41.743			-4.174
177200.000			41.742			-4.174
177301.000			41.742			-4.174
177401.000			41.742			-4.174
177502.000			41.741			-4.174
177601.000			41.739			-4.174
177700.000			41.739			-4.174
177801.000			41.739			-4.174
177900.000			41.739			-4.174
178000.000			41.739			-4.174
178101.000			41.738			-4.174
178200.000			41.736			-4.174
178300.000			41.736			-4.174
178402.000			41.735			-4.174
178501.000			41.735			-4.174
178600.000			41.736			-4.174
178701.000			41.735			-4.173
178800.000			41.734			-4.173
178900.000			41.733			-4.173
179001.000			41.733			-4.173
179100.000			41.732			-4.173
179200.000			41.732			-4.173
179301.000			41.732			-4.173
179401.000			41.731			-4.173
179501.000			41.731			-4.173
179601.000			41.730			-4.173
179700.000			41.729			-4.173
179800.000			41.728			-4.173
179901.000			41.728			-4.173
180000.000			41.728			-4.173
180100.000			41.727			-4.173
180201.000			41.727			-4.173
180301.000			41.725			-4.173
180401.000			41.725			-4.173
180501.000			41.723			-4.172
180600.000			41.723			-4.172
180701.000			41.723			-4.172
180800.000			41.723			-4.172
180900.000			41.722			-4.172
181001.000			41.721			-4.172
181100.000			41.721			-4.172
181201.000			41.722			-4.172
181302.000			41.722			-4.172
181401.000			41.721			-4.172
181500.000			41.720			-4.172
181601.000			41.720			-4.172
181700.000			41.720			-4.172
181800.000			41.719			-4.172
181901.000			41.718			-4.172
182000.000			41.717			-4.172
182101.000			41.717			-4.172
182202.000			41.716			-4.172
182301.000			41.715			-4.172
182400.000			41.714			-4.171
182501.000			41.715			-4.172
182600.000			41.715			-4.171
182700.000			41.714			-4.171
182801.000			41.714			-4.171
182900.000			41.713			-4.171
183001.000			41.712			-4.171
183102.000			41.711			-4.171
183201.000			41.710			-4.171
183300.000			41.710			-4.171
183401.000			41.710			-4.171
183500.000			41.709			-4.171
183600.000			41.708			-4.171
183701.000			41.708			-4.171
183800.000			41.708			-4.171
183901.000			41.707			-4.171
184001.000			41.706			-4.171
184101.000			41.706			-4.171
184201.000			41.707			-4.171
184300.000			41.706			-4.171
184400.000			41.705			-4.171
184501.000			41.703			-4.170
184600.000			41.703			-4.170
184700.000			41.702			-4.170
184801.000			41.702			-4.170
184901.000			41.702			-4.170
185001.000			41.702			-4.170
185101.000			41.701			-4.170
185200.000			41.701			-4.170
185300.000			41.701			-4.170
185401.000			41.698			-4.170
185500.000			41.699			-4.170
185600.000			41.699			-4.170
185701.000			41.698			-4.170
185801.000			41.698			-4.170
185901.000			41.696			-4.170
186002.000			41.695			-4.169
186100.000			41.695			-4.169
186200.000			41.696			-4.170
186301.000			41.695			-4.169
186400.000			41.693			-4.169
186500.000			41.693			-4.169
186601.000			41.693			-4.169
186700.000			41.693			-4.169
186801.000			41.691			-4.169
186902.000			41.692			-4.169
187001.000			41.691			-4.169
187101.000			41.691			-4.169
187200.000			41.690			-4.169
187300.000			41.690			-4.169
187401.000			41.689			-4.169
187500.000			41.690			-4.169
187600.000			41.688			-4.169
187701.000			41.687			-4.169
187801.000			41.686			-4.169
187901.000			41.686			-4.169
188002.000			41.685			-4.169
188100.000			41.686			-4.169
188200.000			41.685			-4.169
188301.000			41.684			-4.168
188400.000			41.684			-4.168
188500.000			41.684			-4.168
188601.000			41.683			-4.168
188700.000			41.683			-4.168
188801.000			41.683			-4.168
188902.000			41.683			-4.168
189001.000			41.682			-4.168
189100.000			41.680			-4.168
189201.000			41.680			-4.168
189300.000			41.680			-4.168
189400.000			41.678			-4.168
189501.000			41.678			-4.168
189600.000			41.678			-4.168
189700.000			41.678			-4.168
189802.000			41.676			-4.168
189901.000			41.676			-4.168
190000.000			41.676			-4.168
190101.000			41.676			-4.168
190200.000			41.675			-4.167
190301.000			41.675			-4.167
190400.000			41.675			-4.167
190500.000			41.674			-4.167
190601.000			41.675			-4.167
190701.000			41.674			-4.167
190801.000			41.672			-4.167
190902.000			41.670			-4.167
191000.000			41.671			-4.167
191100.000			41.671			-4.167
191201.000			41.669			-4.167
191300.000			41.668			-4.167
191400.000			41.667			-4.167
191501.000			41.667			-4.167
191600.000			41.668			-4.167
191701.000			41.668			-4.167
191802.000			41.667			-4.167
191900.000			41.667			-4.167
192000.000			41.666			-4.167
192101.000			41.665			-4.167
192200.000			41.665			-4.167
192300.000			41.665			-4.166
192401.000			41.664			-4.166
192500.000			41.663			-4.166
192601.000			41.663			-4.166
192702.000			41.662			-4.166
192801.000			41.663			-4.166
192900.000			41.662			-4.166
193001.000			41.661			-4.166
193100.000			41.661			-4.166
193200.000			41.659			-4.166
193301.000			41.659			-4.166
193400.000			41.660			-4.166
193501.000			41.658			-4.166
193601.000			41.657			-4.166
193701.000			41.656			-4.166
193801.000			41.656			-4.166
193900.000			41.656			-4.166
194000.000			41.656			-4.166
194101.000			41.655			-4.166
194200.000			41.656			-4.166
194300.000			41.655			-4.165
194401.000			41.654			-4.165
194501.000			41.653			-4.165
194601.000			41.653			-4.165
194702.000			41.653			-4.165
194800.000			41.652			-4.165
194900.000			41.651			-4.165
195001.000			41.651			-4.165
195100.000			41.651			-4.165
195200.000			41.650			-4.165
195301.000			41.650			-4.165
195400.000			41.650			-4.165
195501.000			41.650			-4.165
195602.000			41.648			-4.165
195700.000			41.646			-4.165
195800.000			41.647			-4.165
195901.000			41.647			-4.165
196000.000			41.646			-4.165
196100.000			41.646			-4.165
196201.000			41.645			-4.165
196300.000			41.645			-4.165
196401.000			41.644			-4.164
196502.000			41.644			-4.164
196601.000			41.643			-4.164
196701.000			41.642			-4.164
196800.000			41.641			-4.164
196900.000			41.641			-4.164
197001.000			41.640			-4.164
197100.000			41.641			-4.164
197200.000			41.640			-4.164
197301.000			41.639			-4.164
197401.000			41.638			-4.164
197501.000			41.639			-4.164
197601.000			41.639			-4.164
197700.000			41.639			-4.164
197800.000			41.637			-4.164
197901.000			41.636			-4.164
198000.000			41.635			-4.163
198100.000			41.635			-4.164
198201.000			41.634			-4.163
198301.000			41.634			-4.163
198401.000			41.634			-4.163
198502.000			41.633			-4.163
198600.000			41.632			-4.163
198700.000			41.632			-4.163
198801.000			41.632			-4.163
198900.000			41.631			-4.163
199000.000			41.631			-4.163
199101.000			41.632			-4.163
199200.000			41.630			-4.163
199301.000			41.630			-4.163
199402.000			41.630			-4.163
199500.000			41.630			-4.163
199600.000			41.629			-4.163
199701.000			41.628			-4.163
199800.000			41.627			-4.163
199901.000			41.627			-4.163
200000.000			41.625			-4.162
200100.000			41.624			-4.162
200201.000			41.625			-4.162
200301.000			41.624			-4.162
200401.000			41.624			-4.162
200501.000			41.623			-4.162
200600.000			41.623			-4.162
200700.000			41.623			-4.162
200801.000			41.623			-4.162
200900.000			41.622			-4.162
201000.000			41.621			-4.162
201102.000			41.621			-4.162
201201.000			41.621			-4.162
201301.000			41.620			-4.162
201401.000			41.620			-4.162
201500.000			41.618			-4.162
201600.000			41.618			-4.162
201701.000			41.618			-4.162
201800.000			41.617			-4.162
201900.000			41.617			-4.162
202002.000			41.617			-4.162
202101.000			41.615			-4.162
202201.000			41.615			-4.162
202301.000			41.615			-4.162
202400.000			41.615			-4.161
202500.000			41.614			-4.161
202601.000			41.613			-4.161
202700.000			41.613			-4.161
202800.000			41.614			-4.161
202902.000			41.612			-4.161
203001.000			41.611			-4.161
203102.000			41.612			-4.161
203200.000			41.611			-4.161
203300.000			41.609			-4.161
203401.000			41.609			-4.161
203500.000			41.610			-4.161
203600.000			41.609			-4.161
203701.000			41.609			-4.161
203801.000			41.608			-4.161
203901.000			41.607			-4.161
204002.000			41.606			-4.161
204100.000			41.606			-4.161
204200.000			41.606			-4.161
204301.000			41.606			-4.161
204400.000			41.605			-4.160
204500.000			41.604			-4.160
204601.000			41.603			-4.160
204701.000			41.603			-4.160
204801.000			41.602			-4.160
204902.000			41.603			-4.160
205000.000			41.603			-4.160
205100.000			41.601			-4.160
205201.000			41.602			-4.160
205300.000			41.601			-4.160
205400.000			41.600			-4.160
205501.000			41.599			-4.160
205601.000			41.598			-4.160
205701.000			41.598			-4.160
205802.000			41.598			-4.160
205900.000			41.598			-4.160
206000.000			41.598			-4.160
206101.000			41.597			-4.160
206200.000			41.596			-4.160
206301.000			41.596			-4.160
206400.000			41.597			-4.160
206500.000			41.596			-4.160
206602.000			41.594			-4.159
206701.000			41.595			-4.159
206800.000			41.594			-4.159
206901.000			41.593			-4.159
207000.000			41.591			-4.159
207100.000			41.592			-4.159
207201.000			41.591			-4.159
207300.000			41.591			-4.159
207400.000			41.591			-4.159
207502.000			41.591			-4.159
207601.000			41.591			-4.159
207700.000			41.590			-4.159
207801.000			41.590			-4.159
207900.000			41.590			-4.159
208000.000			41.588			-4.159
208101.000			41.586			-4.159
208200.000			41.586			-4.159
208300.000			41.585			-4.159
208402.000			41.586			-4.159
208501.000			41.586			-4.159
208601.000			41.585			-4.159
208701.000			41.585			-4.159
208800.000			41.584			-4.158
208900.000			41.584			-4.158
209001.000			41.583			-4.158
209100.000			41.584			-4.158
209200.000			41.583			-4.158
209301.000			41.582			-4.158
209401.000			41.582			-4.158
209502.000			41.581			-4.158
209600.000			41.580			-4.158
209700.000			41.580			-4.158
209801.000			41.579			-4.158
209900.000			41.578			-4.158
210000.000			41.579			-4.158
210101.000			41.579			-4.158
210200.000			41.578			-4.158
210301.000			41.578			-4.158
210402.000			41.577			-4.158
210501.000			41.576			-4.158
210600.000			41.575			-4.158
210701.000			41.576			-4.158
210800.000			41.575			-4.158
210900.000			41.574			-4.157
211001.000			41.574			-4.157
211100.000			41.574			-4.157
211201.000			41.573			-4.157
211302.000			41.573			-4.157
211401.000			41.573			-4.157
211500.000			41.572			-4.157
211601.000			41.572			-4.157
211700.000			41.572			-4.157
211800.000			41.571			-4.157
211901.000			41.569			-4.157
212000.000			41.569			-4.157
212101.000			41.569			-4.157
212202.000			41.569			-4.157
212300.000			41.568			-4.157
212400.000			41.567			-4.157
212501.000			41.566			-4.157
212600.000			41.566			-4.157
212701.000			41.566			-4.157
212800.000			41.565			-4.157
212900.000			41.565			-4.156
213002.000			41.565			-4.157
213101.000			41.566			-4.157
213200.000			41.564			-4.156
213301.000			41.563			-4.156
213400.000			41.562			-4.156
213500.000			41.562			-4.156
213601.000			41.561			-4.156
213700.000			41.562			-4.156
213800.000			41.561			-4.156
213902.000			41.560			-4.156
214001.000			41.559			-4.156
214101.000			41.559			-4.156
214201.000			41.559			-4.156
214300.000			41.559			-4.156
214400.000			41.558			-4.156
214501.000			41.558			-4.156
214600.000			41.557			-4.156
214700.000			41.556			-4.156
214802.000			41.556			-4.156
214901.000			41.556			-4.156
215001.000			41.555			-4.156
215101.000			41.556			-4.156
215200.000			41.555			-4.155
215300.000			41.554			-4.155
215401.000			41.553			-4.155
215500.000			41.553			-4.155
215600.000			41.553			-4.155
215702.000			41.552			-4.155
215801.000			41.552			-4.155
215902.000			41.552			-4.155
216000.000			41.551			-4.155
216100.000			41.551			-4.155
216201.000			41.551			-4.155
216300.000			41.551			-4.155
216400.000			41.549			-4.155
216501.000			41.549			-4.155
216601.000			41.549			-4.155
216701.000			41.548			-4.155
216802.000			41.548			-4.155
216900.000			41.547			-4.155
217000.000			41.546			-4.155
217101.000			41.546			-4.155
217200.000			41.546			-4.155
217300.000			41.545			-4.154
217401.000			41.545			-4.154
217500.000			41.545			-4.155
217601.000			41.544			-4.154
217702.000			41.544			-4.154
217800.000			41.543			-4.154
217900.000			41.543			-4.154
218001.000			41.542			-4.154
218100.000			41.542			-4.154
218200.000			41.542			-4.154
218301.000			41.541			-4.154
218400.000			41.540			-4.154
218501.000			41.539			-4.154
218602.000			41.540			-4.154
218701.000			41.540			-4.154
218800.000			41.540			-4.154
218901.000			41.538			-4.154
219000.000			41.538			-4.154
219101.000			41.537			-4.154
219200.000			41.537			-4.154
219300.000			41.536			-4.154
219402.000			41.536			-4.154
219501.000			41.536			-4.154
219601.000			41.535			-4.153
219701.000			41.534			-4.153
219800.000			41.535			-4.154
219900.000			41.534			-4.153
220001.000			41.532			-4.153
220100.000			41.532			-4.153
220200.000			41.532			-4.153
220301.000			41.532			-4.153
220401.000			41.532			-4.153
220501.000			41.531			-4.153
220601.000			41.531			-4.153
220700.000			41.530			-4.153
220800.000			41.529			-4.153
220901.000			41.528			-4.153
221000.000			41.528			-4.153
221100.000			41.528			-4.153
221202.000			41.527			-4.153
221301.000			41.528			-4.153
221401.000			41.528			-4.153
221501.000			41.527			-4.153
221600.000			41.525			-4.153
221700.000			41.525			-4.153
221801.000			41.525			-4.152
221900.000			41.524			-4.152
222000.000			41.524			-4.152
222102.000			41.524			-4.152
222201.000			41.524			-4.152
222302.000			41.523			-4.152
222400.000			41.524			-4.152
222500.000			41.524			-4.152
222601.000			41.522			-4.152
222700.000			41.521			-4.152
222800.000			41.521			-4.152
222901.000			41.521			-4.152
223001.000			41.521			-4.152
223101.000			41.520			-4.152
223201.000			41.520			-4.152
223300.000			41.520			-4.152
223400.000			41.520			-4.152
223501.000			41.520			-4.152
223600.000			41.518			-4.152
223700.000			41.518			-4.152
223801.000			41.518			-4.152
223901.000			41.518			-4.152
224001.000			41.516			-4.152
224101.000			41.516			-4.152
224200.000			41.516			-4.152
224300.000			41.515			-4.152
224401.000			41.516			-4.152
224500.000			41.515			-4.152
224600.000			41.515			-4.151
224701.000			41.515			-4.152
224801.000			41.515			-4.151
224901.000			41.513			-4.151
225001.000			41.513			-4.151
225100.000			41.513			-4.151
225200.000			41.512			-4.151
225301.000			41.512			-4.151
225400.000			41.511			-4.151
225501.000			41.511			-4.151
225600.000			41.511			-4.151
225701.000			41.509			-4.151
225802.000			41.509			-4.151
225900.000			41.509			-4.151
226000.000			41.508			-4.151
226101.000			41.507			-4.151
226200.000			41.506			-4.151
226300.000			41.506			-4.151
226401.000			41.507			-4.151
226500.000			41.506			-4.151
226601.000			41.506			-4.151
226702.000			41.505			-4.150
226801.000			41.505			-4.151
226900.000			41.505			-4.150
227001.000			41.504			-4.150
227100.000			41.502			-4.150
227200.000			41.501			-4.150
227301.000			41.501			-4.150
227400.000			41.501			-4.150
227501.000			41.501			-4.150
227602.000			41.501			-4.150
227701.000			41.501			-4.150
227800.000			41.499			-4.150
227901.000			41.500			-4.150
228000.000			41.499			-4.150
228100.000			41.498			-4.150
228201.000			41.498			-4.150
228300.000			41.498			-4.150
228400.000			41.497			-4.150
228502.000			41.497			-4.150
228601.000			41.496			-4.150
228701.000			41.495			-4.150
228800.000			41.496			-4.150
228900.000			41.494			-4.149
229001.000			41.494			-4.149
229100.000			41.494			-4.149
229200.000			41.494			-4.149
229301.000			41.493			-4.149
229401.000			41.493			-4.149
229501.000			41.493			-4.149
229602.000			41.493			-4.149
229700.000			41.493			-4.149
229800.000			41.492			-4.149
229901.000			41.492			-4.149
230000.000			41.491			-4.149
230100.000			41.490			-4.149
230201.000			41.489			-4.149
230300.000			41.488			-4.149
230401.000			41.489			-4.149
230502.000			41.489			-4.149
230600.000			41.490			-4.149
230700.000			41.488			-4.149
230801.000			41.487			-4.149
230900.000			41.487			-4.149
231000.000			41.487			-4.149
231101.000			41.486			-4.149
231200.000			41.486			-4.149
231301.000			41.485			-4.148
231402.000			41.484			-4.148
231500.000			41.483			-4.148
231600.000			41.483			-4.148
231701.000			41.484			-4.148
231800.000			41.482			-4.148
231901.000			41.483			-4.148
232000.000			41.483			-4.148
232100.000			41.482			-4.148
232202.000			41.480			-4.148
232301.000			41.480			-4.148
232401.000			41.480			-4.148
232501.000			41.481			-4.148
232600.000			41.480			-4.148
232700.000			41.478			-4.148
232801.000			41.479			-4.148
232900.000			41.477			-4.148
233000.000			41.477			-4.148
233101.000			41.477			-4.148
233201.000			41.477			-4.148
233301.000			41.477			-4.148
233401.000			41.477			-4.148
233500.000			41.476			-4.148
233600.000			41.476			-4.148
233701.000			41.474			-4.147
233800.000			41.473			-4.147
233900.000			41.473			-4.147
234001.000			41.474			-4.147
234101.000			41.472			-4.147
234201.000			41.472			-4.147
234301.000			41.472			-4.147
234400.000			41.472			-4.147
234500.000			41.472			-4.147
234601.000			41.472			-4.147
234700.000			41.471			-4.147
234800.000			41.470			-4.147
234901.000			41.469			-4.147
235001.000			41.468			-4.147
235102.000			41.469			-4.147
235200.000			41.468			-4.147
235300.000			41.468			-4.147
235401.000			41.468			-4.147
235500.000			41.467			-4.147
235600.000			41.467			-4.147
235701.000			41.466			-4.147
235800.000			41.465			-4.146
235901.000			41.465			-4.147
236002.000			41.466			-4.147
236101.000			41.465			-4.147
236200.000			41.464			-4.146
236301.000			41.464			-4.146
236400.000			41.463			-4.146
236500.000			41.464			-4.146
236601.000			41.462			-4.146
236700.000			41.462			-4.146
236800.000			41.462			-4.146
236902.000			41.461			-4.146
237001.000			41.460			-4.146
237100.000			41.460			-4.146
237201.000			41.460			-4.146
237300.000			41.459			-4.146
237400.000			41.459			-4.146
237501.000			41.459			-4.146
237600.000			41.459			-4.146
237700.000			41.457			-4.146
237802.000			41.457			-4.146
237901.000			41.456			-4.146
238000.000			41.457			-4.146
238101.000			41.458			-4.146
238200.000			41.457			-4.146
238301.000			41.456			-4.146
238400.000			41.455			-4.146
238500.000			41.454			-4.145
238601.000			41.454			-4.145
238701.000			41.454			-4.145
238801.000			41.452			-4.145
238902.000			41.453			-4.145
239000.000			41.453			-4.145
239100.000			41.452			-4.145
239201.000			41.452			-4.145
239300.000			41.451			-4.145
239400.000			41.451			-4.145
239501.000			41.450			-4.145
239600.000			41.450			-4.145
239701.000			41.450			-4.145
239802.000			41.450			-4.145
239900.000			41.449			-4.145
240000.000			41.449			-4.145
240101.000			41.449			-4.145
240200.000			41.448			-4.145
240300.000			41.447			-4.145
240401.000			41.447			-4.145
240500.000			41.447			-4.145
240601.000			41.446			-4.145
240702.000			41.446			-4.145
240800.000			41.446			-4.145
240900.000			41.446			-4.145
241001.000			41.446			-4.145
241100.000			41.446			-4.145
241200.000			41.443			-4.144
241301.000			41.443			-4.144
241400.000			41.443			-4.144
241502.000			41.442			-4.144
241601.000			41.442			-4.144
241701.000			41.442			-4.144
241801.000			41.441			-4.144
241900.000			41.440			-4.144
242000.000			41.440			-4.144
242101.000			41.440			-4.144
242200.000			41.441			-4.144
242300.000			41.440			-4.144
242402.000			41.439			-4.144
242501.000			41.439			-4.144
242600.000			41.437			-4.144
242701.000			41.438			-4.144
242800.000			41.438			-4.144
242900.000			41.438			-4.144
243001.000			41.437			-4.144
243100.000			41.436			-4.144
243200.000			41.436			-4.144
243302.000			41.436			-4.144
243401.000			41.435			-4.144
243500.000			41.435			-4.143
243601.000			41.435			-4.143
243700.000			41.433			-4.143
243800.000			41.432			-4.143
243901.000			41.433			-4.143
244000.000			41.433			-4.143
244100.000			41.433			-4.143
244202.000			41.431			-4.143
244301.000			41.432			-4.143
244400.000			41.432			-4.143
244501.000			41.432			-4.143
244600.000			41.430			-4.143
244701.000			41.429			-4.143
244800.000			41.429			-4.143
244900.000			41.428			-4.143
245001.000			41.428			-4.143
245101.000			41.428			-4.143
245201.000			41.428			-4.143
245302.000			41.427			-4.143
245400.000			41.426			-4.143
245500.000			41.426			-4.143
245601.000			41.426			-4.143
245700.000			41.425			-4.143
245800.000			41.425			-4.142
245901.000			41.424			-4.142
246000.000			41.425			-4.142
246101.000			41.424			-4.142
246202.000			41.423			-4.142
246300.000			41.423			-4.142
246400.000			41.423			-4.142
246501.000			41.422			-4.142
246600.000			41.421			-4.142
246700.000			41.421			-4.142
246801.000			41.421			-4.142
246900.000			41.420			-4.142
247001.000			41.420			-4.142
247102.000			41.421			-4.142
247201.000			41.421			-4.142
247300.000			41.419			-4.142
247401.000			41.419			-4.142
247500.000			41.419			-4.142
247600.000			41.419			-4.142
247701.000			41.418			-4.142
247800.000			41.418			-4.142
247902.000			41.418			-4.142
248001.000			41.418			-4.142
248101.000			41.417			-4.142
248201.000			41.416			-4.142
248300.000			41.416			-4.142
248400.000			41.416			-4.142
248501.000			41.415			-4.142
248600.000			41.414			-4.141
248700.000			41.413			-4.141
248801.000			41.414			-4.141
248901.000			41.413			-4.141
249001.000			41.412			-4.141
249101.000			41.411			-4.141
249200.000			41.411			-4.141
249300.000			41.411			-4.141
249401.000			41.411			-4.141
249500.000			41.410			-4.141
249600.000			41.410			-4.141
249701.000			41.410			-4.141
249801.000			41.409			-4.141
249901.000			41.409			-4.141
250001.000			41.409			-4.141
250100.000			41.409			-4.141
250200.000			41.408			-4.141
250301.000			41.406			-4.141
250400.000			41.407			-4.141
250500.000			41.406			-4.141
250601.000			41.405			-4.141
250701.000			41.405			-4.140
250801.000			41.404			-4.140
250901.000			41.404			-4.140
251000.000			41.405			-4.140
251101.000			41.404			-4.140
251200.000			41.403			-4.140
251300.000			41.403			-4.140
251401.000			41.403			-4.140
251500.000			41.402			-4.140
251601.000			41.402			-4.140
251702.000			41.402			-4.140
251800.000			41.403			-4.140
251900.000			41.400			-4.140
252001.000			41.400			-4.140
252100.000			41.401			-4.140
252200.000			41.401			-4.140
252301.000			41.401			-4.140
252400.000			41.400			-4.140
252501.000			41.398			-4.140
252602.000			41.399			-4.140
252700.000			41.399			-4.140
252800.000			41.398			-4.140
252901.000			41.398			-4.140
253000.000			41.398			-4.140
253100.000			41.397			-4.140
253201.000			41.396			-4.140
253300.000			41.397			-4.140
253401.000			41.396			-4.140
253502.000			41.395			-4.139
253601.000			41.394			-4.139
253700.000			41.394			-4.139
253801.000			41.393			-4.139
253900.000			41.392			-4.139
254000.000			41.393			-4.139
254101.000			41.393			-4.139
254200.000			41.391			-4.139
254301.000			41.391			-4.139
254401.000			41.391			-4.139
254501.000			41.392			-4.139
254601.000			41.392			-4.139
254700.000			41.391			-4.139
254800.000			41.391			-4.139
254901.000			41.391			-4.139
255000.000			41.390			-4.139
255100.000			41.389			-4.139
255201.000			41.389			-4.139
255301.000			41.390			-4.139
255401.000			41.391			-4.139
255501.000			41.389			-4.139
255600.000			41.389			-4.139
255700.000			41.388			-4.139
255801.000			41.387			-4.139
255900.000			41.387			-4.139
256000.000			41.388			-4.139
256101.000			41.387			-4.139
256201.000			41.385			-4.139
256301.000			41.385			-4.139
256402.000			41.384			-4.138
256500.000			41.384			-4.138
256600.000			41.384			-4.138
256701.000			41.384			-4.138
256800.000			41.384			-4.138
256900.000			41.384			-4.138
257001.000			41.382			-4.138
257100.000			41.382			-4.138
257201.000			41.381			-4.138
257302.000			41.380			-4.138
257400.000			41.380			-4.138
257501.000			41.381			-4.138
257600.000			41.381			-4.138
257700.000			41.380			-4.138
257801.000			41.379			-4.138
257900.000			41.378			-4.138
258000.000			41.378			-4.138
258102.000			41.378			-4.138
258201.000			41.378			-4.138
258301.000			41.377			-4.138
258401.000			41.377			-4.138
258500.000			41.377			-4.138
258600.000			41.376			-4.138
258701.000			41.376			-4.138
258800.000			41.375			-4.137
258900.000			41.374			-4.137
259001.000			41.374			-4.137
259101.000			41.374			-4.137
259201.000			41.373			-4.137
259301.000			41.372			-4.137
259400.000			41.372			-4.137
259500.000			41.373			-4.137
259601.000			41.372			-4.137
259700.000			41.372			-4.137
259800.000			41.371			-4.137
259901.000			41.370			-4.137
260001.000			41.371			-4.137
260101.000			41.370			-4.137
260202.000			41.369			-4.137
260300.000			41.369			-4.137
260400.000			41.369			-4.137
260501.000			41.368			-4.137
260600.000			41.368			-4.137
260701.000			41.368			-4.137
260800.000			41.367			-4.137
260900.000			41.365			-4.137
261002.000			41.366			-4.137
261101.000			41.365			-4.137
261200.000			41.366			-4.137
261301.000			41.366			-4.137
261400.000			41.365			-4.137
261500.000			41.365			-4.137
261601.000			41.364			-4.136
261700.000			41.364			-4.136
261800.000			41.364			-4.136
261902.000			41.363			-4.136
262001.000			41.362			-4.136
262100.000			41.363			-4.136
262201.000			41.363			-4.136
262300.000			41.363			-4.136
262400.000			41.362			-4.136
262501.000			41.361			-4.136
262600.000			41.361			-4.136
262700.000			41.361			-4.136
262802.000			41.361			-4.136
262901.000			41.360			-4.136
263000.000			41.361			-4.136
263101.000			41.360			-4.136
263200.000			41.359			-4.136
263300.000			41.358			-4.136
263401.000			41.358			-4.136
263500.000			41.358			-4.136
263600.000			41.359			-4.136
263702.000			41.358			-4.136
263801.000			41.358			-4.136
263902.000			41.358			-4.136
264000.000			41.358			-4.136
264100.000			41.357			-4.136
264201.000			41.355			-4.136
264300.000			41.355			-4.136
264400.000			41.355			-4.136
264501.000			41.355			-4.135
264601.000			41.354			-4.135
264701.000			41.353			-4.135
264802.000			41.353			-4.135
264900.000			41.353			-4.135
265000.000			41.353			-4.135
265101.000			41.353			-4.135
265200.000			41.352			-4.135
265300.000			41.351			-4.135
265401.000			41.352			-4.135
265500.000			41.351			-4.135
265601.000			41.351			-4.135
265702.000			41.351			-4.135
265800.000			41.349			-4.135
265900.000			41.349			-4.135
266001.000			41.348			-4.135
266100.000			41.347			-4.135
266200.000			41.347			-4.135
266301.000			41.346			-4.135
266400.000			41.347			-4.135
266501.000			41.347			-4.135
266602.000			41.347			-4.135
266701.000			41.347			-4.135
266800.000			41.346			-4.135
266901.000			41.346			-4.135
267000.000			41.345			-4.134
267101.000			41.344			-4.134
267200.000			41.344			-4.134
267300.000			41.344			-4.134
267401.000			41.343			-4.134
267501.000			41.343			-4.134
267601.000			41.342			-4.134
267701.000			41.342			-4.134
267800.000			41.341			-4.134
267900.000			41.341			-4.134
268001.000			41.341			-4.134
268100.000			41.340			-4.134
268200.000			41.339			-4.134
268301.000			41.338			-4.134
268401.000			41.339			-4.134
268501.000			41.339			-4.134
268601.000			41.338			-4.134
268700.000			41.338			-4.134
268800.000			41.338			-4.134
268901.000			41.337			-4.134
269000.000			41.337			-4.134
269100.000			41.336			-4.134
269201.000			41.336			-4.134
269301.000			41.336			-4.134
269401.000			41.334			-4.133
269502.000			41.335			-4.133
269600.000			41.334			-4.133
269700.000			41.334			-4.133
269801.000			41.334			-4.133
269900.000			41.333			-4.133
270000.000			41.333			-4.133
270101.000			41.333			-4.133
270201.000			41.332			-4.133
270302.000			41.332			-4.133
270401.000			41.330			-4.133
270500.000			41.330			-4.133
270601.000			41.331			-4.133
270700.000			41.331			-4.133
270800.000			41.329			-4.133
270901.000			41.329			-4.133
271000.000			41.328			-4.133
271101.000			41.327			-4.133
271202.000			41.327			-4.133
271301.000			41.328			-4.133
271400.000			41.328			-4.133
271501.000			41.328			-4.133
271600.000			41.327			-4.133
271700.000			41.326			-4.133
271801.000			41.326			-4.133
271900.000			41.326			-4.133
272000.000			41.326			-4.133
272102.000			41.326			-4.133
272201.000			41.325			-4.132
272300.000			41.325			-4.132
272401.000			41.324			-4.132
272500.000			41.324			-4.132
272600.000			41.323			-4.132
272701.000			41.323			-4.132
272800.000			41.322			-4.132
272900.000			41.321			-4.132
273002.000			41.321			-4.132
273101.000			41.321			-4.132
273200.000			41.320			-4.132
273301.000			41.321			-4.132
273400.000			41.321			-4.132
273501.000			41.321			-4.132
273600.000			41.321			-4.132
273700.000			41.320			-4.132
273802.000			41.319			-4.132
273901.000			41.318			-4.132
274001.000			41.319			-4.132
274101.000			41.318			-4.132
274200.000			41.318			-4.132
274300.000			41.317			-4.132
274401.000			41.315			-4.132
274500.000			41.315			-4.132
274600.000			41.316			-4.132
274701.000			41.317			-4.132
274801.000			41.316			-4.132
274901.000			41.315			-4.132
275002.000			41.315			-4.132
275100.000			41.314			-4.131
275200.000			41.314			-4.131
275301.000			41.312			-4.131
275400.000			41.312			-4.131
275500.000			41.312			-4.131
275601.000			41.311			-4.131
275701.000			41.311			-4.131
275801.000			41.312			-4.131
275902.000			41.312			-4.131
276000.000			41.311			-4.131
276100.000			41.311			-4.131
276201.000			41.310			-4.131
276300.000			41.309			-4.131
276400.000			41.309			-4.131
276501.000			41.310			-4.131
276601.000			41.309			-4.131
276702.000			41.308			-4.131
276801.000			41.308			-4.131
276900.000			41.307			-4.131
277001.000			41.307			-4.131
277100.000			41.307			-4.131
277200.000			41.306			-4.131
277301.000			41.305			-4.130
277400.000			41.305			-4.130
277500.000			41.305			-4.131
277602.000			41.306			-4.131
277701.000			41.305			-4.131
277800.000			41.304			-4.130
277901.000			41.304			-4.130
278000.000			41.304			-4.130
278100.000			41.303			-4.130
278201.000			41.303			-4.130
278300.000			41.304			-4.130
278400.000			41.303			-4.130
278502.000			41.302			-4.130
278601.000			41.302			-4.130
278700.000			41.302			-4.130
278801.000			41.302			-4.130
278900.000			41.300			-4.130
279000.000			41.299			-4.130
279101.000			41.298			-4.130
279200.000			41.298			-4.130
279300.000			41.298			-4.130
279402.000			41.298			-4.130
279501.000			41.299			-4.130
279601.000			41.298			-4.130
279701.000			41.298			-4.130
279800.000			41.297			-4.130
279901.000			41.297			-4.130
280000.000			41.296			-4.130
280100.000			41.296			-4.130
280201.000			41.295			-4.130
280300.000			41.295			-4.129
280401.000			41.293			-4.129
280502.000			41.293			-4.129
280600.000			41.294			-4.129
280700.000			41.294			-4.129
280801.000			41.294			-4.129
280900.000			41.294			-4.129
281000.000			41.294			-4.129
281101.000			41.292			-4.129
281200.000			41.291			-4.129
281301.000			41.292			-4.129
281402.000			41.292			-4.129
281500.000			41.292			-4.129
281600.000			41.291			-4.129
281701.000			41.291			-4.129
281800.000			41.290			-4.129
281900.000			41.288			-4.129
282001.000			41.289			-4.129
282100.000			41.289			-4.129
282201.000			41.288			-4.129
282302.000			41.290			-4.129
282401.000			41.291			-4.129
282500.000			41.290			-4.129
282601.000			41.288			-4.129
282700.000			41.288			-4.129
282800.000			41.288			-4.129
282901.000			41.288			-4.129
283000.000			41.288			-4.129
283101.000			41.288			-4.129
283201.000			41.288			-4.129
283301.000			41.287			-4.129
283401.000			41.286			-4.129
283500.000			41.285			-4.129
283600.000			41.285			-4.129
283701.000			41.285			-4.128
283800.000			41.285			-4.129
283900.000			41.284			-4.128
284001.000			41.283			-4.128
284101.000			41.283			-4.128
284201.000			41.282			-4.128
284301.000			41.281			-4.128
284400.000			41.282			-4.128
284500.000			41.282			-4.128
284601.000			41.282			-4.128
284700.000			41.281			-4.128
284800.000			41.281			-4.128
284901.000			41.280			-4.128
285001.000			41.280			-4.128
285101.000			41.280			-4.128
285202.000			41.279			-4.128
285300.000			41.279			-4.128
285400.000			41.278			-4.128
285501.000			41.278			-4.128
285600.000			41.277			-4.128
285700.000			41.277			-4.128
285801.000			41.277			-4.128
285900.000			41.276			-4.128
286001.000			41.275			-4.127
286102.000			41.276			-4.128
286200.000			41.274			-4.127
286301.000			41.274			-4.127
286400.000			41.274			-4.127
286500.000			41.274			-4.127
286601.000			41.274			-4.127
286700.000			41.273			-4.127
286800.000			41.273			-4.127
286902.000			41.272			-4.127
287001.000			41.273			-4.127
287101.000			41.273			-4.127
287201.000			41.272			-4.127
287300.000			41.271			-4.127
287400.000			41.270			-4.127
287501.000			41.270			-4.127
287600.000			41.270			-4.127
287700.000			41.271			-4.127
287801.000			41.270			-4.127
287901.000			41.270			-4.127
288001.000			41.269			-4.127
288101.000			41.270			-4.127
288200.000			41.269			-4.127
288300.000			41.269			-4.127
288401.000			41.269			-4.127
288500.000			41.268			-4.127
288600.000			41.268			-4.127
288701.000			41.269			-4.127
288801.000			41.269			-4.127
288901.000			41.268			-4.127
289002.000			41.268			-4.127
289100.000			41.266			-4.127
289200.000			41.266			-4.127
289301.000			41.265			-4.127
289400.000			41.265			-4.126
289501.000			41.264			-4.126
289600.000			41.264			-4.126
289700.000			41.263			-4.126
289802.000			41.262			-4.126
289901.000			41.263			-4.126
290001.000			41.262			-4.126
290101.000			41.262			-4.126
290200.000			41.260			-4.126
290300.000			41.261			-4.126
290401.000			41.261			-4.126
290500.000			41.261			-4.126
290600.000			41.260			-4.126
290702.000			41.259			-4.126
290801.000			41.258			-4.126
290901.000			41.258			-4.126
291001.000			41.258			-4.126
291100.000			41.259			-4.126
291200.000			41.258			-4.126
291301.000			41.258			-4.126
291400.000			41.258			-4.126
291500.000			41.257			-4.126
291601.000			41.256			-4.126
291701.000			41.256			-4.126
291801.000			41.256			-4.126
291901.000			41.255			-4.126
292000.000			41.255			-4.125
292100.000			41.256			-4.126
292201.000			41.254			-4.125
292300.000			41.253			-4.125
292400.000			41.252			-4.125
292501.000			41.252			-4.125
292601.000			41.253			-4.125
292702.000			41.253			-4.125
292800.000			41.253			-4.125
292900.000			41.252			-4.125
293001.000			41.252			-4.125
293100.000			41.252			-4.125
293200.000			41.251			-4.125
293301.000			41.251			-4.125
293400.000			41.251			-4.125
293501.000			41.251			-4.125
293602.000			41.250			-4.125
293701.000			41.250			-4.125
293800.000			41.249			-4.125
293901.000			41.249			-4.125
294000.000			41.249			-4.125
294100.000			41.249			-4.125
294201.000			41.248			-4.125
294300.000			41.248			-4.125
294401.000			41.248			-4.125
294502.000			41.247			-4.125
294601.000			41.247			-4.125
294700.000			41.246			-4.125
294801.000			41.246			-4.125
294900.000			41.245			-4.125
295000.000			41.245			-4.125
295101.000			41.245			-4.125
295200.000			41.245			-4.124
295300.000			41.244			-4.124
295402.000			41.244			-4.124
295501.000			41.244			-4.124
295600.000			41.243			-4.124
295701.000			41.243			-4.124
295800.000			41.243			-4.124
295901.000			41.242			-4.124
296000.000			41.241			-4.124
296100.000			41.242			-4.124
296201.000			41.242			-4.124
296301.000			41.241			-4.124
296401.000			41.241			-4.124
296501.000			41.241			-4.124
296600.000			41.239			-4.124
296700.000			41.240			-4.124
296801.000			41.239			-4.124
296900.000			41.238			-4.124
297000.000			41.239			-4.124
297101.000			41.239			-4.124
297201.000			41.237			-4.124
297301.000			41.237			-4.124
297401.000			41.237			-4.124
297500.000			41.236			-4.124
297600.000			41.236			-4.124
297701.000			41.236			-4.124
297800.000			41.235			-4.124
297900.000			41.236			-4.124
298001.000			41.235			-4.123
298101.000			41.234			-4.123
298201.000			41.234			-4.123
298302.000			41.234			-4.123
298400.000			41.232			-4.123
298500.000			41.233			-4.123
298601.000			41.233			-4.123
298700.000			41.233			-4.123
298800.000			41.232			-4.123
298901.000			41.233			-4.123
299000.000			41.233			-4.123
299102.000			41.232			-4.123
299201.000			41.231			-4.123
299300.000			41.230			-4.123
299401.000			41.230			-4.123
299500.000			41.229			-4.123
299600.000			41.229			-4.123
299701.000			41.229			-4.123
299800.000			41.229			-4.123
299900.000			41.229			-4.123
