# Acquired on 08/01/2024 15:45:34 
# SPIDER: Creep_-4mm_07714532C-1
# CREEP MEASUREMENT

# time [ms]		force [N]		stiffness [N/mm]
1.000			4.633			-1.158
102.000			4.999			-1.250
200.000			5.133			-1.283
300.000			5.134			-1.283
401.000			5.109			-1.277
500.000			5.090			-1.272
600.000			5.075			-1.269
702.000			5.051			-1.263
801.000			5.042			-1.260
900.000			5.032			-1.258
1001.000			5.024			-1.256
1100.000			5.018			-1.255
1200.000			5.011			-1.253
1301.000			5.005			-1.251
1401.000			4.993			-1.248
1501.000			4.988			-1.247
1601.000			4.983			-1.246
1700.000			4.978			-1.245
1801.000			4.974			-1.243
1900.000			4.970			-1.243
2000.000			4.965			-1.241
2101.000			4.957			-1.239
2201.000			4.953			-1.238
2301.000			4.950			-1.237
2401.000			4.946			-1.237
2500.000			4.944			-1.236
2600.000			4.940			-1.235
2701.000			4.938			-1.234
2800.000			4.932			-1.233
2901.000			4.929			-1.232
3002.000			4.926			-1.231
3100.000			4.924			-1.231
3200.000			4.921			-1.230
3301.000			4.919			-1.230
3400.000			4.917			-1.229
3500.000			4.915			-1.229
3601.000			4.911			-1.228
3701.000			4.909			-1.227
3801.000			4.906			-1.226
3901.000			4.904			-1.226
4000.000			4.902			-1.226
4100.000			4.900			-1.225
4201.000			4.898			-1.224
4300.000			4.894			-1.224
4400.000			4.892			-1.223
4502.000			4.890			-1.222
4601.000			4.889			-1.222
4700.000			4.888			-1.222
4801.000			4.885			-1.221
4900.000			4.883			-1.221
5001.000			4.880			-1.220
5100.000			4.879			-1.220
5200.000			4.877			-1.219
5302.000			4.877			-1.219
5401.000			4.874			-1.219
5500.000			4.872			-1.218
5601.000			4.872			-1.218
5700.000			4.869			-1.217
5800.000			4.867			-1.217
5901.000			4.866			-1.217
6001.000			4.865			-1.216
6101.000			4.863			-1.216
6201.000			4.861			-1.215
6300.000			4.861			-1.215
6400.000			4.858			-1.215
6501.000			4.857			-1.214
6600.000			4.856			-1.214
6700.000			4.854			-1.213
6802.000			4.853			-1.213
6901.000			4.851			-1.213
7000.000			4.850			-1.213
7101.000			4.849			-1.212
7200.000			4.848			-1.212
7300.000			4.846			-1.212
7401.000			4.845			-1.211
7500.000			4.844			-1.211
7601.000			4.843			-1.211
7702.000			4.842			-1.211
7800.000			4.841			-1.210
7900.000			4.840			-1.210
8001.000			4.838			-1.210
8100.000			4.838			-1.209
8201.000			4.837			-1.209
8301.000			4.836			-1.209
8401.000			4.835			-1.209
8501.000			4.833			-1.208
8600.000			4.832			-1.208
8700.000			4.831			-1.208
8801.000			4.830			-1.207
8900.000			4.828			-1.207
9000.000			4.827			-1.207
9102.000			4.826			-1.207
9201.000			4.825			-1.206
9300.000			4.825			-1.206
9401.000			4.823			-1.206
9500.000			4.821			-1.205
9600.000			4.821			-1.205
9701.000			4.821			-1.205
9800.000			4.820			-1.205
9901.000			4.820			-1.205
10002.000			4.819			-1.205
10100.000			4.817			-1.204
10200.000			4.816			-1.204
10301.000			4.815			-1.204
10400.000			4.815			-1.204
10500.000			4.815			-1.204
10601.000			4.813			-1.203
10701.000			4.812			-1.203
10801.000			4.810			-1.203
10901.000			4.810			-1.202
11000.000			4.809			-1.202
11100.000			4.808			-1.202
11201.000			4.808			-1.202
11300.000			4.807			-1.202
11401.000			4.806			-1.202
11501.000			4.805			-1.201
11601.000			4.804			-1.201
11701.000			4.803			-1.201
11800.000			4.803			-1.201
11900.000			4.803			-1.201
12001.000			4.801			-1.200
12100.000			4.801			-1.200
12201.000			4.800			-1.200
12302.000			4.799			-1.200
12401.000			4.798			-1.199
12500.000			4.798			-1.200
12601.000			4.798			-1.199
12700.000			4.797			-1.199
12800.000			4.796			-1.199
12901.000			4.796			-1.199
13000.000			4.794			-1.199
13101.000			4.793			-1.198
13202.000			4.793			-1.198
13300.000			4.792			-1.198
13400.000			4.792			-1.198
13501.000			4.790			-1.198
13600.000			4.790			-1.197
13700.000			4.787			-1.197
13802.000			4.787			-1.197
13901.000			4.788			-1.197
14001.000			4.788			-1.197
14101.000			4.787			-1.197
14200.000			4.786			-1.196
14300.000			4.786			-1.197
14401.000			4.785			-1.196
14500.000			4.784			-1.196
14601.000			4.783			-1.196
14701.000			4.782			-1.196
14801.000			4.782			-1.196
14901.000			4.781			-1.195
15000.000			4.781			-1.195
15100.000			4.781			-1.195
15201.000			4.779			-1.195
15300.000			4.779			-1.195
15400.000			4.778			-1.195
15502.000			4.778			-1.194
15601.000			4.777			-1.194
15700.000			4.777			-1.194
15801.000			4.776			-1.194
15900.000			4.775			-1.194
16000.000			4.774			-1.194
16101.000			4.774			-1.193
16200.000			4.774			-1.193
16301.000			4.773			-1.193
16402.000			4.773			-1.193
16500.000			4.772			-1.193
16600.000			4.773			-1.193
16701.000			4.772			-1.193
16800.000			4.771			-1.193
16900.000			4.771			-1.193
17001.000			4.771			-1.193
17101.000			4.771			-1.193
17201.000			4.769			-1.192
17301.000			4.768			-1.192
17400.000			4.767			-1.192
17500.000			4.767			-1.192
17601.000			4.766			-1.192
17700.000			4.766			-1.192
17801.000			4.766			-1.191
17901.000			4.765			-1.191
18001.000			4.764			-1.191
18101.000			4.764			-1.191
18200.000			4.764			-1.191
18300.000			4.764			-1.191
18401.000			4.762			-1.191
18500.000			4.762			-1.190
18600.000			4.762			-1.191
18702.000			4.762			-1.190
18801.000			4.761			-1.190
18900.000			4.760			-1.190
19001.000			4.761			-1.190
19100.000			4.760			-1.190
19200.000			4.759			-1.190
19301.000			4.759			-1.190
19400.000			4.758			-1.190
19501.000			4.757			-1.189
19602.000			4.756			-1.189
19700.000			4.756			-1.189
19800.000			4.756			-1.189
19901.000			4.756			-1.189
20000.000			4.755			-1.189
20100.000			4.754			-1.189
20201.000			4.753			-1.188
20301.000			4.752			-1.188
20401.000			4.751			-1.188
20501.000			4.752			-1.188
20600.000			4.752			-1.188
20700.000			4.752			-1.188
20801.000			4.751			-1.188
20900.000			4.750			-1.188
21001.000			4.750			-1.187
21101.000			4.749			-1.187
21201.000			4.749			-1.187
21301.000			4.749			-1.187
21400.000			4.749			-1.187
21500.000			4.748			-1.187
21601.000			4.748			-1.187
21700.000			4.747			-1.187
21800.000			4.747			-1.187
21902.000			4.747			-1.187
22001.000			4.747			-1.187
22100.000			4.746			-1.187
22201.000			4.745			-1.186
22300.000			4.744			-1.186
22400.000			4.744			-1.186
22501.000			4.744			-1.186
22600.000			4.744			-1.186
22701.000			4.743			-1.186
22802.000			4.742			-1.186
22900.000			4.742			-1.185
23000.000			4.743			-1.186
23101.000			4.742			-1.185
23200.000			4.741			-1.185
23300.000			4.741			-1.185
23401.000			4.741			-1.185
23501.000			4.740			-1.185
23601.000			4.739			-1.185
23701.000			4.739			-1.185
23800.000			4.739			-1.185
23900.000			4.738			-1.184
24001.000			4.738			-1.184
24100.000			4.738			-1.184
24201.000			4.737			-1.184
24301.000			4.737			-1.184
24401.000			4.737			-1.184
24501.000			4.736			-1.184
24600.000			4.736			-1.184
24700.000			4.736			-1.184
24801.000			4.735			-1.184
24900.000			4.734			-1.184
25000.000			4.734			-1.184
25102.000			4.734			-1.183
25201.000			4.733			-1.183
25300.000			4.733			-1.183
25401.000			4.734			-1.184
25500.000			4.733			-1.183
25600.000			4.732			-1.183
25701.000			4.732			-1.183
25800.000			4.731			-1.183
25901.000			4.731			-1.183
26002.000			4.731			-1.183
26100.000			4.731			-1.183
26200.000			4.730			-1.183
26301.000			4.730			-1.182
26400.000			4.729			-1.182
26500.000			4.729			-1.182
26601.000			4.730			-1.182
26701.000			4.729			-1.182
26801.000			4.728			-1.182
26901.000			4.728			-1.182
27000.000			4.728			-1.182
27100.000			4.728			-1.182
27201.000			4.727			-1.182
27300.000			4.727			-1.182
27401.000			4.726			-1.182
27501.000			4.726			-1.181
27601.000			4.725			-1.181
27701.000			4.724			-1.181
27800.000			4.724			-1.181
27900.000			4.724			-1.181
28001.000			4.724			-1.181
28100.000			4.724			-1.181
28200.000			4.724			-1.181
28302.000			4.724			-1.181
28401.000			4.724			-1.181
28500.000			4.722			-1.181
28601.000			4.722			-1.181
28700.000			4.722			-1.181
28800.000			4.722			-1.181
28901.000			4.722			-1.180
29000.000			4.721			-1.180
29101.000			4.720			-1.180
29202.000			4.720			-1.180
29300.000			4.720			-1.180
29400.000			4.720			-1.180
29501.000			4.719			-1.180
29600.000			4.720			-1.180
29700.000			4.718			-1.180
29801.000			4.719			-1.180
29901.000			4.719			-1.180
30001.000			4.719			-1.180
30101.000			4.718			-1.179
30200.000			4.717			-1.179
30300.000			4.716			-1.179
30401.000			4.716			-1.179
30500.000			4.715			-1.179
30602.000			4.715			-1.179
30701.000			4.716			-1.179
30801.000			4.716			-1.179
30901.000			4.716			-1.179
31000.000			4.714			-1.179
31100.000			4.715			-1.179
31201.000			4.714			-1.178
31300.000			4.714			-1.179
31401.000			4.713			-1.178
31502.000			4.714			-1.179
31600.000			4.714			-1.179
31700.000			4.714			-1.178
31801.000			4.713			-1.178
31900.000			4.713			-1.178
32000.000			4.713			-1.178
32101.000			4.712			-1.178
32201.000			4.712			-1.178
32301.000			4.712			-1.178
32401.000			4.711			-1.178
32500.000			4.710			-1.177
32600.000			4.711			-1.178
32701.000			4.710			-1.178
32800.000			4.710			-1.178
32900.000			4.711			-1.178
33002.000			4.710			-1.177
33101.000			4.709			-1.177
33200.000			4.708			-1.177
33301.000			4.708			-1.177
33400.000			4.709			-1.177
33500.000			4.708			-1.177
33601.000			4.708			-1.177
33700.000			4.707			-1.177
33802.000			4.707			-1.177
33901.000			4.707			-1.177
34000.000			4.707			-1.177
34101.000			4.707			-1.177
34200.000			4.706			-1.176
34300.000			4.706			-1.177
34401.000			4.706			-1.176
34500.000			4.706			-1.176
34601.000			4.706			-1.176
34702.000			4.704			-1.176
34800.000			4.704			-1.176
34900.000			4.705			-1.176
35001.000			4.705			-1.176
35100.000			4.704			-1.176
35200.000			4.704			-1.176
35301.000			4.703			-1.176
35401.000			4.704			-1.176
35501.000			4.703			-1.176
35601.000			4.703			-1.176
35700.000			4.703			-1.176
35800.000			4.703			-1.176
35901.000			4.702			-1.176
36000.000			4.701			-1.175
36100.000			4.701			-1.175
36202.000			4.701			-1.175
36301.000			4.701			-1.175
36400.000			4.702			-1.175
36501.000			4.701			-1.175
36600.000			4.701			-1.175
36700.000			4.700			-1.175
36801.000			4.700			-1.175
36900.000			4.699			-1.175
37002.000			4.699			-1.175
37101.000			4.699			-1.175
37200.000			4.699			-1.175
37301.000			4.699			-1.175
37400.000			4.698			-1.174
37500.000			4.698			-1.175
37601.000			4.697			-1.174
37700.000			4.698			-1.174
37800.000			4.698			-1.174
37902.000			4.698			-1.174
38001.000			4.698			-1.175
38100.000			4.697			-1.174
38201.000			4.698			-1.174
38300.000			4.696			-1.174
38400.000			4.696			-1.174
38501.000			4.697			-1.174
38600.000			4.696			-1.174
38701.000			4.695			-1.174
38802.000			4.694			-1.174
38900.000			4.695			-1.174
39000.000			4.694			-1.173
39101.000			4.694			-1.173
39200.000			4.694			-1.174
39300.000			4.694			-1.174
39401.000			4.693			-1.173
39501.000			4.692			-1.173
39601.000			4.692			-1.173
39701.000			4.692			-1.173
39800.000			4.693			-1.173
39900.000			4.693			-1.173
40001.000			4.692			-1.173
40100.000			4.692			-1.173
40201.000			4.692			-1.173
40301.000			4.692			-1.173
40401.000			4.691			-1.173
40501.000			4.691			-1.173
40600.000			4.691			-1.173
40700.000			4.690			-1.173
40801.000			4.691			-1.173
40900.000			4.691			-1.173
41000.000			4.690			-1.172
41102.000			4.689			-1.172
41201.000			4.690			-1.173
41300.000			4.690			-1.173
41401.000			4.691			-1.173
41500.000			4.690			-1.172
41600.000			4.689			-1.172
41701.000			4.689			-1.172
41800.000			4.688			-1.172
41901.000			4.688			-1.172
42002.000			4.688			-1.172
42101.000			4.687			-1.172
42200.000			4.687			-1.172
42301.000			4.688			-1.172
42400.000			4.687			-1.172
42500.000			4.687			-1.172
42601.000			4.687			-1.172
42701.000			4.685			-1.171
42801.000			4.686			-1.172
42902.000			4.687			-1.172
43000.000			4.687			-1.172
43100.000			4.686			-1.171
43201.000			4.686			-1.171
43300.000			4.685			-1.171
43401.000			4.686			-1.171
43500.000			4.685			-1.171
43601.000			4.684			-1.171
43702.000			4.684			-1.171
43800.000			4.684			-1.171
43900.000			4.684			-1.171
44001.000			4.683			-1.171
44100.000			4.683			-1.171
44200.000			4.684			-1.171
44301.000			4.682			-1.171
44401.000			4.682			-1.170
44501.000			4.683			-1.171
44601.000			4.683			-1.171
44700.000			4.683			-1.171
44800.000			4.683			-1.171
44901.000			4.683			-1.171
45000.000			4.683			-1.171
45100.000			4.682			-1.171
45202.000			4.681			-1.170
45301.000			4.681			-1.170
45400.000			4.681			-1.170
45501.000			4.680			-1.170
45600.000			4.682			-1.170
45700.000			4.681			-1.170
45801.000			4.681			-1.170
45900.000			4.680			-1.170
46001.000			4.680			-1.170
46102.000			4.679			-1.170
46200.000			4.679			-1.170
46300.000			4.680			-1.170
46401.000			4.681			-1.170
46500.000			4.679			-1.170
46601.000			4.679			-1.170
46700.000			4.678			-1.170
46801.000			4.678			-1.170
46902.000			4.678			-1.170
47001.000			4.678			-1.169
47100.000			4.678			-1.169
47201.000			4.677			-1.169
47300.000			4.677			-1.169
47400.000			4.677			-1.169
47501.000			4.677			-1.169
47600.000			4.677			-1.169
47701.000			4.677			-1.169
47802.000			4.676			-1.169
47900.000			4.676			-1.169
48000.000			4.676			-1.169
48101.000			4.676			-1.169
48200.000			4.676			-1.169
48300.000			4.676			-1.169
48401.000			4.676			-1.169
48501.000			4.676			-1.169
48601.000			4.675			-1.169
48701.000			4.674			-1.169
48800.000			4.675			-1.169
48900.000			4.675			-1.169
49001.000			4.674			-1.169
49100.000			4.674			-1.168
49200.000			4.674			-1.169
49302.000			4.674			-1.168
49401.000			4.672			-1.168
49501.000			4.672			-1.168
49601.000			4.673			-1.168
49700.000			4.672			-1.168
49801.000			4.672			-1.168
49900.000			4.673			-1.168
50000.000			4.673			-1.168
50101.000			4.672			-1.168
50201.000			4.671			-1.168
50301.000			4.673			-1.168
50401.000			4.673			-1.168
50500.000			4.672			-1.168
50600.000			4.673			-1.168
50701.000			4.672			-1.168
50800.000			4.671			-1.168
50900.000			4.670			-1.168
51002.000			4.670			-1.167
51101.000			4.669			-1.167
51200.000			4.670			-1.167
51301.000			4.671			-1.168
51400.000			4.670			-1.168
51500.000			4.671			-1.168
51601.000			4.670			-1.167
51700.000			4.669			-1.167
51801.000			4.669			-1.167
51902.000			4.670			-1.167
52000.000			4.669			-1.167
52100.000			4.669			-1.167
52201.000			4.668			-1.167
52300.000			4.668			-1.167
52400.000			4.668			-1.167
52501.000			4.668			-1.167
52601.000			4.669			-1.167
52701.000			4.668			-1.167
52801.000			4.667			-1.167
52900.000			4.667			-1.167
53001.000			4.667			-1.167
53100.000			4.667			-1.167
53200.000			4.667			-1.167
53301.000			4.666			-1.167
53401.000			4.667			-1.167
53501.000			4.666			-1.167
53601.000			4.665			-1.166
53700.000			4.666			-1.166
53800.000			4.665			-1.166
53901.000			4.665			-1.166
54000.000			4.665			-1.166
54100.000			4.666			-1.166
54202.000			4.666			-1.166
54301.000			4.665			-1.166
54400.000			4.665			-1.166
54501.000			4.665			-1.166
54600.000			4.665			-1.166
54700.000			4.666			-1.166
54801.000			4.665			-1.166
54900.000			4.664			-1.166
55000.000			4.664			-1.166
55102.000			4.664			-1.166
55201.000			4.665			-1.166
55300.000			4.664			-1.166
55401.000			4.664			-1.166
55500.000			4.664			-1.166
55600.000			4.664			-1.166
55701.000			4.663			-1.166
55801.000			4.662			-1.166
55901.000			4.662			-1.166
56002.000			4.662			-1.165
56100.000			4.662			-1.165
56201.000			4.662			-1.165
56300.000			4.661			-1.165
56400.000			4.661			-1.165
56501.000			4.663			-1.166
56600.000			4.662			-1.166
56701.000			4.662			-1.165
56802.000			4.662			-1.165
56900.000			4.661			-1.165
57000.000			4.661			-1.165
57101.000			4.660			-1.165
57200.000			4.660			-1.165
57300.000			4.661			-1.165
57401.000			4.660			-1.165
57501.000			4.660			-1.165
57601.000			4.659			-1.165
57701.000			4.660			-1.165
57800.000			4.660			-1.165
57900.000			4.660			-1.165
58001.000			4.661			-1.165
58100.000			4.659			-1.165
58200.000			4.658			-1.165
58302.000			4.658			-1.165
58401.000			4.658			-1.165
58500.000			4.659			-1.165
58601.000			4.659			-1.165
58700.000			4.659			-1.165
58800.000			4.659			-1.165
58901.000			4.658			-1.164
59000.000			4.657			-1.164
59100.000			4.657			-1.164
59202.000			4.657			-1.164
59301.000			4.657			-1.164
59401.000			4.657			-1.164
59500.000			4.657			-1.164
59600.000			4.656			-1.164
59701.000			4.656			-1.164
59800.000			4.656			-1.164
59900.000			4.657			-1.164
60002.000			4.657			-1.164
60101.000			4.656			-1.164
60200.000			4.656			-1.164
60301.000			4.656			-1.164
60400.000			4.656			-1.164
60500.000			4.655			-1.164
60601.000			4.656			-1.164
60700.000			4.656			-1.164
60801.000			4.655			-1.164
60902.000			4.654			-1.163
61000.000			4.654			-1.164
61100.000			4.655			-1.164
61201.000			4.654			-1.164
61300.000			4.655			-1.164
61400.000			4.655			-1.164
61501.000			4.654			-1.164
61601.000			4.654			-1.163
61701.000			4.653			-1.163
61801.000			4.653			-1.163
61900.000			4.654			-1.163
62000.000			4.655			-1.164
62101.000			4.654			-1.163
62200.000			4.653			-1.163
62300.000			4.652			-1.163
62402.000			4.652			-1.163
62501.000			4.653			-1.163
62601.000			4.653			-1.163
62700.000			4.652			-1.163
62800.000			4.651			-1.163
62901.000			4.652			-1.163
63000.000			4.652			-1.163
63100.000			4.652			-1.163
63202.000			4.652			-1.163
63301.000			4.652			-1.163
63400.000			4.652			-1.163
63501.000			4.651			-1.163
63600.000			4.652			-1.163
63700.000			4.651			-1.163
63801.000			4.652			-1.163
63900.000			4.652			-1.163
64001.000			4.651			-1.163
64102.000			4.650			-1.163
64200.000			4.650			-1.163
64300.000			4.650			-1.163
64401.000			4.649			-1.162
64500.000			4.650			-1.163
64600.000			4.650			-1.163
64701.000			4.650			-1.163
64801.000			4.650			-1.162
64901.000			4.650			-1.163
65001.000			4.650			-1.162
65100.000			4.649			-1.162
65200.000			4.650			-1.163
65301.000			4.650			-1.163
65400.000			4.649			-1.162
65500.000			4.649			-1.162
65602.000			4.649			-1.162
65701.000			4.649			-1.162
65801.000			4.648			-1.162
65900.000			4.648			-1.162
66000.000			4.648			-1.162
66101.000			4.649			-1.162
66200.000			4.648			-1.162
66300.000			4.647			-1.162
66402.000			4.648			-1.162
66501.000			4.648			-1.162
66601.000			4.648			-1.162
66701.000			4.648			-1.162
66800.000			4.648			-1.162
66900.000			4.647			-1.162
67001.000			4.646			-1.162
67100.000			4.646			-1.162
67200.000			4.647			-1.162
67302.000			4.646			-1.161
67401.000			4.647			-1.162
67500.000			4.646			-1.162
67601.000			4.646			-1.161
67700.000			4.645			-1.161
67800.000			4.647			-1.162
67901.000			4.647			-1.162
68000.000			4.647			-1.162
68101.000			4.646			-1.162
68202.000			4.645			-1.161
68300.000			4.645			-1.161
68400.000			4.645			-1.161
68501.000			4.645			-1.161
68600.000			4.644			-1.161
68700.000			4.644			-1.161
68801.000			4.644			-1.161
68901.000			4.644			-1.161
69002.000			4.645			-1.161
69101.000			4.644			-1.161
69200.000			4.644			-1.161
69301.000			4.643			-1.161
69400.000			4.643			-1.161
69500.000			4.644			-1.161
69601.000			4.643			-1.161
69700.000			4.643			-1.161
69801.000			4.643			-1.161
69902.000			4.644			-1.161
70000.000			4.644			-1.161
70100.000			4.642			-1.161
70201.000			4.642			-1.161
70300.000			4.643			-1.161
70400.000			4.643			-1.161
70501.000			4.642			-1.160
70601.000			4.642			-1.160
70701.000			4.641			-1.160
70801.000			4.640			-1.160
70900.000			4.642			-1.160
71000.000			4.642			-1.160
71101.000			4.640			-1.160
71200.000			4.640			-1.160
71300.000			4.640			-1.160
71402.000			4.640			-1.160
71501.000			4.640			-1.160
71600.000			4.640			-1.160
71701.000			4.640			-1.160
71800.000			4.640			-1.160
71900.000			4.640			-1.160
72001.000			4.640			-1.160
72100.000			4.640			-1.160
72202.000			4.640			-1.160
72301.000			4.640			-1.160
72401.000			4.639			-1.160
72501.000			4.640			-1.160
72600.000			4.640			-1.160
72700.000			4.640			-1.160
72801.000			4.640			-1.160
72900.000			4.639			-1.160
73000.000			4.639			-1.160
73102.000			4.639			-1.160
73201.000			4.638			-1.160
73300.000			4.638			-1.160
73401.000			4.639			-1.160
73500.000			4.638			-1.159
73600.000			4.637			-1.159
73701.000			4.637			-1.159
73800.000			4.638			-1.159
73901.000			4.637			-1.159
74002.000			4.636			-1.159
74100.000			4.638			-1.159
74200.000			4.639			-1.160
74301.000			4.637			-1.159
74400.000			4.636			-1.159
74500.000			4.636			-1.159
74601.000			4.637			-1.159
74701.000			4.637			-1.159
74801.000			4.637			-1.159
74902.000			4.636			-1.159
75000.000			4.636			-1.159
75100.000			4.636			-1.159
75201.000			4.636			-1.159
75300.000			4.636			-1.159
75401.000			4.636			-1.159
75500.000			4.636			-1.159
75601.000			4.636			-1.159
75702.000			4.635			-1.159
75800.000			4.635			-1.159
75900.000			4.636			-1.159
76001.000			4.635			-1.159
76100.000			4.635			-1.159
76200.000			4.636			-1.159
76301.000			4.636			-1.159
76401.000			4.636			-1.159
76501.000			4.635			-1.159
76601.000			4.635			-1.159
76700.000			4.635			-1.159
76800.000			4.634			-1.159
76901.000			4.635			-1.159
77000.000			4.634			-1.159
77100.000			4.634			-1.158
77202.000			4.634			-1.158
77301.000			4.634			-1.158
77400.000			4.634			-1.159
77501.000			4.633			-1.158
77600.000			4.633			-1.158
77700.000			4.633			-1.158
77801.000			4.632			-1.158
77900.000			4.633			-1.158
78001.000			4.633			-1.158
78102.000			4.632			-1.158
78201.000			4.632			-1.158
78300.000			4.632			-1.158
78401.000			4.632			-1.158
78500.000			4.633			-1.158
78601.000			4.632			-1.158
78700.000			4.632			-1.158
78800.000			4.632			-1.158
78902.000			4.631			-1.158
79001.000			4.632			-1.158
79100.000			4.632			-1.158
79201.000			4.632			-1.158
79300.000			4.631			-1.158
79400.000			4.631			-1.158
79501.000			4.630			-1.158
79600.000			4.631			-1.158
79701.000			4.631			-1.158
79802.000			4.630			-1.158
79900.000			4.631			-1.158
80000.000			4.632			-1.158
80101.000			4.631			-1.158
80200.000			4.630			-1.158
80300.000			4.630			-1.157
80401.000			4.630			-1.157
80501.000			4.629			-1.157
80601.000			4.629			-1.157
80701.000			4.629			-1.157
80800.000			4.629			-1.157
80900.000			4.630			-1.157
81001.000			4.630			-1.157
81100.000			4.630			-1.157
81200.000			4.630			-1.157
81302.000			4.629			-1.157
81401.000			4.629			-1.157
81500.000			4.629			-1.157
81601.000			4.629			-1.157
81700.000			4.628			-1.157
81801.000			4.628			-1.157
81900.000			4.629			-1.157
82000.000			4.629			-1.157
82102.000			4.627			-1.157
82201.000			4.627			-1.157
82300.000			4.628			-1.157
82401.000			4.628			-1.157
82500.000			4.629			-1.157
82600.000			4.628			-1.157
82701.000			4.628			-1.157
82800.000			4.627			-1.157
82900.000			4.627			-1.157
83002.000			4.628			-1.157
83101.000			4.627			-1.157
83200.000			4.628			-1.157
83301.000			4.627			-1.157
83400.000			4.626			-1.157
83500.000			4.628			-1.157
83601.000			4.628			-1.157
83700.000			4.628			-1.157
83801.000			4.627			-1.157
83902.000			4.626			-1.157
84000.000			4.626			-1.157
84100.000			4.627			-1.157
84201.000			4.627			-1.157
84300.000			4.626			-1.157
84400.000			4.625			-1.156
84501.000			4.626			-1.156
84601.000			4.626			-1.156
84701.000			4.625			-1.156
84801.000			4.625			-1.156
84900.000			4.625			-1.156
85001.000			4.625			-1.156
85100.000			4.625			-1.156
85200.000			4.625			-1.156
85301.000			4.624			-1.156
85401.000			4.624			-1.156
85501.000			4.625			-1.156
85601.000			4.625			-1.156
85700.000			4.625			-1.156
85800.000			4.625			-1.156
85901.000			4.623			-1.156
86000.000			4.623			-1.156
86100.000			4.625			-1.156
86202.000			4.624			-1.156
86301.000			4.625			-1.156
86400.000			4.624			-1.156
86501.000			4.624			-1.156
86600.000			4.624			-1.156
86700.000			4.624			-1.156
86801.000			4.624			-1.156
86900.000			4.623			-1.156
87000.000			4.624			-1.156
87102.000			4.623			-1.156
87201.000			4.623			-1.156
87300.000			4.623			-1.156
87401.000			4.622			-1.156
87500.000			4.623			-1.156
87600.000			4.622			-1.156
87701.000			4.622			-1.155
87800.000			4.622			-1.155
87901.000			4.622			-1.156
88002.000			4.622			-1.156
88100.000			4.622			-1.155
88201.000			4.621			-1.155
88300.000			4.621			-1.155
88400.000			4.623			-1.156
88501.000			4.622			-1.155
88600.000			4.622			-1.155
88701.000			4.621			-1.155
88802.000			4.620			-1.155
88900.000			4.620			-1.155
89000.000			4.622			-1.155
89101.000			4.621			-1.155
89200.000			4.622			-1.155
89300.000			4.621			-1.155
89401.000			4.621			-1.155
89501.000			4.621			-1.155
89601.000			4.620			-1.155
89701.000			4.620			-1.155
89800.000			4.621			-1.155
89900.000			4.621			-1.155
90001.000			4.620			-1.155
90100.000			4.620			-1.155
90200.000			4.619			-1.155
90302.000			4.620			-1.155
90401.000			4.619			-1.155
90501.000			4.620			-1.155
90601.000			4.619			-1.155
90700.000			4.620			-1.155
90800.000			4.620			-1.155
90901.000			4.620			-1.155
91000.000			4.619			-1.155
91100.000			4.619			-1.155
91202.000			4.619			-1.155
91301.000			4.618			-1.154
91401.000			4.617			-1.154
91500.000			4.618			-1.155
91600.000			4.618			-1.155
91701.000			4.619			-1.155
91800.000			4.619			-1.155
91900.000			4.618			-1.154
92002.000			4.617			-1.154
92101.000			4.617			-1.154
92200.000			4.618			-1.154
92301.000			4.617			-1.154
92400.000			4.617			-1.154
92500.000			4.617			-1.154
92601.000			4.617			-1.154
92700.000			4.618			-1.154
92801.000			4.617			-1.154
92902.000			4.616			-1.154
93000.000			4.616			-1.154
93100.000			4.616			-1.154
93201.000			4.617			-1.154
93300.000			4.617			-1.154
93400.000			4.617			-1.154
93501.000			4.617			-1.154
93601.000			4.616			-1.154
93701.000			4.616			-1.154
93802.000			4.616			-1.154
93900.000			4.617			-1.154
94000.000			4.617			-1.154
94101.000			4.615			-1.154
94200.000			4.616			-1.154
94300.000			4.616			-1.154
94401.000			4.616			-1.154
94501.000			4.616			-1.154
94602.000			4.615			-1.154
94700.000			4.615			-1.154
94800.000			4.616			-1.154
94901.000			4.614			-1.154
95000.000			4.615			-1.154
95100.000			4.615			-1.154
95201.000			4.614			-1.154
95301.000			4.613			-1.153
95401.000			4.613			-1.153
95501.000			4.614			-1.153
95600.000			4.615			-1.154
95700.000			4.615			-1.154
95801.000			4.614			-1.154
95900.000			4.613			-1.153
96000.000			4.614			-1.153
96102.000			4.613			-1.153
96201.000			4.613			-1.153
96301.000			4.614			-1.154
96401.000			4.614			-1.153
96500.000			4.614			-1.154
96600.000			4.613			-1.153
96701.000			4.612			-1.153
96800.000			4.612			-1.153
96900.000			4.613			-1.153
97002.000			4.615			-1.154
97101.000			4.614			-1.154
97200.000			4.614			-1.153
97301.000			4.613			-1.153
97400.000			4.613			-1.153
97500.000			4.614			-1.154
97601.000			4.613			-1.153
97700.000			4.613			-1.153
97802.000			4.613			-1.153
97901.000			4.613			-1.153
98000.000			4.613			-1.153
98101.000			4.613			-1.153
98200.000			4.612			-1.153
98300.000			4.611			-1.153
98401.000			4.612			-1.153
98500.000			4.612			-1.153
98601.000			4.611			-1.153
98702.000			4.611			-1.153
98800.000			4.612			-1.153
98900.000			4.611			-1.153
99001.000			4.612			-1.153
99100.000			4.611			-1.153
99200.000			4.611			-1.153
99301.000			4.611			-1.153
99401.000			4.611			-1.153
99501.000			4.611			-1.153
99601.000			4.610			-1.153
99700.000			4.611			-1.153
99800.000			4.610			-1.152
99901.000			4.611			-1.153
100000.000			4.611			-1.153
100100.000			4.611			-1.153
100202.000			4.610			-1.153
100301.000			4.609			-1.152
100401.000			4.609			-1.152
100501.000			4.609			-1.152
100600.000			4.608			-1.152
100700.000			4.608			-1.152
100801.000			4.609			-1.152
100900.000			4.609			-1.152
101001.000			4.609			-1.152
101101.000			4.609			-1.152
101201.000			4.610			-1.153
101301.000			4.609			-1.152
101400.000			4.609			-1.152
101500.000			4.609			-1.152
101601.000			4.609			-1.152
101700.000			4.609			-1.152
101800.000			4.610			-1.152
101902.000			4.609			-1.152
102001.000			4.608			-1.152
102100.000			4.608			-1.152
102201.000			4.609			-1.152
102300.000			4.609			-1.152
102400.000			4.609			-1.152
102501.000			4.608			-1.152
102600.000			4.607			-1.152
102701.000			4.608			-1.152
102802.000			4.608			-1.152
102901.000			4.607			-1.152
103000.000			4.607			-1.152
103101.000			4.608			-1.152
103200.000			4.607			-1.152
103300.000			4.606			-1.152
103401.000			4.607			-1.152
103500.000			4.607			-1.152
103601.000			4.606			-1.152
103702.000			4.607			-1.152
103800.000			4.607			-1.152
103900.000			4.608			-1.152
104001.000			4.607			-1.152
104100.000			4.607			-1.152
104201.000			4.606			-1.151
104300.000			4.606			-1.152
104401.000			4.606			-1.152
104502.000			4.606			-1.152
104600.000			4.606			-1.152
104700.000			4.606			-1.152
104801.000			4.606			-1.151
104900.000			4.605			-1.151
105000.000			4.605			-1.151
105101.000			4.606			-1.151
105201.000			4.606			-1.152
105301.000			4.605			-1.151
105401.000			4.605			-1.151
105500.000			4.604			-1.151
105600.000			4.604			-1.151
105701.000			4.605			-1.151
105800.000			4.606			-1.152
105900.000			4.606			-1.151
106002.000			4.605			-1.151
106101.000			4.604			-1.151
106201.000			4.605			-1.151
106301.000			4.604			-1.151
106400.000			4.605			-1.151
106500.000			4.605			-1.151
106601.000			4.605			-1.151
106700.000			4.605			-1.151
106800.000			4.604			-1.151
106902.000			4.604			-1.151
107001.000			4.603			-1.151
107100.000			4.604			-1.151
107201.000			4.605			-1.151
107300.000			4.603			-1.151
107401.000			4.603			-1.151
107500.000			4.604			-1.151
107600.000			4.604			-1.151
107702.000			4.603			-1.151
107801.000			4.604			-1.151
107900.000			4.603			-1.151
108001.000			4.603			-1.151
108100.000			4.603			-1.151
108200.000			4.603			-1.151
108301.000			4.603			-1.151
108400.000			4.602			-1.150
108500.000			4.602			-1.151
108602.000			4.603			-1.151
108701.000			4.602			-1.151
108800.000			4.603			-1.151
108901.000			4.602			-1.151
109000.000			4.601			-1.150
109100.000			4.602			-1.150
109201.000			4.602			-1.150
109300.000			4.603			-1.151
109401.000			4.601			-1.150
109502.000			4.602			-1.150
109600.000			4.602			-1.151
109700.000			4.601			-1.150
109801.000			4.601			-1.150
109900.000			4.601			-1.150
110000.000			4.600			-1.150
110101.000			4.599			-1.150
110201.000			4.600			-1.150
110301.000			4.601			-1.150
110401.000			4.601			-1.150
110500.000			4.601			-1.150
110601.000			4.602			-1.150
110700.000			4.601			-1.150
110800.000			4.601			-1.150
110901.000			4.601			-1.150
111001.000			4.601			-1.150
111101.000			4.601			-1.150
111201.000			4.600			-1.150
111300.000			4.599			-1.150
111400.000			4.599			-1.150
111501.000			4.600			-1.150
111600.000			4.600			-1.150
111700.000			4.600			-1.150
111802.000			4.600			-1.150
111901.000			4.600			-1.150
112000.000			4.599			-1.150
112101.000			4.598			-1.150
112200.000			4.598			-1.149
112300.000			4.598			-1.150
112401.000			4.598			-1.150
112500.000			4.599			-1.150
112600.000			4.598			-1.149
112702.000			4.597			-1.149
112801.000			4.599			-1.150
112900.000			4.598			-1.150
113001.000			4.598			-1.150
113100.000			4.598			-1.150
113200.000			4.599			-1.150
113301.000			4.600			-1.150
113400.000			4.599			-1.150
113501.000			4.599			-1.150
113602.000			4.598			-1.150
113701.000			4.600			-1.150
113801.000			4.600			-1.150
113900.000			4.599			-1.150
114000.000			4.598			-1.150
114101.000			4.598			-1.149
114200.000			4.598			-1.149
114300.000			4.598			-1.150
114402.000			4.597			-1.149
114501.000			4.598			-1.149
114600.000			4.599			-1.150
114701.000			4.598			-1.149
114800.000			4.598			-1.149
114900.000			4.599			-1.150
115001.000			4.598			-1.149
115100.000			4.597			-1.149
115200.000			4.597			-1.149
115302.000			4.597			-1.149
115401.000			4.597			-1.149
115500.000			4.598			-1.149
115601.000			4.596			-1.149
115700.000			4.596			-1.149
115800.000			4.598			-1.149
115901.000			4.598			-1.149
116000.000			4.597			-1.149
116100.000			4.596			-1.149
116202.000			4.596			-1.149
116301.000			4.596			-1.149
116400.000			4.596			-1.149
116501.000			4.596			-1.149
116600.000			4.595			-1.149
116700.000			4.595			-1.149
116801.000			4.596			-1.149
116900.000			4.596			-1.149
117002.000			4.596			-1.149
117101.000			4.596			-1.149
117201.000			4.595			-1.149
117301.000			4.594			-1.149
117400.000			4.595			-1.149
117500.000			4.595			-1.149
117601.000			4.596			-1.149
117700.000			4.595			-1.149
117800.000			4.595			-1.149
117902.000			4.595			-1.149
118001.000			4.595			-1.149
118101.000			4.595			-1.149
118201.000			4.595			-1.149
118300.000			4.595			-1.149
118400.000			4.595			-1.149
118501.000			4.595			-1.149
118600.000			4.594			-1.149
118700.000			4.595			-1.149
118802.000			4.594			-1.149
118901.000			4.594			-1.149
119000.000			4.594			-1.148
119101.000			4.595			-1.149
119200.000			4.594			-1.148
119300.000			4.593			-1.148
119401.000			4.593			-1.148
119500.000			4.594			-1.149
119600.000			4.594			-1.148
119702.000			4.593			-1.148
119801.000			4.593			-1.148
119900.000			4.594			-1.148
120001.000			4.593			-1.148
120100.000			4.594			-1.149
120201.000			4.593			-1.148
120300.000			4.592			-1.148
120400.000			4.591			-1.148
120502.000			4.592			-1.148
120601.000			4.593			-1.148
120701.000			4.593			-1.148
120801.000			4.592			-1.148
120900.000			4.593			-1.148
121000.000			4.593			-1.148
121101.000			4.592			-1.148
121200.000			4.592			-1.148
121300.000			4.591			-1.148
121402.000			4.592			-1.148
121501.000			4.592			-1.148
121600.000			4.592			-1.148
121701.000			4.592			-1.148
121800.000			4.592			-1.148
121900.000			4.593			-1.148
122001.000			4.592			-1.148
122100.000			4.592			-1.148
122201.000			4.591			-1.148
122302.000			4.590			-1.148
122401.000			4.592			-1.148
122500.000			4.592			-1.148
122601.000			4.592			-1.148
122700.000			4.591			-1.148
122800.000			4.591			-1.148
122901.000			4.591			-1.148
123000.000			4.590			-1.148
123101.000			4.591			-1.148
123202.000			4.592			-1.148
123300.000			4.591			-1.148
123401.000			4.590			-1.148
123500.000			4.590			-1.147
123600.000			4.590			-1.147
123701.000			4.590			-1.148
123800.000			4.591			-1.148
123901.000			4.589			-1.147
124002.000			4.588			-1.147
124101.000			4.589			-1.147
124200.000			4.589			-1.147
124301.000			4.589			-1.147
124400.000			4.589			-1.147
124500.000			4.589			-1.147
124601.000			4.589			-1.147
124700.000			4.589			-1.147
124801.000			4.590			-1.147
124902.000			4.590			-1.148
125000.000			4.590			-1.148
125100.000			4.590			-1.147
125201.000			4.590			-1.147
125300.000			4.590			-1.148
125400.000			4.591			-1.148
125501.000			4.590			-1.148
125601.000			4.589			-1.147
125701.000			4.588			-1.147
125802.000			4.588			-1.147
125900.000			4.588			-1.147
126000.000			4.589			-1.147
126101.000			4.588			-1.147
126200.000			4.588			-1.147
126300.000			4.588			-1.147
126401.000			4.588			-1.147
126501.000			4.588			-1.147
126602.000			4.588			-1.147
126701.000			4.589			-1.147
126800.000			4.588			-1.147
126901.000			4.589			-1.147
127000.000			4.588			-1.147
127100.000			4.587			-1.147
127201.000			4.587			-1.147
127300.000			4.587			-1.147
127400.000			4.587			-1.147
127502.000			4.587			-1.147
127601.000			4.588			-1.147
127700.000			4.587			-1.147
127801.000			4.587			-1.147
127900.000			4.587			-1.147
128000.000			4.586			-1.147
128101.000			4.587			-1.147
128200.000			4.587			-1.147
128300.000			4.587			-1.147
128402.000			4.586			-1.146
128501.000			4.586			-1.147
128600.000			4.587			-1.147
128701.000			4.586			-1.147
128800.000			4.587			-1.147
128900.000			4.586			-1.147
129001.000			4.585			-1.146
129100.000			4.585			-1.146
129201.000			4.586			-1.146
129302.000			4.587			-1.147
129401.000			4.587			-1.147
129500.000			4.587			-1.147
129601.000			4.585			-1.146
129700.000			4.585			-1.146
129801.000			4.585			-1.146
129900.000			4.585			-1.146
130000.000			4.586			-1.146
130102.000			4.586			-1.147
130201.000			4.586			-1.146
130300.000			4.586			-1.147
130401.000			4.587			-1.147
130500.000			4.585			-1.146
130600.000			4.584			-1.146
130701.000			4.585			-1.146
130800.000			4.585			-1.146
130900.000			4.585			-1.146
131002.000			4.585			-1.146
131101.000			4.585			-1.146
131200.000			4.586			-1.146
131301.000			4.585			-1.146
131400.000			4.585			-1.146
131500.000			4.584			-1.146
131601.000			4.584			-1.146
131700.000			4.584			-1.146
131800.000			4.584			-1.146
131902.000			4.584			-1.146
132001.000			4.584			-1.146
132100.000			4.585			-1.146
132201.000			4.584			-1.146
132300.000			4.583			-1.146
132400.000			4.584			-1.146
132501.000			4.584			-1.146
132600.000			4.584			-1.146
132700.000			4.584			-1.146
132802.000			4.583			-1.146
132901.000			4.584			-1.146
133001.000			4.584			-1.146
133100.000			4.584			-1.146
133200.000			4.583			-1.146
133301.000			4.583			-1.146
133400.000			4.583			-1.146
133500.000			4.583			-1.146
133601.000			4.582			-1.146
133701.000			4.583			-1.146
133801.000			4.583			-1.146
133902.000			4.583			-1.146
134000.000			4.582			-1.146
134100.000			4.582			-1.145
134201.000			4.582			-1.145
134300.000			4.582			-1.146
134400.000			4.582			-1.146
134501.000			4.582			-1.146
134601.000			4.582			-1.146
134701.000			4.583			-1.146
134802.000			4.583			-1.146
134900.000			4.582			-1.146
135000.000			4.582			-1.145
135101.000			4.582			-1.145
135200.000			4.582			-1.145
135300.000			4.581			-1.145
135401.000			4.582			-1.146
135500.000			4.583			-1.146
135601.000			4.581			-1.145
135702.000			4.580			-1.145
135800.000			4.581			-1.145
135900.000			4.581			-1.145
136001.000			4.581			-1.145
136100.000			4.581			-1.145
136201.000			4.582			-1.145
136300.000			4.581			-1.145
136400.000			4.582			-1.145
136502.000			4.582			-1.146
136601.000			4.581			-1.145
136701.000			4.582			-1.145
136801.000			4.581			-1.145
136900.000			4.580			-1.145
137000.000			4.581			-1.145
137101.000			4.580			-1.145
137200.000			4.579			-1.145
137300.000			4.580			-1.145
137401.000			4.580			-1.145
137501.000			4.580			-1.145
137601.000			4.580			-1.145
137701.000			4.581			-1.145
137800.000			4.580			-1.145
137900.000			4.580			-1.145
138001.000			4.581			-1.145
138100.000			4.580			-1.145
138200.000			4.580			-1.145
138301.000			4.579			-1.145
138401.000			4.579			-1.145
138501.000			4.579			-1.145
138602.000			4.578			-1.145
138700.000			4.579			-1.145
138800.000			4.579			-1.145
138901.000			4.580			-1.145
139000.000			4.580			-1.145
139100.000			4.578			-1.145
139201.000			4.579			-1.145
139300.000			4.579			-1.145
139402.000			4.578			-1.145
139501.000			4.578			-1.144
139601.000			4.579			-1.145
139701.000			4.579			-1.145
139800.000			4.579			-1.145
139900.000			4.578			-1.145
140001.000			4.578			-1.144
140100.000			4.578			-1.145
140200.000			4.578			-1.144
140301.000			4.578			-1.145
140401.000			4.579			-1.145
140501.000			4.580			-1.145
140601.000			4.578			-1.145
140700.000			4.578			-1.144
140800.000			4.578			-1.144
140901.000			4.578			-1.144
141000.000			4.578			-1.145
141100.000			4.577			-1.144
141201.000			4.577			-1.144
141301.000			4.577			-1.144
141401.000			4.577			-1.144
141502.000			4.577			-1.144
141600.000			4.577			-1.144
141700.000			4.576			-1.144
141801.000			4.577			-1.144
141900.000			4.578			-1.144
142000.000			4.577			-1.144
142101.000			4.577			-1.144
142200.000			4.576			-1.144
142301.000			4.577			-1.144
142402.000			4.578			-1.144
142500.000			4.577			-1.144
142601.000			4.577			-1.144
142700.000			4.577			-1.144
142800.000			4.577			-1.144
142901.000			4.577			-1.144
143000.000			4.577			-1.144
143100.000			4.576			-1.144
143202.000			4.577			-1.144
143301.000			4.576			-1.144
143401.000			4.576			-1.144
143501.000			4.575			-1.144
143600.000			4.575			-1.144
143700.000			4.575			-1.144
143801.000			4.576			-1.144
143900.000			4.576			-1.144
144000.000			4.575			-1.144
144101.000			4.577			-1.144
144201.000			4.576			-1.144
144301.000			4.576			-1.144
144401.000			4.576			-1.144
144500.000			4.576			-1.144
144600.000			4.575			-1.144
144701.000			4.575			-1.144
144800.000			4.575			-1.144
144900.000			4.575			-1.144
145001.000			4.575			-1.144
145101.000			4.576			-1.144
145201.000			4.576			-1.144
145302.000			4.576			-1.144
145400.000			4.576			-1.144
145500.000			4.575			-1.144
145601.000			4.574			-1.144
145700.000			4.575			-1.144
145801.000			4.575			-1.144
145900.000			4.574			-1.143
146000.000			4.575			-1.144
146102.000			4.574			-1.144
146201.000			4.574			-1.144
146300.000			4.574			-1.144
146401.000			4.574			-1.144
146500.000			4.575			-1.144
146600.000			4.575			-1.144
146701.000			4.575			-1.144
146800.000			4.575			-1.144
146900.000			4.574			-1.144
147002.000			4.574			-1.143
147101.000			4.574			-1.143
147201.000			4.574			-1.144
147301.000			4.574			-1.144
147400.000			4.573			-1.143
147500.000			4.573			-1.143
147601.000			4.573			-1.143
147700.000			4.573			-1.143
147800.000			4.573			-1.143
147901.000			4.574			-1.143
148001.000			4.574			-1.144
148101.000			4.574			-1.143
148201.000			4.572			-1.143
148300.000			4.572			-1.143
148400.000			4.573			-1.143
148501.000			4.573			-1.143
148600.000			4.572			-1.143
148700.000			4.573			-1.143
148801.000			4.573			-1.143
148901.000			4.573			-1.143
149002.000			4.573			-1.143
149101.000			4.573			-1.143
149200.000			4.572			-1.143
149301.000			4.572			-1.143
149400.000			4.573			-1.143
149500.000			4.574			-1.143
149601.000			4.573			-1.143
149700.000			4.573			-1.143
149800.000			4.572			-1.143
149902.000			4.572			-1.143
150001.000			4.573			-1.143
150101.000			4.572			-1.143
150201.000			4.572			-1.143
150300.000			4.572			-1.143
150400.000			4.572			-1.143
150501.000			4.572			-1.143
150600.000			4.572			-1.143
150700.000			4.572			-1.143
150802.000			4.572			-1.143
150901.000			4.572			-1.143
151001.000			4.572			-1.143
151101.000			4.570			-1.143
151200.000			4.571			-1.143
151300.000			4.572			-1.143
151401.000			4.572			-1.143
151500.000			4.572			-1.143
151600.000			4.571			-1.143
151701.000			4.570			-1.143
151801.000			4.571			-1.143
151901.000			4.570			-1.142
152001.000			4.570			-1.143
152100.000			4.571			-1.143
152201.000			4.571			-1.143
152300.000			4.571			-1.143
152400.000			4.571			-1.143
152501.000			4.569			-1.142
152600.000			4.570			-1.143
152701.000			4.570			-1.143
152802.000			4.570			-1.142
152901.000			4.570			-1.143
153000.000			4.570			-1.143
153101.000			4.570			-1.142
153200.000			4.570			-1.142
153300.000			4.570			-1.143
153401.000			4.570			-1.142
153500.000			4.570			-1.142
153600.000			4.569			-1.142
153702.000			4.570			-1.143
153801.000			4.570			-1.143
153900.000			4.569			-1.142
154001.000			4.569			-1.142
154100.000			4.569			-1.142
154200.000			4.569			-1.142
154301.000			4.568			-1.142
154400.000			4.569			-1.142
154500.000			4.570			-1.143
154602.000			4.570			-1.142
154701.000			4.569			-1.142
154801.000			4.569			-1.142
154901.000			4.569			-1.142
155000.000			4.569			-1.142
155100.000			4.568			-1.142
155201.000			4.567			-1.142
155300.000			4.567			-1.142
155401.000			4.568			-1.142
155500.000			4.567			-1.142
155601.000			4.568			-1.142
155702.000			4.569			-1.142
155801.000			4.567			-1.142
155900.000			4.568			-1.142
156001.000			4.568			-1.142
156100.000			4.567			-1.142
156200.000			4.568			-1.142
156301.000			4.569			-1.142
156400.000			4.568			-1.142
156500.000			4.567			-1.142
156602.000			4.568			-1.142
156701.000			4.568			-1.142
156801.000			4.568			-1.142
156901.000			4.568			-1.142
157000.000			4.567			-1.142
157100.000			4.567			-1.142
157201.000			4.566			-1.142
157300.000			4.566			-1.142
157400.000			4.567			-1.142
157501.000			4.568			-1.142
157601.000			4.567			-1.142
157701.000			4.567			-1.142
157801.000			4.567			-1.142
157900.000			4.567			-1.142
158000.000			4.566			-1.142
158101.000			4.567			-1.142
158200.000			4.567			-1.142
158300.000			4.567			-1.142
158401.000			4.567			-1.142
158501.000			4.567			-1.142
158602.000			4.567			-1.142
158701.000			4.566			-1.141
158800.000			4.566			-1.142
158901.000			4.567			-1.142
159000.000			4.566			-1.141
159100.000			4.566			-1.141
159201.000			4.566			-1.141
159300.000			4.566			-1.141
159400.000			4.566			-1.142
159502.000			4.566			-1.141
159601.000			4.566			-1.141
159701.000			4.565			-1.141
159801.000			4.565			-1.141
159900.000			4.566			-1.141
160000.000			4.566			-1.141
160101.000			4.566			-1.141
160200.000			4.566			-1.142
160300.000			4.566			-1.141
160401.000			4.566			-1.141
160501.000			4.565			-1.141
160601.000			4.565			-1.141
160701.000			4.564			-1.141
160800.000			4.565			-1.141
160900.000			4.565			-1.141
161001.000			4.565			-1.141
161100.000			4.565			-1.141
161200.000			4.564			-1.141
161301.000			4.564			-1.141
161401.000			4.564			-1.141
161501.000			4.564			-1.141
161602.000			4.565			-1.141
161700.000			4.566			-1.141
161801.000			4.564			-1.141
161900.000			4.563			-1.141
162000.000			4.564			-1.141
162101.000			4.565			-1.141
162200.000			4.565			-1.141
162300.000			4.564			-1.141
162402.000			4.563			-1.141
162501.000			4.564			-1.141
162600.000			4.564			-1.141
162701.000			4.564			-1.141
162800.000			4.564			-1.141
162900.000			4.564			-1.141
163001.000			4.564			-1.141
163100.000			4.564			-1.141
163200.000			4.564			-1.141
163302.000			4.563			-1.141
163401.000			4.563			-1.141
163500.000			4.563			-1.141
163601.000			4.563			-1.141
163700.000			4.563			-1.141
163800.000			4.563			-1.141
163901.000			4.563			-1.141
164000.000			4.563			-1.141
164100.000			4.563			-1.141
164202.000			4.563			-1.141
164301.000			4.563			-1.141
164401.000			4.564			-1.141
164501.000			4.563			-1.141
164600.000			4.563			-1.141
164700.000			4.563			-1.141
164801.000			4.563			-1.141
164900.000			4.563			-1.141
165001.000			4.563			-1.141
165100.000			4.562			-1.141
165201.000			4.563			-1.141
165302.000			4.563			-1.141
165401.000			4.562			-1.141
165500.000			4.562			-1.141
165601.000			4.562			-1.140
165700.000			4.562			-1.141
165800.000			4.562			-1.141
165901.000			4.561			-1.140
166000.000			4.562			-1.141
166101.000			4.563			-1.141
166202.000			4.563			-1.141
166301.000			4.562			-1.141
166400.000			4.563			-1.141
166501.000			4.563			-1.141
166600.000			4.561			-1.140
166700.000			4.561			-1.140
166801.000			4.561			-1.140
166900.000			4.562			-1.141
167000.000			4.562			-1.141
167102.000			4.562			-1.140
167201.000			4.561			-1.140
167300.000			4.562			-1.140
167401.000			4.562			-1.140
167500.000			4.561			-1.140
167600.000			4.561			-1.140
167701.000			4.561			-1.140
167800.000			4.560			-1.140
167900.000			4.561			-1.140
168002.000			4.560			-1.140
168101.000			4.561			-1.140
168202.000			4.563			-1.141
168300.000			4.561			-1.140
168400.000			4.561			-1.140
168501.000			4.562			-1.140
168600.000			4.561			-1.140
168700.000			4.560			-1.140
168801.000			4.561			-1.140
168900.000			4.562			-1.140
169001.000			4.560			-1.140
169102.000			4.559			-1.140
169201.000			4.559			-1.140
169300.000			4.559			-1.140
169401.000			4.560			-1.140
169500.000			4.560			-1.140
169600.000			4.560			-1.140
169701.000			4.559			-1.140
169800.000			4.560			-1.140
169900.000			4.560			-1.140
170002.000			4.560			-1.140
170101.000			4.560			-1.140
170200.000			4.560			-1.140
170301.000			4.559			-1.140
170400.000			4.559			-1.140
170500.000			4.559			-1.140
170601.000			4.559			-1.140
170700.000			4.559			-1.140
170800.000			4.559			-1.140
170902.000			4.560			-1.140
171001.000			4.559			-1.140
171101.000			4.558			-1.140
171201.000			4.558			-1.139
171300.000			4.558			-1.140
171401.000			4.558			-1.139
171500.000			4.558			-1.140
171600.000			4.559			-1.140
171701.000			4.558			-1.139
171800.000			4.558			-1.140
171901.000			4.559			-1.140
172002.000			4.559			-1.140
172101.000			4.559			-1.140
172200.000			4.559			-1.140
172301.000			4.558			-1.140
172400.000			4.558			-1.140
172500.000			4.558			-1.139
172601.000			4.558			-1.140
172700.000			4.559			-1.140
172800.000			4.559			-1.140
172902.000			4.558			-1.140
173001.000			4.558			-1.139
173101.000			4.559			-1.140
173201.000			4.557			-1.139
173300.000			4.556			-1.139
173400.000			4.558			-1.139
173501.000			4.558			-1.139
173600.000			4.557			-1.139
173700.000			4.556			-1.139
173801.000			4.558			-1.139
173901.000			4.558			-1.139
174001.000			4.557			-1.139
174101.000			4.557			-1.139
174200.000			4.557			-1.139
174300.000			4.557			-1.139
174401.000			4.557			-1.139
174500.000			4.557			-1.139
174601.000			4.557			-1.139
174700.000			4.557			-1.139
174800.000			4.556			-1.139
174902.000			4.556			-1.139
175001.000			4.556			-1.139
175100.000			4.556			-1.139
175201.000			4.556			-1.139
175300.000			4.556			-1.139
175400.000			4.556			-1.139
175501.000			4.556			-1.139
175600.000			4.556			-1.139
175700.000			4.556			-1.139
175802.000			4.556			-1.139
175901.000			4.555			-1.139
176001.000			4.556			-1.139
176101.000			4.556			-1.139
176200.000			4.556			-1.139
176300.000			4.557			-1.139
176401.000			4.556			-1.139
176500.000			4.556			-1.139
176600.000			4.556			-1.139
176701.000			4.555			-1.139
176801.000			4.556			-1.139
176901.000			4.555			-1.139
177002.000			4.556			-1.139
177100.000			4.556			-1.139
177200.000			4.556			-1.139
177301.000			4.557			-1.139
177400.000			4.555			-1.139
177500.000			4.555			-1.139
177601.000			4.555			-1.139
177700.000			4.556			-1.139
177802.000			4.556			-1.139
177901.000			4.555			-1.139
178000.000			4.555			-1.139
178101.000			4.555			-1.139
178200.000			4.555			-1.139
178300.000			4.555			-1.139
178401.000			4.555			-1.139
178500.000			4.555			-1.139
178600.000			4.556			-1.139
178701.000			4.556			-1.139
178801.000			4.556			-1.139
178901.000			4.555			-1.139
179001.000			4.555			-1.139
179100.000			4.556			-1.139
179200.000			4.555			-1.139
179301.000			4.555			-1.139
179400.000			4.555			-1.139
179500.000			4.555			-1.139
179601.000			4.554			-1.139
179700.000			4.556			-1.139
179801.000			4.556			-1.139
179902.000			4.555			-1.139
180000.000			4.553			-1.138
180100.000			4.554			-1.138
180201.000			4.554			-1.139
180300.000			4.554			-1.138
180400.000			4.554			-1.138
180501.000			4.554			-1.139
180600.000			4.555			-1.139
180701.000			4.554			-1.138
180802.000			4.553			-1.138
180901.000			4.554			-1.138
181001.000			4.554			-1.139
181100.000			4.554			-1.138
181200.000			4.554			-1.138
181301.000			4.553			-1.138
181400.000			4.554			-1.138
181500.000			4.552			-1.138
181601.000			4.553			-1.138
181701.000			4.554			-1.138
181801.000			4.554			-1.138
181901.000			4.553			-1.138
182000.000			4.553			-1.138
182100.000			4.554			-1.138
182201.000			4.553			-1.138
182300.000			4.553			-1.138
182400.000			4.553			-1.138
182501.000			4.553			-1.138
182601.000			4.553			-1.138
182701.000			4.553			-1.138
182802.000			4.554			-1.138
182900.000			4.553			-1.138
183000.000			4.552			-1.138
183101.000			4.552			-1.138
183200.000			4.553			-1.138
183300.000			4.553			-1.138
183401.000			4.553			-1.138
183500.000			4.553			-1.138
183601.000			4.553			-1.138
183702.000			4.553			-1.138
183801.000			4.552			-1.138
183900.000			4.552			-1.138
184001.000			4.552			-1.138
184100.000			4.552			-1.138
184201.000			4.552			-1.138
184300.000			4.552			-1.138
184400.000			4.551			-1.138
184502.000			4.552			-1.138
184601.000			4.553			-1.138
184701.000			4.552			-1.138
184801.000			4.552			-1.138
184900.000			4.552			-1.138
185000.000			4.551			-1.138
185101.000			4.552			-1.138
185200.000			4.552			-1.138
185300.000			4.552			-1.138
185401.000			4.552			-1.138
185501.000			4.551			-1.138
185601.000			4.552			-1.138
185701.000			4.553			-1.138
185800.000			4.552			-1.138
185900.000			4.552			-1.138
186001.000			4.552			-1.138
186100.000			4.552			-1.138
186200.000			4.552			-1.138
186301.000			4.551			-1.138
186401.000			4.551			-1.138
186501.000			4.551			-1.138
186602.000			4.551			-1.138
186700.000			4.551			-1.138
186800.000			4.552			-1.138
186901.000			4.550			-1.138
187000.000			4.549			-1.137
187100.000			4.549			-1.137
187201.000			4.551			-1.138
187300.000			4.551			-1.138
187402.000			4.551			-1.138
187501.000			4.551			-1.138
187601.000			4.550			-1.138
187701.000			4.551			-1.138
187800.000			4.551			-1.138
187900.000			4.551			-1.138
188001.000			4.551			-1.138
188100.000			4.550			-1.137
188200.000			4.550			-1.138
188301.000			4.550			-1.138
188401.000			4.550			-1.138
188501.000			4.551			-1.138
188601.000			4.550			-1.138
188700.000			4.550			-1.137
188800.000			4.550			-1.138
188901.000			4.550			-1.138
189000.000			4.551			-1.138
189100.000			4.550			-1.137
189201.000			4.550			-1.138
189301.000			4.550			-1.138
189401.000			4.550			-1.138
189502.000			4.550			-1.138
189600.000			4.549			-1.137
189700.000			4.549			-1.137
189801.000			4.549			-1.137
189900.000			4.549			-1.137
190000.000			4.549			-1.137
190101.000			4.548			-1.137
190200.000			4.548			-1.137
190301.000			4.549			-1.137
190402.000			4.549			-1.137
190500.000			4.549			-1.137
190601.000			4.550			-1.137
190700.000			4.550			-1.137
190800.000			4.549			-1.137
190901.000			4.550			-1.137
191000.000			4.550			-1.137
191100.000			4.549			-1.137
191201.000			4.549			-1.137
191301.000			4.549			-1.137
191401.000			4.550			-1.137
191501.000			4.550			-1.137
191600.000			4.549			-1.137
191700.000			4.549			-1.137
191801.000			4.549			-1.137
191900.000			4.548			-1.137
192000.000			4.547			-1.137
192101.000			4.548			-1.137
192201.000			4.548			-1.137
192301.000			4.548			-1.137
192402.000			4.548			-1.137
192500.000			4.548			-1.137
192600.000			4.548			-1.137
192701.000			4.549			-1.137
192800.000			4.548			-1.137
192900.000			4.548			-1.137
193001.000			4.548			-1.137
193100.000			4.548			-1.137
193201.000			4.547			-1.137
193302.000			4.548			-1.137
193401.000			4.547			-1.137
193500.000			4.547			-1.137
193601.000			4.547			-1.137
193700.000			4.548			-1.137
193801.000			4.548			-1.137
193900.000			4.547			-1.137
194000.000			4.548			-1.137
194101.000			4.548			-1.137
194201.000			4.547			-1.137
194301.000			4.546			-1.137
194402.000			4.545			-1.136
194500.000			4.547			-1.137
194600.000			4.548			-1.137
194701.000			4.547			-1.137
194800.000			4.547			-1.137
194900.000			4.547			-1.137
195001.000			4.547			-1.137
195100.000			4.547			-1.137
195201.000			4.547			-1.137
195302.000			4.548			-1.137
195401.000			4.548			-1.137
195500.000			4.546			-1.137
195601.000			4.547			-1.137
195700.000			4.547			-1.137
195800.000			4.548			-1.137
195901.000			4.547			-1.137
196000.000			4.546			-1.137
196100.000			4.546			-1.136
196202.000			4.546			-1.136
196301.000			4.546			-1.136
196400.000			4.546			-1.136
196501.000			4.546			-1.136
196600.000			4.546			-1.137
196700.000			4.546			-1.136
196801.000			4.546			-1.136
196900.000			4.546			-1.136
197001.000			4.546			-1.137
197100.000			4.546			-1.136
197201.000			4.546			-1.137
197302.000			4.545			-1.136
197400.000			4.546			-1.137
197500.000			4.546			-1.136
197601.000			4.545			-1.136
197700.000			4.545			-1.136
197800.000			4.546			-1.137
197901.000			4.546			-1.136
198000.000			4.546			-1.136
198100.000			4.546			-1.136
198202.000			4.545			-1.136
198301.000			4.546			-1.136
198400.000			4.546			-1.137
198501.000			4.545			-1.136
198600.000			4.545			-1.136
198700.000			4.546			-1.137
198801.000			4.545			-1.136
198900.000			4.546			-1.136
199000.000			4.546			-1.136
199102.000			4.545			-1.136
199201.000			4.546			-1.136
199301.000			4.546			-1.136
199401.000			4.546			-1.137
199500.000			4.546			-1.137
199600.000			4.545			-1.136
199701.000			4.545			-1.136
199800.000			4.545			-1.136
199900.000			4.545			-1.136
200001.000			4.544			-1.136
200101.000			4.544			-1.136
200202.000			4.544			-1.136
200301.000			4.544			-1.136
200400.000			4.544			-1.136
200501.000			4.544			-1.136
200600.000			4.545			-1.136
200700.000			4.543			-1.136
200801.000			4.543			-1.136
200900.000			4.544			-1.136
201001.000			4.544			-1.136
201102.000			4.543			-1.136
201201.000			4.543			-1.136
201300.000			4.544			-1.136
201401.000			4.544			-1.136
201500.000			4.544			-1.136
201600.000			4.544			-1.136
201701.000			4.543			-1.136
201800.000			4.543			-1.136
201901.000			4.543			-1.136
202002.000			4.544			-1.136
202101.000			4.543			-1.136
202200.000			4.543			-1.136
202301.000			4.544			-1.136
202400.000			4.544			-1.136
202500.000			4.543			-1.136
202601.000			4.542			-1.136
202700.000			4.544			-1.136
202801.000			4.544			-1.136
202902.000			4.543			-1.136
203001.000			4.544			-1.136
203100.000			4.543			-1.136
203201.000			4.542			-1.136
203300.000			4.542			-1.136
203401.000			4.543			-1.136
203500.000			4.542			-1.135
203600.000			4.543			-1.136
203701.000			4.543			-1.136
203801.000			4.542			-1.136
203901.000			4.542			-1.135
204001.000			4.542			-1.135
204100.000			4.541			-1.135
204200.000			4.541			-1.135
204301.000			4.543			-1.136
204400.000			4.543			-1.136
204500.000			4.542			-1.136
204601.000			4.542			-1.135
204701.000			4.542			-1.135
204801.000			4.542			-1.136
204901.000			4.542			-1.135
205000.000			4.542			-1.136
205100.000			4.542			-1.136
205201.000			4.542			-1.135
205300.000			4.542			-1.135
205400.000			4.542			-1.135
205501.000			4.541			-1.135
205601.000			4.541			-1.135
205701.000			4.542			-1.135
205801.000			4.542			-1.135
205900.000			4.542			-1.135
206000.000			4.542			-1.135
206101.000			4.541			-1.135
206200.000			4.541			-1.135
206300.000			4.541			-1.135
206401.000			4.542			-1.135
206501.000			4.542			-1.136
206602.000			4.542			-1.136
206701.000			4.541			-1.135
206800.000			4.541			-1.135
206901.000			4.541			-1.135
207000.000			4.541			-1.135
207100.000			4.542			-1.135
207201.000			4.542			-1.136
207300.000			4.541			-1.135
207401.000			4.540			-1.135
207502.000			4.540			-1.135
207601.000			4.542			-1.135
207700.000			4.542			-1.135
207801.000			4.542			-1.135
207900.000			4.540			-1.135
208000.000			4.540			-1.135
208101.000			4.540			-1.135
208200.000			4.540			-1.135
208301.000			4.539			-1.135
208402.000			4.540			-1.135
208501.000			4.539			-1.135
208600.000			4.539			-1.135
208701.000			4.539			-1.135
208800.000			4.540			-1.135
208900.000			4.541			-1.135
209001.000			4.540			-1.135
209100.000			4.540			-1.135
209200.000			4.541			-1.135
209302.000			4.541			-1.135
209401.000			4.540			-1.135
209500.000			4.540			-1.135
209601.000			4.540			-1.135
209700.000			4.539			-1.135
209801.000			4.539			-1.135
209900.000			4.539			-1.135
210000.000			4.540			-1.135
210101.000			4.539			-1.135
210201.000			4.540			-1.135
210301.000			4.540			-1.135
210401.000			4.539			-1.135
210500.000			4.539			-1.135
210600.000			4.540			-1.135
210701.000			4.540			-1.135
210800.000			4.539			-1.135
210900.000			4.539			-1.135
211001.000			4.540			-1.135
211101.000			4.539			-1.135
211201.000			4.538			-1.135
211302.000			4.539			-1.135
211400.000			4.540			-1.135
211500.000			4.540			-1.135
211601.000			4.539			-1.135
211700.000			4.538			-1.135
211800.000			4.538			-1.135
211901.000			4.539			-1.135
212000.000			4.539			-1.135
212101.000			4.539			-1.135
212202.000			4.539			-1.135
212300.000			4.537			-1.134
212400.000			4.538			-1.134
212501.000			4.538			-1.134
212600.000			4.538			-1.134
212700.000			4.538			-1.135
212801.000			4.539			-1.135
212900.000			4.540			-1.135
213002.000			4.539			-1.135
213101.000			4.539			-1.135
213200.000			4.538			-1.134
213301.000			4.537			-1.134
213400.000			4.537			-1.134
213500.000			4.538			-1.134
213601.000			4.538			-1.135
213700.000			4.538			-1.134
213800.000			4.538			-1.134
213902.000			4.538			-1.135
214001.000			4.538			-1.135
214101.000			4.538			-1.135
214201.000			4.538			-1.134
214300.000			4.538			-1.134
214400.000			4.538			-1.135
214501.000			4.538			-1.134
214600.000			4.538			-1.134
214700.000			4.537			-1.134
214802.000			4.537			-1.134
214901.000			4.538			-1.134
215001.000			4.539			-1.135
215101.000			4.537			-1.134
215200.000			4.537			-1.134
215300.000			4.538			-1.134
215401.000			4.537			-1.134
215500.000			4.538			-1.134
215600.000			4.538			-1.135
215701.000			4.537			-1.134
215801.000			4.536			-1.134
215901.000			4.536			-1.134
216001.000			4.537			-1.134
216100.000			4.537			-1.134
216201.000			4.537			-1.134
216300.000			4.538			-1.134
216400.000			4.538			-1.134
216501.000			4.537			-1.134
216600.000			4.537			-1.134
216701.000			4.537			-1.134
216802.000			4.536			-1.134
216901.000			4.537			-1.134
217000.000			4.537			-1.134
217101.000			4.537			-1.134
217200.000			4.537			-1.134
217300.000			4.536			-1.134
217401.000			4.536			-1.134
217500.000			4.536			-1.134
217600.000			4.536			-1.134
217702.000			4.538			-1.134
217801.000			4.537			-1.134
217901.000			4.537			-1.134
218001.000			4.537			-1.134
218100.000			4.536			-1.134
218200.000			4.537			-1.134
218301.000			4.536			-1.134
218400.000			4.535			-1.134
218500.000			4.536			-1.134
218602.000			4.537			-1.134
218701.000			4.536			-1.134
218801.000			4.536			-1.134
218901.000			4.536			-1.134
219000.000			4.535			-1.134
219100.000			4.535			-1.134
219201.000			4.536			-1.134
219300.000			4.536			-1.134
219401.000			4.535			-1.134
219500.000			4.536			-1.134
219601.000			4.535			-1.134
219702.000			4.534			-1.134
219801.000			4.535			-1.134
219900.000			4.536			-1.134
220001.000			4.536			-1.134
220100.000			4.536			-1.134
220200.000			4.534			-1.134
220301.000			4.536			-1.134
220400.000			4.535			-1.134
220501.000			4.534			-1.134
220602.000			4.535			-1.134
220701.000			4.536			-1.134
220800.000			4.536			-1.134
220901.000			4.536			-1.134
221000.000			4.535			-1.134
221100.000			4.535			-1.134
221201.000			4.535			-1.134
221300.000			4.535			-1.134
221400.000			4.534			-1.134
221502.000			4.534			-1.134
221601.000			4.534			-1.134
221700.000			4.534			-1.133
221801.000			4.534			-1.134
221900.000			4.535			-1.134
222000.000			4.535			-1.134
222101.000			4.534			-1.134
222200.000			4.535			-1.134
222300.000			4.535			-1.134
222402.000			4.535			-1.134
222501.000			4.536			-1.134
222601.000			4.535			-1.134
222700.000			4.534			-1.134
222800.000			4.534			-1.134
222901.000			4.535			-1.134
223000.000			4.533			-1.133
223100.000			4.533			-1.133
223201.000			4.534			-1.134
223301.000			4.534			-1.133
223401.000			4.533			-1.133
223501.000			4.534			-1.133
223600.000			4.534			-1.134
223700.000			4.533			-1.133
223801.000			4.534			-1.133
223900.000			4.533			-1.133
224000.000			4.534			-1.133
224101.000			4.533			-1.133
224201.000			4.532			-1.133
224301.000			4.534			-1.133
224401.000			4.534			-1.134
224500.000			4.533			-1.133
224600.000			4.533			-1.133
224701.000			4.533			-1.133
224800.000			4.533			-1.133
224900.000			4.533			-1.133
225001.000			4.533			-1.133
225101.000			4.532			-1.133
225201.000			4.532			-1.133
225301.000			4.534			-1.133
225400.000			4.533			-1.133
225500.000			4.532			-1.133
225601.000			4.533			-1.133
225700.000			4.534			-1.133
225801.000			4.533			-1.133
225900.000			4.533			-1.133
226001.000			4.532			-1.133
226102.000			4.532			-1.133
226201.000			4.532			-1.133
226300.000			4.532			-1.133
226401.000			4.532			-1.133
226500.000			4.532			-1.133
226600.000			4.532			-1.133
226701.000			4.532			-1.133
226800.000			4.533			-1.133
226900.000			4.533			-1.133
227002.000			4.532			-1.133
227101.000			4.532			-1.133
227200.000			4.533			-1.133
227301.000			4.532			-1.133
227400.000			4.532			-1.133
227500.000			4.532			-1.133
227601.000			4.531			-1.133
227700.000			4.531			-1.133
227800.000			4.532			-1.133
227902.000			4.531			-1.133
228001.000			4.532			-1.133
228100.000			4.532			-1.133
228201.000			4.531			-1.133
228300.000			4.531			-1.133
228400.000			4.532			-1.133
228501.000			4.530			-1.133
228600.000			4.531			-1.133
228700.000			4.531			-1.133
228802.000			4.532			-1.133
228901.000			4.532			-1.133
229002.000			4.532			-1.133
229100.000			4.532			-1.133
229200.000			4.533			-1.133
229301.000			4.532			-1.133
229400.000			4.531			-1.133
229500.000			4.529			-1.132
229601.000			4.530			-1.132
229701.000			4.531			-1.133
229801.000			4.531			-1.133
229902.000			4.531			-1.133
230000.000			4.530			-1.133
230100.000			4.530			-1.132
230201.000			4.530			-1.133
230300.000			4.531			-1.133
230400.000			4.531			-1.133
230501.000			4.531			-1.133
230600.000			4.530			-1.133
230701.000			4.530			-1.133
230802.000			4.531			-1.133
230900.000			4.531			-1.133
231000.000			4.531			-1.133
231101.000			4.531			-1.133
231200.000			4.531			-1.133
231300.000			4.530			-1.133
231401.000			4.530			-1.133
231500.000			4.529			-1.132
231601.000			4.529			-1.132
231702.000			4.529			-1.132
231800.000			4.529			-1.132
231900.000			4.531			-1.133
232001.000			4.531			-1.133
232100.000			4.531			-1.133
232201.000			4.530			-1.133
232300.000			4.530			-1.132
232400.000			4.530			-1.132
232502.000			4.530			-1.132
232601.000			4.530			-1.133
232700.000			4.531			-1.133
232801.000			4.529			-1.132
232900.000			4.530			-1.132
233000.000			4.531			-1.133
233101.000			4.530			-1.133
233200.000			4.530			-1.133
233300.000			4.529			-1.132
233402.000			4.529			-1.132
233501.000			4.529			-1.132
233601.000			4.530			-1.132
233701.000			4.530			-1.133
233800.000			4.530			-1.133
233900.000			4.531			-1.133
234001.000			4.530			-1.133
234100.000			4.530			-1.132
234200.000			4.529			-1.132
234302.000			4.530			-1.133
234401.000			4.531			-1.133
234500.000			4.530			-1.132
234601.000			4.529			-1.132
234700.000			4.529			-1.132
234800.000			4.529			-1.132
234901.000			4.528			-1.132
235000.000			4.528			-1.132
235100.000			4.529			-1.132
235202.000			4.528			-1.132
235301.000			4.528			-1.132
235402.000			4.528			-1.132
235500.000			4.528			-1.132
235600.000			4.529			-1.132
235701.000			4.530			-1.133
235800.000			4.529			-1.132
235900.000			4.529			-1.132
236001.000			4.528			-1.132
236100.000			4.529			-1.132
236201.000			4.529			-1.132
236302.000			4.530			-1.132
236401.000			4.528			-1.132
236500.000			4.528			-1.132
236601.000			4.528			-1.132
236700.000			4.528			-1.132
236800.000			4.529			-1.132
236901.000			4.530			-1.132
237000.000			4.529			-1.132
237100.000			4.528			-1.132
237202.000			4.528			-1.132
237301.000			4.528			-1.132
237400.000			4.528			-1.132
237501.000			4.529			-1.132
237600.000			4.529			-1.132
237700.000			4.528			-1.132
237801.000			4.528			-1.132
237900.000			4.528			-1.132
238000.000			4.527			-1.132
238102.000			4.528			-1.132
238201.000			4.528			-1.132
238301.000			4.528			-1.132
238401.000			4.527			-1.132
238500.000			4.527			-1.132
238601.000			4.527			-1.132
238700.000			4.527			-1.132
238800.000			4.527			-1.132
238901.000			4.527			-1.132
239000.000			4.527			-1.132
239101.000			4.528			-1.132
239202.000			4.528			-1.132
239300.000			4.527			-1.132
239400.000			4.528			-1.132
239501.000			4.527			-1.132
239600.000			4.527			-1.132
239700.000			4.526			-1.132
239801.000			4.527			-1.132
239900.000			4.527			-1.132
240001.000			4.527			-1.132
240102.000			4.527			-1.132
240201.000			4.528			-1.132
240300.000			4.528			-1.132
240401.000			4.527			-1.132
240500.000			4.527			-1.132
240600.000			4.526			-1.132
240701.000			4.526			-1.131
240800.000			4.527			-1.132
240900.000			4.526			-1.132
241002.000			4.527			-1.132
241101.000			4.527			-1.132
241200.000			4.527			-1.132
241301.000			4.526			-1.132
241400.000			4.526			-1.132
241500.000			4.526			-1.131
241601.000			4.526			-1.132
241700.000			4.527			-1.132
241801.000			4.526			-1.132
241901.000			4.526			-1.131
242001.000			4.526			-1.132
242101.000			4.527			-1.132
242200.000			4.526			-1.132
242300.000			4.528			-1.132
242401.000			4.527			-1.132
242500.000			4.526			-1.132
242600.000			4.526			-1.131
242701.000			4.527			-1.132
242801.000			4.527			-1.132
242901.000			4.527			-1.132
243002.000			4.527			-1.132
243100.000			4.526			-1.131
243200.000			4.526			-1.131
243301.000			4.526			-1.131
243400.000			4.527			-1.132
243500.000			4.526			-1.131
243601.000			4.526			-1.131
243700.000			4.525			-1.131
243801.000			4.525			-1.131
243902.000			4.525			-1.131
244000.000			4.525			-1.131
244100.000			4.526			-1.131
244201.000			4.526			-1.132
244300.000			4.526			-1.132
244400.000			4.526			-1.131
244501.000			4.525			-1.131
244600.000			4.525			-1.131
244701.000			4.526			-1.131
244802.000			4.526			-1.131
244901.000			4.525			-1.131
245001.000			4.525			-1.131
245100.000			4.525			-1.131
245200.000			4.524			-1.131
245301.000			4.525			-1.131
245400.000			4.525			-1.131
245500.000			4.526			-1.131
245601.000			4.525			-1.131
245701.000			4.524			-1.131
245801.000			4.526			-1.131
245901.000			4.526			-1.131
246000.000			4.525			-1.131
246100.000			4.525			-1.131
246201.000			4.524			-1.131
246300.000			4.525			-1.131
246400.000			4.525			-1.131
246501.000			4.525			-1.131
246601.000			4.526			-1.131
246701.000			4.525			-1.131
246801.000			4.524			-1.131
246900.000			4.523			-1.131
247000.000			4.524			-1.131
247101.000			4.524			-1.131
247200.000			4.524			-1.131
247300.000			4.524			-1.131
247401.000			4.524			-1.131
247501.000			4.524			-1.131
247601.000			4.524			-1.131
247702.000			4.524			-1.131
247800.000			4.525			-1.131
247900.000			4.524			-1.131
248001.000			4.524			-1.131
248100.000			4.524			-1.131
248201.000			4.524			-1.131
248300.000			4.523			-1.131
248400.000			4.523			-1.131
248502.000			4.525			-1.131
248601.000			4.525			-1.131
248701.000			4.524			-1.131
248801.000			4.524			-1.131
248900.000			4.524			-1.131
249000.000			4.524			-1.131
249101.000			4.523			-1.131
249200.000			4.523			-1.131
249300.000			4.524			-1.131
249401.000			4.523			-1.131
249501.000			4.523			-1.131
249601.000			4.523			-1.131
249701.000			4.523			-1.131
249800.000			4.523			-1.131
249900.000			4.523			-1.131
250001.000			4.523			-1.131
250100.000			4.522			-1.131
250200.000			4.523			-1.131
250301.000			4.523			-1.131
250401.000			4.523			-1.131
250501.000			4.522			-1.131
250601.000			4.522			-1.131
250700.000			4.523			-1.131
250800.000			4.524			-1.131
250901.000			4.524			-1.131
251000.000			4.523			-1.131
251100.000			4.523			-1.131
251201.000			4.522			-1.131
251301.000			4.522			-1.130
251402.000			4.523			-1.131
251501.000			4.523			-1.131
251600.000			4.523			-1.131
251701.000			4.523			-1.131
251800.000			4.522			-1.131
251900.000			4.523			-1.131
252001.000			4.522			-1.131
252100.000			4.521			-1.130
252201.000			4.522			-1.131
252302.000			4.522			-1.131
252401.000			4.522			-1.130
252500.000			4.522			-1.130
252601.000			4.521			-1.130
252700.000			4.522			-1.130
252800.000			4.521			-1.130
252901.000			4.521			-1.130
253000.000			4.522			-1.130
253101.000			4.522			-1.130
253202.000			4.522			-1.130
253301.000			4.522			-1.130
253400.000			4.521			-1.130
253501.000			4.521			-1.130
253600.000			4.521			-1.130
253700.000			4.521			-1.130
253801.000			4.521			-1.130
253900.000			4.521			-1.130
254000.000			4.521			-1.130
254102.000			4.521			-1.130
254201.000			4.521			-1.130
254300.000			4.522			-1.130
254401.000			4.521			-1.130
254500.000			4.522			-1.131
254601.000			4.522			-1.131
254700.000			4.522			-1.130
254800.000			4.522			-1.130
254901.000			4.522			-1.131
255001.000			4.521			-1.130
255101.000			4.521			-1.130
255201.000			4.521			-1.130
255300.000			4.521			-1.130
255400.000			4.521			-1.130
255501.000			4.520			-1.130
255600.000			4.520			-1.130
255700.000			4.521			-1.130
255801.000			4.521			-1.130
255901.000			4.522			-1.130
256001.000			4.521			-1.130
256102.000			4.521			-1.130
256200.000			4.521			-1.130
256300.000			4.520			-1.130
256401.000			4.520			-1.130
256500.000			4.521			-1.130
256600.000			4.521			-1.130
256701.000			4.520			-1.130
256801.000			4.520			-1.130
256901.000			4.520			-1.130
257002.000			4.520			-1.130
257100.000			4.520			-1.130
257200.000			4.520			-1.130
257301.000			4.520			-1.130
257400.000			4.519			-1.130
257500.000			4.520			-1.130
257601.000			4.520			-1.130
257700.000			4.518			-1.130
257802.000			4.519			-1.130
257901.000			4.519			-1.130
258000.000			4.519			-1.130
258101.000			4.520			-1.130
258200.000			4.519			-1.130
258300.000			4.520			-1.130
258401.000			4.519			-1.130
258500.000			4.520			-1.130
258600.000			4.520			-1.130
258702.000			4.520			-1.130
258801.000			4.520			-1.130
258901.000			4.520			-1.130
259001.000			4.520			-1.130
259100.000			4.520			-1.130
259200.000			4.519			-1.130
259301.000			4.519			-1.130
259400.000			4.519			-1.130
259500.000			4.519			-1.130
259601.000			4.519			-1.130
259701.000			4.518			-1.130
259801.000			4.519			-1.130
259901.000			4.519			-1.130
260000.000			4.519			-1.130
260100.000			4.519			-1.130
260201.000			4.520			-1.130
260300.000			4.520			-1.130
260400.000			4.519			-1.130
260501.000			4.519			-1.130
260601.000			4.519			-1.130
260701.000			4.519			-1.130
260802.000			4.518			-1.129
260900.000			4.518			-1.129
261001.000			4.518			-1.130
261100.000			4.519			-1.130
261200.000			4.519			-1.130
261301.000			4.519			-1.130
261400.000			4.518			-1.130
261500.000			4.519			-1.130
261602.000			4.519			-1.130
261701.000			4.518			-1.130
261800.000			4.519			-1.130
261901.000			4.518			-1.129
262000.000			4.518			-1.129
262100.000			4.518			-1.129
262201.000			4.518			-1.129
262300.000			4.519			-1.130
262400.000			4.518			-1.130
262502.000			4.517			-1.129
262601.000			4.518			-1.129
262701.000			4.517			-1.129
262801.000			4.518			-1.129
262900.000			4.519			-1.130
263000.000			4.517			-1.129
263101.000			4.516			-1.129
263200.000			4.517			-1.129
263300.000			4.517			-1.129
263401.000			4.517			-1.129
263501.000			4.518			-1.129
263601.000			4.517			-1.129
263701.000			4.518			-1.129
263800.000			4.517			-1.129
263900.000			4.517			-1.129
264001.000			4.518			-1.129
264100.000			4.517			-1.129
264201.000			4.517			-1.129
264300.000			4.517			-1.129
264401.000			4.517			-1.129
264502.000			4.517			-1.129
264601.000			4.517			-1.129
264700.000			4.517			-1.129
264801.000			4.517			-1.129
264900.000			4.517			-1.129
265000.000			4.518			-1.129
265101.000			4.518			-1.130
265200.000			4.517			-1.129
265300.000			4.517			-1.129
265402.000			4.518			-1.129
265501.000			4.518			-1.129
265600.000			4.517			-1.129
265701.000			4.516			-1.129
265800.000			4.516			-1.129
265900.000			4.516			-1.129
266001.000			4.516			-1.129
266100.000			4.516			-1.129
266200.000			4.516			-1.129
266302.000			4.517			-1.129
266401.000			4.517			-1.129
266500.000			4.516			-1.129
266601.000			4.516			-1.129
266700.000			4.516			-1.129
266800.000			4.516			-1.129
266901.000			4.516			-1.129
267000.000			4.516			-1.129
267100.000			4.517			-1.129
267202.000			4.517			-1.129
267301.000			4.515			-1.129
267402.000			4.515			-1.129
267500.000			4.516			-1.129
267600.000			4.517			-1.129
267701.000			4.517			-1.129
267800.000			4.516			-1.129
267900.000			4.516			-1.129
268001.000			4.516			-1.129
268100.000			4.516			-1.129
268201.000			4.515			-1.129
268302.000			4.515			-1.129
268401.000			4.515			-1.129
268500.000			4.515			-1.129
268601.000			4.515			-1.129
268700.000			4.516			-1.129
268800.000			4.516			-1.129
268901.000			4.515			-1.129
269000.000			4.516			-1.129
269101.000			4.516			-1.129
269202.000			4.516			-1.129
269301.000			4.516			-1.129
269400.000			4.516			-1.129
269501.000			4.516			-1.129
269600.000			4.516			-1.129
269700.000			4.515			-1.129
269801.000			4.515			-1.129
269900.000			4.515			-1.129
270000.000			4.515			-1.129
270102.000			4.514			-1.129
270201.000			4.516			-1.129
270300.000			4.516			-1.129
270401.000			4.515			-1.129
270500.000			4.515			-1.129
270601.000			4.514			-1.128
270700.000			4.514			-1.128
270800.000			4.514			-1.129
270901.000			4.515			-1.129
271001.000			4.515			-1.129
271101.000			4.515			-1.129
271201.000			4.515			-1.129
271300.000			4.514			-1.129
271400.000			4.514			-1.129
271501.000			4.515			-1.129
271600.000			4.514			-1.129
271700.000			4.515			-1.129
271801.000			4.515			-1.129
271901.000			4.515			-1.129
272001.000			4.515			-1.129
272101.000			4.515			-1.129
272200.000			4.515			-1.129
272300.000			4.515			-1.129
272401.000			4.515			-1.129
272500.000			4.514			-1.129
272600.000			4.514			-1.129
272701.000			4.514			-1.129
272801.000			4.515			-1.129
272901.000			4.515			-1.129
273002.000			4.515			-1.129
273100.000			4.516			-1.129
273200.000			4.515			-1.129
273301.000			4.514			-1.128
273400.000			4.514			-1.128
273500.000			4.514			-1.128
273601.000			4.514			-1.129
273701.000			4.515			-1.129
273802.000			4.514			-1.128
273901.000			4.514			-1.129
274000.000			4.514			-1.129
274101.000			4.514			-1.128
274200.000			4.514			-1.128
274300.000			4.514			-1.129
274401.000			4.515			-1.129
274500.000			4.514			-1.129
274600.000			4.515			-1.129
274702.000			4.514			-1.129
274801.000			4.513			-1.128
274900.000			4.513			-1.128
275001.000			4.513			-1.128
275100.000			4.514			-1.129
275200.000			4.514			-1.129
275301.000			4.514			-1.129
275400.000			4.514			-1.128
275500.000			4.514			-1.128
275602.000			4.515			-1.129
275701.000			4.514			-1.129
275801.000			4.514			-1.128
275901.000			4.514			-1.128
276000.000			4.513			-1.128
276100.000			4.513			-1.128
276201.000			4.512			-1.128
276300.000			4.513			-1.128
276400.000			4.513			-1.128
276501.000			4.512			-1.128
276601.000			4.512			-1.128
276701.000			4.513			-1.128
276801.000			4.513			-1.128
276900.000			4.513			-1.128
277001.000			4.513			-1.128
277100.000			4.513			-1.128
277200.000			4.512			-1.128
277301.000			4.512			-1.128
277400.000			4.513			-1.128
277501.000			4.512			-1.128
277602.000			4.512			-1.128
277701.000			4.512			-1.128
277800.000			4.513			-1.128
277901.000			4.513			-1.128
278000.000			4.512			-1.128
278100.000			4.512			-1.128
278201.000			4.513			-1.128
278300.000			4.513			-1.128
278401.000			4.513			-1.128
278502.000			4.513			-1.128
278601.000			4.513			-1.128
278700.000			4.512			-1.128
278801.000			4.511			-1.128
278900.000			4.512			-1.128
279000.000			4.512			-1.128
279101.000			4.512			-1.128
279200.000			4.512			-1.128
279300.000			4.511			-1.128
279402.000			4.511			-1.128
279501.000			4.512			-1.128
279600.000			4.512			-1.128
279701.000			4.512			-1.128
279800.000			4.512			-1.128
279900.000			4.512			-1.128
280001.000			4.512			-1.128
280100.000			4.512			-1.128
280201.000			4.512			-1.128
280301.000			4.512			-1.128
280401.000			4.512			-1.128
280502.000			4.512			-1.128
280600.000			4.511			-1.128
280700.000			4.511			-1.128
280801.000			4.511			-1.128
280900.000			4.511			-1.128
281000.000			4.512			-1.128
281101.000			4.511			-1.128
281201.000			4.510			-1.127
281301.000			4.511			-1.128
281401.000			4.512			-1.128
281500.000			4.512			-1.128
281600.000			4.512			-1.128
281701.000			4.511			-1.128
281800.000			4.512			-1.128
281900.000			4.512			-1.128
282001.000			4.511			-1.128
282101.000			4.511			-1.128
282201.000			4.510			-1.128
282302.000			4.510			-1.128
282400.000			4.511			-1.128
282500.000			4.511			-1.128
282601.000			4.510			-1.127
282700.000			4.510			-1.128
282800.000			4.511			-1.128
282901.000			4.511			-1.128
283001.000			4.510			-1.127
283101.000			4.511			-1.128
283202.000			4.512			-1.128
283300.000			4.512			-1.128
283401.000			4.511			-1.128
283500.000			4.510			-1.128
283600.000			4.510			-1.127
283701.000			4.511			-1.128
283800.000			4.511			-1.128
283900.000			4.511			-1.128
284002.000			4.510			-1.127
284101.000			4.510			-1.127
284200.000			4.509			-1.127
284301.000			4.509			-1.127
284400.000			4.510			-1.127
284500.000			4.510			-1.128
284601.000			4.510			-1.127
284700.000			4.509			-1.127
284800.000			4.509			-1.127
284902.000			4.510			-1.127
285001.000			4.510			-1.127
285100.000			4.509			-1.127
285201.000			4.509			-1.127
285300.000			4.510			-1.127
285400.000			4.509			-1.127
285501.000			4.509			-1.127
285600.000			4.509			-1.127
285700.000			4.510			-1.127
285802.000			4.509			-1.127
285901.000			4.510			-1.127
286001.000			4.509			-1.127
286101.000			4.509			-1.127
286200.000			4.509			-1.127
286300.000			4.510			-1.127
286401.000			4.509			-1.127
286500.000			4.509			-1.127
286601.000			4.509			-1.127
286700.000			4.509			-1.127
286801.000			4.509			-1.127
286902.000			4.508			-1.127
287001.000			4.509			-1.127
287100.000			4.509			-1.127
287201.000			4.509			-1.127
287300.000			4.509			-1.127
287400.000			4.509			-1.127
287501.000			4.509			-1.127
287600.000			4.510			-1.127
287700.000			4.509			-1.127
287802.000			4.508			-1.127
287901.000			4.509			-1.127
288001.000			4.509			-1.127
288101.000			4.509			-1.127
288200.000			4.509			-1.127
288300.000			4.508			-1.127
288401.000			4.508			-1.127
288500.000			4.508			-1.127
288600.000			4.508			-1.127
288701.000			4.509			-1.127
288801.000			4.508			-1.127
288901.000			4.507			-1.127
289001.000			4.507			-1.127
289100.000			4.507			-1.127
289200.000			4.507			-1.127
289301.000			4.508			-1.127
289400.000			4.508			-1.127
289500.000			4.508			-1.127
289601.000			4.508			-1.127
289701.000			4.507			-1.127
289802.000			4.507			-1.127
289901.000			4.508			-1.127
290000.000			4.508			-1.127
290101.000			4.508			-1.127
290200.000			4.508			-1.127
290300.000			4.507			-1.127
290401.000			4.507			-1.127
290500.000			4.508			-1.127
290600.000			4.507			-1.127
290702.000			4.506			-1.127
290801.000			4.507			-1.127
290901.000			4.507			-1.127
291001.000			4.507			-1.127
291100.000			4.506			-1.127
291200.000			4.507			-1.127
291301.000			4.507			-1.127
291400.000			4.507			-1.127
291500.000			4.508			-1.127
291602.000			4.508			-1.127
291701.000			4.506			-1.127
291801.000			4.507			-1.127
291901.000			4.507			-1.127
292000.000			4.507			-1.127
292100.000			4.508			-1.127
292201.000			4.508			-1.127
292300.000			4.508			-1.127
292400.000			4.507			-1.127
292501.000			4.507			-1.127
292601.000			4.506			-1.127
292701.000			4.508			-1.127
292801.000			4.507			-1.127
292900.000			4.507			-1.127
293001.000			4.506			-1.127
293100.000			4.506			-1.126
293200.000			4.507			-1.127
293301.000			4.506			-1.127
293400.000			4.508			-1.127
293501.000			4.507			-1.127
293602.000			4.506			-1.127
293701.000			4.507			-1.127
293800.000			4.506			-1.126
293901.000			4.506			-1.126
294000.000			4.505			-1.126
294100.000			4.508			-1.127
294201.000			4.507			-1.127
294300.000			4.507			-1.127
294400.000			4.507			-1.127
294502.000			4.506			-1.127
294601.000			4.507			-1.127
294700.000			4.507			-1.127
294801.000			4.506			-1.127
294900.000			4.507			-1.127
295000.000			4.507			-1.127
295101.000			4.506			-1.127
295200.000			4.506			-1.126
295300.000			4.506			-1.127
295402.000			4.507			-1.127
295501.000			4.506			-1.127
295600.000			4.506			-1.127
295701.000			4.506			-1.127
295800.000			4.506			-1.127
295900.000			4.506			-1.127
296001.000			4.506			-1.127
296100.000			4.506			-1.126
296201.000			4.506			-1.126
296301.000			4.506			-1.127
296401.000			4.505			-1.126
296502.000			4.504			-1.126
296600.000			4.505			-1.126
296700.000			4.505			-1.126
296801.000			4.505			-1.126
296900.000			4.505			-1.126
297000.000			4.505			-1.126
297101.000			4.505			-1.126
297200.000			4.505			-1.126
297301.000			4.505			-1.126
297402.000			4.504			-1.126
297501.000			4.504			-1.126
297600.000			4.505			-1.126
297701.000			4.505			-1.126
297800.000			4.505			-1.126
297900.000			4.507			-1.127
298001.000			4.506			-1.126
298100.000			4.505			-1.126
298200.000			4.505			-1.126
298302.000			4.505			-1.126
298401.000			4.505			-1.126
298500.000			4.505			-1.126
298601.000			4.506			-1.126
298700.000			4.505			-1.126
298800.000			4.505			-1.126
298901.000			4.505			-1.126
299000.000			4.505			-1.126
299100.000			4.506			-1.126
299202.000			4.505			-1.126
299301.000			4.505			-1.126
299402.000			4.504			-1.126
299500.000			4.505			-1.126
299600.000			4.505			-1.126
299701.000			4.505			-1.126
299800.000			4.505			-1.126
299900.000			4.504			-1.126
