# Acquired on 29/01/2024 15:08:00 
# SPIDER: Creep_8mm_HM077x145x38AB-1
# CREEP MEASUREMENT

# time [ms]		force [N]		stiffness [N/mm]
0.000			-25.766			-3.221
103.000			-26.255			-3.282
204.000			-26.339			-3.292
305.000			-26.258			-3.282
404.000			-26.193			-3.274
505.000			-26.139			-3.267
604.000			-26.090			-3.261
704.000			-26.049			-3.256
805.000			-26.012			-3.251
904.000			-25.979			-3.247
1004.000			-25.920			-3.240
1105.000			-25.894			-3.237
1204.000			-25.870			-3.234
1303.000			-25.844			-3.231
1405.000			-25.822			-3.228
1504.000			-25.802			-3.225
1604.000			-25.782			-3.223
1705.000			-25.746			-3.218
1804.000			-25.729			-3.216
1904.000			-25.711			-3.214
2004.000			-25.694			-3.212
2104.000			-25.678			-3.210
2204.000			-25.664			-3.208
2305.000			-25.649			-3.206
2404.000			-25.622			-3.203
2503.000			-25.610			-3.201
2605.000			-25.597			-3.200
2704.000			-25.585			-3.198
2804.000			-25.573			-3.197
2905.000			-25.561			-3.195
3004.000			-25.550			-3.194
3104.000			-25.529			-3.191
3204.000			-25.517			-3.190
3304.000			-25.507			-3.188
3404.000			-25.497			-3.187
3504.000			-25.487			-3.186
3604.000			-25.477			-3.185
3703.000			-25.468			-3.184
3804.000			-25.450			-3.181
3904.000			-25.441			-3.180
4005.000			-25.433			-3.179
4104.000			-25.425			-3.178
4204.000			-25.416			-3.177
4305.000			-25.407			-3.176
4403.000			-25.400			-3.175
4504.000			-25.391			-3.174
4605.000			-25.376			-3.172
4704.000			-25.368			-3.171
4804.000			-25.361			-3.170
4905.000			-25.353			-3.169
5004.000			-25.347			-3.168
5103.000			-25.341			-3.168
5205.000			-25.332			-3.166
5304.000			-25.318			-3.165
5404.000			-25.312			-3.164
5505.000			-25.306			-3.163
5603.000			-25.299			-3.162
5704.000			-25.292			-3.162
5805.000			-25.286			-3.161
5904.000			-25.281			-3.160
6004.000			-25.268			-3.159
6105.000			-25.263			-3.158
6204.000			-25.256			-3.157
6303.000			-25.250			-3.156
6405.000			-25.245			-3.156
6504.000			-25.239			-3.155
6604.000			-25.234			-3.154
6705.000			-25.222			-3.153
6803.000			-25.217			-3.152
6905.000			-25.212			-3.151
7004.000			-25.207			-3.151
7104.000			-25.202			-3.150
7205.000			-25.197			-3.150
7304.000			-25.192			-3.149
7404.000			-25.185			-3.148
7504.000			-25.176			-3.147
7604.000			-25.171			-3.146
7704.000			-25.166			-3.146
7805.000			-25.161			-3.145
7904.000			-25.156			-3.145
8004.000			-25.151			-3.144
8105.000			-25.147			-3.143
8204.000			-25.138			-3.142
8304.000			-25.133			-3.142
8405.000			-25.129			-3.141
8504.000			-25.123			-3.140
8604.000			-25.119			-3.140
8704.000			-25.116			-3.139
8804.000			-25.112			-3.139
8904.000			-25.103			-3.138
9005.000			-25.099			-3.137
9104.000			-25.094			-3.137
9204.000			-25.091			-3.136
9305.000			-25.086			-3.136
9403.000			-25.081			-3.135
9504.000			-25.077			-3.135
9605.000			-25.070			-3.134
9704.000			-25.065			-3.133
9804.000			-25.062			-3.133
9903.000			-25.058			-3.132
10004.000			-25.054			-3.132
10105.000			-25.051			-3.131
10204.000			-25.047			-3.131
10304.000			-25.039			-3.130
10405.000			-25.035			-3.129
10504.000			-25.032			-3.129
10603.000			-25.028			-3.129
10705.000			-25.025			-3.128
10804.000			-25.022			-3.128
10904.000			-25.017			-3.127
11005.000			-25.014			-3.127
11104.000			-25.005			-3.126
11204.000			-25.003			-3.125
11305.000			-25.000			-3.125
11404.000			-24.996			-3.124
11504.000			-24.993			-3.124
11605.000			-24.990			-3.124
11704.000			-24.987			-3.123
11803.000			-24.979			-3.122
11905.000			-24.977			-3.122
12004.000			-24.973			-3.122
12104.000			-24.970			-3.121
12205.000			-24.966			-3.121
12304.000			-24.963			-3.120
12404.000			-24.961			-3.120
12504.000			-24.953			-3.119
12604.000			-24.949			-3.119
12703.000			-24.947			-3.118
12805.000			-24.944			-3.118
12904.000			-24.940			-3.117
13004.000			-24.937			-3.117
13105.000			-24.933			-3.117
13203.000			-24.927			-3.116
13305.000			-24.924			-3.115
13404.000			-24.921			-3.115
13504.000			-24.918			-3.115
13605.000			-24.916			-3.114
13704.000			-24.912			-3.114
13804.000			-24.911			-3.114
13904.000			-24.904			-3.113
14004.000			-24.902			-3.113
14104.000			-24.898			-3.112
14205.000			-24.896			-3.112
14304.000			-24.893			-3.112
14404.000			-24.889			-3.111
14505.000			-24.887			-3.111
14603.000			-24.884			-3.110
14704.000			-24.878			-3.110
14805.000			-24.877			-3.110
14904.000			-24.874			-3.109
15004.000			-24.870			-3.109
15105.000			-24.868			-3.108
15204.000			-24.865			-3.108
15303.000			-24.862			-3.108
15405.000			-24.858			-3.107
15504.000			-24.855			-3.107
15604.000			-24.852			-3.107
15705.000			-24.849			-3.106
15804.000			-24.847			-3.106
15904.000			-24.845			-3.106
16004.000			-24.843			-3.105
16104.000			-24.836			-3.105
16204.000			-24.835			-3.104
16304.000			-24.832			-3.104
16404.000			-24.830			-3.104
16505.000			-24.827			-3.103
16604.000			-24.826			-3.103
16703.000			-24.824			-3.103
16805.000			-24.819			-3.102
16904.000			-24.815			-3.102
17004.000			-24.812			-3.101
17105.000			-24.810			-3.101
17204.000			-24.808			-3.101
17304.000			-24.805			-3.101
17404.000			-24.803			-3.100
17504.000			-24.801			-3.100
17604.000			-24.797			-3.100
17705.000			-24.794			-3.099
17804.000			-24.792			-3.099
17904.000			-24.790			-3.099
18005.000			-24.788			-3.099
18103.000			-24.786			-3.098
18204.000			-24.784			-3.098
18305.000			-24.778			-3.097
18404.000			-24.776			-3.097
18504.000			-24.774			-3.097
18605.000			-24.773			-3.097
18704.000			-24.771			-3.096
18803.000			-24.768			-3.096
18905.000			-24.766			-3.096
19004.000			-24.761			-3.095
19104.000			-24.759			-3.095
19205.000			-24.757			-3.095
19304.000			-24.756			-3.094
19404.000			-24.752			-3.094
19503.000			-24.750			-3.094
19604.000			-24.748			-3.094
19705.000			-24.744			-3.093
19804.000			-24.742			-3.093
19904.000			-24.741			-3.093
20005.000			-24.738			-3.092
20104.000			-24.735			-3.092
20203.000			-24.733			-3.092
20305.000			-24.732			-3.091
20404.000			-24.730			-3.091
20504.000			-24.727			-3.091
20605.000			-24.725			-3.091
20704.000			-24.723			-3.090
20804.000			-24.719			-3.090
20904.000			-24.717			-3.090
21004.000			-24.715			-3.089
21104.000			-24.714			-3.089
21205.000			-24.709			-3.089
21304.000			-24.708			-3.088
21404.000			-24.707			-3.088
21505.000			-24.704			-3.088
21603.000			-24.701			-3.088
21704.000			-24.700			-3.087
21805.000			-24.698			-3.087
21904.000			-24.695			-3.087
22004.000			-24.693			-3.087
22105.000			-24.690			-3.086
22204.000			-24.689			-3.086
22303.000			-24.687			-3.086
22405.000			-24.685			-3.086
22504.000			-24.683			-3.085
22604.000			-24.679			-3.085
22705.000			-24.677			-3.085
22804.000			-24.675			-3.084
22905.000			-24.674			-3.084
23003.000			-24.673			-3.084
23104.000			-24.670			-3.084
23205.000			-24.668			-3.084
23304.000			-24.667			-3.083
23404.000			-24.664			-3.083
23505.000			-24.662			-3.083
23604.000			-24.659			-3.082
23703.000			-24.657			-3.082
23805.000			-24.655			-3.082
23904.000			-24.654			-3.082
24004.000			-24.652			-3.082
24105.000			-24.648			-3.081
24203.000			-24.647			-3.081
24304.000			-24.646			-3.081
24405.000			-24.644			-3.080
24504.000			-24.641			-3.080
24604.000			-24.639			-3.080
24705.000			-24.639			-3.080
24804.000			-24.635			-3.079
24903.000			-24.633			-3.079
25005.000			-24.632			-3.079
25104.000			-24.630			-3.079
25204.000			-24.629			-3.079
25305.000			-24.628			-3.078
25404.000			-24.625			-3.078
25504.000			-24.622			-3.078
25604.000			-24.621			-3.078
25704.000			-24.619			-3.077
25804.000			-24.617			-3.077
25904.000			-24.615			-3.077
26004.000			-24.614			-3.077
26105.000			-24.612			-3.077
26204.000			-24.609			-3.076
26303.000			-24.606			-3.076
26405.000			-24.605			-3.076
26504.000			-24.604			-3.076
26604.000			-24.602			-3.075
26705.000			-24.601			-3.075
26804.000			-24.600			-3.075
26904.000			-24.599			-3.075
27004.000			-24.595			-3.074
27104.000			-24.593			-3.074
27204.000			-24.592			-3.074
27305.000			-24.590			-3.074
27404.000			-24.588			-3.073
27504.000			-24.587			-3.073
27605.000			-24.585			-3.073
27703.000			-24.582			-3.073
27804.000			-24.580			-3.073
27905.000			-24.579			-3.072
28004.000			-24.577			-3.072
28104.000			-24.577			-3.072
28205.000			-24.576			-3.072
28304.000			-24.574			-3.072
28403.000			-24.570			-3.071
28505.000			-24.568			-3.071
28604.000			-24.568			-3.071
28704.000			-24.568			-3.071
28805.000			-24.566			-3.071
28904.000			-24.564			-3.070
29004.000			-24.562			-3.070
29103.000			-24.559			-3.070
29204.000			-24.557			-3.070
29305.000			-24.554			-3.069
29404.000			-24.555			-3.069
29504.000			-24.555			-3.069
29605.000			-24.553			-3.069
29704.000			-24.551			-3.069
29803.000			-24.550			-3.069
29905.000			-24.546			-3.068
30004.000			-24.545			-3.068
30104.000			-24.542			-3.068
30205.000			-24.540			-3.068
30303.000			-24.541			-3.068
30404.000			-24.539			-3.067
30505.000			-24.537			-3.067
30604.000			-24.534			-3.067
30704.000			-24.533			-3.067
30805.000			-24.531			-3.066
30904.000			-24.530			-3.066
31003.000			-24.529			-3.066
31105.000			-24.526			-3.066
31204.000			-24.525			-3.066
31304.000			-24.523			-3.065
31405.000			-24.522			-3.065
31504.000			-24.520			-3.065
31604.000			-24.519			-3.065
31704.000			-24.517			-3.065
31804.000			-24.517			-3.065
31904.000			-24.515			-3.064
32005.000			-24.513			-3.064
32104.000			-24.512			-3.064
32204.000			-24.510			-3.064
32305.000			-24.509			-3.064
32404.000			-24.508			-3.063
32505.000			-24.507			-3.063
32604.000			-24.506			-3.063
32704.000			-24.502			-3.063
32805.000			-24.501			-3.063
32903.000			-24.501			-3.063
33004.000			-24.500			-3.063
33105.000			-24.497			-3.062
33204.000			-24.496			-3.062
33304.000			-24.494			-3.062
33405.000			-24.493			-3.062
33504.000			-24.490			-3.061
33603.000			-24.489			-3.061
33705.000			-24.488			-3.061
33804.000			-24.487			-3.061
33904.000			-24.486			-3.061
34005.000			-24.485			-3.061
34104.000			-24.484			-3.061
34204.000			-24.481			-3.060
34304.000			-24.479			-3.060
34404.000			-24.477			-3.060
34504.000			-24.476			-3.060
34605.000			-24.476			-3.060
34704.000			-24.475			-3.059
34804.000			-24.474			-3.059
34905.000			-24.470			-3.059
35003.000			-24.469			-3.059
35104.000			-24.468			-3.059
35205.000			-24.467			-3.058
35304.000			-24.466			-3.058
35404.000			-24.465			-3.058
35504.000			-24.463			-3.058
35604.000			-24.461			-3.058
35703.000			-24.459			-3.057
35804.000			-24.458			-3.057
35904.000			-24.458			-3.057
36005.000			-24.456			-3.057
36104.000			-24.455			-3.057
36204.000			-24.454			-3.057
36305.000			-24.453			-3.057
36403.000			-24.451			-3.056
36504.000			-24.450			-3.056
36605.000			-24.448			-3.056
36704.000			-24.447			-3.056
36804.000			-24.445			-3.056
36905.000			-24.444			-3.055
37004.000			-24.443			-3.055
37103.000			-24.441			-3.055
37205.000			-24.440			-3.055
37304.000			-24.438			-3.055
37404.000			-24.437			-3.055
37505.000			-24.437			-3.055
37604.000			-24.436			-3.055
37704.000			-24.435			-3.054
37804.000			-24.432			-3.054
37904.000			-24.431			-3.054
38004.000			-24.430			-3.054
38105.000			-24.428			-3.054
38204.000			-24.427			-3.053
38303.000			-24.426			-3.053
38405.000			-24.425			-3.053
38504.000			-24.424			-3.053
38604.000			-24.422			-3.053
38705.000			-24.420			-3.053
38804.000			-24.419			-3.052
38905.000			-24.418			-3.052
39003.000			-24.416			-3.052
39104.000			-24.416			-3.052
39205.000			-24.413			-3.052
39304.000			-24.412			-3.052
39404.000			-24.411			-3.051
39505.000			-24.410			-3.051
39604.000			-24.409			-3.051
39703.000			-24.407			-3.051
39805.000			-24.406			-3.051
39904.000			-24.406			-3.051
40004.000			-24.405			-3.051
40105.000			-24.403			-3.050
40204.000			-24.401			-3.050
40304.000			-24.399			-3.050
40404.000			-24.398			-3.050
40504.000			-24.398			-3.050
40604.000			-24.397			-3.050
40705.000			-24.394			-3.049
40804.000			-24.394			-3.049
40904.000			-24.394			-3.049
41005.000			-24.393			-3.049
41103.000			-24.391			-3.049
41204.000			-24.390			-3.049
41305.000			-24.389			-3.049
41404.000			-24.386			-3.048
41504.000			-24.386			-3.048
41605.000			-24.385			-3.048
41704.000			-24.382			-3.048
41803.000			-24.382			-3.048
41905.000			-24.381			-3.048
42004.000			-24.379			-3.047
42105.000			-24.378			-3.047
42204.000			-24.377			-3.047
42303.000			-24.376			-3.047
42405.000			-24.374			-3.047
42504.000			-24.375			-3.047
42604.000			-24.373			-3.047
42705.000			-24.370			-3.046
42804.000			-24.370			-3.046
42904.000			-24.368			-3.046
43004.000			-24.368			-3.046
43104.000			-24.367			-3.046
43204.000			-24.366			-3.046
43305.000			-24.365			-3.046
43404.000			-24.362			-3.045
43504.000			-24.363			-3.045
43605.000			-24.360			-3.045
43703.000			-24.359			-3.045
43804.000			-24.357			-3.045
43905.000			-24.357			-3.045
44004.000			-24.357			-3.045
44104.000			-24.356			-3.044
44205.000			-24.353			-3.044
44304.000			-24.350			-3.044
44403.000			-24.350			-3.044
44505.000			-24.350			-3.044
44604.000			-24.348			-3.043
44704.000			-24.347			-3.043
44805.000			-24.346			-3.043
44904.000			-24.346			-3.043
45004.000			-24.345			-3.043
45103.000			-24.342			-3.043
45204.000			-24.341			-3.043
45305.000			-24.341			-3.043
45404.000			-24.340			-3.042
45504.000			-24.339			-3.042
45604.000			-24.339			-3.042
45704.000			-24.338			-3.042
45803.000			-24.334			-3.042
45905.000			-24.333			-3.042
46004.000			-24.333			-3.042
46104.000			-24.333			-3.042
46205.000			-24.331			-3.041
46303.000			-24.330			-3.041
46404.000			-24.329			-3.041
46505.000			-24.329			-3.041
46604.000			-24.327			-3.041
46704.000			-24.325			-3.041
46805.000			-24.324			-3.041
46904.000			-24.323			-3.040
47003.000			-24.322			-3.040
47105.000			-24.321			-3.040
47204.000			-24.319			-3.040
47304.000			-24.318			-3.040
47405.000			-24.317			-3.040
47504.000			-24.316			-3.040
47604.000			-24.316			-3.039
47704.000			-24.315			-3.039
47804.000			-24.314			-3.039
47904.000			-24.312			-3.039
48005.000			-24.311			-3.039
48104.000			-24.311			-3.039
48204.000			-24.310			-3.039
48305.000			-24.309			-3.039
48403.000			-24.308			-3.038
48505.000			-24.307			-3.038
48604.000			-24.305			-3.038
48704.000			-24.303			-3.038
48805.000			-24.303			-3.038
48904.000			-24.304			-3.038
49004.000			-24.302			-3.038
49104.000			-24.301			-3.038
49204.000			-24.300			-3.038
49304.000			-24.299			-3.037
49405.000			-24.297			-3.037
49504.000			-24.296			-3.037
49603.000			-24.295			-3.037
49705.000			-24.295			-3.037
49804.000			-24.294			-3.037
49904.000			-24.294			-3.037
50005.000			-24.293			-3.037
50104.000			-24.290			-3.036
50204.000			-24.289			-3.036
50304.000			-24.288			-3.036
50404.000			-24.288			-3.036
50504.000			-24.286			-3.036
50605.000			-24.285			-3.036
50704.000			-24.285			-3.036
50804.000			-24.283			-3.035
50905.000			-24.283			-3.035
51003.000			-24.282			-3.035
51104.000			-24.281			-3.035
51205.000			-24.279			-3.035
51304.000			-24.279			-3.035
51404.000			-24.278			-3.035
51504.000			-24.275			-3.034
51604.000			-24.274			-3.034
51703.000			-24.273			-3.034
51804.000			-24.273			-3.034
51904.000			-24.271			-3.034
52005.000			-24.270			-3.034
52104.000			-24.270			-3.034
52204.000			-24.270			-3.034
52305.000			-24.269			-3.034
52403.000			-24.268			-3.034
52504.000			-24.266			-3.033
52605.000			-24.265			-3.033
52704.000			-24.265			-3.033
52804.000			-24.263			-3.033
52905.000			-24.263			-3.033
53004.000			-24.261			-3.033
53103.000			-24.260			-3.033
53205.000			-24.259			-3.032
53304.000			-24.259			-3.032
53404.000			-24.259			-3.032
53505.000			-24.258			-3.032
53604.000			-24.256			-3.032
53704.000			-24.254			-3.032
53805.000			-24.254			-3.032
53904.000			-24.252			-3.032
54004.000			-24.253			-3.032
54105.000			-24.252			-3.031
54204.000			-24.251			-3.031
54303.000			-24.250			-3.031
54405.000			-24.248			-3.031
54504.000			-24.247			-3.031
54604.000			-24.247			-3.031
54705.000			-24.246			-3.031
54804.000			-24.246			-3.031
54905.000			-24.244			-3.030
55003.000			-24.243			-3.030
55104.000			-24.241			-3.030
55205.000			-24.241			-3.030
55304.000			-24.240			-3.030
55404.000			-24.240			-3.030
55505.000			-24.239			-3.030
55604.000			-24.238			-3.030
55703.000			-24.237			-3.030
55805.000			-24.236			-3.029
55904.000			-24.235			-3.029
56004.000			-24.234			-3.029
56105.000			-24.234			-3.029
56204.000			-24.233			-3.029
56304.000			-24.232			-3.029
56404.000			-24.231			-3.029
56504.000			-24.230			-3.029
56604.000			-24.227			-3.028
56705.000			-24.228			-3.028
56804.000			-24.227			-3.028
56903.000			-24.225			-3.028
57005.000			-24.224			-3.028
57104.000			-24.224			-3.028
57204.000			-24.224			-3.028
57305.000			-24.222			-3.028
57404.000			-24.221			-3.028
57504.000			-24.220			-3.027
57604.000			-24.219			-3.027
57704.000			-24.219			-3.027
57804.000			-24.218			-3.027
57904.000			-24.218			-3.027
58004.000			-24.215			-3.027
58105.000			-24.214			-3.027
58204.000			-24.214			-3.027
58303.000			-24.213			-3.027
58405.000			-24.212			-3.026
58504.000			-24.211			-3.026
58604.000			-24.211			-3.026
58705.000			-24.209			-3.026
58804.000			-24.209			-3.026
58904.000			-24.208			-3.026
59004.000			-24.206			-3.026
59104.000			-24.206			-3.026
59204.000			-24.206			-3.026
59305.000			-24.205			-3.026
59404.000			-24.204			-3.025
59504.000			-24.202			-3.025
59605.000			-24.202			-3.025
59703.000			-24.202			-3.025
59804.000			-24.201			-3.025
59905.000			-24.199			-3.025
60004.000			-24.199			-3.025
60104.000			-24.198			-3.025
60204.000			-24.197			-3.025
60304.000			-24.197			-3.025
60404.000			-24.196			-3.025
60505.000			-24.195			-3.024
60604.000			-24.195			-3.024
60704.000			-24.194			-3.024
60805.000			-24.192			-3.024
60903.000			-24.190			-3.024
61004.000			-24.190			-3.024
61105.000			-24.190			-3.024
61204.000			-24.189			-3.024
61305.000			-24.189			-3.024
61404.000			-24.187			-3.023
61504.000			-24.186			-3.023
61604.000			-24.185			-3.023
61704.000			-24.185			-3.023
61804.000			-24.184			-3.023
61905.000			-24.184			-3.023
62004.000			-24.182			-3.023
62104.000			-24.181			-3.023
62205.000			-24.180			-3.022
62303.000			-24.179			-3.022
62404.000			-24.179			-3.022
62505.000			-24.177			-3.022
62604.000			-24.177			-3.022
62704.000			-24.176			-3.022
62805.000			-24.176			-3.022
62904.000			-24.174			-3.022
63003.000			-24.173			-3.022
63105.000			-24.171			-3.021
63204.000			-24.171			-3.021
63304.000			-24.172			-3.021
63405.000			-24.171			-3.021
63504.000			-24.170			-3.021
63604.000			-24.170			-3.021
63704.000			-24.169			-3.021
63804.000			-24.168			-3.021
63904.000			-24.166			-3.021
64005.000			-24.165			-3.021
64104.000			-24.165			-3.021
64204.000			-24.165			-3.021
64305.000			-24.164			-3.021
64404.000			-24.163			-3.020
64505.000			-24.161			-3.020
64604.000			-24.160			-3.020
64704.000			-24.160			-3.020
64805.000			-24.159			-3.020
64903.000			-24.159			-3.020
65004.000			-24.159			-3.020
65105.000			-24.157			-3.020
65204.000			-24.156			-3.020
65304.000			-24.155			-3.019
65405.000			-24.155			-3.019
65504.000			-24.154			-3.019
65603.000			-24.154			-3.019
65705.000			-24.154			-3.019
65804.000			-24.152			-3.019
65904.000			-24.151			-3.019
66005.000			-24.150			-3.019
66104.000			-24.149			-3.019
66204.000			-24.149			-3.019
66304.000			-24.147			-3.018
66404.000			-24.146			-3.018
66504.000			-24.147			-3.018
66605.000			-24.146			-3.018
66704.000			-24.144			-3.018
66804.000			-24.144			-3.018
66905.000			-24.143			-3.018
67003.000			-24.142			-3.018
67104.000			-24.142			-3.018
67205.000			-24.141			-3.018
67304.000			-24.140			-3.017
67404.000			-24.139			-3.017
67504.000			-24.139			-3.017
67604.000			-24.137			-3.017
67703.000			-24.136			-3.017
67804.000			-24.136			-3.017
67904.000			-24.135			-3.017
68005.000			-24.135			-3.017
68104.000			-24.134			-3.017
68204.000			-24.132			-3.017
68305.000			-24.132			-3.016
68403.000			-24.131			-3.016
68504.000			-24.130			-3.016
68605.000			-24.130			-3.016
68704.000			-24.128			-3.016
68804.000			-24.128			-3.016
68905.000			-24.127			-3.016
69004.000			-24.127			-3.016
69103.000			-24.126			-3.016
69205.000			-24.126			-3.016
69304.000			-24.126			-3.016
69404.000			-24.125			-3.016
69505.000			-24.124			-3.015
69604.000			-24.122			-3.015
69704.000			-24.120			-3.015
69804.000			-24.121			-3.015
69904.000			-24.120			-3.015
70004.000			-24.120			-3.015
70105.000			-24.119			-3.015
70204.000			-24.118			-3.015
70304.000			-24.117			-3.015
70405.000			-24.116			-3.015
70503.000			-24.116			-3.014
70604.000			-24.116			-3.015
70705.000			-24.115			-3.014
70804.000			-24.114			-3.014
70905.000			-24.114			-3.014
71003.000			-24.112			-3.014
71104.000			-24.112			-3.014
71205.000			-24.110			-3.014
71304.000			-24.109			-3.014
71404.000			-24.109			-3.014
71505.000			-24.109			-3.014
71604.000			-24.108			-3.013
71703.000			-24.107			-3.013
71805.000			-24.105			-3.013
71904.000			-24.104			-3.013
72004.000			-24.105			-3.013
72105.000			-24.104			-3.013
72204.000			-24.103			-3.013
72304.000			-24.103			-3.013
72404.000			-24.102			-3.013
72504.000			-24.101			-3.013
72604.000			-24.100			-3.012
72705.000			-24.099			-3.012
72804.000			-24.098			-3.012
72904.000			-24.097			-3.012
73005.000			-24.097			-3.012
73103.000			-24.097			-3.012
73204.000			-24.095			-3.012
73305.000			-24.094			-3.012
73404.000			-24.094			-3.012
73504.000			-24.093			-3.012
73605.000			-24.093			-3.012
73704.000			-24.093			-3.012
73803.000			-24.093			-3.012
73905.000			-24.090			-3.011
74004.000			-24.090			-3.011
74105.000			-24.090			-3.011
74204.000			-24.089			-3.011
74304.000			-24.088			-3.011
74405.000			-24.086			-3.011
74503.000			-24.086			-3.011
74604.000			-24.085			-3.011
74705.000			-24.084			-3.011
74804.000			-24.084			-3.010
74904.000			-24.083			-3.010
75005.000			-24.082			-3.010
75104.000			-24.083			-3.010
75203.000			-24.083			-3.010
75305.000			-24.081			-3.010
75404.000			-24.081			-3.010
75504.000			-24.080			-3.010
75605.000			-24.079			-3.010
75704.000			-24.077			-3.010
75804.000			-24.076			-3.010
75904.000			-24.076			-3.009
76004.000			-24.076			-3.009
76104.000			-24.076			-3.010
76205.000			-24.076			-3.009
76304.000			-24.075			-3.009
76404.000			-24.074			-3.009
76505.000			-24.073			-3.009
76603.000			-24.072			-3.009
76704.000			-24.071			-3.009
76805.000			-24.070			-3.009
76904.000			-24.069			-3.009
77004.000			-24.068			-3.009
77104.000			-24.068			-3.008
77204.000			-24.068			-3.008
77303.000			-24.067			-3.008
77404.000			-24.066			-3.008
77504.000			-24.066			-3.008
77605.000			-24.065			-3.008
77704.000			-24.064			-3.008
77804.000			-24.064			-3.008
77905.000			-24.063			-3.008
78003.000			-24.063			-3.008
78104.000			-24.062			-3.008
78205.000			-24.061			-3.008
78304.000			-24.060			-3.008
78404.000			-24.059			-3.007
78505.000			-24.059			-3.007
78604.000			-24.058			-3.007
78703.000			-24.057			-3.007
78805.000			-24.057			-3.007
78904.000			-24.057			-3.007
79004.000			-24.056			-3.007
79105.000			-24.055			-3.007
79204.000			-24.054			-3.007
79304.000			-24.053			-3.007
79404.000			-24.053			-3.007
79504.000			-24.053			-3.007
79604.000			-24.052			-3.007
79705.000			-24.051			-3.006
79804.000			-24.050			-3.006
79904.000			-24.049			-3.006
80005.000			-24.049			-3.006
80103.000			-24.049			-3.006
80204.000			-24.048			-3.006
80305.000			-24.047			-3.006
80404.000			-24.047			-3.006
80505.000			-24.045			-3.006
80604.000			-24.044			-3.005
80704.000			-24.044			-3.005
80804.000			-24.044			-3.005
80904.000			-24.043			-3.005
81004.000			-24.043			-3.005
81105.000			-24.043			-3.005
81204.000			-24.041			-3.005
81303.000			-24.041			-3.005
81405.000			-24.040			-3.005
81504.000			-24.038			-3.005
81604.000			-24.038			-3.005
81705.000			-24.038			-3.005
81804.000			-24.038			-3.005
81904.000			-24.036			-3.004
82004.000			-24.035			-3.004
82104.000			-24.035			-3.004
82204.000			-24.035			-3.004
82305.000			-24.035			-3.004
82404.000			-24.034			-3.004
82504.000			-24.033			-3.004
82605.000			-24.032			-3.004
82703.000			-24.032			-3.004
82804.000			-24.031			-3.004
82905.000			-24.030			-3.004
83004.000			-24.030			-3.004
83104.000			-24.030			-3.004
83205.000			-24.029			-3.004
83304.000			-24.029			-3.004
83403.000			-24.028			-3.003
83505.000			-24.027			-3.003
83604.000			-24.027			-3.003
83705.000			-24.026			-3.003
83804.000			-24.026			-3.003
83904.000			-24.025			-3.003
84005.000			-24.023			-3.003
84103.000			-24.022			-3.003
84204.000			-24.022			-3.003
84305.000			-24.022			-3.003
84404.000			-24.022			-3.003
84504.000			-24.021			-3.003
84605.000			-24.021			-3.003
84704.000			-24.020			-3.003
84803.000			-24.019			-3.002
84905.000			-24.018			-3.002
85004.000			-24.018			-3.002
85104.000			-24.017			-3.002
85205.000			-24.016			-3.002
85303.000			-24.016			-3.002
85404.000			-24.015			-3.002
85505.000			-24.015			-3.002
85604.000			-24.014			-3.002
85704.000			-24.013			-3.002
85805.000			-24.013			-3.002
85904.000			-24.012			-3.001
86003.000			-24.012			-3.002
86105.000			-24.011			-3.001
86204.000			-24.009			-3.001
86304.000			-24.008			-3.001
86405.000			-24.008			-3.001
86504.000			-24.008			-3.001
86604.000			-24.008			-3.001
86703.000			-24.008			-3.001
86804.000			-24.007			-3.001
86905.000			-24.005			-3.001
87004.000			-24.006			-3.001
87104.000			-24.005			-3.001
87205.000			-24.003			-3.000
87304.000			-24.003			-3.000
87403.000			-24.003			-3.000
87505.000			-24.002			-3.000
87604.000			-24.002			-3.000
87704.000			-24.001			-3.000
87805.000			-24.001			-3.000
87904.000			-24.001			-3.000
88004.000			-24.000			-3.000
88104.000			-24.000			-3.000
88204.000			-23.999			-3.000
88304.000			-23.998			-3.000
88405.000			-23.997			-3.000
88504.000			-23.997			-3.000
88604.000			-23.995			-2.999
88705.000			-23.994			-2.999
88803.000			-23.994			-2.999
88904.000			-23.994			-2.999
89004.000			-23.992			-2.999
89104.000			-23.993			-2.999
89204.000			-23.992			-2.999
89305.000			-23.990			-2.999
89404.000			-23.990			-2.999
89504.000			-23.991			-2.999
89605.000			-23.989			-2.999
89703.000			-23.989			-2.999
89804.000			-23.987			-2.998
89905.000			-23.986			-2.998
90004.000			-23.987			-2.998
90105.000			-23.986			-2.998
90204.000			-23.986			-2.998
90304.000			-23.986			-2.998
90404.000			-23.985			-2.998
90504.000			-23.983			-2.998
90604.000			-23.983			-2.998
90705.000			-23.984			-2.998
90804.000			-23.983			-2.998
90904.000			-23.982			-2.998
91005.000			-23.981			-2.998
91103.000			-23.981			-2.998
91204.000			-23.981			-2.998
91305.000			-23.979			-2.997
91404.000			-23.979			-2.997
91504.000			-23.978			-2.997
91605.000			-23.977			-2.997
91704.000			-23.977			-2.997
91803.000			-23.977			-2.997
91905.000			-23.975			-2.997
92004.000			-23.976			-2.997
92104.000			-23.975			-2.997
92205.000			-23.974			-2.997
92304.000			-23.974			-2.997
92404.000			-23.974			-2.997
92504.000			-23.973			-2.997
92604.000			-23.971			-2.996
92703.000			-23.971			-2.996
92805.000			-23.971			-2.996
92904.000			-23.970			-2.996
93004.000			-23.970			-2.996
93105.000			-23.969			-2.996
93204.000			-23.969			-2.996
93305.000			-23.968			-2.996
93403.000			-23.967			-2.996
93504.000			-23.968			-2.996
93605.000			-23.968			-2.996
93704.000			-23.967			-2.996
93804.000			-23.966			-2.996
93905.000			-23.965			-2.996
94004.000			-23.963			-2.995
94103.000			-23.963			-2.995
94205.000			-23.963			-2.995
94304.000			-23.962			-2.995
94404.000			-23.961			-2.995
94505.000			-23.961			-2.995
94604.000			-23.961			-2.995
94704.000			-23.960			-2.995
94804.000			-23.959			-2.995
94904.000			-23.959			-2.995
95004.000			-23.959			-2.995
95105.000			-23.958			-2.995
95204.000			-23.958			-2.995
95304.000			-23.957			-2.995
95405.000			-23.956			-2.994
95503.000			-23.956			-2.995
95604.000			-23.954			-2.994
95705.000			-23.953			-2.994
95804.000			-23.953			-2.994
95904.000			-23.953			-2.994
96005.000			-23.953			-2.994
96104.000			-23.952			-2.994
96204.000			-23.952			-2.994
96305.000			-23.951			-2.994
96403.000			-23.951			-2.994
96505.000			-23.950			-2.994
96604.000			-23.950			-2.994
96704.000			-23.949			-2.994
96805.000			-23.948			-2.993
96904.000			-23.948			-2.993
97004.000			-23.947			-2.993
97104.000			-23.946			-2.993
97204.000			-23.946			-2.993
97304.000			-23.947			-2.993
97405.000			-23.945			-2.993
97504.000			-23.944			-2.993
97604.000			-23.945			-2.993
97705.000			-23.945			-2.993
97803.000			-23.942			-2.993
97904.000			-23.942			-2.993
98005.000			-23.941			-2.993
98104.000			-23.943			-2.993
98204.000			-23.942			-2.993
98305.000			-23.941			-2.993
98404.000			-23.940			-2.992
98504.000			-23.939			-2.992
98605.000			-23.939			-2.992
98703.000			-23.939			-2.992
98804.000			-23.938			-2.992
98905.000			-23.937			-2.992
99004.000			-23.936			-2.992
99104.000			-23.935			-2.992
99205.000			-23.934			-2.992
99304.000			-23.934			-2.992
99403.000			-23.934			-2.992
99505.000			-23.935			-2.992
99604.000			-23.933			-2.992
99705.000			-23.933			-2.992
99804.000			-23.932			-2.992
99904.000			-23.931			-2.991
100005.000			-23.931			-2.991
100103.000			-23.930			-2.991
100204.000			-23.930			-2.991
100305.000			-23.931			-2.991
100404.000			-23.930			-2.991
100504.000			-23.929			-2.991
100605.000			-23.929			-2.991
100704.000			-23.927			-2.991
100804.000			-23.927			-2.991
100905.000			-23.927			-2.991
101003.000			-23.926			-2.991
101104.000			-23.926			-2.991
101205.000			-23.926			-2.991
101304.000			-23.925			-2.991
101404.000			-23.924			-2.990
101505.000			-23.923			-2.990
101604.000			-23.923			-2.990
101703.000			-23.922			-2.990
101805.000			-23.922			-2.990
101904.000			-23.921			-2.990
102004.000			-23.920			-2.990
102105.000			-23.920			-2.990
102204.000			-23.919			-2.990
102304.000			-23.920			-2.990
102404.000			-23.918			-2.990
102504.000			-23.917			-2.990
102604.000			-23.917			-2.990
102704.000			-23.917			-2.990
102804.000			-23.916			-2.990
102905.000			-23.916			-2.989
103004.000			-23.916			-2.989
103103.000			-23.916			-2.990
103205.000			-23.915			-2.989
103304.000			-23.915			-2.989
103404.000			-23.915			-2.989
103505.000			-23.914			-2.989
103604.000			-23.913			-2.989
103704.000			-23.912			-2.989
103804.000			-23.912			-2.989
103904.000			-23.912			-2.989
104004.000			-23.911			-2.989
104105.000			-23.910			-2.989
104204.000			-23.909			-2.989
104304.000			-23.909			-2.989
104405.000			-23.909			-2.989
104503.000			-23.908			-2.989
104604.000			-23.907			-2.988
104705.000			-23.907			-2.988
104804.000			-23.907			-2.988
104904.000			-23.907			-2.988
105005.000			-23.906			-2.988
105104.000			-23.904			-2.988
105203.000			-23.904			-2.988
105305.000			-23.904			-2.988
105404.000			-23.903			-2.988
105504.000			-23.903			-2.988
105605.000			-23.903			-2.988
105704.000			-23.902			-2.988
105804.000			-23.901			-2.988
105903.000			-23.901			-2.988
106004.000			-23.901			-2.988
106105.000			-23.901			-2.988
106204.000			-23.900			-2.987
106304.000			-23.899			-2.987
106405.000			-23.898			-2.987
106504.000			-23.897			-2.987
106603.000			-23.898			-2.987
106705.000			-23.897			-2.987
106804.000			-23.896			-2.987
106904.000			-23.895			-2.987
107005.000			-23.895			-2.987
107104.000			-23.894			-2.987
107204.000			-23.894			-2.987
107304.000			-23.894			-2.987
107404.000			-23.894			-2.987
107503.000			-23.893			-2.987
107605.000			-23.893			-2.987
107704.000			-23.891			-2.986
107804.000			-23.890			-2.986
107905.000			-23.892			-2.986
108004.000			-23.891			-2.986
108104.000			-23.890			-2.986
108204.000			-23.891			-2.986
108304.000			-23.890			-2.986
108404.000			-23.889			-2.986
108505.000			-23.888			-2.986
108604.000			-23.886			-2.986
108704.000			-23.885			-2.986
108805.000			-23.885			-2.986
108903.000			-23.886			-2.986
109004.000			-23.887			-2.986
109103.000			-23.886			-2.986
109204.000			-23.886			-2.986
109305.000			-23.884			-2.985
109404.000			-23.884			-2.985
109504.000			-23.883			-2.985
109605.000			-23.882			-2.985
109704.000			-23.881			-2.985
109803.000			-23.882			-2.985
109905.000			-23.882			-2.985
110004.000			-23.881			-2.985
110104.000			-23.880			-2.985
110205.000			-23.879			-2.985
110304.000			-23.878			-2.985
110404.000			-23.878			-2.985
110504.000			-23.878			-2.985
110604.000			-23.877			-2.985
110704.000			-23.877			-2.985
110805.000			-23.877			-2.985
110904.000			-23.877			-2.985
111004.000			-23.876			-2.984
111105.000			-23.876			-2.985
111204.000			-23.875			-2.984
111304.000			-23.875			-2.984
111404.000			-23.875			-2.984
111504.000			-23.873			-2.984
111604.000			-23.873			-2.984
111705.000			-23.873			-2.984
111804.000			-23.872			-2.984
111904.000			-23.872			-2.984
112005.000			-23.871			-2.984
112103.000			-23.871			-2.984
112204.000			-23.871			-2.984
112305.000			-23.869			-2.984
112404.000			-23.869			-2.984
112505.000			-23.869			-2.984
112604.000			-23.869			-2.984
112704.000			-23.868			-2.983
112804.000			-23.866			-2.983
112904.000			-23.866			-2.983
113004.000			-23.866			-2.983
113105.000			-23.865			-2.983
113204.000			-23.864			-2.983
113304.000			-23.864			-2.983
113405.000			-23.864			-2.983
113503.000			-23.863			-2.983
113604.000			-23.863			-2.983
113704.000			-23.863			-2.983
113804.000			-23.862			-2.983
113904.000			-23.862			-2.983
114005.000			-23.862			-2.983
114104.000			-23.862			-2.983
114204.000			-23.861			-2.983
114305.000			-23.860			-2.983
114403.000			-23.860			-2.982
114504.000			-23.859			-2.982
114605.000			-23.859			-2.982
114704.000			-23.858			-2.982
114804.000			-23.858			-2.982
114905.000			-23.858			-2.982
115004.000			-23.857			-2.982
115103.000			-23.856			-2.982
115205.000			-23.855			-2.982
115304.000			-23.854			-2.982
115404.000			-23.854			-2.982
115505.000			-23.854			-2.982
115604.000			-23.854			-2.982
115705.000			-23.853			-2.982
115803.000			-23.853			-2.982
115904.000			-23.853			-2.982
116005.000			-23.852			-2.982
116104.000			-23.851			-2.981
116204.000			-23.851			-2.981
116305.000			-23.851			-2.981
116404.000			-23.850			-2.981
116504.000			-23.849			-2.981
116605.000			-23.848			-2.981
116703.000			-23.848			-2.981
116804.000			-23.848			-2.981
116905.000			-23.848			-2.981
117004.000			-23.846			-2.981
117104.000			-23.847			-2.981
117205.000			-23.847			-2.981
117304.000			-23.846			-2.981
117403.000			-23.845			-2.981
117505.000			-23.845			-2.981
117604.000			-23.845			-2.981
117704.000			-23.844			-2.981
117805.000			-23.843			-2.980
117904.000			-23.843			-2.980
118004.000			-23.842			-2.980
118104.000			-23.842			-2.980
118204.000			-23.843			-2.980
118304.000			-23.842			-2.980
118405.000			-23.841			-2.980
118504.000			-23.840			-2.980
118604.000			-23.840			-2.980
118705.000			-23.839			-2.980
118804.000			-23.838			-2.980
118905.000			-23.838			-2.980
119003.000			-23.837			-2.980
119104.000			-23.838			-2.980
119205.000			-23.837			-2.980
119304.000			-23.836			-2.979
119404.000			-23.836			-2.979
119505.000			-23.834			-2.979
119604.000			-23.835			-2.979
119703.000			-23.834			-2.979
119805.000			-23.835			-2.979
119904.000			-23.835			-2.979
120004.000			-23.833			-2.979
120105.000			-23.833			-2.979
120204.000			-23.833			-2.979
120304.000			-23.833			-2.979
120404.000			-23.831			-2.979
120504.000			-23.831			-2.979
120604.000			-23.831			-2.979
120705.000			-23.831			-2.979
120804.000			-23.831			-2.979
120904.000			-23.829			-2.979
121005.000			-23.829			-2.979
121104.000			-23.829			-2.979
121204.000			-23.828			-2.979
121304.000			-23.829			-2.979
121404.000			-23.828			-2.978
121504.000			-23.827			-2.978
121605.000			-23.828			-2.978
121704.000			-23.827			-2.978
121804.000			-23.826			-2.978
121905.000			-23.825			-2.978
122003.000			-23.824			-2.978
122105.000			-23.823			-2.978
122204.000			-23.822			-2.978
122304.000			-23.823			-2.978
122405.000			-23.824			-2.978
122504.000			-23.823			-2.978
122604.000			-23.822			-2.978
122704.000			-23.821			-2.978
122804.000			-23.821			-2.978
122904.000			-23.821			-2.978
123005.000			-23.820			-2.977
123104.000			-23.820			-2.978
123204.000			-23.820			-2.977
123305.000			-23.818			-2.977
123403.000			-23.817			-2.977
123504.000			-23.819			-2.977
123605.000			-23.818			-2.977
123704.000			-23.818			-2.977
123804.000			-23.815			-2.977
123905.000			-23.816			-2.977
124004.000			-23.816			-2.977
124103.000			-23.816			-2.977
124205.000			-23.816			-2.977
124304.000			-23.814			-2.977
124404.000			-23.815			-2.977
124505.000			-23.815			-2.977
124604.000			-23.814			-2.977
124704.000			-23.813			-2.977
124804.000			-23.812			-2.976
124904.000			-23.812			-2.976
125004.000			-23.812			-2.977
125104.000			-23.811			-2.976
125204.000			-23.809			-2.976
125305.000			-23.810			-2.976
125404.000			-23.811			-2.976
125503.000			-23.810			-2.976
125605.000			-23.810			-2.976
125703.000			-23.810			-2.976
125804.000			-23.809			-2.976
125905.000			-23.807			-2.976
126004.000			-23.806			-2.976
126104.000			-23.806			-2.976
126205.000			-23.807			-2.976
126304.000			-23.806			-2.976
126403.000			-23.806			-2.976
126505.000			-23.805			-2.976
126604.000			-23.804			-2.976
126704.000			-23.804			-2.976
126805.000			-23.804			-2.976
126904.000			-23.803			-2.975
127004.000			-23.803			-2.975
127104.000			-23.802			-2.975
127204.000			-23.802			-2.975
127304.000			-23.802			-2.975
127405.000			-23.801			-2.975
127504.000			-23.800			-2.975
127604.000			-23.799			-2.975
127705.000			-23.799			-2.975
127803.000			-23.799			-2.975
127904.000			-23.798			-2.975
128005.000			-23.799			-2.975
128104.000			-23.798			-2.975
128204.000			-23.798			-2.975
128304.000			-23.797			-2.975
128404.000			-23.797			-2.975
128505.000			-23.797			-2.975
128604.000			-23.796			-2.975
128703.000			-23.795			-2.974
128805.000			-23.796			-2.975
128904.000			-23.795			-2.974
129004.000			-23.794			-2.974
129105.000			-23.794			-2.974
129204.000			-23.795			-2.974
129304.000			-23.793			-2.974
129404.000			-23.793			-2.974
129504.000			-23.791			-2.974
129603.000			-23.790			-2.974
129705.000			-23.791			-2.974
129804.000			-23.791			-2.974
129904.000			-23.790			-2.974
130005.000			-23.792			-2.974
130104.000			-23.792			-2.974
130204.000			-23.790			-2.974
130304.000			-23.788			-2.974
130404.000			-23.788			-2.974
130504.000			-23.789			-2.974
130605.000			-23.789			-2.974
130704.000			-23.788			-2.973
130804.000			-23.786			-2.973
130905.000			-23.786			-2.973
131003.000			-23.786			-2.973
131104.000			-23.785			-2.973
131205.000			-23.785			-2.973
131304.000			-23.786			-2.973
131404.000			-23.786			-2.973
131504.000			-23.785			-2.973
131604.000			-23.784			-2.973
131705.000			-23.783			-2.973
131804.000			-23.783			-2.973
131903.000			-23.783			-2.973
132005.000			-23.783			-2.973
132104.000			-23.782			-2.973
132204.000			-23.781			-2.973
132305.000			-23.780			-2.973
132404.000			-23.780			-2.973
132504.000			-23.779			-2.972
132605.000			-23.779			-2.972
132704.000			-23.778			-2.972
132803.000			-23.779			-2.972
132905.000			-23.778			-2.972
133004.000			-23.777			-2.972
133104.000			-23.777			-2.972
133205.000			-23.777			-2.972
133304.000			-23.777			-2.972
133404.000			-23.776			-2.972
133505.000			-23.775			-2.972
133604.000			-23.776			-2.972
133703.000			-23.775			-2.972
133805.000			-23.774			-2.972
133904.000			-23.774			-2.972
134004.000			-23.773			-2.972
134105.000			-23.774			-2.972
134204.000			-23.773			-2.972
134304.000			-23.771			-2.971
134405.000			-23.771			-2.971
134504.000			-23.772			-2.971
134603.000			-23.771			-2.971
134705.000			-23.771			-2.971
134804.000			-23.770			-2.971
134905.000			-23.769			-2.971
135004.000			-23.770			-2.971
135104.000			-23.769			-2.971
135205.000			-23.768			-2.971
135304.000			-23.768			-2.971
135404.000			-23.768			-2.971
135504.000			-23.769			-2.971
135604.000			-23.768			-2.971
135703.000			-23.768			-2.971
135805.000			-23.767			-2.971
135904.000			-23.766			-2.971
136004.000			-23.765			-2.971
136105.000			-23.764			-2.971
136204.000			-23.766			-2.971
136304.000			-23.766			-2.971
136404.000			-23.765			-2.971
136504.000			-23.764			-2.970
136603.000			-23.763			-2.970
136705.000			-23.763			-2.970
136804.000			-23.761			-2.970
136904.000			-23.760			-2.970
137005.000			-23.760			-2.970
137104.000			-23.760			-2.970
137204.000			-23.760			-2.970
137304.000			-23.761			-2.970
137404.000			-23.760			-2.970
137503.000			-23.760			-2.970
137605.000			-23.759			-2.970
137704.000			-23.759			-2.970
137804.000			-23.758			-2.970
137905.000			-23.758			-2.970
138004.000			-23.758			-2.970
138105.000			-23.757			-2.970
138204.000			-23.757			-2.970
138304.000			-23.757			-2.970
138404.000			-23.757			-2.970
138504.000			-23.755			-2.969
138604.000			-23.755			-2.969
138705.000			-23.755			-2.969
138804.000			-23.756			-2.969
138904.000			-23.754			-2.969
139005.000			-23.754			-2.969
139104.000			-23.754			-2.969
139204.000			-23.753			-2.969
139304.000			-23.752			-2.969
139404.000			-23.751			-2.969
139504.000			-23.751			-2.969
139605.000			-23.752			-2.969
139704.000			-23.751			-2.969
139804.000			-23.751			-2.969
139905.000			-23.750			-2.969
140004.000			-23.751			-2.969
140104.000			-23.749			-2.969
140204.000			-23.749			-2.969
140304.000			-23.749			-2.969
140404.000			-23.747			-2.968
140505.000			-23.748			-2.968
140604.000			-23.748			-2.969
140704.000			-23.748			-2.969
140805.000			-23.748			-2.968
140904.000			-23.745			-2.968
141004.000			-23.746			-2.968
141103.000			-23.745			-2.968
141204.000			-23.746			-2.968
141305.000			-23.745			-2.968
141404.000			-23.744			-2.968
141504.000			-23.744			-2.968
141605.000			-23.744			-2.968
141704.000			-23.743			-2.968
141803.000			-23.742			-2.968
141905.000			-23.742			-2.968
142003.000			-23.742			-2.968
142104.000			-23.742			-2.968
142205.000			-23.741			-2.968
142304.000			-23.741			-2.968
142404.000			-23.741			-2.968
142505.000			-23.739			-2.967
142604.000			-23.740			-2.967
142703.000			-23.739			-2.967
142805.000			-23.739			-2.967
142903.000			-23.738			-2.967
143004.000			-23.738			-2.967
143105.000			-23.738			-2.967
143204.000			-23.736			-2.967
143304.000			-23.737			-2.967
143405.000			-23.736			-2.967
143504.000			-23.735			-2.967
143603.000			-23.735			-2.967
143705.000			-23.735			-2.967
143803.000			-23.735			-2.967
143904.000			-23.735			-2.967
144005.000			-23.733			-2.967
144104.000			-23.733			-2.967
144204.000			-23.732			-2.967
144304.000			-23.733			-2.967
144404.000			-23.732			-2.967
144503.000			-23.732			-2.967
144604.000			-23.732			-2.967
144703.000			-23.731			-2.966
144805.000			-23.731			-2.966
144904.000			-23.730			-2.966
145004.000			-23.730			-2.966
145105.000			-23.729			-2.966
145204.000			-23.729			-2.966
145304.000			-23.729			-2.966
145404.000			-23.729			-2.966
145504.000			-23.728			-2.966
145604.000			-23.729			-2.966
145705.000			-23.728			-2.966
145804.000			-23.727			-2.966
145904.000			-23.725			-2.966
146005.000			-23.726			-2.966
146104.000			-23.726			-2.966
146204.000			-23.726			-2.966
146304.000			-23.726			-2.966
146404.000			-23.724			-2.966
146504.000			-23.723			-2.965
146605.000			-23.725			-2.966
146704.000			-23.726			-2.966
146804.000			-23.724			-2.966
146905.000			-23.724			-2.965
147004.000			-23.723			-2.965
147104.000			-23.723			-2.965
147204.000			-23.722			-2.965
147304.000			-23.722			-2.965
147403.000			-23.722			-2.965
147505.000			-23.722			-2.965
147604.000			-23.719			-2.965
147705.000			-23.720			-2.965
147804.000			-23.721			-2.965
147904.000			-23.720			-2.965
148005.000			-23.719			-2.965
148103.000			-23.718			-2.965
148204.000			-23.719			-2.965
148304.000			-23.719			-2.965
148404.000			-23.717			-2.965
148504.000			-23.718			-2.965
148605.000			-23.717			-2.965
148704.000			-23.717			-2.965
148804.000			-23.717			-2.965
148905.000			-23.716			-2.965
149003.000			-23.716			-2.965
149104.000			-23.715			-2.964
149204.000			-23.714			-2.964
149304.000			-23.714			-2.964
149404.000			-23.713			-2.964
149505.000			-23.714			-2.964
149604.000			-23.715			-2.964
149704.000			-23.713			-2.964
149805.000			-23.712			-2.964
149903.000			-23.713			-2.964
150004.000			-23.712			-2.964
150104.000			-23.711			-2.964
150204.000			-23.710			-2.964
150304.000			-23.709			-2.964
150405.000			-23.709			-2.964
150504.000			-23.711			-2.964
150604.000			-23.711			-2.964
150705.000			-23.709			-2.964
150803.000			-23.709			-2.964
150905.000			-23.708			-2.963
151004.000			-23.708			-2.963
151104.000			-23.708			-2.963
151205.000			-23.707			-2.963
151304.000			-23.707			-2.963
151404.000			-23.706			-2.963
151505.000			-23.706			-2.963
151604.000			-23.706			-2.963
151703.000			-23.706			-2.963
151805.000			-23.704			-2.963
151904.000			-23.706			-2.963
152004.000			-23.705			-2.963
152105.000			-23.704			-2.963
152204.000			-23.704			-2.963
152304.000			-23.703			-2.963
152405.000			-23.704			-2.963
152504.000			-23.704			-2.963
152603.000			-23.703			-2.963
152705.000			-23.702			-2.963
152804.000			-23.702			-2.963
152904.000			-23.701			-2.963
153005.000			-23.701			-2.963
153104.000			-23.701			-2.963
153204.000			-23.700			-2.963
153304.000			-23.700			-2.963
153404.000			-23.699			-2.962
153503.000			-23.699			-2.962
153605.000			-23.699			-2.962
153704.000			-23.699			-2.962
153804.000			-23.698			-2.962
153905.000			-23.698			-2.962
154004.000			-23.699			-2.962
154105.000			-23.697			-2.962
154204.000			-23.696			-2.962
154304.000			-23.696			-2.962
154404.000			-23.695			-2.962
154504.000			-23.696			-2.962
154604.000			-23.695			-2.962
154705.000			-23.695			-2.962
154804.000			-23.694			-2.962
154904.000			-23.694			-2.962
155005.000			-23.693			-2.962
155104.000			-23.694			-2.962
155204.000			-23.694			-2.962
155304.000			-23.694			-2.962
155404.000			-23.693			-2.962
155504.000			-23.692			-2.962
155605.000			-23.691			-2.961
155704.000			-23.691			-2.961
155804.000			-23.691			-2.961
155905.000			-23.690			-2.961
156004.000			-23.691			-2.961
156104.000			-23.691			-2.961
156204.000			-23.690			-2.961
156304.000			-23.690			-2.961
156404.000			-23.689			-2.961
156505.000			-23.689			-2.961
156604.000			-23.689			-2.961
156704.000			-23.688			-2.961
156805.000			-23.686			-2.961
156904.000			-23.686			-2.961
157004.000			-23.686			-2.961
157103.000			-23.687			-2.961
157204.000			-23.687			-2.961
157303.000			-23.686			-2.961
157404.000			-23.686			-2.961
157504.000			-23.685			-2.961
157605.000			-23.684			-2.961
157704.000			-23.685			-2.961
157804.000			-23.684			-2.961
157905.000			-23.684			-2.961
158004.000			-23.684			-2.960
158104.000			-23.683			-2.960
158204.000			-23.683			-2.960
158304.000			-23.683			-2.960
158404.000			-23.682			-2.960
158505.000			-23.682			-2.960
158604.000			-23.681			-2.960
158704.000			-23.680			-2.960
158805.000			-23.680			-2.960
158904.000			-23.681			-2.960
159004.000			-23.679			-2.960
159104.000			-23.679			-2.960
159204.000			-23.679			-2.960
159303.000			-23.679			-2.960
159405.000			-23.678			-2.960
159504.000			-23.678			-2.960
159604.000			-23.677			-2.960
159705.000			-23.678			-2.960
159804.000			-23.678			-2.960
159904.000			-23.676			-2.960
160004.000			-23.675			-2.959
160104.000			-23.675			-2.959
160203.000			-23.675			-2.959
160305.000			-23.675			-2.959
160404.000			-23.674			-2.959
160505.000			-23.674			-2.959
160604.000			-23.674			-2.959
160704.000			-23.673			-2.959
160805.000			-23.674			-2.959
160904.000			-23.673			-2.959
161004.000			-23.673			-2.959
161104.000			-23.673			-2.959
161204.000			-23.673			-2.959
161304.000			-23.672			-2.959
161405.000			-23.672			-2.959
161504.000			-23.671			-2.959
161604.000			-23.671			-2.959
161705.000			-23.670			-2.959
161804.000			-23.671			-2.959
161904.000			-23.671			-2.959
162004.000			-23.669			-2.959
162104.000			-23.668			-2.959
162204.000			-23.668			-2.959
162305.000			-23.668			-2.958
162404.000			-23.667			-2.958
162504.000			-23.668			-2.959
162605.000			-23.667			-2.958
162704.000			-23.665			-2.958
162804.000			-23.667			-2.958
162904.000			-23.666			-2.958
163004.000			-23.665			-2.958
163104.000			-23.665			-2.958
163205.000			-23.665			-2.958
163304.000			-23.665			-2.958
163404.000			-23.665			-2.958
163505.000			-23.663			-2.958
163604.000			-23.664			-2.958
163705.000			-23.665			-2.958
163803.000			-23.664			-2.958
163904.000			-23.664			-2.958
164005.000			-23.664			-2.958
164104.000			-23.662			-2.958
164204.000			-23.661			-2.958
164305.000			-23.662			-2.958
164404.000			-23.661			-2.958
164504.000			-23.661			-2.958
164605.000			-23.661			-2.958
164703.000			-23.661			-2.958
164804.000			-23.661			-2.958
164905.000			-23.659			-2.957
165004.000			-23.660			-2.957
165104.000			-23.659			-2.957
165205.000			-23.658			-2.957
165304.000			-23.658			-2.957
165404.000			-23.657			-2.957
165505.000			-23.657			-2.957
165603.000			-23.657			-2.957
165704.000			-23.657			-2.957
165805.000			-23.657			-2.957
165904.000			-23.656			-2.957
166004.000			-23.656			-2.957
166105.000			-23.656			-2.957
166204.000			-23.655			-2.957
166304.000			-23.654			-2.957
166405.000			-23.654			-2.957
166503.000			-23.655			-2.957
166604.000			-23.654			-2.957
166703.000			-23.652			-2.957
166804.000			-23.652			-2.956
166905.000			-23.653			-2.957
167004.000			-23.653			-2.957
167104.000			-23.653			-2.957
167205.000			-23.652			-2.956
167304.000			-23.651			-2.956
167403.000			-23.652			-2.956
167505.000			-23.651			-2.956
167603.000			-23.650			-2.956
167704.000			-23.650			-2.956
167805.000			-23.650			-2.956
167904.000			-23.650			-2.956
168004.000			-23.649			-2.956
168105.000			-23.648			-2.956
168204.000			-23.649			-2.956
168304.000			-23.649			-2.956
168405.000			-23.649			-2.956
168503.000			-23.648			-2.956
168604.000			-23.646			-2.956
168705.000			-23.647			-2.956
168804.000			-23.647			-2.956
168904.000			-23.647			-2.956
169005.000			-23.646			-2.956
169104.000			-23.646			-2.956
169204.000			-23.646			-2.956
169305.000			-23.645			-2.956
169403.000			-23.645			-2.956
169504.000			-23.644			-2.956
169605.000			-23.643			-2.955
169704.000			-23.643			-2.955
169804.000			-23.643			-2.955
169904.000			-23.643			-2.955
170004.000			-23.642			-2.955
170105.000			-23.642			-2.955
170204.000			-23.642			-2.955
170303.000			-23.642			-2.955
170405.000			-23.642			-2.955
170504.000			-23.642			-2.955
170604.000			-23.642			-2.955
170705.000			-23.640			-2.955
170804.000			-23.640			-2.955
170904.000			-23.639			-2.955
171005.000			-23.639			-2.955
171104.000			-23.639			-2.955
171203.000			-23.639			-2.955
171305.000			-23.639			-2.955
171404.000			-23.640			-2.955
171504.000			-23.638			-2.955
171605.000			-23.637			-2.955
171704.000			-23.637			-2.955
171804.000			-23.637			-2.955
171905.000			-23.637			-2.955
172004.000			-23.637			-2.955
172103.000			-23.637			-2.955
172205.000			-23.636			-2.955
172304.000			-23.635			-2.954
172404.000			-23.635			-2.954
172505.000			-23.634			-2.954
172604.000			-23.633			-2.954
172704.000			-23.633			-2.954
172805.000			-23.634			-2.954
172904.000			-23.632			-2.954
173003.000			-23.632			-2.954
173105.000			-23.633			-2.954
173204.000			-23.633			-2.954
173305.000			-23.633			-2.954
173404.000			-23.632			-2.954
173504.000			-23.632			-2.954
173605.000			-23.630			-2.954
173704.000			-23.630			-2.954
173804.000			-23.630			-2.954
173904.000			-23.631			-2.954
174004.000			-23.630			-2.954
174104.000			-23.630			-2.954
174205.000			-23.630			-2.954
174304.000			-23.630			-2.954
174404.000			-23.629			-2.954
174505.000			-23.629			-2.954
174604.000			-23.629			-2.954
174704.000			-23.629			-2.954
174804.000			-23.628			-2.954
174904.000			-23.628			-2.953
175004.000			-23.627			-2.953
175105.000			-23.626			-2.953
175204.000			-23.625			-2.953
175304.000			-23.626			-2.953
175405.000			-23.627			-2.953
175504.000			-23.626			-2.953
175604.000			-23.626			-2.953
175704.000			-23.626			-2.953
175804.000			-23.626			-2.953
175904.000			-23.625			-2.953
176005.000			-23.625			-2.953
176104.000			-23.623			-2.953
176204.000			-23.623			-2.953
176305.000			-23.623			-2.953
176404.000			-23.623			-2.953
176505.000			-23.621			-2.953
176603.000			-23.622			-2.953
176704.000			-23.622			-2.953
176805.000			-23.622			-2.953
176904.000			-23.621			-2.953
177004.000			-23.619			-2.952
177105.000			-23.620			-2.952
177204.000			-23.620			-2.952
177304.000			-23.620			-2.952
177405.000			-23.620			-2.952
177503.000			-23.619			-2.952
177604.000			-23.619			-2.952
177705.000			-23.618			-2.952
177804.000			-23.618			-2.952
177904.000			-23.618			-2.952
178005.000			-23.619			-2.952
178104.000			-23.617			-2.952
178204.000			-23.616			-2.952
178305.000			-23.617			-2.952
178403.000			-23.617			-2.952
178504.000			-23.617			-2.952
178604.000			-23.617			-2.952
178704.000			-23.616			-2.952
178804.000			-23.615			-2.952
178905.000			-23.615			-2.952
179004.000			-23.615			-2.952
179104.000			-23.614			-2.952
179205.000			-23.614			-2.952
179303.000			-23.614			-2.952
179404.000			-23.614			-2.952
179503.000			-23.612			-2.951
179604.000			-23.612			-2.951
179705.000			-23.612			-2.951
179804.000			-23.612			-2.951
179904.000			-23.612			-2.952
180005.000			-23.612			-2.951
180104.000			-23.610			-2.951
180203.000			-23.610			-2.951
180305.000			-23.610			-2.951
180403.000			-23.610			-2.951
180504.000			-23.610			-2.951
180605.000			-23.608			-2.951
180704.000			-23.607			-2.951
180804.000			-23.609			-2.951
180905.000			-23.609			-2.951
181004.000			-23.608			-2.951
181103.000			-23.608			-2.951
181205.000			-23.607			-2.951
181303.000			-23.608			-2.951
181404.000			-23.606			-2.951
181505.000			-23.607			-2.951
181604.000			-23.607			-2.951
181704.000			-23.606			-2.951
181805.000			-23.606			-2.951
181904.000			-23.606			-2.951
182003.000			-23.606			-2.951
182105.000			-23.605			-2.951
182204.000			-23.605			-2.951
182304.000			-23.605			-2.951
182405.000			-23.605			-2.951
182504.000			-23.603			-2.950
182604.000			-23.604			-2.950
182704.000			-23.603			-2.950
182804.000			-23.603			-2.950
182903.000			-23.602			-2.950
183004.000			-23.603			-2.950
183104.000			-23.602			-2.950
183205.000			-23.601			-2.950
183304.000			-23.602			-2.950
183404.000			-23.601			-2.950
183505.000			-23.602			-2.950
183604.000			-23.601			-2.950
183704.000			-23.601			-2.950
183804.000			-23.600			-2.950
183904.000			-23.599			-2.950
184004.000			-23.599			-2.950
184105.000			-23.598			-2.950
184204.000			-23.598			-2.950
184304.000			-23.598			-2.950
184405.000			-23.598			-2.950
184504.000			-23.597			-2.950
184604.000			-23.598			-2.950
184704.000			-23.597			-2.950
184804.000			-23.597			-2.950
184903.000			-23.597			-2.950
185005.000			-23.596			-2.950
185104.000			-23.596			-2.949
185204.000			-23.596			-2.949
185305.000			-23.595			-2.949
185404.000			-23.594			-2.949
185504.000			-23.593			-2.949
185604.000			-23.594			-2.949
185704.000			-23.594			-2.949
185803.000			-23.594			-2.949
185905.000			-23.592			-2.949
186004.000			-23.592			-2.949
186105.000			-23.592			-2.949
186204.000			-23.592			-2.949
186304.000			-23.592			-2.949
186405.000			-23.593			-2.949
186504.000			-23.592			-2.949
186604.000			-23.592			-2.949
186704.000			-23.591			-2.949
186804.000			-23.592			-2.949
186904.000			-23.591			-2.949
187005.000			-23.590			-2.949
187104.000			-23.589			-2.949
187204.000			-23.589			-2.949
187305.000			-23.589			-2.949
187404.000			-23.589			-2.949
187504.000			-23.588			-2.948
187604.000			-23.588			-2.949
187704.000			-23.588			-2.949
187803.000			-23.587			-2.948
187905.000			-23.587			-2.948
188004.000			-23.587			-2.948
188104.000			-23.587			-2.948
188205.000			-23.588			-2.948
188304.000			-23.587			-2.948
188404.000			-23.586			-2.948
188505.000			-23.586			-2.948
188604.000			-23.585			-2.948
188703.000			-23.585			-2.948
188805.000			-23.585			-2.948
188904.000			-23.583			-2.948
189004.000			-23.584			-2.948
189105.000			-23.585			-2.948
189204.000			-23.584			-2.948
189305.000			-23.584			-2.948
189404.000			-23.583			-2.948
189504.000			-23.582			-2.948
189604.000			-23.582			-2.948
189704.000			-23.581			-2.948
189803.000			-23.581			-2.948
189905.000			-23.582			-2.948
190004.000			-23.581			-2.948
190104.000			-23.580			-2.948
190205.000			-23.579			-2.947
190304.000			-23.580			-2.947
190404.000			-23.579			-2.947
190505.000			-23.579			-2.947
190604.000			-23.580			-2.947
190703.000			-23.579			-2.947
190805.000			-23.579			-2.947
190904.000			-23.579			-2.947
191004.000			-23.578			-2.947
191105.000			-23.577			-2.947
191204.000			-23.577			-2.947
191304.000			-23.577			-2.947
191405.000			-23.577			-2.947
191504.000			-23.577			-2.947
191603.000			-23.577			-2.947
191705.000			-23.577			-2.947
191804.000			-23.576			-2.947
191904.000			-23.576			-2.947
192005.000			-23.575			-2.947
192104.000			-23.575			-2.947
192204.000			-23.575			-2.947
192304.000			-23.575			-2.947
192404.000			-23.574			-2.947
192503.000			-23.574			-2.947
192604.000			-23.574			-2.947
192704.000			-23.573			-2.947
192805.000			-23.572			-2.947
192904.000			-23.572			-2.946
193004.000			-23.572			-2.946
193105.000			-23.572			-2.946
193204.000			-23.571			-2.946
193304.000			-23.572			-2.946
193404.000			-23.572			-2.946
193504.000			-23.571			-2.946
193603.000			-23.571			-2.946
193705.000			-23.570			-2.946
193804.000			-23.570			-2.946
193904.000			-23.570			-2.946
194005.000			-23.570			-2.946
194104.000			-23.568			-2.946
194204.000			-23.567			-2.946
194304.000			-23.567			-2.946
194404.000			-23.567			-2.946
194503.000			-23.567			-2.946
194605.000			-23.567			-2.946
194704.000			-23.566			-2.946
194804.000			-23.568			-2.946
194905.000			-23.567			-2.946
195004.000			-23.565			-2.946
195104.000			-23.565			-2.946
195205.000			-23.565			-2.946
195304.000			-23.566			-2.946
195403.000			-23.565			-2.946
195505.000			-23.564			-2.946
195604.000			-23.565			-2.946
195705.000			-23.566			-2.946
195804.000			-23.564			-2.946
195904.000			-23.563			-2.945
196005.000			-23.563			-2.945
196104.000			-23.564			-2.946
196204.000			-23.564			-2.945
196304.000			-23.563			-2.945
196404.000			-23.563			-2.945
196503.000			-23.562			-2.945
196605.000			-23.563			-2.945
196704.000			-23.561			-2.945
196804.000			-23.561			-2.945
196905.000			-23.560			-2.945
197004.000			-23.560			-2.945
197104.000			-23.560			-2.945
197204.000			-23.560			-2.945
197304.000			-23.560			-2.945
197403.000			-23.559			-2.945
197505.000			-23.558			-2.945
197604.000			-23.558			-2.945
197704.000			-23.559			-2.945
197805.000			-23.558			-2.945
197904.000			-23.558			-2.945
198004.000			-23.559			-2.945
198105.000			-23.557			-2.945
198204.000			-23.557			-2.945
198303.000			-23.557			-2.945
198405.000			-23.555			-2.944
198504.000			-23.555			-2.944
198604.000			-23.555			-2.944
198705.000			-23.554			-2.944
198804.000			-23.555			-2.944
198905.000			-23.553			-2.944
199004.000			-23.555			-2.944
199104.000			-23.555			-2.944
199204.000			-23.554			-2.944
199304.000			-23.553			-2.944
199403.000			-23.553			-2.944
199505.000			-23.553			-2.944
199604.000			-23.553			-2.944
199704.000			-23.553			-2.944
199805.000			-23.553			-2.944
199904.000			-23.552			-2.944
200004.000			-23.551			-2.944
200104.000			-23.551			-2.944
200204.000			-23.551			-2.944
200303.000			-23.550			-2.944
200405.000			-23.551			-2.944
200504.000			-23.551			-2.944
200604.000			-23.551			-2.944
200705.000			-23.550			-2.944
200804.000			-23.549			-2.944
200904.000			-23.550			-2.944
201004.000			-23.549			-2.944
201104.000			-23.549			-2.944
201204.000			-23.549			-2.944
201305.000			-23.548			-2.943
201404.000			-23.548			-2.943
201504.000			-23.547			-2.943
201605.000			-23.547			-2.943
201704.000			-23.547			-2.943
201804.000			-23.546			-2.943
201903.000			-23.547			-2.943
202004.000			-23.547			-2.943
202105.000			-23.546			-2.943
202204.000			-23.546			-2.943
202304.000			-23.545			-2.943
202405.000			-23.544			-2.943
202504.000			-23.545			-2.943
202604.000			-23.544			-2.943
202705.000			-23.544			-2.943
202803.000			-23.545			-2.943
202904.000			-23.545			-2.943
203005.000			-23.544			-2.943
203104.000			-23.543			-2.943
203204.000			-23.543			-2.943
203305.000			-23.542			-2.943
203404.000			-23.542			-2.943
203503.000			-23.541			-2.943
203605.000			-23.541			-2.943
203703.000			-23.541			-2.943
203804.000			-23.540			-2.943
203905.000			-23.540			-2.943
204004.000			-23.540			-2.943
204104.000			-23.540			-2.942
204205.000			-23.539			-2.942
204304.000			-23.539			-2.942
204403.000			-23.539			-2.942
204505.000			-23.539			-2.942
204604.000			-23.539			-2.942
204704.000			-23.538			-2.942
204805.000			-23.538			-2.942
204904.000			-23.538			-2.942
205004.000			-23.538			-2.942
205104.000			-23.537			-2.942
205204.000			-23.537			-2.942
205303.000			-23.536			-2.942
205404.000			-23.536			-2.942
205504.000			-23.536			-2.942
205605.000			-23.535			-2.942
205704.000			-23.535			-2.942
205804.000			-23.535			-2.942
205905.000			-23.534			-2.942
206004.000			-23.534			-2.942
206104.000			-23.534			-2.942
206204.000			-23.534			-2.942
206304.000			-23.534			-2.942
206404.000			-23.534			-2.942
206505.000			-23.534			-2.942
206604.000			-23.533			-2.942
206704.000			-23.532			-2.941
206805.000			-23.533			-2.942
206903.000			-23.533			-2.942
207004.000			-23.531			-2.941
207105.000			-23.530			-2.941
207204.000			-23.531			-2.941
207304.000			-23.531			-2.941
207405.000			-23.532			-2.941
207504.000			-23.530			-2.941
207604.000			-23.530			-2.941
207705.000			-23.528			-2.941
207803.000			-23.528			-2.941
207904.000			-23.529			-2.941
208005.000			-23.529			-2.941
208104.000			-23.528			-2.941
208204.000			-23.528			-2.941
208304.000			-23.528			-2.941
208404.000			-23.528			-2.941
208505.000			-23.527			-2.941
208604.000			-23.527			-2.941
208703.000			-23.528			-2.941
208805.000			-23.527			-2.941
208904.000			-23.526			-2.941
209004.000			-23.526			-2.941
209105.000			-23.524			-2.941
209204.000			-23.525			-2.941
209304.000			-23.525			-2.941
209405.000			-23.525			-2.941
209504.000			-23.525			-2.941
209603.000			-23.524			-2.941
209705.000			-23.524			-2.941
209804.000			-23.524			-2.940
209904.000			-23.523			-2.940
210005.000			-23.522			-2.940
210104.000			-23.523			-2.940
210204.000			-23.524			-2.940
210304.000			-23.524			-2.940
210404.000			-23.523			-2.940
210503.000			-23.523			-2.940
210605.000			-23.523			-2.940
210704.000			-23.522			-2.940
210804.000			-23.521			-2.940
210905.000			-23.521			-2.940
211004.000			-23.522			-2.940
211104.000			-23.520			-2.940
211204.000			-23.521			-2.940
211304.000			-23.521			-2.940
211404.000			-23.520			-2.940
211504.000			-23.520			-2.940
211604.000			-23.520			-2.940
211705.000			-23.519			-2.940
211804.000			-23.518			-2.940
211903.000			-23.518			-2.940
212005.000			-23.518			-2.940
212103.000			-23.518			-2.940
212204.000			-23.518			-2.940
212305.000			-23.518			-2.940
212404.000			-23.518			-2.940
212504.000			-23.517			-2.940
212605.000			-23.517			-2.940
212704.000			-23.516			-2.939
212803.000			-23.515			-2.939
212905.000			-23.516			-2.939
213004.000			-23.516			-2.939
213104.000			-23.514			-2.939
213205.000			-23.513			-2.939
213304.000			-23.515			-2.939
213404.000			-23.515			-2.939
213505.000			-23.515			-2.939
213604.000			-23.513			-2.939
213703.000			-23.514			-2.939
213805.000			-23.514			-2.939
213904.000			-23.513			-2.939
214004.000			-23.512			-2.939
214105.000			-23.512			-2.939
214204.000			-23.511			-2.939
214304.000			-23.511			-2.939
214404.000			-23.510			-2.939
214504.000			-23.511			-2.939
214603.000			-23.510			-2.939
214705.000			-23.510			-2.939
214804.000			-23.511			-2.939
214905.000			-23.511			-2.939
215004.000			-23.509			-2.939
215104.000			-23.509			-2.939
215205.000			-23.510			-2.939
215303.000			-23.509			-2.939
215404.000			-23.509			-2.939
215505.000			-23.507			-2.938
215604.000			-23.508			-2.939
215704.000			-23.508			-2.939
215805.000			-23.508			-2.939
215904.000			-23.509			-2.939
216004.000			-23.508			-2.938
216105.000			-23.507			-2.938
216203.000			-23.506			-2.938
216304.000			-23.507			-2.938
216405.000			-23.507			-2.938
216504.000			-23.506			-2.938
216604.000			-23.505			-2.938
216705.000			-23.505			-2.938
216804.000			-23.505			-2.938
216903.000			-23.504			-2.938
217005.000			-23.505			-2.938
217103.000			-23.505			-2.938
217204.000			-23.505			-2.938
217305.000			-23.504			-2.938
217404.000			-23.504			-2.938
217504.000			-23.504			-2.938
217605.000			-23.502			-2.938
217704.000			-23.502			-2.938
217803.000			-23.502			-2.938
217905.000			-23.502			-2.938
218004.000			-23.502			-2.938
218105.000			-23.501			-2.938
218204.000			-23.501			-2.938
218304.000			-23.500			-2.938
218405.000			-23.502			-2.938
218504.000			-23.501			-2.938
218604.000			-23.500			-2.938
218704.000			-23.500			-2.937
218804.000			-23.501			-2.938
218904.000			-23.499			-2.937
219005.000			-23.499			-2.937
219104.000			-23.499			-2.937
219204.000			-23.497			-2.937
219305.000			-23.498			-2.937
219404.000			-23.498			-2.937
219504.000			-23.497			-2.937
219604.000			-23.496			-2.937
219704.000			-23.496			-2.937
219804.000			-23.497			-2.937
219905.000			-23.497			-2.937
220004.000			-23.496			-2.937
220104.000			-23.497			-2.937
220205.000			-23.496			-2.937
220304.000			-23.496			-2.937
220404.000			-23.495			-2.937
220504.000			-23.495			-2.937
220604.000			-23.494			-2.937
220703.000			-23.494			-2.937
220805.000			-23.494			-2.937
220904.000			-23.494			-2.937
221004.000			-23.494			-2.937
221105.000			-23.495			-2.937
221204.000			-23.493			-2.937
221305.000			-23.492			-2.936
221404.000			-23.493			-2.937
221504.000			-23.492			-2.936
221604.000			-23.491			-2.936
221704.000			-23.491			-2.936
221804.000			-23.491			-2.936
221905.000			-23.491			-2.936
222004.000			-23.492			-2.936
222104.000			-23.492			-2.937
222205.000			-23.492			-2.936
222304.000			-23.491			-2.936
222404.000			-23.490			-2.936
222504.000			-23.490			-2.936
222604.000			-23.490			-2.936
222704.000			-23.488			-2.936
222805.000			-23.489			-2.936
222904.000			-23.489			-2.936
223004.000			-23.488			-2.936
223105.000			-23.487			-2.936
223204.000			-23.488			-2.936
223304.000			-23.488			-2.936
223404.000			-23.488			-2.936
223504.000			-23.487			-2.936
223604.000			-23.486			-2.936
223705.000			-23.486			-2.936
223804.000			-23.485			-2.936
223904.000			-23.486			-2.936
224005.000			-23.486			-2.936
224104.000			-23.485			-2.936
224204.000			-23.485			-2.936
224303.000			-23.486			-2.936
224404.000			-23.485			-2.936
224505.000			-23.485			-2.936
224604.000			-23.485			-2.936
224704.000			-23.485			-2.936
224805.000			-23.485			-2.936
224904.000			-23.483			-2.935
225004.000			-23.483			-2.935
225105.000			-23.482			-2.935
225203.000			-23.482			-2.935
225304.000			-23.483			-2.935
225405.000			-23.483			-2.935
225504.000			-23.482			-2.935
225604.000			-23.482			-2.935
225705.000			-23.482			-2.935
225804.000			-23.482			-2.935
225904.000			-23.481			-2.935
226005.000			-23.481			-2.935
226103.000			-23.480			-2.935
226204.000			-23.480			-2.935
226305.000			-23.480			-2.935
226404.000			-23.480			-2.935
226504.000			-23.481			-2.935
226605.000			-23.480			-2.935
226704.000			-23.479			-2.935
226804.000			-23.479			-2.935
226905.000			-23.479			-2.935
227003.000			-23.478			-2.935
227104.000			-23.479			-2.935
227205.000			-23.478			-2.935
227304.000			-23.477			-2.935
227404.000			-23.477			-2.935
227504.000			-23.478			-2.935
227604.000			-23.477			-2.935
227705.000			-23.476			-2.935
227804.000			-23.476			-2.935
227903.000			-23.476			-2.934
228005.000			-23.476			-2.934
228104.000			-23.476			-2.935
228204.000			-23.475			-2.934
228305.000			-23.475			-2.934
228404.000			-23.475			-2.934
228504.000			-23.475			-2.934
228605.000			-23.473			-2.934
228704.000			-23.474			-2.934
228803.000			-23.474			-2.934
228905.000			-23.473			-2.934
229003.000			-23.473			-2.934
229104.000			-23.473			-2.934
229205.000			-23.473			-2.934
229304.000			-23.472			-2.934
229404.000			-23.472			-2.934
229505.000			-23.472			-2.934
229604.000			-23.472			-2.934
229703.000			-23.472			-2.934
229805.000			-23.471			-2.934
229903.000			-23.472			-2.934
230004.000			-23.471			-2.934
230105.000			-23.471			-2.934
230204.000			-23.471			-2.934
230304.000			-23.471			-2.934
230405.000			-23.470			-2.934
230504.000			-23.470			-2.934
230603.000			-23.468			-2.934
230705.000			-23.469			-2.934
230804.000			-23.469			-2.934
230905.000			-23.468			-2.934
231004.000			-23.467			-2.933
231104.000			-23.467			-2.933
231205.000			-23.468			-2.934
231304.000			-23.468			-2.934
231404.000			-23.468			-2.933
231504.000			-23.468			-2.933
231604.000			-23.467			-2.933
231704.000			-23.466			-2.933
231805.000			-23.467			-2.933
231904.000			-23.467			-2.933
232004.000			-23.467			-2.933
232105.000			-23.466			-2.933
232204.000			-23.465			-2.933
232304.000			-23.465			-2.933
232404.000			-23.465			-2.933
232504.000			-23.465			-2.933
232604.000			-23.465			-2.933
232705.000			-23.464			-2.933
232804.000			-23.465			-2.933
232904.000			-23.464			-2.933
233005.000			-23.463			-2.933
233104.000			-23.463			-2.933
233204.000			-23.463			-2.933
233304.000			-23.463			-2.933
233404.000			-23.463			-2.933
233504.000			-23.463			-2.933
233605.000			-23.463			-2.933
233704.000			-23.463			-2.933
233804.000			-23.462			-2.933
233905.000			-23.462			-2.933
234004.000			-23.462			-2.933
234105.000			-23.461			-2.933
234203.000			-23.460			-2.933
234304.000			-23.461			-2.933
234405.000			-23.460			-2.933
234504.000			-23.460			-2.933
234604.000			-23.460			-2.933
234705.000			-23.460			-2.933
234804.000			-23.459			-2.932
234903.000			-23.458			-2.932
235005.000			-23.459			-2.932
235103.000			-23.460			-2.932
235204.000			-23.458			-2.932
235305.000			-23.457			-2.932
235404.000			-23.458			-2.932
235504.000			-23.457			-2.932
235605.000			-23.457			-2.932
235704.000			-23.457			-2.932
235803.000			-23.456			-2.932
235905.000			-23.457			-2.932
236003.000			-23.458			-2.932
236104.000			-23.457			-2.932
236205.000			-23.456			-2.932
236304.000			-23.456			-2.932
236404.000			-23.456			-2.932
236505.000			-23.456			-2.932
236604.000			-23.455			-2.932
236703.000			-23.454			-2.932
236805.000			-23.453			-2.932
236903.000			-23.454			-2.932
237004.000			-23.454			-2.932
237105.000			-23.453			-2.932
237204.000			-23.454			-2.932
237305.000			-23.453			-2.932
237404.000			-23.452			-2.932
237504.000			-23.453			-2.932
237604.000			-23.453			-2.932
237704.000			-23.452			-2.931
237803.000			-23.452			-2.932
237905.000			-23.453			-2.932
238004.000			-23.451			-2.931
238104.000			-23.450			-2.931
238205.000			-23.451			-2.931
238304.000			-23.451			-2.931
238404.000			-23.451			-2.931
238504.000			-23.450			-2.931
238604.000			-23.450			-2.931
238703.000			-23.450			-2.931
238805.000			-23.450			-2.931
238904.000			-23.449			-2.931
239004.000			-23.449			-2.931
239105.000			-23.448			-2.931
239204.000			-23.448			-2.931
239304.000			-23.447			-2.931
239404.000			-23.447			-2.931
239504.000			-23.448			-2.931
239603.000			-23.448			-2.931
239705.000			-23.447			-2.931
239804.000			-23.446			-2.931
239904.000			-23.446			-2.931
240005.000			-23.446			-2.931
240104.000			-23.446			-2.931
240204.000			-23.446			-2.931
240304.000			-23.446			-2.931
240404.000			-23.446			-2.931
240503.000			-23.446			-2.931
240604.000			-23.445			-2.931
240704.000			-23.446			-2.931
240805.000			-23.444			-2.931
240904.000			-23.444			-2.931
241004.000			-23.444			-2.930
241105.000			-23.444			-2.931
241203.000			-23.443			-2.930
241304.000			-23.444			-2.931
241405.000			-23.443			-2.930
241504.000			-23.443			-2.930
241604.000			-23.441			-2.930
241705.000			-23.442			-2.930
241804.000			-23.442			-2.930
241904.000			-23.441			-2.930
242005.000			-23.442			-2.930
242103.000			-23.442			-2.930
242204.000			-23.441			-2.930
242305.000			-23.442			-2.930
242404.000			-23.441			-2.930
242504.000			-23.441			-2.930
242605.000			-23.441			-2.930
242704.000			-23.441			-2.930
242804.000			-23.440			-2.930
242905.000			-23.441			-2.930
243003.000			-23.440			-2.930
243104.000			-23.439			-2.930
243205.000			-23.438			-2.930
243304.000			-23.439			-2.930
243404.000			-23.439			-2.930
243504.000			-23.438			-2.930
243604.000			-23.437			-2.930
243703.000			-23.439			-2.930
243804.000			-23.438			-2.930
243903.000			-23.437			-2.930
244005.000			-23.437			-2.930
244104.000			-23.437			-2.930
244204.000			-23.437			-2.930
244305.000			-23.437			-2.930
244404.000			-23.436			-2.929
244504.000			-23.436			-2.930
244604.000			-23.436			-2.929
244704.000			-23.436			-2.929
244803.000			-23.436			-2.929
244905.000			-23.435			-2.929
245004.000			-23.435			-2.929
245104.000			-23.434			-2.929
245205.000			-23.434			-2.929
245304.000			-23.433			-2.929
245404.000			-23.433			-2.929
245504.000			-23.433			-2.929
245604.000			-23.433			-2.929
245703.000			-23.433			-2.929
245805.000			-23.433			-2.929
245904.000			-23.434			-2.929
246004.000			-23.434			-2.929
246105.000			-23.433			-2.929
246204.000			-23.432			-2.929
246304.000			-23.431			-2.929
246404.000			-23.431			-2.929
246504.000			-23.431			-2.929
246604.000			-23.431			-2.929
246704.000			-23.431			-2.929
246804.000			-23.431			-2.929
246905.000			-23.430			-2.929
247004.000			-23.429			-2.929
247104.000			-23.430			-2.929
247205.000			-23.430			-2.929
247303.000			-23.429			-2.929
247404.000			-23.429			-2.929
247505.000			-23.430			-2.929
247604.000			-23.430			-2.929
247704.000			-23.430			-2.929
247805.000			-23.429			-2.929
247904.000			-23.429			-2.929
248004.000			-23.428			-2.929
248105.000			-23.427			-2.928
248203.000			-23.426			-2.928
248304.000			-23.427			-2.928
248405.000			-23.426			-2.928
248504.000			-23.427			-2.928
248604.000			-23.428			-2.928
248705.000			-23.426			-2.928
248804.000			-23.426			-2.928
248904.000			-23.425			-2.928
249005.000			-23.425			-2.928
249103.000			-23.425			-2.928
249204.000			-23.424			-2.928
249305.000			-23.425			-2.928
249404.000			-23.425			-2.928
249504.000			-23.425			-2.928
249605.000			-23.426			-2.928
249704.000			-23.424			-2.928
249804.000			-23.423			-2.928
249905.000			-23.423			-2.928
250003.000			-23.423			-2.928
250105.000			-23.423			-2.928
250204.000			-23.423			-2.928
250304.000			-23.423			-2.928
250405.000			-23.423			-2.928
250504.000			-23.422			-2.928
250604.000			-23.423			-2.928
250704.000			-23.423			-2.928
250804.000			-23.422			-2.928
250903.000			-23.421			-2.928
251005.000			-23.421			-2.928
251104.000			-23.421			-2.928
251204.000			-23.420			-2.928
251305.000			-23.420			-2.927
251404.000			-23.420			-2.927
251504.000			-23.420			-2.927
251604.000			-23.418			-2.927
251704.000			-23.418			-2.927
251804.000			-23.419			-2.927
251905.000			-23.419			-2.927
252004.000			-23.419			-2.927
252104.000			-23.419			-2.927
252205.000			-23.418			-2.927
252304.000			-23.418			-2.927
252404.000			-23.418			-2.927
252504.000			-23.417			-2.927
252604.000			-23.418			-2.927
252704.000			-23.417			-2.927
252805.000			-23.417			-2.927
252904.000			-23.416			-2.927
253004.000			-23.416			-2.927
253105.000			-23.416			-2.927
253204.000			-23.415			-2.927
253305.000			-23.415			-2.927
253403.000			-23.415			-2.927
253504.000			-23.415			-2.927
253605.000			-23.415			-2.927
253704.000			-23.414			-2.927
253804.000			-23.414			-2.927
253905.000			-23.414			-2.927
254004.000			-23.415			-2.927
254104.000			-23.415			-2.927
254205.000			-23.414			-2.927
254303.000			-23.413			-2.927
254404.000			-23.412			-2.927
254505.000			-23.413			-2.927
254604.000			-23.412			-2.926
254704.000			-23.412			-2.926
254805.000			-23.412			-2.927
254904.000			-23.413			-2.927
255003.000			-23.412			-2.926
255105.000			-23.411			-2.926
255203.000			-23.411			-2.926
255304.000			-23.410			-2.926
255405.000			-23.410			-2.926
255504.000			-23.410			-2.926
255604.000			-23.410			-2.926
255705.000			-23.410			-2.926
255804.000			-23.411			-2.926
255903.000			-23.411			-2.926
256005.000			-23.410			-2.926
256104.000			-23.409			-2.926
256204.000			-23.408			-2.926
256305.000			-23.408			-2.926
256404.000			-23.409			-2.926
256505.000			-23.408			-2.926
256604.000			-23.408			-2.926
256704.000			-23.407			-2.926
256804.000			-23.407			-2.926
256904.000			-23.407			-2.926
257004.000			-23.407			-2.926
257105.000			-23.406			-2.926
257204.000			-23.406			-2.926
257304.000			-23.406			-2.926
257405.000			-23.406			-2.926
257504.000			-23.405			-2.926
257604.000			-23.406			-2.926
257704.000			-23.407			-2.926
257804.000			-23.405			-2.926
257904.000			-23.404			-2.925
258005.000			-23.404			-2.926
258104.000			-23.405			-2.926
258204.000			-23.404			-2.925
258305.000			-23.403			-2.925
258404.000			-23.404			-2.925
258504.000			-23.403			-2.925
258604.000			-23.403			-2.925
258704.000			-23.403			-2.925
258804.000			-23.403			-2.925
258905.000			-23.403			-2.925
259004.000			-23.402			-2.925
259104.000			-23.403			-2.925
259205.000			-23.402			-2.925
259304.000			-23.402			-2.925
259404.000			-23.402			-2.925
259503.000			-23.401			-2.925
259604.000			-23.399			-2.925
259705.000			-23.400			-2.925
259804.000			-23.400			-2.925
259904.000			-23.400			-2.925
260005.000			-23.400			-2.925
260104.000			-23.400			-2.925
260203.000			-23.400			-2.925
260305.000			-23.400			-2.925
260403.000			-23.398			-2.925
260504.000			-23.399			-2.925
260605.000			-23.399			-2.925
260704.000			-23.399			-2.925
260804.000			-23.399			-2.925
260905.000			-23.398			-2.925
261004.000			-23.397			-2.925
261103.000			-23.397			-2.925
261205.000			-23.397			-2.925
261303.000			-23.397			-2.925
261404.000			-23.397			-2.925
261505.000			-23.397			-2.925
261604.000			-23.396			-2.925
261704.000			-23.395			-2.924
261805.000			-23.396			-2.924
261904.000			-23.396			-2.925
262003.000			-23.396			-2.925
262105.000			-23.397			-2.925
262203.000			-23.396			-2.925
262304.000			-23.395			-2.924
262405.000			-23.395			-2.924
262504.000			-23.393			-2.924
262604.000			-23.394			-2.924
262704.000			-23.394			-2.924
262804.000			-23.394			-2.924
262903.000			-23.393			-2.924
263004.000			-23.392			-2.924
263103.000			-23.393			-2.924
263205.000			-23.394			-2.924
263304.000			-23.394			-2.924
263404.000			-23.393			-2.924
263505.000			-23.393			-2.924
263604.000			-23.393			-2.924
263704.000			-23.393			-2.924
263804.000			-23.393			-2.924
263904.000			-23.392			-2.924
264003.000			-23.392			-2.924
264105.000			-23.391			-2.924
264204.000			-23.392			-2.924
264304.000			-23.391			-2.924
264405.000			-23.391			-2.924
264504.000			-23.390			-2.924
264604.000			-23.390			-2.924
264704.000			-23.389			-2.924
264804.000			-23.391			-2.924
264904.000			-23.390			-2.924
265005.000			-23.389			-2.924
265104.000			-23.390			-2.924
265204.000			-23.391			-2.924
265305.000			-23.389			-2.924
265404.000			-23.388			-2.923
265504.000			-23.388			-2.923
265604.000			-23.388			-2.924
265704.000			-23.387			-2.923
265804.000			-23.387			-2.923
265904.000			-23.386			-2.923
266004.000			-23.387			-2.923
266105.000			-23.387			-2.923
266204.000			-23.386			-2.923
266304.000			-23.386			-2.923
266405.000			-23.386			-2.923
266503.000			-23.386			-2.923
266604.000			-23.385			-2.923
266704.000			-23.385			-2.923
266804.000			-23.384			-2.923
266904.000			-23.384			-2.923
267005.000			-23.384			-2.923
267104.000			-23.384			-2.923
267204.000			-23.383			-2.923
267305.000			-23.384			-2.923
267403.000			-23.383			-2.923
267504.000			-23.384			-2.923
267604.000			-23.384			-2.923
267704.000			-23.384			-2.923
267804.000			-23.383			-2.923
267905.000			-23.383			-2.923
268004.000			-23.383			-2.923
268104.000			-23.384			-2.923
268205.000			-23.383			-2.923
268304.000			-23.382			-2.923
268404.000			-23.381			-2.923
268504.000			-23.382			-2.923
268604.000			-23.381			-2.923
268704.000			-23.381			-2.923
268805.000			-23.381			-2.923
268904.000			-23.380			-2.923
269004.000			-23.381			-2.923
269105.000			-23.380			-2.922
269204.000			-23.380			-2.922
269305.000			-23.380			-2.923
269403.000			-23.380			-2.922
269504.000			-23.379			-2.922
269605.000			-23.379			-2.922
269704.000			-23.379			-2.922
269804.000			-23.379			-2.922
269905.000			-23.379			-2.922
270004.000			-23.379			-2.922
270104.000			-23.379			-2.922
270205.000			-23.378			-2.922
270303.000			-23.378			-2.922
270404.000			-23.378			-2.922
270504.000			-23.377			-2.922
270604.000			-23.377			-2.922
270704.000			-23.378			-2.922
270805.000			-23.376			-2.922
270904.000			-23.376			-2.922
271004.000			-23.377			-2.922
271105.000			-23.376			-2.922
271203.000			-23.375			-2.922
271304.000			-23.376			-2.922
271404.000			-23.377			-2.922
271504.000			-23.375			-2.922
271604.000			-23.374			-2.922
271705.000			-23.375			-2.922
271804.000			-23.374			-2.922
271904.000			-23.375			-2.922
272005.000			-23.374			-2.922
272103.000			-23.374			-2.922
272204.000			-23.375			-2.922
272303.000			-23.375			-2.922
272404.000			-23.374			-2.922
272505.000			-23.373			-2.922
272604.000			-23.374			-2.922
272704.000			-23.373			-2.922
272805.000			-23.373			-2.922
272904.000			-23.373			-2.922
273003.000			-23.372			-2.922
273105.000			-23.373			-2.922
273204.000			-23.372			-2.922
273304.000			-23.372			-2.922
273405.000			-23.372			-2.921
273504.000			-23.372			-2.921
273604.000			-23.371			-2.921
273705.000			-23.371			-2.921
273804.000			-23.370			-2.921
273903.000			-23.370			-2.921
274005.000			-23.370			-2.921
274104.000			-23.370			-2.921
274204.000			-23.369			-2.921
274305.000			-23.369			-2.921
274404.000			-23.369			-2.921
274504.000			-23.369			-2.921
274605.000			-23.369			-2.921
274704.000			-23.369			-2.921
274803.000			-23.368			-2.921
274905.000			-23.369			-2.921
275004.000			-23.369			-2.921
275104.000			-23.368			-2.921
275205.000			-23.367			-2.921
275304.000			-23.367			-2.921
275404.000			-23.367			-2.921
275504.000			-23.367			-2.921
275604.000			-23.367			-2.921
275703.000			-23.368			-2.921
275804.000			-23.367			-2.921
275903.000			-23.367			-2.921
276005.000			-23.367			-2.921
276104.000			-23.366			-2.921
276204.000			-23.367			-2.921
276305.000			-23.366			-2.921
276404.000			-23.366			-2.921
276504.000			-23.366			-2.921
276604.000			-23.366			-2.921
276704.000			-23.365			-2.921
276803.000			-23.365			-2.921
276905.000			-23.365			-2.921
277004.000			-23.365			-2.921
277104.000			-23.364			-2.920
277205.000			-23.364			-2.920
277304.000			-23.364			-2.920
277404.000			-23.363			-2.920
277505.000			-23.364			-2.921
277604.000			-23.363			-2.920
277703.000			-23.362			-2.920
277805.000			-23.362			-2.920
277904.000			-23.363			-2.920
278004.000			-23.362			-2.920
278105.000			-23.362			-2.920
278204.000			-23.361			-2.920
278304.000			-23.361			-2.920
278405.000			-23.360			-2.920
278504.000			-23.362			-2.920
278603.000			-23.361			-2.920
278705.000			-23.360			-2.920
278804.000			-23.360			-2.920
278905.000			-23.360			-2.920
279004.000			-23.359			-2.920
279104.000			-23.359			-2.920
279205.000			-23.358			-2.920
279304.000			-23.360			-2.920
279404.000			-23.360			-2.920
279504.000			-23.360			-2.920
279604.000			-23.359			-2.920
279703.000			-23.358			-2.920
279805.000			-23.358			-2.920
279904.000			-23.359			-2.920
280004.000			-23.359			-2.920
280105.000			-23.358			-2.920
280204.000			-23.358			-2.920
280304.000			-23.359			-2.920
280404.000			-23.357			-2.920
280504.000			-23.356			-2.919
280603.000			-23.356			-2.919
280705.000			-23.355			-2.919
280804.000			-23.356			-2.920
280904.000			-23.356			-2.919
281005.000			-23.356			-2.919
281104.000			-23.358			-2.920
281204.000			-23.358			-2.920
281304.000			-23.354			-2.919
281404.000			-23.354			-2.919
281503.000			-23.354			-2.919
281605.000			-23.354			-2.919
281704.000			-23.353			-2.919
281804.000			-23.354			-2.919
281905.000			-23.354			-2.919
282004.000			-23.355			-2.919
282105.000			-23.353			-2.919
282203.000			-23.353			-2.919
282304.000			-23.352			-2.919
282405.000			-23.353			-2.919
282504.000			-23.353			-2.919
282604.000			-23.352			-2.919
282705.000			-23.352			-2.919
282804.000			-23.352			-2.919
282904.000			-23.352			-2.919
283005.000			-23.351			-2.919
283103.000			-23.351			-2.919
283204.000			-23.350			-2.919
283305.000			-23.350			-2.919
283404.000			-23.350			-2.919
283504.000			-23.351			-2.919
283605.000			-23.350			-2.919
283704.000			-23.349			-2.919
283804.000			-23.349			-2.919
283905.000			-23.349			-2.919
284003.000			-23.350			-2.919
284104.000			-23.350			-2.919
284205.000			-23.350			-2.919
284304.000			-23.350			-2.919
284404.000			-23.348			-2.919
284505.000			-23.349			-2.919
284604.000			-23.349			-2.919
284704.000			-23.349			-2.919
284805.000			-23.349			-2.919
284903.000			-23.347			-2.918
285004.000			-23.346			-2.918
285105.000			-23.347			-2.918
285204.000			-23.347			-2.918
285305.000			-23.347			-2.918
285404.000			-23.347			-2.918
285504.000			-23.347			-2.918
285605.000			-23.346			-2.918
285704.000			-23.346			-2.918
285803.000			-23.345			-2.918
285905.000			-23.345			-2.918
286004.000			-23.345			-2.918
286104.000			-23.346			-2.918
286205.000			-23.345			-2.918
286304.000			-23.344			-2.918
286404.000			-23.344			-2.918
286505.000			-23.344			-2.918
286604.000			-23.344			-2.918
286703.000			-23.343			-2.918
286805.000			-23.343			-2.918
286904.000			-23.343			-2.918
287004.000			-23.344			-2.918
287105.000			-23.343			-2.918
287204.000			-23.343			-2.918
287304.000			-23.343			-2.918
287405.000			-23.342			-2.918
287504.000			-23.342			-2.918
287603.000			-23.342			-2.918
287705.000			-23.342			-2.918
287804.000			-23.342			-2.918
287904.000			-23.342			-2.918
288005.000			-23.342			-2.918
288104.000			-23.342			-2.918
288204.000			-23.342			-2.918
288304.000			-23.341			-2.918
288404.000			-23.342			-2.918
288503.000			-23.340			-2.918
288604.000			-23.340			-2.918
288704.000			-23.340			-2.918
288805.000			-23.339			-2.917
288904.000			-23.340			-2.917
289004.000			-23.341			-2.918
289105.000			-23.340			-2.917
289204.000			-23.339			-2.917
289304.000			-23.340			-2.917
289404.000			-23.340			-2.917
289504.000			-23.339			-2.917
289604.000			-23.339			-2.917
289705.000			-23.338			-2.917
289804.000			-23.338			-2.917
289904.000			-23.337			-2.917
290005.000			-23.338			-2.917
290104.000			-23.338			-2.917
290204.000			-23.338			-2.917
290304.000			-23.338			-2.917
290404.000			-23.337			-2.917
290504.000			-23.338			-2.917
290605.000			-23.337			-2.917
290704.000			-23.335			-2.917
290804.000			-23.335			-2.917
290905.000			-23.335			-2.917
291004.000			-23.334			-2.917
291104.000			-23.335			-2.917
291204.000			-23.335			-2.917
291304.000			-23.335			-2.917
291404.000			-23.334			-2.917
291504.000			-23.334			-2.917
291604.000			-23.334			-2.917
291705.000			-23.335			-2.917
291804.000			-23.334			-2.917
291904.000			-23.334			-2.917
292005.000			-23.334			-2.917
292103.000			-23.334			-2.917
292204.000			-23.334			-2.917
292305.000			-23.333			-2.917
292404.000			-23.334			-2.917
292504.000			-23.334			-2.917
292605.000			-23.333			-2.917
292704.000			-23.333			-2.917
292804.000			-23.332			-2.917
292905.000			-23.332			-2.917
293003.000			-23.333			-2.917
293104.000			-23.332			-2.917
293205.000			-23.332			-2.916
293304.000			-23.331			-2.916
293404.000			-23.331			-2.916
293505.000			-23.330			-2.916
293604.000			-23.330			-2.916
293703.000			-23.330			-2.916
293805.000			-23.330			-2.916
293903.000			-23.330			-2.916
294004.000			-23.330			-2.916
294105.000			-23.329			-2.916
294204.000			-23.329			-2.916
294304.000			-23.329			-2.916
294405.000			-23.329			-2.916
294504.000			-23.328			-2.916
294603.000			-23.328			-2.916
294705.000			-23.329			-2.916
294803.000			-23.329			-2.916
294905.000			-23.328			-2.916
295004.000			-23.327			-2.916
295104.000			-23.328			-2.916
295205.000			-23.328			-2.916
295304.000			-23.329			-2.916
295404.000			-23.328			-2.916
295504.000			-23.326			-2.916
295604.000			-23.326			-2.916
295703.000			-23.327			-2.916
295805.000			-23.327			-2.916
295904.000			-23.326			-2.916
296004.000			-23.326			-2.916
296105.000			-23.325			-2.916
296204.000			-23.325			-2.916
296304.000			-23.326			-2.916
296404.000			-23.325			-2.916
296504.000			-23.325			-2.916
296603.000			-23.324			-2.915
296705.000			-23.325			-2.916
296804.000			-23.325			-2.916
296904.000			-23.324			-2.916
297005.000			-23.323			-2.915
297104.000			-23.323			-2.915
297204.000			-23.323			-2.915
297304.000			-23.323			-2.915
297404.000			-23.323			-2.915
297503.000			-23.323			-2.915
297605.000			-23.322			-2.915
297704.000			-23.323			-2.915
297804.000			-23.322			-2.915
297905.000			-23.322			-2.915
298004.000			-23.322			-2.915
298105.000			-23.321			-2.915
298203.000			-23.321			-2.915
298304.000			-23.321			-2.915
298404.000			-23.322			-2.915
298504.000			-23.322			-2.915
298604.000			-23.322			-2.915
298705.000			-23.321			-2.915
298804.000			-23.320			-2.915
298904.000			-23.321			-2.915
299005.000			-23.322			-2.915
299103.000			-23.322			-2.915
299204.000			-23.320			-2.915
299305.000			-23.320			-2.915
299404.000			-23.320			-2.915
299504.000			-23.319			-2.915
299605.000			-23.319			-2.915
299704.000			-23.319			-2.915
299804.000			-23.318			-2.915
299905.000			-23.317			-2.915
