# Acquired on 09/01/2024 17:02:27 
# SPIDER: Creep_10mm_07714532C-1
# CREEP MEASUREMENT

# time [ms]		force [N]		stiffness [N/mm]
0.000			-21.358			-2.136
100.000			-22.398			-2.240
201.000			-22.829			-2.283
300.000			-22.752			-2.275
400.000			-22.653			-2.265
502.000			-22.575			-2.258
600.000			-22.510			-2.251
700.000			-22.453			-2.245
801.000			-22.402			-2.240
900.000			-22.356			-2.236
1000.000			-22.279			-2.228
1101.000			-22.244			-2.224
1201.000			-22.212			-2.221
1301.000			-22.182			-2.218
1401.000			-22.154			-2.215
1500.000			-22.127			-2.213
1600.000			-22.102			-2.210
1701.000			-22.056			-2.206
1800.000			-22.034			-2.203
1901.000			-22.013			-2.201
2002.000			-21.994			-2.199
2100.000			-21.975			-2.197
2200.000			-21.958			-2.196
2301.000			-21.940			-2.194
2400.000			-21.907			-2.191
2500.000			-21.891			-2.189
2601.000			-21.877			-2.188
2701.000			-21.862			-2.186
2801.000			-21.847			-2.185
2901.000			-21.833			-2.183
3000.000			-21.821			-2.182
3100.000			-21.806			-2.181
3200.000			-21.781			-2.178
3300.000			-21.769			-2.177
3402.000			-21.759			-2.176
3501.000			-21.747			-2.175
3600.000			-21.735			-2.174
3701.000			-21.724			-2.172
3800.000			-21.715			-2.171
3900.000			-21.693			-2.169
4001.000			-21.683			-2.168
4100.000			-21.673			-2.167
4201.000			-21.664			-2.166
4302.000			-21.653			-2.165
4400.000			-21.645			-2.164
4500.000			-21.635			-2.164
4601.000			-21.618			-2.162
4700.000			-21.610			-2.161
4800.000			-21.601			-2.160
4901.000			-21.592			-2.159
5001.000			-21.584			-2.158
5101.000			-21.576			-2.158
5201.000			-21.570			-2.157
5300.000			-21.553			-2.155
5400.000			-21.546			-2.155
5501.000			-21.539			-2.154
5600.000			-21.532			-2.153
5701.000			-21.524			-2.152
5802.000			-21.516			-2.152
5900.000			-21.510			-2.151
6000.000			-21.504			-2.150
6101.000			-21.489			-2.149
6200.000			-21.483			-2.148
6300.000			-21.477			-2.148
6400.000			-21.470			-2.147
6501.000			-21.464			-2.146
6602.000			-21.458			-2.146
6700.000			-21.452			-2.145
6800.000			-21.439			-2.144
6901.000			-21.433			-2.143
7000.000			-21.428			-2.143
7100.000			-21.421			-2.142
7202.000			-21.415			-2.141
7301.000			-21.409			-2.141
7400.000			-21.404			-2.140
7501.000			-21.394			-2.139
7600.000			-21.388			-2.139
7700.000			-21.383			-2.138
7801.000			-21.378			-2.138
7900.000			-21.373			-2.137
8001.000			-21.368			-2.137
8102.000			-21.362			-2.136
8200.000			-21.352			-2.135
8300.000			-21.347			-2.135
8401.000			-21.341			-2.134
8500.000			-21.338			-2.134
8600.000			-21.333			-2.133
8702.000			-21.328			-2.133
8801.000			-21.324			-2.132
8900.000			-21.313			-2.131
9001.000			-21.308			-2.131
9100.000			-21.304			-2.130
9200.000			-21.300			-2.130
9301.000			-21.296			-2.130
9400.000			-21.291			-2.129
9502.000			-21.287			-2.129
9601.000			-21.283			-2.128
9700.000			-21.275			-2.127
9801.000			-21.270			-2.127
9900.000			-21.266			-2.127
10000.000			-21.262			-2.126
10101.000			-21.257			-2.126
10200.000			-21.253			-2.125
10301.000			-21.248			-2.125
10402.000			-21.242			-2.124
10500.000			-21.237			-2.124
10600.000			-21.234			-2.123
10701.000			-21.230			-2.123
10800.000			-21.226			-2.123
10900.000			-21.222			-2.122
11002.000			-21.218			-2.122
11101.000			-21.211			-2.121
11200.000			-21.208			-2.121
11301.000			-21.204			-2.120
11400.000			-21.200			-2.120
11500.000			-21.196			-2.120
11601.000			-21.192			-2.119
11700.000			-21.189			-2.119
11801.000			-21.182			-2.118
11902.000			-21.179			-2.118
12000.000			-21.175			-2.118
12100.000			-21.172			-2.117
12201.000			-21.169			-2.117
12300.000			-21.165			-2.116
12400.000			-21.162			-2.116
12501.000			-21.159			-2.116
12601.000			-21.152			-2.115
12702.000			-21.149			-2.115
12800.000			-21.145			-2.115
12900.000			-21.142			-2.114
13001.000			-21.138			-2.114
13100.000			-21.135			-2.114
13200.000			-21.132			-2.113
13302.000			-21.126			-2.113
13401.000			-21.123			-2.112
13500.000			-21.120			-2.112
13601.000			-21.116			-2.112
13700.000			-21.113			-2.111
13800.000			-21.110			-2.111
13901.000			-21.108			-2.111
14000.000			-21.102			-2.110
14101.000			-21.099			-2.110
14202.000			-21.095			-2.110
14300.000			-21.092			-2.109
14400.000			-21.089			-2.109
14501.000			-21.086			-2.109
14600.000			-21.084			-2.108
14700.000			-21.078			-2.108
14801.000			-21.076			-2.108
14901.000			-21.073			-2.107
15001.000			-21.070			-2.107
15101.000			-21.066			-2.107
15200.000			-21.063			-2.106
15300.000			-21.061			-2.106
15401.000			-21.059			-2.106
15500.000			-21.053			-2.105
15601.000			-21.049			-2.105
15702.000			-21.048			-2.105
15801.000			-21.046			-2.105
15900.000			-21.042			-2.104
16000.000			-21.039			-2.104
16100.000			-21.037			-2.104
16201.000			-21.031			-2.103
16300.000			-21.028			-2.103
16401.000			-21.027			-2.103
16502.000			-21.025			-2.102
16600.000			-21.022			-2.102
16700.000			-21.018			-2.102
16801.000			-21.015			-2.102
16900.000			-21.010			-2.101
17000.000			-21.009			-2.101
17101.000			-21.006			-2.101
17201.000			-21.004			-2.100
17301.000			-21.003			-2.100
17401.000			-21.000			-2.100
17500.000			-20.998			-2.100
17600.000			-20.991			-2.099
17701.000			-20.989			-2.099
17800.000			-20.988			-2.099
17900.000			-20.984			-2.098
18002.000			-20.982			-2.098
18101.000			-20.979			-2.098
18200.000			-20.977			-2.098
18301.000			-20.975			-2.098
18400.000			-20.971			-2.097
18500.000			-20.968			-2.097
18601.000			-20.965			-2.097
18700.000			-20.962			-2.096
18801.000			-20.962			-2.096
18902.000			-20.960			-2.096
19000.000			-20.956			-2.096
19100.000			-20.953			-2.095
19200.000			-20.951			-2.095
19300.000			-20.950			-2.095
19401.000			-20.948			-2.095
19500.000			-20.944			-2.094
19601.000			-20.941			-2.094
19702.000			-20.939			-2.094
19800.000			-20.935			-2.094
19900.000			-20.935			-2.093
20001.000			-20.932			-2.093
20100.000			-20.930			-2.093
20200.000			-20.927			-2.093
20301.000			-20.925			-2.093
20401.000			-20.924			-2.092
20501.000			-20.918			-2.092
20601.000			-20.915			-2.092
20700.000			-20.914			-2.091
20800.000			-20.912			-2.091
20901.000			-20.911			-2.091
21000.000			-20.908			-2.091
21101.000			-20.906			-2.091
21202.000			-20.902			-2.090
21300.000			-20.901			-2.090
21400.000			-20.899			-2.090
21501.000			-20.896			-2.090
21600.000			-20.894			-2.089
21700.000			-20.892			-2.089
21801.000			-20.890			-2.089
21901.000			-20.890			-2.089
22001.000			-20.886			-2.089
22101.000			-20.884			-2.088
22200.000			-20.881			-2.088
22300.000			-20.879			-2.088
22400.000			-20.876			-2.088
22500.000			-20.875			-2.087
22601.000			-20.873			-2.087
22701.000			-20.871			-2.087
22801.000			-20.868			-2.087
22901.000			-20.865			-2.087
23000.000			-20.864			-2.086
23100.000			-20.862			-2.086
23201.000			-20.860			-2.086
23300.000			-20.858			-2.086
23400.000			-20.856			-2.086
23502.000			-20.853			-2.085
23601.000			-20.851			-2.085
23700.000			-20.849			-2.085
23801.000			-20.847			-2.085
23900.000			-20.846			-2.085
24000.000			-20.844			-2.084
24101.000			-20.840			-2.084
24200.000			-20.838			-2.084
24301.000			-20.838			-2.084
24402.000			-20.837			-2.084
24500.000			-20.834			-2.083
24600.000			-20.832			-2.083
24701.000			-20.831			-2.083
24800.000			-20.829			-2.083
24900.000			-20.826			-2.083
25001.000			-20.824			-2.082
25101.000			-20.822			-2.082
25201.000			-20.820			-2.082
25301.000			-20.818			-2.082
25400.000			-20.817			-2.082
25500.000			-20.816			-2.082
25600.000			-20.812			-2.081
25700.000			-20.810			-2.081
25801.000			-20.808			-2.081
25901.000			-20.808			-2.081
26001.000			-20.806			-2.081
26101.000			-20.804			-2.080
26200.000			-20.802			-2.080
26300.000			-20.798			-2.080
26401.000			-20.796			-2.080
26500.000			-20.795			-2.080
26600.000			-20.795			-2.079
26702.000			-20.794			-2.079
26801.000			-20.791			-2.079
26900.000			-20.789			-2.079
27001.000			-20.786			-2.079
27100.000			-20.784			-2.078
27200.000			-20.783			-2.078
27301.000			-20.782			-2.078
27401.000			-20.780			-2.078
27501.000			-20.779			-2.078
27601.000			-20.777			-2.078
27700.000			-20.775			-2.077
27800.000			-20.772			-2.077
27901.000			-20.770			-2.077
28000.000			-20.769			-2.077
28100.000			-20.768			-2.077
28202.000			-20.765			-2.077
28301.000			-20.765			-2.076
28401.000			-20.764			-2.076
28501.000			-20.759			-2.076
28600.000			-20.757			-2.076
28700.000			-20.757			-2.076
28800.000			-20.756			-2.076
28900.000			-20.753			-2.075
29001.000			-20.752			-2.075
29101.000			-20.751			-2.075
29201.000			-20.749			-2.075
29301.000			-20.748			-2.075
29400.000			-20.746			-2.075
29500.000			-20.743			-2.074
29601.000			-20.741			-2.074
29700.000			-20.740			-2.074
29800.000			-20.740			-2.074
29902.000			-20.736			-2.074
30001.000			-20.736			-2.074
30100.000			-20.734			-2.073
30201.000			-20.733			-2.073
30300.000			-20.732			-2.073
30400.000			-20.731			-2.073
30501.000			-20.729			-2.073
30601.000			-20.728			-2.073
30701.000			-20.724			-2.072
30801.000			-20.722			-2.072
30900.000			-20.721			-2.072
31000.000			-20.720			-2.072
31101.000			-20.718			-2.072
31200.000			-20.717			-2.072
31300.000			-20.717			-2.072
31402.000			-20.712			-2.071
31501.000			-20.712			-2.071
31600.000			-20.710			-2.071
31701.000			-20.708			-2.071
31800.000			-20.708			-2.071
31900.000			-20.706			-2.071
32000.000			-20.705			-2.071
32100.000			-20.703			-2.070
32202.000			-20.701			-2.070
32301.000			-20.700			-2.070
32400.000			-20.699			-2.070
32501.000			-20.697			-2.070
32600.000			-20.697			-2.070
32700.000			-20.695			-2.069
32801.000			-20.692			-2.069
32900.000			-20.690			-2.069
33001.000			-20.688			-2.069
33102.000			-20.687			-2.069
33200.000			-20.686			-2.069
33300.000			-20.686			-2.069
33401.000			-20.684			-2.068
33500.000			-20.683			-2.068
33600.000			-20.680			-2.068
33701.000			-20.679			-2.068
33801.000			-20.678			-2.068
33901.000			-20.678			-2.068
34001.000			-20.676			-2.068
34100.000			-20.674			-2.067
34200.000			-20.673			-2.067
34301.000			-20.671			-2.067
34400.000			-20.669			-2.067
34500.000			-20.668			-2.067
34602.000			-20.667			-2.067
34701.000			-20.665			-2.067
34800.000			-20.664			-2.066
34901.000			-20.663			-2.066
35000.000			-20.661			-2.066
35100.000			-20.659			-2.066
35200.000			-20.658			-2.066
35300.000			-20.657			-2.066
35402.000			-20.657			-2.066
35501.000			-20.655			-2.065
35600.000			-20.653			-2.065
35701.000			-20.652			-2.065
35800.000			-20.650			-2.065
35900.000			-20.649			-2.065
36001.000			-20.648			-2.065
36101.000			-20.647			-2.065
36201.000			-20.644			-2.064
36302.000			-20.643			-2.064
36400.000			-20.643			-2.064
36500.000			-20.641			-2.064
36601.000			-20.639			-2.064
36700.000			-20.637			-2.064
36800.000			-20.637			-2.064
36902.000			-20.636			-2.064
37001.000			-20.634			-2.063
37100.000			-20.632			-2.063
37201.000			-20.630			-2.063
37300.000			-20.629			-2.063
37400.000			-20.628			-2.063
37501.000			-20.627			-2.063
37600.000			-20.626			-2.063
37701.000			-20.625			-2.063
37802.000			-20.623			-2.062
37900.000			-20.622			-2.062
38000.000			-20.619			-2.062
38101.000			-20.618			-2.062
38200.000			-20.617			-2.062
38300.000			-20.616			-2.062
38400.000			-20.616			-2.062
38501.000			-20.614			-2.061
38602.000			-20.611			-2.061
38700.000			-20.611			-2.061
38800.000			-20.610			-2.061
38901.000			-20.608			-2.061
39000.000			-20.607			-2.061
39100.000			-20.607			-2.061
39201.000			-20.606			-2.061
39301.000			-20.603			-2.060
39401.000			-20.602			-2.060
39501.000			-20.601			-2.060
39600.000			-20.599			-2.060
39700.000			-20.599			-2.060
39801.000			-20.597			-2.060
39900.000			-20.597			-2.060
40000.000			-20.596			-2.060
40102.000			-20.594			-2.059
40201.000			-20.593			-2.059
40300.000			-20.592			-2.059
40401.000			-20.590			-2.059
40500.000			-20.589			-2.059
40600.000			-20.589			-2.059
40701.000			-20.588			-2.059
40800.000			-20.586			-2.059
40901.000			-20.584			-2.058
41002.000			-20.584			-2.058
41100.000			-20.582			-2.058
41200.000			-20.581			-2.058
41301.000			-20.580			-2.058
41400.000			-20.579			-2.058
41500.000			-20.578			-2.058
41602.000			-20.576			-2.058
41701.000			-20.575			-2.057
41801.000			-20.574			-2.057
41900.000			-20.574			-2.057
42000.000			-20.572			-2.057
42101.000			-20.572			-2.057
42200.000			-20.568			-2.057
42300.000			-20.567			-2.057
42402.000			-20.567			-2.057
42501.000			-20.566			-2.057
42600.000			-20.565			-2.057
42701.000			-20.564			-2.056
42800.000			-20.564			-2.056
42900.000			-20.562			-2.056
43001.000			-20.560			-2.056
43100.000			-20.559			-2.056
43201.000			-20.558			-2.056
43302.000			-20.556			-2.056
43400.000			-20.555			-2.056
43500.000			-20.554			-2.055
43601.000			-20.553			-2.055
43700.000			-20.552			-2.055
43800.000			-20.552			-2.055
43901.000			-20.551			-2.055
44001.000			-20.549			-2.055
44101.000			-20.548			-2.055
44201.000			-20.548			-2.055
44300.000			-20.546			-2.055
44400.000			-20.544			-2.054
44501.000			-20.544			-2.054
44600.000			-20.542			-2.054
44700.000			-20.541			-2.054
44802.000			-20.541			-2.054
44901.000			-20.539			-2.054
45001.000			-20.538			-2.054
45100.000			-20.536			-2.054
45200.000			-20.536			-2.054
45301.000			-20.536			-2.054
45400.000			-20.534			-2.053
45501.000			-20.533			-2.053
45602.000			-20.532			-2.053
45701.000			-20.530			-2.053
45800.000			-20.529			-2.053
45901.000			-20.528			-2.053
46000.000			-20.526			-2.053
46100.000			-20.526			-2.053
46201.000			-20.525			-2.052
46301.000			-20.523			-2.052
46401.000			-20.522			-2.052
46501.000			-20.521			-2.052
46600.000			-20.520			-2.052
46700.000			-20.519			-2.052
46801.000			-20.518			-2.052
46900.000			-20.517			-2.052
47000.000			-20.516			-2.052
47102.000			-20.516			-2.052
47201.000			-20.515			-2.051
47300.000			-20.511			-2.051
47401.000			-20.511			-2.051
47500.000			-20.511			-2.051
47600.000			-20.511			-2.051
47701.000			-20.510			-2.051
47800.000			-20.509			-2.051
47902.000			-20.508			-2.051
48001.000			-20.506			-2.051
48100.000			-20.504			-2.050
48201.000			-20.503			-2.050
48300.000			-20.501			-2.050
48400.000			-20.501			-2.050
48501.000			-20.501			-2.050
48601.000			-20.499			-2.050
48701.000			-20.498			-2.050
48802.000			-20.498			-2.050
48900.000			-20.497			-2.050
49000.000			-20.496			-2.050
49101.000			-20.494			-2.049
49200.000			-20.493			-2.049
49300.000			-20.493			-2.049
49401.000			-20.492			-2.049
49501.000			-20.490			-2.049
49601.000			-20.489			-2.049
49701.000			-20.488			-2.049
49800.000			-20.487			-2.049
49900.000			-20.486			-2.049
50001.000			-20.485			-2.049
50100.000			-20.485			-2.049
50200.000			-20.483			-2.048
50302.000			-20.483			-2.048
50401.000			-20.481			-2.048
50500.000			-20.480			-2.048
50601.000			-20.478			-2.048
50700.000			-20.479			-2.048
50800.000			-20.479			-2.048
50901.000			-20.477			-2.048
51000.000			-20.476			-2.048
51102.000			-20.475			-2.048
51201.000			-20.474			-2.047
51300.000			-20.474			-2.047
51401.000			-20.473			-2.047
51500.000			-20.472			-2.047
51600.000			-20.468			-2.047
51701.000			-20.468			-2.047
51801.000			-20.468			-2.047
51901.000			-20.468			-2.047
52001.000			-20.466			-2.047
52100.000			-20.465			-2.047
52200.000			-20.464			-2.046
52301.000			-20.464			-2.046
52400.000			-20.462			-2.046
52500.000			-20.461			-2.046
52602.000			-20.460			-2.046
52701.000			-20.459			-2.046
52800.000			-20.459			-2.046
52901.000			-20.458			-2.046
53000.000			-20.457			-2.046
53100.000			-20.455			-2.045
53201.000			-20.454			-2.045
53300.000			-20.455			-2.045
53401.000			-20.454			-2.045
53502.000			-20.452			-2.045
53600.000			-20.452			-2.045
53700.000			-20.450			-2.045
53801.000			-20.449			-2.045
53900.000			-20.448			-2.045
54000.000			-20.447			-2.045
54101.000			-20.446			-2.045
54201.000			-20.445			-2.044
54302.000			-20.444			-2.044
54400.000			-20.444			-2.044
54500.000			-20.443			-2.044
54601.000			-20.441			-2.044
54700.000			-20.441			-2.044
54800.000			-20.440			-2.044
54901.000			-20.439			-2.044
55001.000			-20.439			-2.044
55101.000			-20.438			-2.044
55201.000			-20.437			-2.044
55300.000			-20.434			-2.043
55400.000			-20.434			-2.043
55501.000			-20.433			-2.043
55600.000			-20.433			-2.043
55701.000			-20.432			-2.043
55802.000			-20.430			-2.043
55900.000			-20.431			-2.043
56000.000			-20.428			-2.043
56101.000			-20.427			-2.043
56200.000			-20.428			-2.043
56300.000			-20.426			-2.043
56401.000			-20.425			-2.043
56501.000			-20.424			-2.042
56601.000			-20.424			-2.042
56701.000			-20.423			-2.042
56800.000			-20.422			-2.042
56900.000			-20.420			-2.042
57001.000			-20.420			-2.042
57100.000			-20.419			-2.042
57200.000			-20.420			-2.042
57302.000			-20.419			-2.042
57401.000			-20.417			-2.042
57500.000			-20.416			-2.042
57600.000			-20.415			-2.041
57700.000			-20.413			-2.041
57801.000			-20.413			-2.041
57900.000			-20.411			-2.041
58000.000			-20.410			-2.041
58102.000			-20.410			-2.041
58201.000			-20.410			-2.041
58300.000			-20.409			-2.041
58401.000			-20.408			-2.041
58500.000			-20.407			-2.041
58600.000			-20.407			-2.041
58701.000			-20.405			-2.040
58800.000			-20.405			-2.041
58901.000			-20.405			-2.040
59002.000			-20.404			-2.040
59100.000			-20.402			-2.040
59200.000			-20.400			-2.040
59301.000			-20.400			-2.040
59400.000			-20.401			-2.040
59500.000			-20.398			-2.040
59601.000			-20.397			-2.040
59701.000			-20.395			-2.040
59801.000			-20.396			-2.040
59901.000			-20.396			-2.040
60000.000			-20.394			-2.039
60100.000			-20.393			-2.039
60201.000			-20.393			-2.039
60300.000			-20.391			-2.039
60400.000			-20.390			-2.039
60502.000			-20.390			-2.039
60601.000			-20.390			-2.039
60700.000			-20.387			-2.039
60800.000			-20.387			-2.039
60900.000			-20.387			-2.039
61001.000			-20.387			-2.039
61100.000			-20.385			-2.038
61200.000			-20.384			-2.038
61302.000			-20.383			-2.038
61401.000			-20.383			-2.038
61500.000			-20.383			-2.038
61601.000			-20.381			-2.038
61700.000			-20.381			-2.038
61800.000			-20.379			-2.038
61901.000			-20.379			-2.038
62001.000			-20.378			-2.038
62101.000			-20.377			-2.038
62202.000			-20.376			-2.038
62300.000			-20.376			-2.038
62400.000			-20.375			-2.037
62501.000			-20.374			-2.037
62600.000			-20.373			-2.037
62700.000			-20.372			-2.037
62802.000			-20.371			-2.037
62901.000			-20.370			-2.037
63000.000			-20.369			-2.037
63101.000			-20.369			-2.037
63200.000			-20.367			-2.037
63300.000			-20.366			-2.037
63401.000			-20.367			-2.037
63500.000			-20.366			-2.037
63601.000			-20.365			-2.036
63702.000			-20.364			-2.036
63800.000			-20.363			-2.036
63900.000			-20.363			-2.036
64000.000			-20.362			-2.036
64100.000			-20.361			-2.036
64201.000			-20.361			-2.036
64300.000			-20.360			-2.036
64401.000			-20.359			-2.036
64502.000			-20.358			-2.036
64600.000			-20.358			-2.036
64700.000			-20.356			-2.036
64801.000			-20.355			-2.036
64900.000			-20.355			-2.035
65000.000			-20.354			-2.035
65101.000			-20.355			-2.035
65201.000			-20.354			-2.035
65301.000			-20.353			-2.035
65401.000			-20.352			-2.035
65500.000			-20.351			-2.035
65600.000			-20.350			-2.035
65701.000			-20.349			-2.035
65800.000			-20.349			-2.035
65900.000			-20.348			-2.035
66002.000			-20.348			-2.035
66101.000			-20.346			-2.035
66200.000			-20.345			-2.035
66301.000			-20.345			-2.035
66400.000			-20.345			-2.034
66500.000			-20.344			-2.034
66601.000			-20.343			-2.034
66700.000			-20.342			-2.034
66801.000			-20.340			-2.034
66902.000			-20.339			-2.034
67000.000			-20.339			-2.034
67100.000			-20.339			-2.034
67200.000			-20.339			-2.034
67300.000			-20.337			-2.034
67401.000			-20.337			-2.034
67500.000			-20.336			-2.034
67601.000			-20.335			-2.033
67702.000			-20.334			-2.033
67800.000			-20.333			-2.033
67900.000			-20.332			-2.033
68001.000			-20.333			-2.033
68100.000			-20.333			-2.033
68200.000			-20.331			-2.033
68301.000			-20.331			-2.033
68401.000			-20.330			-2.033
68501.000			-20.329			-2.033
68601.000			-20.327			-2.033
68700.000			-20.327			-2.033
68800.000			-20.326			-2.033
68901.000			-20.326			-2.033
69000.000			-20.325			-2.032
69100.000			-20.325			-2.032
69202.000			-20.324			-2.032
69301.000			-20.322			-2.032
69400.000			-20.322			-2.032
69501.000			-20.322			-2.032
69600.000			-20.320			-2.032
69700.000			-20.320			-2.032
69801.000			-20.319			-2.032
69900.000			-20.318			-2.032
70001.000			-20.318			-2.032
70102.000			-20.317			-2.032
70200.000			-20.316			-2.032
70300.000			-20.316			-2.032
70400.000			-20.316			-2.032
70500.000			-20.313			-2.031
70601.000			-20.313			-2.031
70701.000			-20.313			-2.031
70801.000			-20.313			-2.031
70901.000			-20.312			-2.031
71000.000			-20.311			-2.031
71100.000			-20.310			-2.031
71201.000			-20.309			-2.031
71300.000			-20.308			-2.031
71400.000			-20.308			-2.031
71502.000			-20.307			-2.031
71601.000			-20.306			-2.031
71700.000			-20.306			-2.031
71801.000			-20.306			-2.031
71900.000			-20.305			-2.030
72000.000			-20.304			-2.030
72101.000			-20.303			-2.030
72200.000			-20.302			-2.030
72301.000			-20.302			-2.030
72402.000			-20.302			-2.030
72500.000			-20.301			-2.030
72600.000			-20.299			-2.030
72701.000			-20.298			-2.030
72800.000			-20.298			-2.030
72900.000			-20.296			-2.030
73001.000			-20.296			-2.030
73101.000			-20.295			-2.029
73201.000			-20.294			-2.029
73301.000			-20.295			-2.029
73400.000			-20.294			-2.029
73500.000			-20.292			-2.029
73600.000			-20.292			-2.029
73700.000			-20.291			-2.029
73801.000			-20.290			-2.029
73901.000			-20.290			-2.029
74001.000			-20.290			-2.029
74101.000			-20.290			-2.029
74200.000			-20.289			-2.029
74300.000			-20.289			-2.029
74401.000			-20.288			-2.029
74500.000			-20.287			-2.029
74600.000			-20.286			-2.029
74702.000			-20.285			-2.028
74801.000			-20.284			-2.028
74901.000			-20.282			-2.028
75001.000			-20.282			-2.028
75100.000			-20.282			-2.028
75200.000			-20.281			-2.028
75301.000			-20.281			-2.028
75400.000			-20.280			-2.028
75500.000			-20.279			-2.028
75602.000			-20.279			-2.028
75701.000			-20.279			-2.028
75800.000			-20.277			-2.028
75901.000			-20.276			-2.028
76000.000			-20.276			-2.028
76100.000			-20.276			-2.028
76201.000			-20.275			-2.027
76300.000			-20.273			-2.027
76401.000			-20.273			-2.027
76502.000			-20.273			-2.027
76600.000			-20.273			-2.027
76700.000			-20.272			-2.027
76800.000			-20.271			-2.027
76900.000			-20.270			-2.027
77001.000			-20.270			-2.027
77100.000			-20.268			-2.027
77201.000			-20.268			-2.027
77302.000			-20.267			-2.027
77400.000			-20.268			-2.027
77500.000			-20.267			-2.027
77601.000			-20.266			-2.027
77700.000			-20.265			-2.026
77800.000			-20.264			-2.026
77901.000			-20.264			-2.026
78001.000			-20.263			-2.026
78101.000			-20.263			-2.026
78201.000			-20.263			-2.026
78300.000			-20.263			-2.026
78400.000			-20.262			-2.026
78501.000			-20.261			-2.026
78600.000			-20.260			-2.026
78700.000			-20.259			-2.026
78802.000			-20.260			-2.026
78901.000			-20.259			-2.026
79000.000			-20.257			-2.026
79101.000			-20.257			-2.026
79200.000			-20.256			-2.026
79300.000			-20.256			-2.026
79401.000			-20.255			-2.026
79500.000			-20.254			-2.025
79601.000			-20.253			-2.025
79702.000			-20.254			-2.025
79800.000			-20.253			-2.025
79900.000			-20.252			-2.025
80000.000			-20.251			-2.025
80100.000			-20.250			-2.025
80201.000			-20.249			-2.025
80300.000			-20.249			-2.025
80401.000			-20.249			-2.025
80502.000			-20.248			-2.025
80601.000			-20.247			-2.025
80700.000			-20.247			-2.025
80801.000			-20.246			-2.025
80900.000			-20.246			-2.025
81000.000			-20.245			-2.024
81101.000			-20.245			-2.024
81201.000			-20.243			-2.024
81301.000			-20.244			-2.024
81401.000			-20.243			-2.024
81500.000			-20.241			-2.024
81600.000			-20.241			-2.024
81701.000			-20.241			-2.024
81800.000			-20.240			-2.024
81900.000			-20.238			-2.024
82002.000			-20.239			-2.024
82101.000			-20.238			-2.024
82200.000			-20.237			-2.024
82301.000			-20.236			-2.024
82400.000			-20.237			-2.024
82500.000			-20.235			-2.024
82601.000			-20.235			-2.023
82700.000			-20.235			-2.023
82801.000			-20.234			-2.023
82902.000			-20.233			-2.023
83000.000			-20.233			-2.023
83100.000			-20.232			-2.023
83200.000			-20.232			-2.023
83300.000			-20.231			-2.023
83401.000			-20.229			-2.023
83500.000			-20.230			-2.023
83601.000			-20.229			-2.023
83702.000			-20.229			-2.023
83800.000			-20.228			-2.023
83900.000			-20.228			-2.023
84001.000			-20.227			-2.023
84100.000			-20.226			-2.023
84200.000			-20.226			-2.023
84301.000			-20.224			-2.022
84401.000			-20.223			-2.022
84501.000			-20.222			-2.022
84601.000			-20.222			-2.022
84700.000			-20.222			-2.022
84800.000			-20.221			-2.022
84901.000			-20.221			-2.022
85000.000			-20.219			-2.022
85100.000			-20.220			-2.022
85202.000			-20.219			-2.022
85301.000			-20.219			-2.022
85400.000			-20.218			-2.022
85501.000			-20.218			-2.022
85600.000			-20.217			-2.022
85700.000			-20.215			-2.022
85801.000			-20.214			-2.021
85901.000			-20.215			-2.022
86001.000			-20.215			-2.021
86102.000			-20.214			-2.021
86200.000			-20.213			-2.021
86300.000			-20.212			-2.021
86400.000			-20.212			-2.021
86500.000			-20.211			-2.021
86601.000			-20.211			-2.021
86701.000			-20.210			-2.021
86801.000			-20.209			-2.021
86902.000			-20.209			-2.021
87000.000			-20.209			-2.021
87100.000			-20.209			-2.021
87201.000			-20.209			-2.021
87300.000			-20.208			-2.021
87400.000			-20.207			-2.021
87502.000			-20.206			-2.021
87601.000			-20.205			-2.021
87701.000			-20.204			-2.020
87801.000			-20.203			-2.020
87900.000			-20.203			-2.020
88000.000			-20.204			-2.020
88101.000			-20.203			-2.020
88200.000			-20.201			-2.020
88300.000			-20.201			-2.020
88402.000			-20.201			-2.020
88501.000			-20.201			-2.020
88600.000			-20.200			-2.020
88701.000			-20.200			-2.020
88800.000			-20.199			-2.020
88900.000			-20.198			-2.020
89001.000			-20.198			-2.020
89100.000			-20.198			-2.020
89201.000			-20.196			-2.020
89302.000			-20.196			-2.020
89400.000			-20.195			-2.020
89500.000			-20.194			-2.019
89600.000			-20.194			-2.019
89700.000			-20.193			-2.019
89801.000			-20.192			-2.019
89900.000			-20.191			-2.019
90001.000			-20.191			-2.019
90102.000			-20.192			-2.019
90200.000			-20.191			-2.019
90300.000			-20.190			-2.019
90401.000			-20.190			-2.019
90500.000			-20.188			-2.019
90600.000			-20.189			-2.019
90701.000			-20.187			-2.019
90801.000			-20.187			-2.019
90901.000			-20.186			-2.019
91001.000			-20.185			-2.019
91100.000			-20.185			-2.018
91200.000			-20.186			-2.019
91301.000			-20.185			-2.019
91400.000			-20.184			-2.018
91500.000			-20.182			-2.018
91602.000			-20.182			-2.018
91701.000			-20.182			-2.018
91800.000			-20.181			-2.018
91901.000			-20.181			-2.018
92000.000			-20.181			-2.018
92100.000			-20.180			-2.018
92201.000			-20.179			-2.018
92300.000			-20.179			-2.018
92401.000			-20.177			-2.018
92502.000			-20.177			-2.018
92600.000			-20.177			-2.018
92700.000			-20.176			-2.018
92800.000			-20.176			-2.018
92900.000			-20.175			-2.018
93001.000			-20.175			-2.018
93100.000			-20.174			-2.017
93201.000			-20.174			-2.017
93302.000			-20.173			-2.017
93400.000			-20.173			-2.017
93500.000			-20.172			-2.017
93601.000			-20.171			-2.017
93700.000			-20.170			-2.017
93800.000			-20.170			-2.017
93901.000			-20.170			-2.017
94001.000			-20.169			-2.017
94101.000			-20.169			-2.017
94201.000			-20.168			-2.017
94300.000			-20.167			-2.017
94400.000			-20.166			-2.017
94501.000			-20.165			-2.016
94600.000			-20.165			-2.017
94700.000			-20.167			-2.017
94802.000			-20.166			-2.017
94901.000			-20.165			-2.016
95000.000			-20.164			-2.016
95101.000			-20.163			-2.016
95200.000			-20.162			-2.016
95300.000			-20.162			-2.016
95401.000			-20.161			-2.016
95500.000			-20.161			-2.016
95601.000			-20.162			-2.016
95702.000			-20.160			-2.016
95800.000			-20.159			-2.016
95900.000			-20.159			-2.016
96000.000			-20.159			-2.016
96100.000			-20.158			-2.016
96201.000			-20.157			-2.016
96300.000			-20.157			-2.016
96401.000			-20.157			-2.016
96502.000			-20.156			-2.016
96600.000			-20.155			-2.016
96700.000			-20.155			-2.015
96801.000			-20.154			-2.015
96900.000			-20.154			-2.015
97000.000			-20.153			-2.015
97101.000			-20.151			-2.015
97201.000			-20.152			-2.015
97301.000			-20.151			-2.015
97401.000			-20.150			-2.015
97500.000			-20.151			-2.015
97600.000			-20.150			-2.015
97701.000			-20.150			-2.015
97800.000			-20.151			-2.015
97900.000			-20.150			-2.015
98002.000			-20.147			-2.015
98101.000			-20.146			-2.015
98200.000			-20.147			-2.015
98301.000			-20.147			-2.015
98400.000			-20.146			-2.015
98500.000			-20.147			-2.015
98601.000			-20.146			-2.015
98700.000			-20.145			-2.014
98801.000			-20.144			-2.014
98902.000			-20.144			-2.014
99000.000			-20.143			-2.014
99100.000			-20.142			-2.014
99200.000			-20.141			-2.014
99300.000			-20.139			-2.014
99401.000			-20.140			-2.014
99500.000			-20.140			-2.014
99601.000			-20.141			-2.014
99702.000			-20.140			-2.014
99800.000			-20.138			-2.014
99900.000			-20.138			-2.014
100001.000			-20.139			-2.014
100100.000			-20.137			-2.014
100200.000			-20.136			-2.014
100301.000			-20.136			-2.014
100401.000			-20.136			-2.014
100501.000			-20.135			-2.014
100601.000			-20.135			-2.013
100700.000			-20.135			-2.013
100800.000			-20.134			-2.013
100901.000			-20.133			-2.013
101000.000			-20.132			-2.013
101100.000			-20.132			-2.013
101202.000			-20.131			-2.013
101301.000			-20.131			-2.013
101400.000			-20.131			-2.013
101501.000			-20.130			-2.013
101600.000			-20.128			-2.013
101700.000			-20.127			-2.013
101801.000			-20.128			-2.013
101900.000			-20.128			-2.013
102001.000			-20.128			-2.013
102102.000			-20.127			-2.013
102200.000			-20.126			-2.013
102300.000			-20.124			-2.012
102400.000			-20.124			-2.012
102500.000			-20.125			-2.012
102601.000			-20.125			-2.012
102700.000			-20.124			-2.012
102801.000			-20.124			-2.012
102902.000			-20.123			-2.012
103000.000			-20.122			-2.012
103100.000			-20.121			-2.012
103201.000			-20.120			-2.012
103300.000			-20.120			-2.012
103400.000			-20.120			-2.012
103501.000			-20.120			-2.012
103601.000			-20.119			-2.012
103701.000			-20.118			-2.012
103801.000			-20.118			-2.012
103900.000			-20.118			-2.012
104000.000			-20.118			-2.012
104101.000			-20.117			-2.012
104200.000			-20.116			-2.012
104300.000			-20.116			-2.012
104402.000			-20.115			-2.012
104501.000			-20.115			-2.011
104600.000			-20.114			-2.011
104701.000			-20.113			-2.011
104800.000			-20.113			-2.011
104900.000			-20.113			-2.011
105001.000			-20.113			-2.011
105100.000			-20.113			-2.011
105201.000			-20.112			-2.011
105302.000			-20.111			-2.011
105400.000			-20.110			-2.011
105500.000			-20.109			-2.011
105600.000			-20.109			-2.011
105700.000			-20.109			-2.011
105801.000			-20.108			-2.011
105900.000			-20.109			-2.011
106001.000			-20.108			-2.011
106102.000			-20.107			-2.011
106200.000			-20.107			-2.011
106300.000			-20.106			-2.011
106401.000			-20.106			-2.011
106500.000			-20.106			-2.011
106600.000			-20.105			-2.011
106701.000			-20.105			-2.010
106801.000			-20.104			-2.010
106901.000			-20.103			-2.010
107001.000			-20.102			-2.010
107100.000			-20.101			-2.010
107200.000			-20.101			-2.010
107301.000			-20.102			-2.010
107400.000			-20.100			-2.010
107500.000			-20.099			-2.010
107602.000			-20.100			-2.010
107701.000			-20.100			-2.010
107800.000			-20.100			-2.010
107901.000			-20.099			-2.010
108000.000			-20.098			-2.010
108100.000			-20.097			-2.010
108201.000			-20.097			-2.010
108300.000			-20.097			-2.010
108401.000			-20.096			-2.010
108502.000			-20.095			-2.010
108600.000			-20.094			-2.009
108700.000			-20.094			-2.009
108800.000			-20.094			-2.009
108900.000			-20.094			-2.009
109001.000			-20.093			-2.009
109100.000			-20.092			-2.009
109200.000			-20.092			-2.009
109302.000			-20.092			-2.009
109401.000			-20.092			-2.009
109500.000			-20.091			-2.009
109601.000			-20.090			-2.009
109700.000			-20.090			-2.009
109800.000			-20.089			-2.009
109901.000			-20.088			-2.009
110000.000			-20.088			-2.009
110101.000			-20.088			-2.009
110202.000			-20.087			-2.009
110300.000			-20.086			-2.009
110400.000			-20.087			-2.009
110501.000			-20.086			-2.009
110600.000			-20.085			-2.009
110700.000			-20.084			-2.008
110801.000			-20.084			-2.008
110901.000			-20.084			-2.008
111001.000			-20.084			-2.008
111101.000			-20.083			-2.008
111200.000			-20.083			-2.008
111300.000			-20.083			-2.008
111401.000			-20.083			-2.008
111500.000			-20.082			-2.008
111600.000			-20.081			-2.008
111702.000			-20.081			-2.008
111801.000			-20.081			-2.008
111900.000			-20.081			-2.008
112000.000			-20.080			-2.008
112100.000			-20.080			-2.008
112201.000			-20.079			-2.008
112300.000			-20.078			-2.008
112400.000			-20.078			-2.008
112502.000			-20.078			-2.008
112601.000			-20.077			-2.008
112701.000			-20.076			-2.008
112801.000			-20.076			-2.008
112900.000			-20.076			-2.008
113000.000			-20.075			-2.007
113101.000			-20.074			-2.007
113200.000			-20.073			-2.007
113300.000			-20.073			-2.007
113402.000			-20.073			-2.007
113501.000			-20.073			-2.007
113600.000			-20.072			-2.007
113701.000			-20.072			-2.007
113800.000			-20.072			-2.007
113900.000			-20.070			-2.007
114001.000			-20.070			-2.007
114100.000			-20.070			-2.007
114201.000			-20.070			-2.007
114302.000			-20.070			-2.007
114400.000			-20.069			-2.007
114500.000			-20.068			-2.007
114601.000			-20.067			-2.007
114700.000			-20.067			-2.007
114800.000			-20.066			-2.007
114901.000			-20.066			-2.007
115001.000			-20.066			-2.007
115102.000			-20.066			-2.007
115200.000			-20.064			-2.006
115300.000			-20.063			-2.006
115401.000			-20.064			-2.006
115500.000			-20.063			-2.006
115600.000			-20.063			-2.006
115701.000			-20.062			-2.006
115801.000			-20.063			-2.006
115901.000			-20.062			-2.006
116001.000			-20.060			-2.006
116100.000			-20.060			-2.006
116200.000			-20.061			-2.006
116301.000			-20.061			-2.006
116400.000			-20.059			-2.006
116500.000			-20.059			-2.006
116602.000			-20.059			-2.006
116701.000			-20.059			-2.006
116800.000			-20.058			-2.006
116901.000			-20.057			-2.006
117000.000			-20.057			-2.006
117100.000			-20.056			-2.006
117201.000			-20.056			-2.006
117300.000			-20.055			-2.006
117401.000			-20.055			-2.006
117502.000			-20.054			-2.005
117600.000			-20.054			-2.005
117700.000			-20.054			-2.005
117801.000			-20.053			-2.005
117900.000			-20.053			-2.005
118000.000			-20.052			-2.005
118101.000			-20.052			-2.005
118201.000			-20.052			-2.005
118302.000			-20.051			-2.005
118401.000			-20.051			-2.005
118500.000			-20.050			-2.005
118601.000			-20.050			-2.005
118700.000			-20.050			-2.005
118800.000			-20.050			-2.005
118901.000			-20.048			-2.005
119000.000			-20.048			-2.005
119101.000			-20.048			-2.005
119202.000			-20.048			-2.005
119300.000			-20.047			-2.005
119400.000			-20.047			-2.005
119501.000			-20.047			-2.005
119600.000			-20.047			-2.005
119700.000			-20.047			-2.005
119801.000			-20.045			-2.005
119901.000			-20.045			-2.004
120001.000			-20.044			-2.004
120101.000			-20.044			-2.004
120200.000			-20.043			-2.004
120300.000			-20.044			-2.004
120401.000			-20.042			-2.004
120500.000			-20.042			-2.004
120600.000			-20.041			-2.004
120702.000			-20.041			-2.004
120801.000			-20.041			-2.004
120900.000			-20.040			-2.004
121001.000			-20.040			-2.004
121100.000			-20.039			-2.004
121200.000			-20.038			-2.004
121301.000			-20.039			-2.004
121400.000			-20.038			-2.004
121502.000			-20.037			-2.004
121601.000			-20.037			-2.004
121700.000			-20.038			-2.004
121801.000			-20.037			-2.004
121900.000			-20.036			-2.004
122000.000			-20.036			-2.004
122101.000			-20.035			-2.004
122200.000			-20.035			-2.003
122301.000			-20.034			-2.003
122402.000			-20.034			-2.003
122500.000			-20.033			-2.003
122600.000			-20.033			-2.003
122701.000			-20.033			-2.003
122800.000			-20.033			-2.003
122900.000			-20.032			-2.003
123001.000			-20.033			-2.003
123101.000			-20.032			-2.003
123201.000			-20.030			-2.003
123301.000			-20.030			-2.003
123400.000			-20.029			-2.003
123500.000			-20.028			-2.003
123601.000			-20.028			-2.003
123700.000			-20.028			-2.003
123800.000			-20.028			-2.003
123902.000			-20.027			-2.003
124001.000			-20.027			-2.003
124100.000			-20.027			-2.003
124201.000			-20.026			-2.003
124300.000			-20.026			-2.003
124400.000			-20.026			-2.003
124501.000			-20.025			-2.002
124600.000			-20.025			-2.003
124702.000			-20.025			-2.002
124801.000			-20.024			-2.002
124900.000			-20.024			-2.002
125001.000			-20.023			-2.002
125100.000			-20.022			-2.002
125200.000			-20.021			-2.002
125301.000			-20.022			-2.002
125400.000			-20.021			-2.002
125501.000			-20.020			-2.002
125602.000			-20.020			-2.002
125700.000			-20.020			-2.002
125800.000			-20.019			-2.002
125901.000			-20.018			-2.002
126000.000			-20.018			-2.002
126100.000			-20.018			-2.002
126201.000			-20.018			-2.002
126301.000			-20.017			-2.002
126401.000			-20.017			-2.002
126501.000			-20.017			-2.002
126600.000			-20.016			-2.002
126700.000			-20.015			-2.001
126801.000			-20.015			-2.001
126900.000			-20.015			-2.001
127000.000			-20.014			-2.001
127102.000			-20.014			-2.001
127201.000			-20.015			-2.001
127300.000			-20.013			-2.001
127401.000			-20.012			-2.001
127500.000			-20.012			-2.001
127600.000			-20.012			-2.001
127701.000			-20.010			-2.001
127800.000			-20.011			-2.001
127902.000			-20.011			-2.001
128001.000			-20.010			-2.001
128100.000			-20.009			-2.001
128201.000			-20.010			-2.001
128300.000			-20.009			-2.001
128400.000			-20.008			-2.001
128501.000			-20.008			-2.001
128600.000			-20.009			-2.001
128701.000			-20.008			-2.001
128802.000			-20.007			-2.001
128900.000			-20.006			-2.001
129000.000			-20.006			-2.001
129101.000			-20.006			-2.001
129200.000			-20.005			-2.001
129300.000			-20.006			-2.001
129401.000			-20.005			-2.001
129501.000			-20.004			-2.000
129601.000			-20.004			-2.000
129701.000			-20.003			-2.000
129800.000			-20.004			-2.000
129900.000			-20.003			-2.000
130001.000			-20.001			-2.000
130100.000			-20.002			-2.000
130200.000			-20.002			-2.000
130302.000			-20.001			-2.000
130401.000			-20.001			-2.000
130500.000			-20.000			-2.000
130601.000			-19.999			-2.000
130700.000			-20.000			-2.000
130800.000			-20.000			-2.000
130901.000			-19.998			-2.000
131000.000			-19.998			-2.000
131100.000			-19.998			-2.000
131202.000			-19.997			-2.000
131301.000			-19.997			-2.000
131401.000			-19.997			-2.000
131500.000			-19.997			-2.000
131600.000			-19.996			-2.000
131701.000			-19.996			-2.000
131800.000			-19.994			-1.999
131900.000			-19.995			-1.999
132001.000			-19.995			-1.999
132101.000			-19.993			-1.999
132201.000			-19.993			-1.999
132302.000			-19.993			-1.999
132400.000			-19.993			-1.999
132500.000			-19.993			-1.999
132601.000			-19.992			-1.999
132700.000			-19.992			-1.999
132800.000			-19.991			-1.999
132901.000			-19.991			-1.999
133000.000			-19.990			-1.999
133101.000			-19.990			-1.999
133202.000			-19.990			-1.999
133301.000			-19.990			-1.999
133400.000			-19.989			-1.999
133501.000			-19.989			-1.999
133600.000			-19.988			-1.999
133700.000			-19.987			-1.999
133801.000			-19.988			-1.999
133900.000			-19.987			-1.999
134000.000			-19.986			-1.999
134102.000			-19.986			-1.999
134201.000			-19.985			-1.999
134302.000			-19.986			-1.999
134400.000			-19.985			-1.998
134500.000			-19.984			-1.998
134601.000			-19.985			-1.999
134700.000			-19.984			-1.998
134800.000			-19.983			-1.998
134901.000			-19.984			-1.998
135000.000			-19.983			-1.998
135101.000			-19.983			-1.998
135202.000			-19.982			-1.998
135301.000			-19.981			-1.998
135400.000			-19.981			-1.998
135501.000			-19.980			-1.998
135600.000			-19.980			-1.998
135700.000			-19.980			-1.998
135801.000			-19.980			-1.998
135900.000			-19.980			-1.998
136000.000			-19.979			-1.998
136102.000			-19.979			-1.998
136201.000			-19.979			-1.998
136300.000			-19.976			-1.998
136401.000			-19.977			-1.998
136500.000			-19.978			-1.998
136600.000			-19.976			-1.998
136701.000			-19.976			-1.998
136800.000			-19.976			-1.998
136900.000			-19.976			-1.998
137001.000			-19.975			-1.998
137101.000			-19.974			-1.997
137201.000			-19.974			-1.997
137301.000			-19.974			-1.997
137400.000			-19.974			-1.997
137500.000			-19.974			-1.997
137600.000			-19.973			-1.997
137700.000			-19.973			-1.997
137801.000			-19.972			-1.997
137900.000			-19.970			-1.997
138001.000			-19.970			-1.997
138102.000			-19.971			-1.997
138201.000			-19.971			-1.997
138300.000			-19.971			-1.997
138401.000			-19.970			-1.997
138500.000			-19.970			-1.997
138600.000			-19.969			-1.997
138701.000			-19.970			-1.997
138800.000			-19.969			-1.997
138900.000			-19.968			-1.997
139002.000			-19.968			-1.997
139101.000			-19.968			-1.997
139201.000			-19.967			-1.997
139301.000			-19.966			-1.997
139400.000			-19.966			-1.997
139500.000			-19.966			-1.997
139601.000			-19.965			-1.997
139700.000			-19.966			-1.997
139800.000			-19.966			-1.997
139901.000			-19.965			-1.996
140001.000			-19.964			-1.996
140101.000			-19.964			-1.996
140202.000			-19.964			-1.996
140300.000			-19.963			-1.996
140400.000			-19.963			-1.996
140501.000			-19.964			-1.996
140600.000			-19.963			-1.996
140700.000			-19.961			-1.996
140800.000			-19.961			-1.996
140900.000			-19.961			-1.996
141002.000			-19.961			-1.996
141101.000			-19.960			-1.996
141200.000			-19.960			-1.996
141301.000			-19.959			-1.996
141400.000			-19.958			-1.996
141500.000			-19.958			-1.996
141601.000			-19.958			-1.996
141700.000			-19.957			-1.996
141800.000			-19.957			-1.996
141902.000			-19.957			-1.996
142001.000			-19.956			-1.996
142101.000			-19.956			-1.996
142201.000			-19.956			-1.996
142300.000			-19.956			-1.996
142400.000			-19.955			-1.996
142501.000			-19.954			-1.995
142600.000			-19.954			-1.995
142700.000			-19.954			-1.995
142801.000			-19.953			-1.995
142901.000			-19.953			-1.995
143001.000			-19.953			-1.995
143101.000			-19.953			-1.995
143200.000			-19.952			-1.995
143300.000			-19.952			-1.995
143401.000			-19.951			-1.995
143500.000			-19.951			-1.995
143600.000			-19.951			-1.995
143701.000			-19.950			-1.995
143801.000			-19.950			-1.995
143902.000			-19.950			-1.995
144001.000			-19.949			-1.995
144100.000			-19.949			-1.995
144201.000			-19.948			-1.995
144300.000			-19.947			-1.995
144400.000			-19.947			-1.995
144501.000			-19.947			-1.995
144600.000			-19.946			-1.995
144700.000			-19.946			-1.995
144802.000			-19.946			-1.995
144901.000			-19.946			-1.995
145001.000			-19.945			-1.994
145101.000			-19.944			-1.994
145200.000			-19.944			-1.994
145300.000			-19.944			-1.994
145401.000			-19.944			-1.994
145500.000			-19.943			-1.994
145600.000			-19.943			-1.994
145701.000			-19.942			-1.994
145801.000			-19.943			-1.994
145901.000			-19.943			-1.994
146001.000			-19.942			-1.994
146100.000			-19.940			-1.994
146200.000			-19.940			-1.994
146301.000			-19.940			-1.994
146400.000			-19.940			-1.994
146500.000			-19.939			-1.994
146601.000			-19.939			-1.994
146701.000			-19.940			-1.994
146801.000			-19.938			-1.994
146902.000			-19.938			-1.994
147000.000			-19.939			-1.994
147100.000			-19.939			-1.994
147200.000			-19.936			-1.994
147300.000			-19.937			-1.994
147401.000			-19.936			-1.994
147500.000			-19.936			-1.994
147600.000			-19.936			-1.994
147702.000			-19.935			-1.994
147801.000			-19.935			-1.993
147901.000			-19.935			-1.993
148001.000			-19.935			-1.994
148100.000			-19.934			-1.993
148200.000			-19.933			-1.993
148301.000			-19.933			-1.993
148400.000			-19.932			-1.993
148500.000			-19.932			-1.993
148601.000			-19.932			-1.993
148701.000			-19.933			-1.993
148801.000			-19.932			-1.993
148902.000			-19.931			-1.993
149000.000			-19.931			-1.993
149100.000			-19.930			-1.993
149201.000			-19.930			-1.993
149300.000			-19.930			-1.993
149400.000			-19.929			-1.993
149501.000			-19.928			-1.993
149600.000			-19.928			-1.993
149701.000			-19.928			-1.993
149802.000			-19.928			-1.993
149901.000			-19.927			-1.993
150000.000			-19.927			-1.993
150101.000			-19.926			-1.993
150200.000			-19.926			-1.993
150300.000			-19.927			-1.993
150400.000			-19.926			-1.993
150500.000			-19.926			-1.993
150601.000			-19.926			-1.993
150701.000			-19.925			-1.992
150801.000			-19.925			-1.992
150901.000			-19.924			-1.992
151000.000			-19.924			-1.992
151100.000			-19.924			-1.992
151201.000			-19.923			-1.992
151300.000			-19.923			-1.992
151400.000			-19.922			-1.992
151501.000			-19.923			-1.992
151601.000			-19.922			-1.992
151701.000			-19.922			-1.992
151802.000			-19.922			-1.992
151900.000			-19.921			-1.992
152000.000			-19.920			-1.992
152101.000			-19.920			-1.992
152200.000			-19.920			-1.992
152300.000			-19.919			-1.992
152401.000			-19.920			-1.992
152501.000			-19.920			-1.992
152601.000			-19.919			-1.992
152702.000			-19.919			-1.992
152800.000			-19.918			-1.992
152900.000			-19.917			-1.992
153001.000			-19.917			-1.992
153100.000			-19.917			-1.992
153200.000			-19.917			-1.992
153301.000			-19.916			-1.992
153400.000			-19.916			-1.992
153500.000			-19.916			-1.992
153602.000			-19.915			-1.991
153701.000			-19.914			-1.991
153801.000			-19.915			-1.991
153900.000			-19.915			-1.991
154000.000			-19.914			-1.991
154101.000			-19.915			-1.992
154200.000			-19.914			-1.991
154300.000			-19.913			-1.991
154401.000			-19.912			-1.991
154501.000			-19.913			-1.991
154601.000			-19.913			-1.991
154701.000			-19.912			-1.991
154800.000			-19.911			-1.991
154900.000			-19.911			-1.991
155001.000			-19.911			-1.991
155100.000			-19.911			-1.991
155200.000			-19.910			-1.991
155301.000			-19.909			-1.991
155401.000			-19.909			-1.991
155501.000			-19.910			-1.991
155602.000			-19.909			-1.991
155700.000			-19.909			-1.991
155800.000			-19.909			-1.991
155901.000			-19.908			-1.991
156000.000			-19.907			-1.991
156100.000			-19.907			-1.991
156201.000			-19.906			-1.991
156300.000			-19.906			-1.991
156401.000			-19.906			-1.991
156502.000			-19.907			-1.991
156601.000			-19.904			-1.990
156700.000			-19.904			-1.990
156800.000			-19.904			-1.990
156900.000			-19.903			-1.990
157001.000			-19.904			-1.990
157100.000			-19.903			-1.990
157200.000			-19.903			-1.990
157301.000			-19.902			-1.990
157401.000			-19.902			-1.990
157501.000			-19.901			-1.990
157601.000			-19.901			-1.990
157700.000			-19.901			-1.990
157800.000			-19.901			-1.990
157901.000			-19.900			-1.990
158000.000			-19.901			-1.990
158100.000			-19.900			-1.990
158201.000			-19.898			-1.990
158301.000			-19.898			-1.990
158401.000			-19.898			-1.990
158502.000			-19.899			-1.990
158600.000			-19.899			-1.990
158700.000			-19.897			-1.990
158801.000			-19.896			-1.990
158900.000			-19.896			-1.990
159000.000			-19.896			-1.990
159101.000			-19.896			-1.990
159200.000			-19.895			-1.989
159301.000			-19.895			-1.990
159402.000			-19.895			-1.989
159501.000			-19.895			-1.989
159600.000			-19.895			-1.990
159701.000			-19.894			-1.989
159800.000			-19.893			-1.989
159900.000			-19.894			-1.989
160000.000			-19.895			-1.989
160100.000			-19.893			-1.989
160201.000			-19.892			-1.989
160301.000			-19.892			-1.989
160401.000			-19.891			-1.989
160502.000			-19.891			-1.989
160600.000			-19.892			-1.989
160700.000			-19.890			-1.989
160801.000			-19.890			-1.989
160900.000			-19.891			-1.989
161000.000			-19.890			-1.989
161101.000			-19.890			-1.989
161200.000			-19.889			-1.989
161301.000			-19.889			-1.989
161402.000			-19.890			-1.989
161500.000			-19.890			-1.989
161600.000			-19.887			-1.989
161701.000			-19.888			-1.989
161800.000			-19.888			-1.989
161900.000			-19.887			-1.989
162001.000			-19.886			-1.989
162100.000			-19.888			-1.989
162200.000			-19.887			-1.989
162302.000			-19.886			-1.989
162401.000			-19.885			-1.988
162500.000			-19.885			-1.989
162601.000			-19.886			-1.989
162700.000			-19.885			-1.989
162800.000			-19.884			-1.988
162901.000			-19.882			-1.988
163000.000			-19.882			-1.988
163100.000			-19.883			-1.988
163202.000			-19.883			-1.988
163301.000			-19.882			-1.988
163402.000			-19.882			-1.988
163500.000			-19.882			-1.988
163600.000			-19.881			-1.988
163701.000			-19.880			-1.988
163800.000			-19.880			-1.988
163900.000			-19.880			-1.988
164001.000			-19.880			-1.988
164100.000			-19.880			-1.988
164201.000			-19.879			-1.988
164302.000			-19.879			-1.988
164401.000			-19.878			-1.988
164500.000			-19.879			-1.988
164601.000			-19.876			-1.988
164700.000			-19.877			-1.988
164800.000			-19.877			-1.988
164901.000			-19.876			-1.988
165000.000			-19.876			-1.988
165100.000			-19.877			-1.988
165202.000			-19.876			-1.988
165301.000			-19.876			-1.988
165401.000			-19.875			-1.988
165501.000			-19.874			-1.987
165600.000			-19.875			-1.987
165700.000			-19.875			-1.988
165801.000			-19.875			-1.987
165900.000			-19.874			-1.987
166000.000			-19.874			-1.987
166101.000			-19.873			-1.987
166201.000			-19.872			-1.987
166302.000			-19.873			-1.987
166401.000			-19.873			-1.987
166500.000			-19.873			-1.987
166601.000			-19.872			-1.987
166700.000			-19.871			-1.987
166800.000			-19.870			-1.987
166901.000			-19.870			-1.987
167000.000			-19.870			-1.987
167100.000			-19.870			-1.987
167202.000			-19.870			-1.987
167301.000			-19.868			-1.987
167401.000			-19.868			-1.987
167501.000			-19.867			-1.987
167600.000			-19.868			-1.987
167700.000			-19.868			-1.987
167801.000			-19.868			-1.987
167900.000			-19.868			-1.987
168000.000			-19.868			-1.987
168101.000			-19.868			-1.987
168201.000			-19.866			-1.987
168301.000			-19.866			-1.987
168402.000			-19.866			-1.987
168500.000			-19.866			-1.987
168600.000			-19.865			-1.986
168701.000			-19.864			-1.986
168800.000			-19.864			-1.986
168900.000			-19.864			-1.986
169001.000			-19.864			-1.986
169100.000			-19.863			-1.986
169201.000			-19.863			-1.986
169302.000			-19.863			-1.986
169401.000			-19.863			-1.986
169500.000			-19.863			-1.986
169600.000			-19.862			-1.986
169700.000			-19.862			-1.986
169801.000			-19.861			-1.986
169900.000			-19.861			-1.986
170000.000			-19.861			-1.986
170101.000			-19.860			-1.986
170201.000			-19.861			-1.986
170301.000			-19.860			-1.986
170402.000			-19.860			-1.986
170500.000			-19.859			-1.986
170600.000			-19.859			-1.986
170701.000			-19.858			-1.986
170800.000			-19.858			-1.986
170900.000			-19.858			-1.986
171001.000			-19.859			-1.986
171100.000			-19.857			-1.986
171201.000			-19.857			-1.986
171302.000			-19.857			-1.986
171401.000			-19.857			-1.986
171500.000			-19.857			-1.986
171601.000			-19.857			-1.986
171700.000			-19.857			-1.986
171800.000			-19.856			-1.986
171901.000			-19.856			-1.986
172000.000			-19.856			-1.986
172100.000			-19.856			-1.986
172202.000			-19.854			-1.985
172301.000			-19.854			-1.985
172400.000			-19.855			-1.985
172501.000			-19.854			-1.985
172600.000			-19.853			-1.985
172700.000			-19.852			-1.985
172800.000			-19.852			-1.985
172900.000			-19.852			-1.985
173001.000			-19.853			-1.985
173101.000			-19.852			-1.985
173201.000			-19.851			-1.985
173302.000			-19.851			-1.985
173400.000			-19.850			-1.985
173500.000			-19.850			-1.985
173601.000			-19.850			-1.985
173700.000			-19.850			-1.985
173800.000			-19.850			-1.985
173901.000			-19.850			-1.985
174000.000			-19.848			-1.985
174101.000			-19.848			-1.985
174202.000			-19.848			-1.985
174301.000			-19.848			-1.985
174400.000			-19.848			-1.985
174501.000			-19.848			-1.985
174600.000			-19.848			-1.985
174700.000			-19.847			-1.985
174801.000			-19.846			-1.985
174900.000			-19.847			-1.985
175000.000			-19.847			-1.985
175102.000			-19.847			-1.985
175201.000			-19.845			-1.984
175301.000			-19.845			-1.985
175401.000			-19.844			-1.984
175500.000			-19.844			-1.984
175600.000			-19.844			-1.984
175701.000			-19.845			-1.984
175800.000			-19.844			-1.984
175900.000			-19.843			-1.984
176000.000			-19.843			-1.984
176101.000			-19.844			-1.984
176202.000			-19.842			-1.984
176301.000			-19.841			-1.984
176400.000			-19.842			-1.984
176501.000			-19.841			-1.984
176600.000			-19.840			-1.984
176700.000			-19.841			-1.984
176801.000			-19.841			-1.984
176900.000			-19.841			-1.984
177000.000			-19.840			-1.984
177102.000			-19.839			-1.984
177201.000			-19.839			-1.984
177300.000			-19.840			-1.984
177401.000			-19.840			-1.984
177500.000			-19.839			-1.984
177600.000			-19.838			-1.984
177701.000			-19.838			-1.984
177800.000			-19.838			-1.984
177900.000			-19.838			-1.984
178001.000			-19.837			-1.984
178101.000			-19.837			-1.984
178201.000			-19.837			-1.984
178301.000			-19.836			-1.984
178400.000			-19.836			-1.984
178500.000			-19.836			-1.984
178601.000			-19.834			-1.983
178700.000			-19.835			-1.983
178800.000			-19.835			-1.983
178901.000			-19.834			-1.983
179000.000			-19.835			-1.983
179102.000			-19.834			-1.983
179201.000			-19.833			-1.983
179300.000			-19.832			-1.983
179401.000			-19.833			-1.983
179500.000			-19.833			-1.983
179600.000			-19.833			-1.983
179701.000			-19.832			-1.983
179800.000			-19.831			-1.983
179900.000			-19.830			-1.983
180001.000			-19.831			-1.983
180101.000			-19.831			-1.983
180201.000			-19.831			-1.983
180301.000			-19.831			-1.983
180400.000			-19.830			-1.983
180500.000			-19.831			-1.983
180601.000			-19.830			-1.983
180700.000			-19.830			-1.983
180800.000			-19.829			-1.983
180901.000			-19.829			-1.983
181001.000			-19.829			-1.983
181101.000			-19.828			-1.983
181202.000			-19.828			-1.983
181300.000			-19.827			-1.983
181400.000			-19.828			-1.983
181501.000			-19.828			-1.983
181600.000			-19.828			-1.983
181700.000			-19.827			-1.983
181801.000			-19.826			-1.983
181900.000			-19.826			-1.983
182001.000			-19.825			-1.983
182102.000			-19.825			-1.982
182201.000			-19.824			-1.982
182300.000			-19.823			-1.982
182400.000			-19.823			-1.982
182500.000			-19.824			-1.982
182601.000			-19.824			-1.982
182700.000			-19.823			-1.982
182800.000			-19.822			-1.982
182901.000			-19.821			-1.982
183001.000			-19.822			-1.982
183101.000			-19.821			-1.982
183201.000			-19.821			-1.982
183300.000			-19.821			-1.982
183400.000			-19.822			-1.982
183501.000			-19.822			-1.982
183600.000			-19.821			-1.982
183700.000			-19.821			-1.982
183801.000			-19.821			-1.982
183901.000			-19.820			-1.982
184001.000			-19.820			-1.982
184102.000			-19.819			-1.982
184200.000			-19.819			-1.982
184300.000			-19.818			-1.982
184401.000			-19.818			-1.982
184500.000			-19.818			-1.982
184600.000			-19.819			-1.982
184701.000			-19.817			-1.982
184800.000			-19.816			-1.982
184901.000			-19.816			-1.982
185002.000			-19.817			-1.982
185101.000			-19.816			-1.982
185200.000			-19.816			-1.982
185301.000			-19.816			-1.982
185400.000			-19.816			-1.982
185500.000			-19.815			-1.981
185600.000			-19.815			-1.981
185700.000			-19.814			-1.981
185801.000			-19.815			-1.981
185901.000			-19.814			-1.981
186001.000			-19.813			-1.981
186101.000			-19.813			-1.981
186200.000			-19.813			-1.981
186300.000			-19.813			-1.981
186401.000			-19.811			-1.981
186500.000			-19.811			-1.981
186600.000			-19.812			-1.981
186701.000			-19.811			-1.981
186800.000			-19.811			-1.981
186901.000			-19.811			-1.981
187002.000			-19.810			-1.981
187100.000			-19.810			-1.981
187200.000			-19.810			-1.981
187301.000			-19.809			-1.981
187400.000			-19.809			-1.981
187500.000			-19.809			-1.981
187601.000			-19.808			-1.981
187700.000			-19.808			-1.981
187801.000			-19.808			-1.981
187902.000			-19.808			-1.981
188001.000			-19.808			-1.981
188100.000			-19.808			-1.981
188201.000			-19.808			-1.981
188300.000			-19.808			-1.981
188400.000			-19.808			-1.981
188501.000			-19.806			-1.981
188600.000			-19.805			-1.981
188700.000			-19.805			-1.981
188802.000			-19.804			-1.980
188901.000			-19.805			-1.980
189002.000			-19.805			-1.980
189100.000			-19.804			-1.980
189200.000			-19.804			-1.980
189301.000			-19.804			-1.980
189400.000			-19.803			-1.980
189500.000			-19.803			-1.980
189601.000			-19.803			-1.980
189700.000			-19.803			-1.980
189801.000			-19.802			-1.980
189902.000			-19.803			-1.980
190001.000			-19.803			-1.980
190100.000			-19.802			-1.980
190201.000			-19.801			-1.980
190300.000			-19.801			-1.980
190400.000			-19.801			-1.980
190501.000			-19.801			-1.980
190600.000			-19.799			-1.980
190700.000			-19.798			-1.980
190802.000			-19.799			-1.980
190901.000			-19.799			-1.980
191000.000			-19.800			-1.980
191101.000			-19.800			-1.980
191200.000			-19.799			-1.980
191300.000			-19.798			-1.980
191401.000			-19.798			-1.980
191500.000			-19.797			-1.980
191600.000			-19.796			-1.980
191701.000			-19.796			-1.980
191801.000			-19.797			-1.980
191902.000			-19.797			-1.980
192001.000			-19.797			-1.980
192100.000			-19.795			-1.979
192201.000			-19.795			-1.980
192300.000			-19.795			-1.980
192400.000			-19.795			-1.980
192501.000			-19.795			-1.980
192600.000			-19.795			-1.980
192700.000			-19.794			-1.979
192802.000			-19.795			-1.979
192901.000			-19.795			-1.979
193000.000			-19.793			-1.979
193101.000			-19.793			-1.979
193200.000			-19.793			-1.979
193300.000			-19.792			-1.979
193401.000			-19.792			-1.979
193500.000			-19.793			-1.979
193600.000			-19.793			-1.979
193701.000			-19.792			-1.979
193801.000			-19.791			-1.979
193901.000			-19.790			-1.979
194001.000			-19.790			-1.979
194100.000			-19.789			-1.979
194200.000			-19.790			-1.979
194301.000			-19.789			-1.979
194400.000			-19.790			-1.979
194500.000			-19.790			-1.979
194601.000			-19.789			-1.979
194700.000			-19.788			-1.979
194801.000			-19.788			-1.979
194902.000			-19.788			-1.979
195000.000			-19.787			-1.979
195100.000			-19.787			-1.979
195200.000			-19.787			-1.979
195300.000			-19.787			-1.979
195401.000			-19.787			-1.979
195500.000			-19.786			-1.979
195600.000			-19.787			-1.979
195701.000			-19.787			-1.979
195801.000			-19.788			-1.979
195901.000			-19.787			-1.979
196002.000			-19.785			-1.978
196100.000			-19.784			-1.978
196200.000			-19.785			-1.978
196301.000			-19.786			-1.979
196400.000			-19.783			-1.978
196500.000			-19.784			-1.978
196601.000			-19.784			-1.978
196700.000			-19.782			-1.978
196801.000			-19.783			-1.978
196902.000			-19.783			-1.978
197001.000			-19.782			-1.978
197100.000			-19.781			-1.978
197201.000			-19.781			-1.978
197300.000			-19.780			-1.978
197400.000			-19.780			-1.978
197501.000			-19.780			-1.978
197600.000			-19.780			-1.978
197700.000			-19.780			-1.978
197802.000			-19.780			-1.978
197901.000			-19.781			-1.978
198001.000			-19.780			-1.978
198101.000			-19.779			-1.978
198200.000			-19.779			-1.978
198300.000			-19.779			-1.978
198400.000			-19.779			-1.978
198500.000			-19.778			-1.978
198601.000			-19.778			-1.978
198700.000			-19.778			-1.978
198800.000			-19.777			-1.978
198902.000			-19.777			-1.978
199001.000			-19.777			-1.978
199100.000			-19.777			-1.978
199201.000			-19.777			-1.978
199300.000			-19.775			-1.978
199400.000			-19.776			-1.978
199501.000			-19.776			-1.978
199600.000			-19.775			-1.977
199700.000			-19.774			-1.977
199801.000			-19.775			-1.977
199901.000			-19.774			-1.977
200001.000			-19.774			-1.977
200101.000			-19.774			-1.977
200200.000			-19.774			-1.977
200300.000			-19.774			-1.977
200401.000			-19.774			-1.977
200500.000			-19.773			-1.977
200600.000			-19.772			-1.977
200701.000			-19.772			-1.977
200801.000			-19.772			-1.977
200901.000			-19.772			-1.977
201002.000			-19.771			-1.977
201100.000			-19.770			-1.977
201200.000			-19.771			-1.977
201301.000			-19.770			-1.977
201400.000			-19.771			-1.977
201500.000			-19.771			-1.977
201600.000			-19.770			-1.977
201700.000			-19.769			-1.977
201802.000			-19.770			-1.977
201901.000			-19.769			-1.977
202000.000			-19.769			-1.977
202101.000			-19.770			-1.977
202200.000			-19.768			-1.977
202300.000			-19.768			-1.977
202401.000			-19.769			-1.977
202500.000			-19.768			-1.977
202600.000			-19.768			-1.977
202702.000			-19.767			-1.977
202801.000			-19.767			-1.977
202901.000			-19.767			-1.977
203001.000			-19.766			-1.977
203100.000			-19.766			-1.977
203200.000			-19.766			-1.977
203301.000			-19.766			-1.977
203400.000			-19.766			-1.977
203500.000			-19.765			-1.977
203601.000			-19.765			-1.977
203701.000			-19.763			-1.976
203801.000			-19.764			-1.976
203901.000			-19.764			-1.976
204000.000			-19.764			-1.976
204100.000			-19.763			-1.976
204201.000			-19.763			-1.976
204300.000			-19.762			-1.976
204400.000			-19.762			-1.976
204501.000			-19.762			-1.976
204601.000			-19.762			-1.976
204702.000			-19.763			-1.976
204801.000			-19.762			-1.976
204900.000			-19.762			-1.976
205001.000			-19.761			-1.976
205100.000			-19.760			-1.976
205200.000			-19.761			-1.976
205301.000			-19.760			-1.976
205400.000			-19.760			-1.976
205500.000			-19.760			-1.976
205602.000			-19.760			-1.976
205701.000			-19.760			-1.976
205800.000			-19.759			-1.976
205901.000			-19.758			-1.976
206000.000			-19.759			-1.976
206100.000			-19.759			-1.976
206201.000			-19.759			-1.976
206300.000			-19.758			-1.976
206400.000			-19.758			-1.976
206502.000			-19.758			-1.976
206601.000			-19.756			-1.976
206701.000			-19.756			-1.976
206801.000			-19.756			-1.976
206900.000			-19.757			-1.976
207000.000			-19.757			-1.976
207101.000			-19.756			-1.976
207200.000			-19.755			-1.976
207300.000			-19.756			-1.976
207401.000			-19.755			-1.976
207501.000			-19.756			-1.976
207601.000			-19.756			-1.976
207701.000			-19.755			-1.975
207800.000			-19.754			-1.975
207900.000			-19.755			-1.975
208000.000			-19.754			-1.975
208100.000			-19.754			-1.975
208201.000			-19.754			-1.975
208300.000			-19.754			-1.975
208400.000			-19.753			-1.975
208502.000			-19.752			-1.975
208601.000			-19.752			-1.975
208700.000			-19.752			-1.975
208801.000			-19.752			-1.975
208900.000			-19.751			-1.975
209000.000			-19.752			-1.975
209101.000			-19.752			-1.975
209200.000			-19.750			-1.975
209300.000			-19.750			-1.975
209402.000			-19.750			-1.975
209501.000			-19.750			-1.975
209601.000			-19.749			-1.975
209701.000			-19.748			-1.975
209800.000			-19.749			-1.975
209900.000			-19.749			-1.975
210001.000			-19.749			-1.975
210100.000			-19.748			-1.975
210200.000			-19.748			-1.975
210301.000			-19.747			-1.975
210401.000			-19.747			-1.975
210501.000			-19.747			-1.975
210601.000			-19.747			-1.975
210700.000			-19.747			-1.975
210800.000			-19.748			-1.975
210901.000			-19.747			-1.975
211000.000			-19.747			-1.975
211100.000			-19.747			-1.975
211200.000			-19.747			-1.975
211301.000			-19.746			-1.975
211402.000			-19.746			-1.975
211501.000			-19.745			-1.975
211600.000			-19.744			-1.974
211701.000			-19.744			-1.974
211800.000			-19.744			-1.974
211900.000			-19.743			-1.974
212001.000			-19.744			-1.974
212100.000			-19.743			-1.974
212201.000			-19.744			-1.974
212302.000			-19.743			-1.974
212401.000			-19.744			-1.974
212500.000			-19.743			-1.974
212601.000			-19.742			-1.974
212700.000			-19.742			-1.974
212800.000			-19.741			-1.974
212901.000			-19.742			-1.974
213000.000			-19.741			-1.974
213100.000			-19.741			-1.974
213202.000			-19.741			-1.974
213301.000			-19.741			-1.974
213400.000			-19.741			-1.974
213501.000			-19.740			-1.974
213600.000			-19.740			-1.974
213700.000			-19.740			-1.974
213801.000			-19.740			-1.974
213900.000			-19.740			-1.974
214000.000			-19.739			-1.974
214102.000			-19.738			-1.974
214201.000			-19.738			-1.974
214302.000			-19.738			-1.974
214400.000			-19.737			-1.974
214500.000			-19.737			-1.974
214601.000			-19.736			-1.974
214700.000			-19.736			-1.974
214800.000			-19.737			-1.974
214901.000			-19.737			-1.974
215000.000			-19.737			-1.974
215101.000			-19.736			-1.974
215202.000			-19.736			-1.974
215300.000			-19.735			-1.973
215400.000			-19.736			-1.974
215501.000			-19.736			-1.974
215600.000			-19.735			-1.973
215700.000			-19.735			-1.973
215801.000			-19.734			-1.973
215900.000			-19.734			-1.973
216001.000			-19.733			-1.973
216102.000			-19.733			-1.973
216201.000			-19.733			-1.973
216300.000			-19.733			-1.973
216401.000			-19.732			-1.973
216500.000			-19.731			-1.973
216600.000			-19.732			-1.973
216701.000			-19.732			-1.973
216800.000			-19.731			-1.973
216900.000			-19.732			-1.973
217002.000			-19.732			-1.973
217101.000			-19.731			-1.973
217200.000			-19.731			-1.973
217301.000			-19.731			-1.973
217400.000			-19.730			-1.973
217500.000			-19.730			-1.973
217600.000			-19.730			-1.973
217700.000			-19.730			-1.973
217801.000			-19.729			-1.973
217901.000			-19.728			-1.973
218001.000			-19.728			-1.973
218102.000			-19.729			-1.973
218200.000			-19.729			-1.973
218300.000			-19.728			-1.973
218401.000			-19.729			-1.973
218500.000			-19.729			-1.973
218600.000			-19.728			-1.973
218701.000			-19.727			-1.973
218800.000			-19.727			-1.973
218901.000			-19.726			-1.973
219002.000			-19.727			-1.973
219100.000			-19.727			-1.973
219200.000			-19.725			-1.973
219301.000			-19.726			-1.973
219400.000			-19.725			-1.973
219500.000			-19.726			-1.973
219601.000			-19.725			-1.973
219700.000			-19.725			-1.972
219800.000			-19.724			-1.972
219902.000			-19.725			-1.972
220001.000			-19.723			-1.972
220100.000			-19.723			-1.972
220201.000			-19.724			-1.972
220300.000			-19.723			-1.972
220400.000			-19.723			-1.972
220501.000			-19.724			-1.972
220600.000			-19.723			-1.972
220700.000			-19.723			-1.972
220802.000			-19.723			-1.972
220901.000			-19.722			-1.972
221001.000			-19.720			-1.972
221100.000			-19.721			-1.972
221200.000			-19.722			-1.972
221301.000			-19.720			-1.972
221400.000			-19.720			-1.972
221500.000			-19.720			-1.972
221601.000			-19.720			-1.972
221701.000			-19.721			-1.972
221801.000			-19.719			-1.972
221901.000			-19.719			-1.972
222000.000			-19.719			-1.972
222100.000			-19.718			-1.972
222201.000			-19.720			-1.972
222300.000			-19.719			-1.972
222400.000			-19.719			-1.972
222501.000			-19.719			-1.972
222601.000			-19.718			-1.972
222701.000			-19.717			-1.972
222802.000			-19.716			-1.972
222900.000			-19.718			-1.972
223000.000			-19.718			-1.972
223101.000			-19.718			-1.972
223200.000			-19.716			-1.972
223300.000			-19.717			-1.972
223401.000			-19.717			-1.972
223500.000			-19.716			-1.972
223601.000			-19.715			-1.972
223702.000			-19.716			-1.972
223800.000			-19.715			-1.971
223900.000			-19.716			-1.972
224000.000			-19.714			-1.971
224100.000			-19.715			-1.971
224201.000			-19.714			-1.971
224300.000			-19.714			-1.971
224400.000			-19.714			-1.971
224502.000			-19.714			-1.971
224601.000			-19.713			-1.971
224700.000			-19.712			-1.971
224801.000			-19.713			-1.971
224900.000			-19.712			-1.971
225000.000			-19.713			-1.971
225101.000			-19.712			-1.971
225200.000			-19.712			-1.971
225300.000			-19.711			-1.971
225402.000			-19.711			-1.971
225501.000			-19.711			-1.971
225601.000			-19.710			-1.971
225701.000			-19.709			-1.971
225800.000			-19.710			-1.971
225900.000			-19.710			-1.971
226001.000			-19.710			-1.971
226100.000			-19.709			-1.971
226200.000			-19.709			-1.971
226302.000			-19.710			-1.971
226401.000			-19.709			-1.971
226501.000			-19.708			-1.971
226601.000			-19.708			-1.971
226700.000			-19.708			-1.971
226800.000			-19.708			-1.971
226901.000			-19.707			-1.971
227000.000			-19.707			-1.971
227100.000			-19.708			-1.971
227200.000			-19.707			-1.971
227301.000			-19.707			-1.971
227402.000			-19.707			-1.971
227501.000			-19.707			-1.971
227600.000			-19.705			-1.970
227701.000			-19.705			-1.970
227800.000			-19.705			-1.971
227900.000			-19.706			-1.971
228001.000			-19.705			-1.970
228100.000			-19.704			-1.970
228200.000			-19.703			-1.970
228302.000			-19.705			-1.970
228401.000			-19.705			-1.970
228500.000			-19.704			-1.970
228601.000			-19.703			-1.970
228700.000			-19.704			-1.970
228800.000			-19.704			-1.970
228901.000			-19.703			-1.970
229000.000			-19.703			-1.970
229100.000			-19.702			-1.970
229202.000			-19.702			-1.970
229301.000			-19.702			-1.970
229400.000			-19.701			-1.970
229501.000			-19.701			-1.970
229600.000			-19.702			-1.970
229700.000			-19.701			-1.970
229801.000			-19.700			-1.970
229900.000			-19.701			-1.970
230000.000			-19.701			-1.970
230102.000			-19.700			-1.970
230201.000			-19.700			-1.970
230302.000			-19.699			-1.970
230400.000			-19.699			-1.970
230500.000			-19.699			-1.970
230601.000			-19.699			-1.970
230700.000			-19.699			-1.970
230800.000			-19.698			-1.970
230901.000			-19.697			-1.970
231000.000			-19.697			-1.970
231101.000			-19.698			-1.970
231202.000			-19.698			-1.970
231301.000			-19.697			-1.970
231400.000			-19.696			-1.970
231501.000			-19.696			-1.970
231600.000			-19.696			-1.970
231700.000			-19.697			-1.970
231801.000			-19.696			-1.970
231900.000			-19.695			-1.970
232000.000			-19.696			-1.970
232102.000			-19.695			-1.970
232201.000			-19.695			-1.970
232300.000			-19.695			-1.969
232401.000			-19.695			-1.969
232500.000			-19.694			-1.969
232600.000			-19.695			-1.969
232701.000			-19.694			-1.969
232800.000			-19.693			-1.969
232900.000			-19.693			-1.969
233002.000			-19.693			-1.969
233101.000			-19.694			-1.969
233201.000			-19.693			-1.969
233301.000			-19.693			-1.969
233400.000			-19.692			-1.969
233500.000			-19.692			-1.969
233600.000			-19.692			-1.969
233700.000			-19.691			-1.969
233801.000			-19.691			-1.969
233900.000			-19.692			-1.969
234001.000			-19.692			-1.969
234102.000			-19.691			-1.969
234200.000			-19.690			-1.969
234300.000			-19.690			-1.969
234401.000			-19.690			-1.969
234500.000			-19.689			-1.969
234600.000			-19.689			-1.969
234701.000			-19.690			-1.969
234800.000			-19.690			-1.969
234900.000			-19.689			-1.969
235002.000			-19.688			-1.969
235101.000			-19.687			-1.969
235200.000			-19.688			-1.969
235301.000			-19.688			-1.969
235400.000			-19.688			-1.969
235500.000			-19.688			-1.969
235601.000			-19.687			-1.969
235700.000			-19.686			-1.969
235800.000			-19.687			-1.969
235902.000			-19.686			-1.969
236001.000			-19.685			-1.969
236101.000			-19.686			-1.969
236201.000			-19.685			-1.969
236300.000			-19.685			-1.968
236400.000			-19.685			-1.969
236501.000			-19.685			-1.968
236600.000			-19.684			-1.968
236700.000			-19.684			-1.968
236800.000			-19.685			-1.968
236901.000			-19.685			-1.968
237002.000			-19.683			-1.968
237101.000			-19.682			-1.968
237200.000			-19.683			-1.968
237301.000			-19.682			-1.968
237400.000			-19.683			-1.968
237500.000			-19.683			-1.968
237601.000			-19.682			-1.968
237700.000			-19.682			-1.968
237800.000			-19.682			-1.968
237902.000			-19.681			-1.968
238001.000			-19.681			-1.968
238101.000			-19.682			-1.968
238201.000			-19.681			-1.968
238300.000			-19.681			-1.968
238400.000			-19.681			-1.968
238501.000			-19.681			-1.968
238600.000			-19.681			-1.968
238700.000			-19.681			-1.968
238801.000			-19.681			-1.968
238901.000			-19.680			-1.968
239001.000			-19.679			-1.968
239101.000			-19.680			-1.968
239200.000			-19.679			-1.968
239300.000			-19.679			-1.968
239401.000			-19.679			-1.968
239500.000			-19.678			-1.968
239600.000			-19.677			-1.968
239701.000			-19.677			-1.968
239800.000			-19.678			-1.968
239902.000			-19.678			-1.968
240001.000			-19.678			-1.968
240100.000			-19.677			-1.968
240201.000			-19.677			-1.968
240300.000			-19.677			-1.968
240400.000			-19.677			-1.968
240501.000			-19.677			-1.968
240600.000			-19.677			-1.968
240700.000			-19.676			-1.968
240802.000			-19.675			-1.967
240901.000			-19.675			-1.967
241001.000			-19.675			-1.968
241101.000			-19.675			-1.968
241200.000			-19.675			-1.967
241300.000			-19.674			-1.967
241401.000			-19.675			-1.967
241500.000			-19.674			-1.967
241600.000			-19.673			-1.967
241701.000			-19.674			-1.967
241801.000			-19.674			-1.967
241901.000			-19.673			-1.967
242001.000			-19.673			-1.967
242100.000			-19.672			-1.967
242200.000			-19.672			-1.967
242301.000			-19.673			-1.967
242400.000			-19.673			-1.967
242500.000			-19.672			-1.967
242601.000			-19.671			-1.967
242701.000			-19.671			-1.967
242801.000			-19.670			-1.967
242902.000			-19.670			-1.967
243000.000			-19.671			-1.967
243100.000			-19.670			-1.967
243200.000			-19.670			-1.967
243300.000			-19.669			-1.967
243401.000			-19.669			-1.967
243500.000			-19.669			-1.967
243600.000			-19.669			-1.967
243702.000			-19.669			-1.967
243801.000			-19.669			-1.967
243901.000			-19.669			-1.967
244001.000			-19.669			-1.967
244100.000			-19.668			-1.967
244200.000			-19.666			-1.967
244301.000			-19.667			-1.967
244400.000			-19.668			-1.967
244500.000			-19.667			-1.967
244601.000			-19.667			-1.967
244701.000			-19.668			-1.967
244801.000			-19.667			-1.967
244902.000			-19.666			-1.967
245000.000			-19.666			-1.967
245100.000			-19.666			-1.967
245201.000			-19.666			-1.967
245300.000			-19.665			-1.967
245400.000			-19.665			-1.967
245501.000			-19.665			-1.966
245600.000			-19.665			-1.967
245701.000			-19.664			-1.966
245802.000			-19.664			-1.966
245900.000			-19.664			-1.966
246000.000			-19.664			-1.966
246101.000			-19.664			-1.966
246200.000			-19.663			-1.966
246300.000			-19.663			-1.966
246400.000			-19.662			-1.966
246500.000			-19.661			-1.966
246602.000			-19.662			-1.966
246701.000			-19.662			-1.966
246801.000			-19.662			-1.966
246901.000			-19.662			-1.966
247000.000			-19.662			-1.966
247100.000			-19.662			-1.966
247201.000			-19.661			-1.966
247300.000			-19.662			-1.966
247400.000			-19.662			-1.966
247501.000			-19.661			-1.966
247601.000			-19.660			-1.966
247701.000			-19.660			-1.966
247801.000			-19.660			-1.966
247900.000			-19.660			-1.966
248000.000			-19.660			-1.966
248101.000			-19.660			-1.966
248200.000			-19.660			-1.966
248300.000			-19.659			-1.966
248401.000			-19.658			-1.966
248500.000			-19.658			-1.966
248601.000			-19.659			-1.966
248702.000			-19.658			-1.966
248801.000			-19.658			-1.966
248900.000			-19.658			-1.966
249001.000			-19.658			-1.966
249100.000			-19.659			-1.966
249200.000			-19.658			-1.966
249301.000			-19.657			-1.966
249400.000			-19.656			-1.966
249500.000			-19.656			-1.966
249602.000			-19.657			-1.966
249701.000			-19.656			-1.966
249802.000			-19.655			-1.966
249900.000			-19.655			-1.966
250000.000			-19.655			-1.966
250101.000			-19.655			-1.965
250200.000			-19.655			-1.966
250300.000			-19.656			-1.966
250401.000			-19.655			-1.966
250500.000			-19.653			-1.965
250601.000			-19.653			-1.965
250702.000			-19.653			-1.965
250801.000			-19.654			-1.965
250900.000			-19.653			-1.965
251001.000			-19.653			-1.965
251100.000			-19.654			-1.965
251200.000			-19.652			-1.965
251301.000			-19.653			-1.965
251400.000			-19.653			-1.965
251500.000			-19.651			-1.965
251602.000			-19.651			-1.965
251701.000			-19.653			-1.965
251800.000			-19.653			-1.965
251901.000			-19.652			-1.965
252000.000			-19.650			-1.965
252100.000			-19.650			-1.965
252201.000			-19.651			-1.965
252300.000			-19.650			-1.965
252400.000			-19.650			-1.965
252502.000			-19.649			-1.965
252601.000			-19.649			-1.965
252700.000			-19.650			-1.965
252800.000			-19.649			-1.965
252900.000			-19.649			-1.965
253001.000			-19.649			-1.965
253100.000			-19.649			-1.965
253200.000			-19.649			-1.965
253301.000			-19.648			-1.965
253400.000			-19.648			-1.965
253501.000			-19.647			-1.965
253602.000			-19.648			-1.965
253700.000			-19.648			-1.965
253800.000			-19.647			-1.965
253901.000			-19.647			-1.965
254000.000			-19.647			-1.965
254100.000			-19.646			-1.965
254201.000			-19.646			-1.965
254300.000			-19.647			-1.965
254400.000			-19.645			-1.964
254502.000			-19.645			-1.965
254601.000			-19.644			-1.964
254700.000			-19.645			-1.964
254801.000			-19.645			-1.965
254900.000			-19.644			-1.964
255000.000			-19.644			-1.964
255101.000			-19.643			-1.964
255200.000			-19.645			-1.964
255300.000			-19.644			-1.964
255402.000			-19.644			-1.964
255501.000			-19.643			-1.964
255601.000			-19.643			-1.964
255701.000			-19.643			-1.964
255800.000			-19.643			-1.964
255900.000			-19.643			-1.964
256000.000			-19.642			-1.964
256100.000			-19.641			-1.964
256201.000			-19.641			-1.964
256300.000			-19.642			-1.964
256401.000			-19.642			-1.964
256502.000			-19.641			-1.964
256600.000			-19.641			-1.964
256700.000			-19.641			-1.964
256801.000			-19.641			-1.964
256900.000			-19.641			-1.964
257000.000			-19.641			-1.964
257101.000			-19.641			-1.964
257200.000			-19.640			-1.964
257301.000			-19.639			-1.964
257402.000			-19.639			-1.964
257501.000			-19.639			-1.964
257600.000			-19.639			-1.964
257701.000			-19.639			-1.964
257800.000			-19.638			-1.964
257900.000			-19.639			-1.964
258001.000			-19.639			-1.964
258100.000			-19.637			-1.964
258200.000			-19.638			-1.964
258302.000			-19.637			-1.964
258401.000			-19.637			-1.964
258501.000			-19.637			-1.964
258601.000			-19.636			-1.964
258700.000			-19.636			-1.964
258800.000			-19.637			-1.964
258901.000			-19.635			-1.964
259000.000			-19.635			-1.963
259100.000			-19.635			-1.964
259200.000			-19.635			-1.964
259301.000			-19.635			-1.963
259402.000			-19.634			-1.963
259501.000			-19.634			-1.963
259600.000			-19.634			-1.963
259701.000			-19.634			-1.963
259800.000			-19.634			-1.963
259900.000			-19.634			-1.963
260001.000			-19.634			-1.963
260100.000			-19.633			-1.963
260200.000			-19.633			-1.963
260302.000			-19.632			-1.963
260401.000			-19.632			-1.963
260500.000			-19.632			-1.963
260601.000			-19.632			-1.963
260700.000			-19.632			-1.963
260800.000			-19.632			-1.963
260901.000			-19.632			-1.963
261000.000			-19.632			-1.963
261100.000			-19.632			-1.963
261202.000			-19.632			-1.963
261301.000			-19.631			-1.963
261400.000			-19.630			-1.963
261501.000			-19.630			-1.963
261600.000			-19.631			-1.963
261700.000			-19.630			-1.963
261801.000			-19.629			-1.963
261900.000			-19.630			-1.963
262000.000			-19.629			-1.963
262101.000			-19.629			-1.963
262201.000			-19.629			-1.963
262302.000			-19.629			-1.963
262400.000			-19.629			-1.963
262500.000			-19.629			-1.963
262601.000			-19.629			-1.963
262700.000			-19.628			-1.963
262800.000			-19.628			-1.963
262901.000			-19.627			-1.963
263000.000			-19.627			-1.963
263101.000			-19.627			-1.963
263202.000			-19.625			-1.963
263301.000			-19.626			-1.963
263400.000			-19.626			-1.963
263501.000			-19.626			-1.963
263600.000			-19.625			-1.963
263700.000			-19.625			-1.962
263801.000			-19.625			-1.963
263900.000			-19.624			-1.962
264000.000			-19.626			-1.963
264102.000			-19.625			-1.963
264201.000			-19.624			-1.962
264300.000			-19.624			-1.962
264401.000			-19.624			-1.962
264500.000			-19.624			-1.962
264600.000			-19.623			-1.962
264701.000			-19.623			-1.962
264800.000			-19.624			-1.962
264900.000			-19.624			-1.962
265002.000			-19.623			-1.962
265101.000			-19.622			-1.962
265200.000			-19.621			-1.962
265301.000			-19.621			-1.962
265400.000			-19.622			-1.962
265500.000			-19.623			-1.962
265600.000			-19.621			-1.962
265700.000			-19.621			-1.962
265801.000			-19.621			-1.962
265901.000			-19.622			-1.962
266001.000			-19.621			-1.962
266102.000			-19.620			-1.962
266200.000			-19.621			-1.962
266300.000			-19.620			-1.962
266401.000			-19.620			-1.962
266500.000			-19.619			-1.962
266600.000			-19.619			-1.962
266701.000			-19.619			-1.962
266800.000			-19.619			-1.962
266901.000			-19.620			-1.962
267002.000			-19.620			-1.962
267100.000			-19.619			-1.962
267200.000			-19.618			-1.962
267301.000			-19.618			-1.962
267400.000			-19.618			-1.962
267500.000			-19.618			-1.962
267601.000			-19.618			-1.962
267700.000			-19.617			-1.962
267801.000			-19.617			-1.962
267902.000			-19.618			-1.962
268001.000			-19.618			-1.962
268100.000			-19.616			-1.962
268201.000			-19.616			-1.962
268300.000			-19.616			-1.962
268400.000			-19.617			-1.962
268501.000			-19.617			-1.962
268600.000			-19.616			-1.962
268700.000			-19.615			-1.962
268802.000			-19.614			-1.961
268901.000			-19.615			-1.962
269002.000			-19.616			-1.962
269100.000			-19.614			-1.961
269200.000			-19.614			-1.961
269301.000			-19.614			-1.961
269400.000			-19.614			-1.961
269500.000			-19.614			-1.961
269601.000			-19.613			-1.961
269700.000			-19.613			-1.961
269801.000			-19.613			-1.961
269902.000			-19.613			-1.961
270001.000			-19.613			-1.961
270100.000			-19.613			-1.961
270201.000			-19.612			-1.961
270300.000			-19.612			-1.961
270400.000			-19.612			-1.961
270501.000			-19.610			-1.961
270600.000			-19.610			-1.961
270701.000			-19.611			-1.961
270802.000			-19.611			-1.961
270901.000			-19.612			-1.961
271000.000			-19.610			-1.961
271101.000			-19.611			-1.961
271200.000			-19.610			-1.961
271300.000			-19.610			-1.961
271401.000			-19.610			-1.961
271500.000			-19.609			-1.961
271601.000			-19.609			-1.961
271702.000			-19.609			-1.961
271801.000			-19.608			-1.961
271900.000			-19.609			-1.961
272000.000			-19.608			-1.961
272100.000			-19.609			-1.961
272201.000			-19.609			-1.961
272300.000			-19.609			-1.961
272400.000			-19.609			-1.961
272501.000			-19.607			-1.961
272601.000			-19.607			-1.961
272701.000			-19.607			-1.961
272801.000			-19.607			-1.961
272900.000			-19.606			-1.961
273000.000			-19.606			-1.961
273101.000			-19.606			-1.961
273200.000			-19.605			-1.961
273300.000			-19.606			-1.961
273401.000			-19.607			-1.961
273501.000			-19.606			-1.961
273601.000			-19.605			-1.960
273702.000			-19.604			-1.960
273800.000			-19.604			-1.960
273900.000			-19.604			-1.960
274001.000			-19.604			-1.960
274100.000			-19.604			-1.960
274200.000			-19.604			-1.960
274301.000			-19.603			-1.960
274400.000			-19.603			-1.960
274501.000			-19.603			-1.960
274602.000			-19.604			-1.960
274700.000			-19.603			-1.960
274800.000			-19.602			-1.960
274901.000			-19.602			-1.960
275000.000			-19.602			-1.960
275100.000			-19.602			-1.960
275200.000			-19.602			-1.960
275300.000			-19.602			-1.960
275402.000			-19.602			-1.960
275501.000			-19.602			-1.960
275601.000			-19.601			-1.960
275701.000			-19.601			-1.960
275800.000			-19.601			-1.960
275900.000			-19.601			-1.960
276001.000			-19.601			-1.960
276100.000			-19.600			-1.960
276200.000			-19.600			-1.960
276302.000			-19.600			-1.960
276401.000			-19.599			-1.960
276501.000			-19.599			-1.960
276601.000			-19.599			-1.960
276700.000			-19.599			-1.960
276800.000			-19.599			-1.960
276901.000			-19.598			-1.960
277000.000			-19.598			-1.960
277100.000			-19.599			-1.960
277201.000			-19.598			-1.960
277301.000			-19.598			-1.960
277401.000			-19.598			-1.960
277502.000			-19.596			-1.960
277600.000			-19.596			-1.960
277700.000			-19.597			-1.960
277801.000			-19.597			-1.960
277900.000			-19.597			-1.960
278000.000			-19.597			-1.960
278101.000			-19.598			-1.960
278200.000			-19.596			-1.960
278300.000			-19.597			-1.960
278402.000			-19.596			-1.960
278501.000			-19.595			-1.960
278601.000			-19.595			-1.960
278700.000			-19.595			-1.960
278800.000			-19.595			-1.959
278901.000			-19.595			-1.959
279000.000			-19.594			-1.959
279100.000			-19.594			-1.959
279201.000			-19.594			-1.959
279300.000			-19.595			-1.960
279401.000			-19.594			-1.959
279502.000			-19.594			-1.959
279600.000			-19.594			-1.959
279700.000			-19.594			-1.959
279801.000			-19.593			-1.959
279900.000			-19.592			-1.959
280000.000			-19.592			-1.959
280101.000			-19.592			-1.959
280200.000			-19.592			-1.959
280300.000			-19.592			-1.959
280402.000			-19.591			-1.959
280501.000			-19.593			-1.959
280600.000			-19.592			-1.959
280701.000			-19.591			-1.959
280800.000			-19.591			-1.959
280900.000			-19.590			-1.959
281001.000			-19.591			-1.959
281100.000			-19.590			-1.959
281200.000			-19.591			-1.959
281302.000			-19.591			-1.959
281401.000			-19.590			-1.959
281502.000			-19.589			-1.959
281600.000			-19.589			-1.959
281700.000			-19.590			-1.959
281801.000			-19.589			-1.959
281900.000			-19.588			-1.959
282000.000			-19.588			-1.959
282101.000			-19.588			-1.959
282200.000			-19.589			-1.959
282301.000			-19.588			-1.959
282402.000			-19.587			-1.959
282501.000			-19.588			-1.959
282600.000			-19.587			-1.959
282701.000			-19.587			-1.959
282800.000			-19.586			-1.959
282900.000			-19.587			-1.959
283001.000			-19.587			-1.959
283100.000			-19.586			-1.959
283200.000			-19.586			-1.959
283302.000			-19.585			-1.959
283401.000			-19.585			-1.959
283501.000			-19.584			-1.958
283601.000			-19.585			-1.958
283700.000			-19.585			-1.958
283800.000			-19.586			-1.959
283901.000			-19.584			-1.958
284000.000			-19.583			-1.958
284100.000			-19.584			-1.958
284201.000			-19.584			-1.958
284301.000			-19.583			-1.958
284401.000			-19.583			-1.958
284501.000			-19.583			-1.958
284600.000			-19.582			-1.958
284700.000			-19.583			-1.958
284800.000			-19.582			-1.958
284900.000			-19.582			-1.958
285001.000			-19.583			-1.958
285100.000			-19.583			-1.958
285200.000			-19.582			-1.958
285302.000			-19.581			-1.958
285401.000			-19.580			-1.958
285500.000			-19.581			-1.958
285601.000			-19.581			-1.958
285700.000			-19.580			-1.958
285800.000			-19.580			-1.958
285901.000			-19.580			-1.958
286000.000			-19.580			-1.958
286100.000			-19.579			-1.958
286201.000			-19.579			-1.958
286301.000			-19.579			-1.958
286401.000			-19.579			-1.958
286501.000			-19.578			-1.958
286600.000			-19.579			-1.958
286700.000			-19.578			-1.958
286801.000			-19.577			-1.958
286900.000			-19.578			-1.958
287000.000			-19.578			-1.958
287101.000			-19.578			-1.958
287200.000			-19.578			-1.958
287301.000			-19.577			-1.958
287402.000			-19.576			-1.958
287500.000			-19.577			-1.958
287600.000			-19.576			-1.958
287701.000			-19.576			-1.958
287800.000			-19.577			-1.958
287900.000			-19.577			-1.958
288000.000			-19.577			-1.958
288100.000			-19.576			-1.958
288201.000			-19.577			-1.958
288301.000			-19.576			-1.958
288401.000			-19.575			-1.957
288501.000			-19.574			-1.957
288600.000			-19.574			-1.957
288700.000			-19.574			-1.957
288801.000			-19.575			-1.957
288900.000			-19.574			-1.957
289000.000			-19.574			-1.957
289101.000			-19.573			-1.957
289201.000			-19.573			-1.957
289301.000			-19.573			-1.957
289402.000			-19.573			-1.957
289500.000			-19.572			-1.957
289600.000			-19.572			-1.957
289701.000			-19.573			-1.957
289800.000			-19.573			-1.957
289900.000			-19.572			-1.957
290001.000			-19.572			-1.957
290100.000			-19.572			-1.957
290201.000			-19.573			-1.957
290302.000			-19.571			-1.957
290401.000			-19.570			-1.957
290500.000			-19.572			-1.957
290601.000			-19.572			-1.957
290700.000			-19.572			-1.957
290800.000			-19.571			-1.957
290901.000			-19.572			-1.957
291000.000			-19.571			-1.957
291100.000			-19.570			-1.957
291202.000			-19.570			-1.957
291301.000			-19.570			-1.957
291402.000			-19.571			-1.957
291500.000			-19.570			-1.957
291600.000			-19.569			-1.957
291701.000			-19.569			-1.957
291800.000			-19.570			-1.957
291900.000			-19.569			-1.957
292001.000			-19.569			-1.957
292100.000			-19.569			-1.957
292201.000			-19.569			-1.957
292302.000			-19.568			-1.957
292400.000			-19.569			-1.957
292500.000			-19.568			-1.957
292601.000			-19.568			-1.957
292700.000			-19.567			-1.957
292800.000			-19.567			-1.957
292901.000			-19.567			-1.957
293000.000			-19.567			-1.957
293100.000			-19.568			-1.957
293202.000			-19.567			-1.957
293301.000			-19.567			-1.957
293400.000			-19.566			-1.957
293501.000			-19.566			-1.957
293600.000			-19.566			-1.957
293700.000			-19.565			-1.957
293801.000			-19.566			-1.957
293900.000			-19.566			-1.957
294000.000			-19.566			-1.957
294102.000			-19.564			-1.956
294201.000			-19.565			-1.956
294302.000			-19.564			-1.956
294400.000			-19.564			-1.956
294500.000			-19.564			-1.956
294601.000			-19.564			-1.956
294700.000			-19.564			-1.956
294800.000			-19.563			-1.956
294901.000			-19.563			-1.956
295000.000			-19.564			-1.956
295101.000			-19.563			-1.956
295202.000			-19.563			-1.956
295301.000			-19.563			-1.956
295400.000			-19.562			-1.956
295501.000			-19.562			-1.956
295600.000			-19.562			-1.956
295700.000			-19.561			-1.956
295801.000			-19.562			-1.956
295900.000			-19.562			-1.956
296000.000			-19.561			-1.956
296102.000			-19.561			-1.956
296201.000			-19.561			-1.956
296300.000			-19.561			-1.956
296401.000			-19.562			-1.956
296500.000			-19.561			-1.956
296600.000			-19.561			-1.956
296701.000			-19.559			-1.956
296800.000			-19.559			-1.956
296900.000			-19.560			-1.956
297001.000			-19.560			-1.956
297101.000			-19.559			-1.956
297201.000			-19.559			-1.956
297301.000			-19.559			-1.956
297400.000			-19.558			-1.956
297500.000			-19.557			-1.956
297600.000			-19.558			-1.956
297700.000			-19.558			-1.956
297801.000			-19.558			-1.956
297900.000			-19.558			-1.956
298000.000			-19.558			-1.956
298102.000			-19.558			-1.956
298201.000			-19.558			-1.956
298301.000			-19.557			-1.956
298401.000			-19.557			-1.956
298500.000			-19.558			-1.956
298600.000			-19.557			-1.956
298701.000			-19.557			-1.956
298800.000			-19.556			-1.956
298900.000			-19.556			-1.956
299001.000			-19.556			-1.956
299101.000			-19.556			-1.956
299201.000			-19.556			-1.956
299301.000			-19.556			-1.956
299400.000			-19.557			-1.956
299500.000			-19.557			-1.956
299601.000			-19.556			-1.956
299700.000			-19.554			-1.955
299800.000			-19.554			-1.955
299901.000			-19.555			-1.955
