# Acquired on 30/01/2024 15:05:16 
# SPIDER: Creep_-11mm_HM077x145x38AB-2
# CREEP MEASUREMENT

# time [ms]		force [N]		stiffness [N/mm]
1.000			34.251			-3.114
104.000			34.745			-3.159
205.000			34.856			-3.169
304.000			34.746			-3.159
403.000			34.542			-3.140
505.000			34.470			-3.134
604.000			34.407			-3.128
705.000			34.351			-3.123
804.000			34.302			-3.118
904.000			34.258			-3.114
1005.000			34.217			-3.111
1104.000			34.142			-3.104
1204.000			34.108			-3.101
1305.000			34.077			-3.098
1404.000			34.047			-3.095
1504.000			34.018			-3.093
1604.000			33.991			-3.090
1704.000			33.966			-3.088
1804.000			33.918			-3.083
1905.000			33.896			-3.081
2004.000			33.874			-3.079
2104.000			33.853			-3.078
2205.000			33.833			-3.076
2303.000			33.813			-3.074
2404.000			33.793			-3.072
2505.000			33.758			-3.069
2604.000			33.741			-3.067
2704.000			33.723			-3.066
2804.000			33.706			-3.064
2904.000			33.692			-3.063
3004.000			33.676			-3.061
3105.000			33.662			-3.060
3204.000			33.648			-3.059
3304.000			33.619			-3.056
3405.000			33.605			-3.055
3503.000			33.591			-3.054
3604.000			33.578			-3.053
3705.000			33.565			-3.051
3804.000			33.553			-3.050
3905.000			33.541			-3.049
4004.000			33.517			-3.047
4104.000			33.506			-3.046
4205.000			33.495			-3.045
4304.000			33.484			-3.044
4404.000			33.473			-3.043
4505.000			33.462			-3.042
4604.000			33.452			-3.041
4703.000			33.431			-3.039
4805.000			33.421			-3.038
4904.000			33.411			-3.037
5004.000			33.401			-3.036
5105.000			33.392			-3.036
5204.000			33.383			-3.035
5304.000			33.374			-3.034
5404.000			33.355			-3.032
5504.000			33.346			-3.031
5604.000			33.338			-3.031
5705.000			33.329			-3.030
5804.000			33.320			-3.029
5903.000			33.312			-3.028
6005.000			33.304			-3.028
6104.000			33.296			-3.027
6204.000			33.279			-3.025
6305.000			33.272			-3.025
6404.000			33.264			-3.024
6504.000			33.256			-3.023
6604.000			33.249			-3.023
6704.000			33.242			-3.022
6804.000			33.234			-3.021
6904.000			33.219			-3.020
7004.000			33.211			-3.019
7105.000			33.203			-3.018
7204.000			33.195			-3.018
7303.000			33.190			-3.017
7405.000			33.185			-3.017
7504.000			33.177			-3.016
7604.000			33.163			-3.015
7705.000			33.156			-3.014
7803.000			33.150			-3.014
7904.000			33.143			-3.013
8005.000			33.137			-3.012
8104.000			33.131			-3.012
8204.000			33.125			-3.011
8305.000			33.113			-3.010
8404.000			33.106			-3.010
8503.000			33.100			-3.009
8605.000			33.094			-3.009
8704.000			33.087			-3.008
8804.000			33.081			-3.007
8905.000			33.075			-3.007
9003.000			33.071			-3.006
9104.000			33.059			-3.005
9205.000			33.054			-3.005
9304.000			33.048			-3.004
9404.000			33.043			-3.004
9505.000			33.038			-3.003
9604.000			33.032			-3.003
9703.000			33.026			-3.002
9805.000			33.016			-3.001
9904.000			33.011			-3.001
10004.000			33.007			-3.001
10105.000			33.000			-3.000
10203.000			32.995			-3.000
10305.000			32.991			-2.999
10404.000			32.986			-2.999
10504.000			32.975			-2.998
10605.000			32.969			-2.997
10704.000			32.965			-2.997
10804.000			32.960			-2.996
10904.000			32.955			-2.996
11004.000			32.951			-2.996
11104.000			32.946			-2.995
11205.000			32.937			-2.994
11304.000			32.932			-2.994
11404.000			32.928			-2.993
11505.000			32.923			-2.993
11603.000			32.918			-2.993
11704.000			32.914			-2.992
11805.000			32.909			-2.992
11904.000			32.900			-2.991
12004.000			32.896			-2.991
12105.000			32.891			-2.990
12204.000			32.887			-2.990
12303.000			32.883			-2.989
12405.000			32.879			-2.989
12504.000			32.875			-2.989
12604.000			32.870			-2.988
12705.000			32.861			-2.987
12804.000			32.857			-2.987
12904.000			32.853			-2.987
13004.000			32.849			-2.986
13104.000			32.845			-2.986
13204.000			32.842			-2.986
13304.000			32.837			-2.985
13404.000			32.829			-2.984
13503.000			32.824			-2.984
13604.000			32.820			-2.984
13703.000			32.816			-2.983
13805.000			32.813			-2.983
13904.000			32.809			-2.983
14004.000			32.805			-2.982
14105.000			32.797			-2.982
14203.000			32.794			-2.981
14304.000			32.790			-2.981
14405.000			32.786			-2.981
14504.000			32.782			-2.980
14604.000			32.779			-2.980
14705.000			32.775			-2.980
14804.000			32.767			-2.979
14903.000			32.764			-2.979
15005.000			32.761			-2.978
15104.000			32.756			-2.978
15204.000			32.752			-2.977
15305.000			32.749			-2.977
15404.000			32.747			-2.977
15504.000			32.743			-2.977
15604.000			32.736			-2.976
15704.000			32.732			-2.976
15804.000			32.730			-2.975
15905.000			32.727			-2.975
16004.000			32.723			-2.975
16104.000			32.719			-2.974
16205.000			32.715			-2.974
16303.000			32.709			-2.974
16404.000			32.706			-2.973
16505.000			32.702			-2.973
16604.000			32.699			-2.973
16705.000			32.695			-2.972
16804.000			32.692			-2.972
16904.000			32.690			-2.972
17004.000			32.683			-2.971
17104.000			32.679			-2.971
17204.000			32.676			-2.971
17305.000			32.674			-2.970
17404.000			32.670			-2.970
17504.000			32.668			-2.970
17605.000			32.665			-2.970
17703.000			32.657			-2.969
17804.000			32.655			-2.969
17905.000			32.652			-2.968
18004.000			32.649			-2.968
18104.000			32.647			-2.968
18205.000			32.644			-2.968
18304.000			32.641			-2.967
18403.000			32.637			-2.967
18505.000			32.631			-2.966
18604.000			32.628			-2.966
18704.000			32.625			-2.966
18805.000			32.623			-2.966
18904.000			32.619			-2.965
19004.000			32.616			-2.965
19104.000			32.614			-2.965
19204.000			32.608			-2.964
19304.000			32.606			-2.964
19405.000			32.603			-2.964
19504.000			32.600			-2.964
19603.000			32.597			-2.963
19705.000			32.594			-2.963
19803.000			32.591			-2.963
19905.000			32.585			-2.962
20004.000			32.582			-2.962
20104.000			32.580			-2.962
20205.000			32.578			-2.962
20304.000			32.575			-2.961
20404.000			32.572			-2.961
20504.000			32.569			-2.961
20604.000			32.562			-2.960
20704.000			32.561			-2.960
20805.000			32.558			-2.960
20904.000			32.556			-2.960
21003.000			32.554			-2.959
21105.000			32.551			-2.959
21204.000			32.548			-2.959
21304.000			32.545			-2.959
21405.000			32.540			-2.958
21504.000			32.538			-2.958
21604.000			32.535			-2.958
21704.000			32.532			-2.957
21804.000			32.531			-2.957
21904.000			32.528			-2.957
22005.000			32.524			-2.957
22104.000			32.519			-2.956
22204.000			32.517			-2.956
22305.000			32.514			-2.956
22403.000			32.512			-2.956
22504.000			32.508			-2.955
22605.000			32.506			-2.955
22704.000			32.504			-2.955
22804.000			32.501			-2.955
22904.000			32.498			-2.954
23004.000			32.495			-2.954
23103.000			32.492			-2.954
23204.000			32.490			-2.954
23304.000			32.488			-2.953
23405.000			32.486			-2.953
23504.000			32.480			-2.953
23603.000			32.477			-2.952
23705.000			32.476			-2.952
23804.000			32.474			-2.952
23904.000			32.472			-2.952
24005.000			32.470			-2.952
24104.000			32.466			-2.951
24204.000			32.462			-2.951
24304.000			32.460			-2.951
24404.000			32.457			-2.951
24504.000			32.456			-2.951
24605.000			32.453			-2.950
24704.000			32.451			-2.950
24804.000			32.449			-2.950
24905.000			32.447			-2.950
25003.000			32.441			-2.949
25104.000			32.439			-2.949
25205.000			32.437			-2.949
25304.000			32.435			-2.949
25404.000			32.433			-2.948
25505.000			32.430			-2.948
25604.000			32.429			-2.948
25703.000			32.425			-2.948
25805.000			32.424			-2.948
25904.000			32.420			-2.947
26004.000			32.418			-2.947
26105.000			32.416			-2.947
26203.000			32.414			-2.947
26305.000			32.411			-2.946
26404.000			32.406			-2.946
26504.000			32.405			-2.946
26605.000			32.402			-2.946
26704.000			32.400			-2.945
26804.000			32.398			-2.945
26904.000			32.396			-2.945
27004.000			32.393			-2.945
27104.000			32.391			-2.945
27205.000			32.389			-2.944
27304.000			32.386			-2.944
27404.000			32.384			-2.944
27505.000			32.382			-2.944
27603.000			32.378			-2.943
27704.000			32.376			-2.943
27805.000			32.373			-2.943
27904.000			32.371			-2.943
28004.000			32.369			-2.943
28105.000			32.366			-2.942
28204.000			32.365			-2.942
28303.000			32.364			-2.942
28405.000			32.361			-2.942
28504.000			32.359			-2.942
28604.000			32.356			-2.941
28705.000			32.352			-2.941
28804.000			32.350			-2.941
28904.000			32.348			-2.941
29004.000			32.346			-2.941
29104.000			32.344			-2.940
29204.000			32.343			-2.940
29304.000			32.338			-2.940
29404.000			32.337			-2.940
29505.000			32.335			-2.940
29604.000			32.333			-2.939
29703.000			32.331			-2.939
29805.000			32.329			-2.939
29904.000			32.328			-2.939
30004.000			32.323			-2.938
30105.000			32.320			-2.938
30204.000			32.319			-2.938
30304.000			32.318			-2.938
30405.000			32.316			-2.938
30504.000			32.314			-2.938
30604.000			32.312			-2.937
30705.000			32.309			-2.937
30804.000			32.306			-2.937
30903.000			32.304			-2.937
31005.000			32.304			-2.937
31104.000			32.302			-2.937
31204.000			32.299			-2.936
31305.000			32.298			-2.936
31404.000			32.296			-2.936
31504.000			32.292			-2.936
31604.000			32.289			-2.935
31704.000			32.287			-2.935
31804.000			32.285			-2.935
31905.000			32.284			-2.935
32004.000			32.283			-2.935
32104.000			32.281			-2.935
32205.000			32.277			-2.934
32303.000			32.276			-2.934
32404.000			32.275			-2.934
32505.000			32.272			-2.934
32604.000			32.270			-2.934
32705.000			32.268			-2.933
32804.000			32.266			-2.933
32904.000			32.264			-2.933
33004.000			32.261			-2.933
33104.000			32.259			-2.933
33204.000			32.258			-2.933
33305.000			32.256			-2.932
33404.000			32.255			-2.932
33503.000			32.253			-2.932
33605.000			32.250			-2.932
33704.000			32.247			-2.932
33804.000			32.247			-2.932
33905.000			32.245			-2.931
34004.000			32.243			-2.931
34104.000			32.241			-2.931
34204.000			32.239			-2.931
34304.000			32.238			-2.931
34404.000			32.234			-2.930
34505.000			32.233			-2.930
34604.000			32.232			-2.930
34704.000			32.230			-2.930
34805.000			32.228			-2.930
34903.000			32.227			-2.930
35004.000			32.225			-2.930
35105.000			32.221			-2.929
35204.000			32.220			-2.929
35304.000			32.217			-2.929
35404.000			32.216			-2.929
35504.000			32.215			-2.929
35604.000			32.213			-2.928
35704.000			32.211			-2.928
35804.000			32.209			-2.928
35905.000			32.207			-2.928
36004.000			32.205			-2.928
36103.000			32.203			-2.928
36205.000			32.201			-2.927
36304.000			32.200			-2.927
36404.000			32.199			-2.927
36505.000			32.196			-2.927
36604.000			32.194			-2.927
36704.000			32.192			-2.927
36804.000			32.191			-2.926
36904.000			32.189			-2.926
37004.000			32.188			-2.926
37105.000			32.187			-2.926
37204.000			32.185			-2.926
37304.000			32.181			-2.926
37405.000			32.178			-2.925
37503.000			32.178			-2.925
37604.000			32.177			-2.925
37705.000			32.175			-2.925
37804.000			32.173			-2.925
37904.000			32.172			-2.925
38004.000			32.168			-2.924
38104.000			32.167			-2.924
38203.000			32.165			-2.924
38305.000			32.164			-2.924
38404.000			32.163			-2.924
38504.000			32.161			-2.924
38605.000			32.160			-2.924
38703.000			32.156			-2.923
38804.000			32.155			-2.923
38905.000			32.154			-2.923
39004.000			32.152			-2.923
39105.000			32.151			-2.923
39204.000			32.149			-2.923
39304.000			32.148			-2.923
39404.000			32.144			-2.922
39504.000			32.144			-2.922
39604.000			32.143			-2.922
39705.000			32.140			-2.922
39804.000			32.138			-2.922
39904.000			32.136			-2.921
40005.000			32.136			-2.921
40103.000			32.135			-2.921
40204.000			32.131			-2.921
40305.000			32.130			-2.921
40404.000			32.128			-2.921
40504.000			32.126			-2.921
40605.000			32.124			-2.920
40704.000			32.124			-2.920
40803.000			32.124			-2.920
40905.000			32.118			-2.920
41004.000			32.118			-2.920
41104.000			32.117			-2.920
41205.000			32.115			-2.920
41304.000			32.114			-2.919
41404.000			32.113			-2.919
41505.000			32.111			-2.919
41604.000			32.109			-2.919
41704.000			32.107			-2.919
41805.000			32.105			-2.919
41904.000			32.104			-2.919
42003.000			32.102			-2.918
42105.000			32.101			-2.918
42204.000			32.099			-2.918
42305.000			32.097			-2.918
42404.000			32.095			-2.918
42504.000			32.094			-2.918
42605.000			32.093			-2.918
42703.000			32.091			-2.917
42804.000			32.090			-2.917
42905.000			32.089			-2.917
43004.000			32.088			-2.917
43104.000			32.085			-2.917
43205.000			32.083			-2.917
43304.000			32.082			-2.917
43403.000			32.081			-2.916
43505.000			32.080			-2.916
43604.000			32.078			-2.916
43704.000			32.077			-2.916
43805.000			32.074			-2.916
43903.000			32.073			-2.916
44004.000			32.071			-2.916
44105.000			32.070			-2.915
44204.000			32.069			-2.915
44304.000			32.068			-2.915
44405.000			32.067			-2.915
44504.000			32.065			-2.915
44603.000			32.063			-2.915
44705.000			32.062			-2.915
44804.000			32.061			-2.915
44904.000			32.059			-2.914
45005.000			32.057			-2.914
45104.000			32.055			-2.914
45204.000			32.053			-2.914
45303.000			32.051			-2.914
45404.000			32.050			-2.914
45505.000			32.048			-2.913
45604.000			32.047			-2.913
45704.000			32.047			-2.913
45805.000			32.046			-2.913
45904.000			32.043			-2.913
46003.000			32.042			-2.913
46105.000			32.041			-2.913
46204.000			32.039			-2.913
46304.000			32.038			-2.913
46405.000			32.037			-2.912
46504.000			32.035			-2.912
46604.000			32.034			-2.912
46704.000			32.032			-2.912
46804.000			32.031			-2.912
46904.000			32.030			-2.912
47005.000			32.028			-2.912
47104.000			32.026			-2.911
47203.000			32.025			-2.911
47305.000			32.023			-2.911
47404.000			32.021			-2.911
47504.000			32.020			-2.911
47605.000			32.020			-2.911
47704.000			32.018			-2.911
47804.000			32.016			-2.911
47904.000			32.015			-2.910
48004.000			32.014			-2.910
48104.000			32.012			-2.910
48205.000			32.011			-2.910
48304.000			32.009			-2.910
48404.000			32.008			-2.910
48505.000			32.007			-2.910
48603.000			32.006			-2.910
48705.000			32.005			-2.910
48804.000			32.002			-2.909
48904.000			32.001			-2.909
49005.000			32.000			-2.909
49104.000			31.998			-2.909
49204.000			31.996			-2.909
49304.000			31.995			-2.909
49404.000			31.994			-2.909
49504.000			31.993			-2.908
49605.000			31.991			-2.908
49704.000			31.990			-2.908
49804.000			31.987			-2.908
49905.000			31.987			-2.908
50003.000			31.986			-2.908
50104.000			31.984			-2.908
50205.000			31.983			-2.908
50304.000			31.983			-2.908
50404.000			31.981			-2.907
50504.000			31.980			-2.907
50604.000			31.979			-2.907
50703.000			31.977			-2.907
50805.000			31.976			-2.907
50904.000			31.975			-2.907
51004.000			31.972			-2.907
51105.000			31.970			-2.906
51204.000			31.969			-2.906
51304.000			31.969			-2.906
51404.000			31.968			-2.906
51504.000			31.967			-2.906
51604.000			31.966			-2.906
51704.000			31.962			-2.906
51804.000			31.961			-2.906
51905.000			31.961			-2.906
52004.000			31.960			-2.905
52103.000			31.959			-2.905
52205.000			31.958			-2.905
52304.000			31.956			-2.905
52404.000			31.955			-2.905
52505.000			31.951			-2.905
52604.000			31.952			-2.905
52704.000			31.950			-2.905
52804.000			31.951			-2.905
52904.000			31.949			-2.904
53004.000			31.948			-2.904
53105.000			31.946			-2.904
53204.000			31.943			-2.904
53303.000			31.942			-2.904
53405.000			31.942			-2.904
53504.000			31.940			-2.904
53604.000			31.940			-2.904
53705.000			31.939			-2.904
53804.000			31.938			-2.903
53904.000			31.934			-2.903
54004.000			31.933			-2.903
54104.000			31.932			-2.903
54204.000			31.931			-2.903
54305.000			31.931			-2.903
54404.000			31.930			-2.903
54504.000			31.929			-2.903
54605.000			31.926			-2.902
54703.000			31.926			-2.902
54804.000			31.925			-2.902
54905.000			31.924			-2.902
55004.000			31.923			-2.902
55105.000			31.922			-2.902
55204.000			31.919			-2.902
55304.000			31.918			-2.902
55404.000			31.917			-2.902
55504.000			31.916			-2.901
55604.000			31.915			-2.901
55705.000			31.914			-2.901
55804.000			31.912			-2.901
55904.000			31.910			-2.901
56005.000			31.910			-2.901
56103.000			31.908			-2.901
56204.000			31.906			-2.901
56305.000			31.905			-2.900
56404.000			31.904			-2.900
56504.000			31.904			-2.900
56605.000			31.904			-2.900
56704.000			31.903			-2.900
56803.000			31.899			-2.900
56905.000			31.899			-2.900
57004.000			31.898			-2.900
57104.000			31.897			-2.900
57205.000			31.895			-2.900
57304.000			31.894			-2.899
57404.000			31.893			-2.899
57504.000			31.891			-2.899
57604.000			31.891			-2.899
57704.000			31.889			-2.899
57805.000			31.887			-2.899
57904.000			31.887			-2.899
58004.000			31.886			-2.899
58105.000			31.885			-2.899
58203.000			31.883			-2.898
58305.000			31.882			-2.898
58404.000			31.880			-2.898
58504.000			31.879			-2.898
58605.000			31.879			-2.898
58704.000			31.878			-2.898
58804.000			31.876			-2.898
58904.000			31.874			-2.898
59004.000			31.873			-2.898
59104.000			31.871			-2.897
59205.000			31.870			-2.897
59304.000			31.871			-2.897
59404.000			31.870			-2.897
59505.000			31.868			-2.897
59603.000			31.868			-2.897
59704.000			31.865			-2.897
59805.000			31.865			-2.897
59904.000			31.863			-2.897
60004.000			31.861			-2.896
60105.000			31.861			-2.896
60204.000			31.860			-2.896
60303.000			31.859			-2.896
60405.000			31.857			-2.896
60504.000			31.857			-2.896
60604.000			31.856			-2.896
60705.000			31.854			-2.896
60804.000			31.854			-2.896
60904.000			31.852			-2.896
61004.000			31.851			-2.896
61104.000			31.848			-2.895
61204.000			31.847			-2.895
61304.000			31.847			-2.895
61404.000			31.847			-2.895
61503.000			31.846			-2.895
61604.000			31.845			-2.895
61703.000			31.844			-2.895
61805.000			31.842			-2.895
61904.000			31.842			-2.895
62004.000			31.841			-2.895
62105.000			31.838			-2.894
62203.000			31.839			-2.894
62304.000			31.838			-2.894
62405.000			31.837			-2.894
62504.000			31.835			-2.894
62604.000			31.833			-2.894
62705.000			31.832			-2.894
62804.000			31.831			-2.894
62903.000			31.830			-2.894
63005.000			31.829			-2.894
63104.000			31.829			-2.894
63204.000			31.827			-2.893
63305.000			31.826			-2.893
63404.000			31.823			-2.893
63504.000			31.823			-2.893
63604.000			31.823			-2.893
63704.000			31.822			-2.893
63804.000			31.821			-2.893
63905.000			31.820			-2.893
64004.000			31.819			-2.893
64104.000			31.817			-2.892
64205.000			31.817			-2.892
64303.000			31.816			-2.892
64404.000			31.815			-2.892
64505.000			31.813			-2.892
64604.000			31.811			-2.892
64705.000			31.810			-2.892
64804.000			31.810			-2.892
64904.000			31.810			-2.892
65004.000			31.808			-2.892
65104.000			31.806			-2.891
65204.000			31.805			-2.891
65305.000			31.805			-2.891
65404.000			31.803			-2.891
65503.000			31.802			-2.891
65605.000			31.801			-2.891
65704.000			31.800			-2.891
65804.000			31.800			-2.891
65905.000			31.799			-2.891
66004.000			31.798			-2.891
66104.000			31.798			-2.891
66205.000			31.796			-2.891
66304.000			31.794			-2.890
66403.000			31.793			-2.890
66505.000			31.792			-2.890
66604.000			31.791			-2.890
66704.000			31.791			-2.890
66805.000			31.789			-2.890
66904.000			31.788			-2.890
67004.000			31.787			-2.890
67104.000			31.786			-2.890
67204.000			31.785			-2.890
67304.000			31.783			-2.889
67405.000			31.783			-2.889
67504.000			31.782			-2.889
67604.000			31.779			-2.889
67705.000			31.779			-2.889
67803.000			31.778			-2.889
67905.000			31.778			-2.889
68004.000			31.777			-2.889
68104.000			31.776			-2.889
68205.000			31.775			-2.889
68304.000			31.773			-2.888
68404.000			31.771			-2.888
68504.000			31.771			-2.888
68604.000			31.772			-2.888
68704.000			31.771			-2.888
68805.000			31.770			-2.888
68904.000			31.769			-2.888
69004.000			31.767			-2.888
69105.000			31.766			-2.888
69203.000			31.765			-2.888
69304.000			31.764			-2.888
69405.000			31.763			-2.888
69504.000			31.762			-2.887
69604.000			31.762			-2.887
69705.000			31.762			-2.887
69804.000			31.759			-2.887
69903.000			31.758			-2.887
70005.000			31.757			-2.887
70104.000			31.756			-2.887
70204.000			31.755			-2.887
70305.000			31.754			-2.887
70404.000			31.754			-2.887
70504.000			31.753			-2.887
70604.000			31.753			-2.887
70704.000			31.751			-2.886
70804.000			31.750			-2.886
70904.000			31.749			-2.886
71004.000			31.747			-2.886
71105.000			31.746			-2.886
71204.000			31.746			-2.886
71303.000			31.743			-2.886
71405.000			31.743			-2.886
71504.000			31.742			-2.886
71604.000			31.741			-2.886
71705.000			31.741			-2.886
71804.000			31.740			-2.885
71904.000			31.739			-2.885
72004.000			31.738			-2.885
72104.000			31.736			-2.885
72204.000			31.735			-2.885
72305.000			31.735			-2.885
72404.000			31.734			-2.885
72504.000			31.732			-2.885
72605.000			31.731			-2.885
72703.000			31.730			-2.885
72804.000			31.729			-2.884
72905.000			31.728			-2.884
73004.000			31.728			-2.884
73104.000			31.726			-2.884
73205.000			31.725			-2.884
73304.000			31.725			-2.884
73403.000			31.724			-2.884
73505.000			31.722			-2.884
73604.000			31.721			-2.884
73704.000			31.721			-2.884
73805.000			31.721			-2.884
73904.000			31.721			-2.884
74004.000			31.719			-2.884
74103.000			31.717			-2.883
74204.000			31.717			-2.883
74305.000			31.716			-2.883
74404.000			31.714			-2.883
74504.000			31.714			-2.883
74605.000			31.713			-2.883
74704.000			31.712			-2.883
74803.000			31.711			-2.883
74905.000			31.710			-2.883
75004.000			31.709			-2.883
75104.000			31.708			-2.883
75205.000			31.708			-2.883
75304.000			31.707			-2.882
75404.000			31.706			-2.882
75504.000			31.705			-2.882
75604.000			31.702			-2.882
75704.000			31.702			-2.882
75805.000			31.703			-2.882
75904.000			31.702			-2.882
76004.000			31.700			-2.882
76105.000			31.700			-2.882
76203.000			31.700			-2.882
76304.000			31.698			-2.882
76405.000			31.697			-2.882
76504.000			31.696			-2.881
76604.000			31.694			-2.881
76705.000			31.693			-2.881
76804.000			31.694			-2.881
76903.000			31.693			-2.881
77005.000			31.691			-2.881
77104.000			31.690			-2.881
77204.000			31.689			-2.881
77305.000			31.687			-2.881
77404.000			31.687			-2.881
77505.000			31.687			-2.881
77603.000			31.687			-2.881
77704.000			31.685			-2.880
77805.000			31.684			-2.880
77904.000			31.683			-2.880
78004.000			31.682			-2.880
78105.000			31.682			-2.880
78204.000			31.682			-2.880
78303.000			31.679			-2.880
78405.000			31.678			-2.880
78504.000			31.678			-2.880
78604.000			31.676			-2.880
78705.000			31.675			-2.880
78804.000			31.674			-2.879
78904.000			31.673			-2.879
79004.000			31.672			-2.879
79104.000			31.673			-2.879
79203.000			31.672			-2.879
79305.000			31.671			-2.879
79404.000			31.670			-2.879
79504.000			31.670			-2.879
79605.000			31.670			-2.879
79704.000			31.668			-2.879
79804.000			31.666			-2.879
79904.000			31.663			-2.878
80004.000			31.664			-2.879
80104.000			31.663			-2.878
80205.000			31.662			-2.878
80304.000			31.662			-2.878
80404.000			31.661			-2.878
80505.000			31.661			-2.878
80603.000			31.660			-2.878
80705.000			31.658			-2.878
80804.000			31.657			-2.878
80904.000			31.656			-2.878
81005.000			31.656			-2.878
81104.000			31.654			-2.878
81204.000			31.654			-2.878
81304.000			31.653			-2.878
81404.000			31.651			-2.877
81504.000			31.651			-2.877
81605.000			31.650			-2.877
81704.000			31.650			-2.877
81804.000			31.649			-2.877
81905.000			31.647			-2.877
82003.000			31.647			-2.877
82104.000			31.646			-2.877
82205.000			31.645			-2.877
82304.000			31.645			-2.877
82404.000			31.644			-2.877
82505.000			31.644			-2.877
82604.000			31.643			-2.877
82703.000			31.642			-2.877
82805.000			31.641			-2.876
82904.000			31.639			-2.876
83004.000			31.638			-2.876
83105.000			31.638			-2.876
83204.000			31.639			-2.876
83304.000			31.638			-2.876
83404.000			31.636			-2.876
83504.000			31.635			-2.876
83604.000			31.633			-2.876
83704.000			31.633			-2.876
83804.000			31.633			-2.876
83905.000			31.632			-2.876
84004.000			31.631			-2.876
84103.000			31.629			-2.875
84205.000			31.629			-2.875
84304.000			31.627			-2.875
84404.000			31.627			-2.875
84505.000			31.626			-2.875
84604.000			31.625			-2.875
84704.000			31.624			-2.875
84804.000			31.623			-2.875
84904.000			31.623			-2.875
85004.000			31.621			-2.875
85105.000			31.621			-2.875
85204.000			31.620			-2.875
85304.000			31.619			-2.874
85405.000			31.618			-2.874
85503.000			31.618			-2.874
85604.000			31.617			-2.874
85705.000			31.617			-2.874
85804.000			31.616			-2.874
85904.000			31.615			-2.874
86005.000			31.614			-2.874
86104.000			31.613			-2.874
86203.000			31.612			-2.874
86305.000			31.612			-2.874
86404.000			31.611			-2.874
86504.000			31.609			-2.874
86605.000			31.609			-2.874
86704.000			31.610			-2.874
86804.000			31.608			-2.873
86903.000			31.607			-2.873
87004.000			31.606			-2.873
87105.000			31.605			-2.873
87204.000			31.603			-2.873
87304.000			31.603			-2.873
87405.000			31.602			-2.873
87504.000			31.600			-2.873
87603.000			31.601			-2.873
87705.000			31.601			-2.873
87804.000			31.602			-2.873
87904.000			31.598			-2.873
88005.000			31.597			-2.872
88104.000			31.597			-2.872
88204.000			31.597			-2.872
88304.000			31.595			-2.872
88404.000			31.594			-2.872
88504.000			31.594			-2.872
88605.000			31.593			-2.872
88704.000			31.591			-2.872
88804.000			31.591			-2.872
88905.000			31.591			-2.872
89004.000			31.590			-2.872
89104.000			31.590			-2.872
89204.000			31.588			-2.872
89304.000			31.587			-2.872
89404.000			31.586			-2.871
89505.000			31.586			-2.871
89604.000			31.585			-2.871
89704.000			31.585			-2.871
89805.000			31.584			-2.871
89903.000			31.582			-2.871
90004.000			31.581			-2.871
90105.000			31.581			-2.871
90204.000			31.581			-2.871
90305.000			31.579			-2.871
90404.000			31.578			-2.871
90504.000			31.578			-2.871
90604.000			31.578			-2.871
90704.000			31.578			-2.871
90804.000			31.576			-2.871
90905.000			31.575			-2.870
91004.000			31.574			-2.870
91104.000			31.573			-2.870
91205.000			31.572			-2.870
91303.000			31.571			-2.870
91404.000			31.571			-2.870
91505.000			31.571			-2.870
91604.000			31.570			-2.870
91704.000			31.569			-2.870
91804.000			31.568			-2.870
91904.000			31.568			-2.870
92003.000			31.567			-2.870
92105.000			31.566			-2.870
92204.000			31.564			-2.869
92304.000			31.564			-2.869
92405.000			31.563			-2.869
92503.000			31.562			-2.869
92604.000			31.562			-2.869
92705.000			31.561			-2.869
92804.000			31.560			-2.869
92904.000			31.560			-2.869
93005.000			31.558			-2.869
93104.000			31.559			-2.869
93203.000			31.558			-2.869
93305.000			31.557			-2.869
93404.000			31.556			-2.869
93505.000			31.555			-2.869
93604.000			31.553			-2.868
93704.000			31.553			-2.868
93805.000			31.552			-2.868
93904.000			31.551			-2.868
94004.000			31.550			-2.868
94104.000			31.551			-2.868
94204.000			31.551			-2.868
94304.000			31.550			-2.868
94405.000			31.549			-2.868
94504.000			31.547			-2.868
94603.000			31.546			-2.868
94705.000			31.545			-2.868
94803.000			31.545			-2.868
94904.000			31.546			-2.868
95005.000			31.545			-2.868
95104.000			31.542			-2.867
95204.000			31.542			-2.867
95304.000			31.542			-2.867
95404.000			31.542			-2.867
95503.000			31.541			-2.867
95605.000			31.541			-2.867
95704.000			31.540			-2.867
95804.000			31.539			-2.867
95905.000			31.538			-2.867
96004.000			31.536			-2.867
96104.000			31.536			-2.867
96204.000			31.535			-2.867
96304.000			31.534			-2.867
96404.000			31.534			-2.867
96504.000			31.533			-2.867
96604.000			31.531			-2.866
96705.000			31.532			-2.867
96804.000			31.530			-2.866
96903.000			31.530			-2.866
97005.000			31.529			-2.866
97104.000			31.528			-2.866
97204.000			31.528			-2.866
97305.000			31.527			-2.866
97404.000			31.527			-2.866
97504.000			31.527			-2.866
97604.000			31.525			-2.866
97704.000			31.524			-2.866
97804.000			31.524			-2.866
97905.000			31.521			-2.866
98004.000			31.522			-2.866
98103.000			31.520			-2.865
98205.000			31.520			-2.865
98303.000			31.520			-2.865
98404.000			31.520			-2.865
98505.000			31.519			-2.865
98604.000			31.518			-2.865
98704.000			31.516			-2.865
98805.000			31.515			-2.865
98904.000			31.515			-2.865
99003.000			31.516			-2.865
99105.000			31.515			-2.865
99204.000			31.513			-2.865
99304.000			31.513			-2.865
99405.000			31.512			-2.865
99504.000			31.511			-2.865
99604.000			31.511			-2.865
99703.000			31.509			-2.864
99804.000			31.509			-2.864
99905.000			31.509			-2.864
100004.000			31.508			-2.864
100104.000			31.506			-2.864
100205.000			31.505			-2.864
100304.000			31.505			-2.864
100403.000			31.504			-2.864
100505.000			31.504			-2.864
100604.000			31.503			-2.864
100704.000			31.502			-2.864
100805.000			31.502			-2.864
100904.000			31.502			-2.864
101004.000			31.501			-2.864
101105.000			31.499			-2.864
101204.000			31.499			-2.864
101304.000			31.499			-2.864
101405.000			31.497			-2.863
101504.000			31.496			-2.863
101604.000			31.496			-2.863
101705.000			31.496			-2.863
101803.000			31.496			-2.863
101904.000			31.494			-2.863
102005.000			31.493			-2.863
102104.000			31.492			-2.863
102204.000			31.493			-2.863
102305.000			31.492			-2.863
102404.000			31.490			-2.863
102503.000			31.489			-2.863
102605.000			31.489			-2.863
102704.000			31.488			-2.863
102804.000			31.488			-2.863
102905.000			31.487			-2.862
103004.000			31.486			-2.862
103105.000			31.486			-2.862
103203.000			31.484			-2.862
103304.000			31.483			-2.862
103405.000			31.482			-2.862
103504.000			31.482			-2.862
103604.000			31.481			-2.862
103705.000			31.481			-2.862
103804.000			31.480			-2.862
103903.000			31.479			-2.862
104005.000			31.479			-2.862
104104.000			31.478			-2.862
104204.000			31.476			-2.861
104305.000			31.477			-2.862
104404.000			31.476			-2.861
104504.000			31.475			-2.861
104604.000			31.475			-2.861
104704.000			31.474			-2.861
104804.000			31.474			-2.861
104905.000			31.474			-2.861
105004.000			31.472			-2.861
105104.000			31.472			-2.861
105205.000			31.472			-2.861
105303.000			31.471			-2.861
105404.000			31.471			-2.861
105505.000			31.470			-2.861
105604.000			31.469			-2.861
105704.000			31.469			-2.861
105805.000			31.468			-2.861
105904.000			31.467			-2.861
106003.000			31.465			-2.860
106105.000			31.464			-2.860
106204.000			31.464			-2.860
106305.000			31.463			-2.860
106404.000			31.462			-2.860
106504.000			31.462			-2.860
106605.000			31.462			-2.860
106704.000			31.462			-2.860
106804.000			31.462			-2.860
106904.000			31.459			-2.860
107004.000			31.458			-2.860
107104.000			31.459			-2.860
107205.000			31.458			-2.860
107304.000			31.457			-2.860
107404.000			31.456			-2.860
107505.000			31.456			-2.860
107603.000			31.456			-2.860
107704.000			31.454			-2.859
107805.000			31.454			-2.859
107904.000			31.453			-2.859
108004.000			31.453			-2.859
108105.000			31.452			-2.859
108204.000			31.451			-2.859
108303.000			31.451			-2.859
108405.000			31.450			-2.859
108504.000			31.449			-2.859
108604.000			31.448			-2.859
108705.000			31.448			-2.859
108804.000			31.447			-2.859
108904.000			31.447			-2.859
109004.000			31.446			-2.859
109104.000			31.444			-2.859
109204.000			31.444			-2.859
109304.000			31.444			-2.859
109404.000			31.444			-2.859
109505.000			31.443			-2.858
109604.000			31.443			-2.858
109703.000			31.441			-2.858
109805.000			31.441			-2.858
109904.000			31.440			-2.858
110004.000			31.439			-2.858
110105.000			31.438			-2.858
110204.000			31.439			-2.858
110304.000			31.437			-2.858
110404.000			31.436			-2.858
110504.000			31.436			-2.858
110604.000			31.435			-2.858
110705.000			31.435			-2.858
110804.000			31.434			-2.858
110904.000			31.433			-2.858
111005.000			31.433			-2.858
111103.000			31.432			-2.857
111204.000			31.431			-2.857
111305.000			31.431			-2.857
111404.000			31.430			-2.857
111504.000			31.430			-2.857
111605.000			31.429			-2.857
111704.000			31.430			-2.857
111803.000			31.428			-2.857
111905.000			31.427			-2.857
112004.000			31.426			-2.857
112104.000			31.426			-2.857
112205.000			31.425			-2.857
112304.000			31.424			-2.857
112404.000			31.424			-2.857
112503.000			31.423			-2.857
112604.000			31.423			-2.857
112705.000			31.422			-2.857
112804.000			31.422			-2.857
112904.000			31.422			-2.857
113005.000			31.421			-2.856
113104.000			31.419			-2.856
113203.000			31.418			-2.856
113305.000			31.418			-2.856
113404.000			31.416			-2.856
113504.000			31.416			-2.856
113605.000			31.416			-2.856
113704.000			31.416			-2.856
113804.000			31.416			-2.856
113904.000			31.415			-2.856
114004.000			31.413			-2.856
114104.000			31.413			-2.856
114205.000			31.412			-2.856
114304.000			31.413			-2.856
114404.000			31.413			-2.856
114505.000			31.413			-2.856
114603.000			31.411			-2.856
114704.000			31.410			-2.855
114805.000			31.408			-2.855
114904.000			31.407			-2.855
115004.000			31.407			-2.855
115105.000			31.408			-2.855
115204.000			31.407			-2.855
115303.000			31.407			-2.855
115405.000			31.405			-2.855
115504.000			31.405			-2.855
115604.000			31.404			-2.855
115705.000			31.403			-2.855
115804.000			31.404			-2.855
115905.000			31.402			-2.855
116003.000			31.401			-2.855
116104.000			31.402			-2.855
116205.000			31.401			-2.855
116304.000			31.399			-2.854
116404.000			31.399			-2.854
116505.000			31.398			-2.854
116604.000			31.397			-2.854
116703.000			31.397			-2.854
116805.000			31.397			-2.854
116904.000			31.396			-2.854
117004.000			31.395			-2.854
117105.000			31.395			-2.854
117204.000			31.394			-2.854
117304.000			31.394			-2.854
117404.000			31.394			-2.854
117504.000			31.393			-2.854
117604.000			31.391			-2.854
117705.000			31.390			-2.854
117804.000			31.389			-2.854
117904.000			31.388			-2.853
118005.000			31.388			-2.853
118104.000			31.387			-2.853
118204.000			31.387			-2.853
118304.000			31.387			-2.853
118404.000			31.386			-2.853
118504.000			31.386			-2.853
118605.000			31.386			-2.853
118704.000			31.385			-2.853
118804.000			31.385			-2.853
118905.000			31.384			-2.853
119003.000			31.382			-2.853
119105.000			31.383			-2.853
119204.000			31.382			-2.853
119304.000			31.382			-2.853
119405.000			31.382			-2.853
119504.000			31.380			-2.853
119604.000			31.379			-2.853
119704.000			31.378			-2.853
119804.000			31.379			-2.853
119904.000			31.377			-2.852
120005.000			31.377			-2.852
120104.000			31.376			-2.852
120204.000			31.375			-2.852
120305.000			31.375			-2.852
120403.000			31.375			-2.852
120504.000			31.373			-2.852
120605.000			31.372			-2.852
120704.000			31.372			-2.852
120804.000			31.371			-2.852
120905.000			31.370			-2.852
121004.000			31.371			-2.852
121103.000			31.370			-2.852
121205.000			31.370			-2.852
121303.000			31.369			-2.852
121404.000			31.369			-2.852
121505.000			31.368			-2.852
121604.000			31.367			-2.852
121704.000			31.366			-2.851
121805.000			31.366			-2.851
121904.000			31.366			-2.851
122003.000			31.366			-2.851
122105.000			31.366			-2.851
122204.000			31.365			-2.851
122305.000			31.363			-2.851
122404.000			31.362			-2.851
122504.000			31.362			-2.851
122605.000			31.361			-2.851
122703.000			31.361			-2.851
122804.000			31.360			-2.851
122905.000			31.359			-2.851
123004.000			31.359			-2.851
123104.000			31.359			-2.851
123205.000			31.358			-2.851
123304.000			31.357			-2.851
123403.000			31.357			-2.851
123505.000			31.356			-2.851
123604.000			31.355			-2.850
123704.000			31.355			-2.850
123805.000			31.354			-2.850
123904.000			31.354			-2.850
124004.000			31.354			-2.850
124104.000			31.352			-2.850
124204.000			31.352			-2.850
124304.000			31.351			-2.850
124405.000			31.351			-2.850
124504.000			31.351			-2.850
124604.000			31.350			-2.850
124705.000			31.349			-2.850
124803.000			31.348			-2.850
124904.000			31.348			-2.850
125005.000			31.347			-2.850
125104.000			31.346			-2.850
125204.000			31.346			-2.850
125304.000			31.346			-2.850
125404.000			31.346			-2.850
125503.000			31.342			-2.849
125604.000			31.342			-2.849
125704.000			31.342			-2.849
125805.000			31.342			-2.849
125904.000			31.342			-2.849
126004.000			31.341			-2.849
126105.000			31.341			-2.849
126203.000			31.340			-2.849
126304.000			31.340			-2.849
126405.000			31.338			-2.849
126504.000			31.337			-2.849
126604.000			31.337			-2.849
126705.000			31.336			-2.849
126804.000			31.336			-2.849
126903.000			31.336			-2.849
127005.000			31.335			-2.849
127104.000			31.335			-2.849
127204.000			31.334			-2.849
127305.000			31.333			-2.848
127404.000			31.333			-2.848
127504.000			31.333			-2.848
127604.000			31.332			-2.848
127704.000			31.332			-2.848
127804.000			31.332			-2.848
127905.000			31.331			-2.848
128004.000			31.330			-2.848
128104.000			31.330			-2.848
128205.000			31.328			-2.848
128304.000			31.327			-2.848
128404.000			31.326			-2.848
128503.000			31.326			-2.848
128604.000			31.326			-2.848
128705.000			31.326			-2.848
128804.000			31.325			-2.848
128904.000			31.325			-2.848
129005.000			31.324			-2.848
129104.000			31.323			-2.848
129203.000			31.324			-2.848
129305.000			31.322			-2.847
129404.000			31.322			-2.847
129504.000			31.322			-2.847
129605.000			31.321			-2.847
129704.000			31.320			-2.847
129804.000			31.320			-2.847
129904.000			31.318			-2.847
130004.000			31.318			-2.847
130104.000			31.318			-2.847
130205.000			31.317			-2.847
130304.000			31.317			-2.847
130404.000			31.316			-2.847
130505.000			31.316			-2.847
130603.000			31.314			-2.847
130704.000			31.314			-2.847
130805.000			31.313			-2.847
130904.000			31.313			-2.847
131004.000			31.312			-2.847
131105.000			31.312			-2.847
131204.000			31.312			-2.847
131303.000			31.311			-2.846
131405.000			31.310			-2.846
131504.000			31.310			-2.846
131604.000			31.311			-2.846
131705.000			31.309			-2.846
131804.000			31.308			-2.846
131905.000			31.307			-2.846
132003.000			31.307			-2.846
132104.000			31.306			-2.846
132205.000			31.306			-2.846
132304.000			31.305			-2.846
132404.000			31.304			-2.846
132505.000			31.304			-2.846
132604.000			31.304			-2.846
132704.000			31.303			-2.846
132805.000			31.303			-2.846
132903.000			31.302			-2.846
133004.000			31.302			-2.846
133105.000			31.300			-2.845
133204.000			31.299			-2.845
133304.000			31.299			-2.845
133405.000			31.300			-2.845
133504.000			31.299			-2.845
133603.000			31.299			-2.845
133705.000			31.297			-2.845
133804.000			31.296			-2.845
133904.000			31.296			-2.845
134005.000			31.297			-2.845
134104.000			31.297			-2.845
134204.000			31.294			-2.845
134305.000			31.294			-2.845
134404.000			31.294			-2.845
134503.000			31.293			-2.845
134605.000			31.293			-2.845
134704.000			31.293			-2.845
134804.000			31.292			-2.845
134905.000			31.291			-2.845
135004.000			31.291			-2.845
135105.000			31.291			-2.845
135204.000			31.290			-2.845
135304.000			31.289			-2.844
135404.000			31.289			-2.844
135504.000			31.288			-2.844
135604.000			31.288			-2.844
135705.000			31.288			-2.844
135804.000			31.287			-2.844
135904.000			31.286			-2.844
136005.000			31.286			-2.844
136104.000			31.285			-2.844
136204.000			31.284			-2.844
136304.000			31.283			-2.844
136404.000			31.282			-2.844
136504.000			31.281			-2.844
136605.000			31.281			-2.844
136704.000			31.282			-2.844
136804.000			31.281			-2.844
136905.000			31.280			-2.844
137004.000			31.280			-2.844
137104.000			31.278			-2.843
137204.000			31.279			-2.844
137304.000			31.277			-2.843
137404.000			31.277			-2.843
137505.000			31.277			-2.843
137604.000			31.276			-2.843
137704.000			31.275			-2.843
137805.000			31.276			-2.843
137904.000			31.275			-2.843
138004.000			31.274			-2.843
138103.000			31.273			-2.843
138204.000			31.272			-2.843
138305.000			31.273			-2.843
138404.000			31.272			-2.843
138504.000			31.272			-2.843
138605.000			31.272			-2.843
138704.000			31.272			-2.843
138804.000			31.272			-2.843
138905.000			31.271			-2.843
139003.000			31.270			-2.843
139104.000			31.268			-2.843
139205.000			31.268			-2.843
139304.000			31.268			-2.843
139404.000			31.268			-2.843
139505.000			31.267			-2.842
139604.000			31.266			-2.842
139704.000			31.266			-2.842
139805.000			31.265			-2.842
139903.000			31.264			-2.842
140004.000			31.264			-2.842
140105.000			31.264			-2.842
140204.000			31.264			-2.842
140304.000			31.263			-2.842
140405.000			31.262			-2.842
140504.000			31.262			-2.842
140604.000			31.260			-2.842
140705.000			31.261			-2.842
140803.000			31.260			-2.842
140904.000			31.259			-2.842
141005.000			31.258			-2.842
141104.000			31.258			-2.842
141204.000			31.258			-2.842
141304.000			31.258			-2.842
141404.000			31.257			-2.842
141503.000			31.257			-2.842
141604.000			31.257			-2.842
141703.000			31.256			-2.841
141805.000			31.255			-2.841
141904.000			31.256			-2.841
142004.000			31.254			-2.841
142105.000			31.253			-2.841
142204.000			31.253			-2.841
142304.000			31.252			-2.841
142404.000			31.253			-2.841
142504.000			31.253			-2.841
142604.000			31.251			-2.841
142705.000			31.250			-2.841
142804.000			31.251			-2.841
142904.000			31.249			-2.841
143005.000			31.249			-2.841
143104.000			31.249			-2.841
143204.000			31.248			-2.841
143304.000			31.247			-2.841
143404.000			31.247			-2.841
143504.000			31.248			-2.841
143605.000			31.246			-2.841
143704.000			31.245			-2.840
143804.000			31.245			-2.840
143905.000			31.244			-2.840
144003.000			31.243			-2.840
144104.000			31.243			-2.840
144205.000			31.243			-2.840
144304.000			31.241			-2.840
144404.000			31.240			-2.840
144504.000			31.241			-2.840
144604.000			31.241			-2.840
144705.000			31.240			-2.840
144804.000			31.240			-2.840
144903.000			31.239			-2.840
145005.000			31.238			-2.840
145104.000			31.238			-2.840
145204.000			31.237			-2.840
145305.000			31.236			-2.840
145404.000			31.236			-2.840
145504.000			31.237			-2.840
145605.000			31.236			-2.840
145704.000			31.235			-2.840
145803.000			31.234			-2.839
145905.000			31.234			-2.839
146004.000			31.234			-2.839
146104.000			31.234			-2.839
146205.000			31.233			-2.839
146304.000			31.232			-2.839
146404.000			31.231			-2.839
146504.000			31.230			-2.839
146604.000			31.229			-2.839
146703.000			31.229			-2.839
146805.000			31.229			-2.839
146904.000			31.228			-2.839
147004.000			31.228			-2.839
147105.000			31.227			-2.839
147204.000			31.227			-2.839
147304.000			31.227			-2.839
147404.000			31.227			-2.839
147504.000			31.225			-2.839
147603.000			31.225			-2.839
147705.000			31.225			-2.839
147804.000			31.225			-2.839
147905.000			31.224			-2.839
148004.000			31.223			-2.838
148104.000			31.223			-2.838
148205.000			31.222			-2.838
148303.000			31.221			-2.838
148404.000			31.221			-2.838
148505.000			31.221			-2.838
148604.000			31.221			-2.838
148704.000			31.220			-2.838
148805.000			31.219			-2.838
148904.000			31.219			-2.838
149004.000			31.218			-2.838
149105.000			31.218			-2.838
149203.000			31.218			-2.838
149304.000			31.217			-2.838
149405.000			31.217			-2.838
149504.000			31.218			-2.838
149604.000			31.216			-2.838
149705.000			31.215			-2.838
149804.000			31.215			-2.838
149904.000			31.214			-2.838
150005.000			31.214			-2.838
150103.000			31.213			-2.838
150204.000			31.214			-2.838
150305.000			31.212			-2.837
150404.000			31.212			-2.837
150504.000			31.212			-2.837
150605.000			31.212			-2.837
150704.000			31.210			-2.837
150803.000			31.209			-2.837
150905.000			31.209			-2.837
151004.000			31.209			-2.837
151105.000			31.208			-2.837
151204.000			31.207			-2.837
151304.000			31.206			-2.837
151405.000			31.206			-2.837
151504.000			31.206			-2.837
151604.000			31.206			-2.837
151704.000			31.206			-2.837
151804.000			31.205			-2.837
151904.000			31.205			-2.837
152005.000			31.204			-2.837
152104.000			31.203			-2.837
152204.000			31.202			-2.837
152305.000			31.203			-2.837
152403.000			31.202			-2.837
152504.000			31.202			-2.837
152605.000			31.201			-2.836
152704.000			31.201			-2.836
152804.000			31.200			-2.836
152905.000			31.200			-2.836
153004.000			31.200			-2.836
153104.000			31.199			-2.836
153205.000			31.199			-2.836
153303.000			31.199			-2.836
153404.000			31.198			-2.836
153505.000			31.197			-2.836
153604.000			31.196			-2.836
153704.000			31.195			-2.836
153805.000			31.194			-2.836
153904.000			31.195			-2.836
154004.000			31.194			-2.836
154105.000			31.194			-2.836
154203.000			31.193			-2.836
154305.000			31.193			-2.836
154404.000			31.193			-2.836
154504.000			31.191			-2.836
154605.000			31.191			-2.836
154704.000			31.190			-2.835
154804.000			31.190			-2.835
154904.000			31.190			-2.835
155004.000			31.189			-2.835
155103.000			31.189			-2.835
155205.000			31.188			-2.835
155304.000			31.188			-2.835
155404.000			31.187			-2.835
155505.000			31.186			-2.835
155604.000			31.186			-2.835
155704.000			31.186			-2.835
155804.000			31.186			-2.835
155904.000			31.186			-2.835
156003.000			31.186			-2.835
156105.000			31.186			-2.835
156204.000			31.186			-2.835
156304.000			31.183			-2.835
156405.000			31.183			-2.835
156504.000			31.182			-2.835
156604.000			31.181			-2.835
156704.000			31.181			-2.835
156804.000			31.182			-2.835
156903.000			31.182			-2.835
157005.000			31.181			-2.835
157104.000			31.180			-2.835
157204.000			31.180			-2.835
157305.000			31.177			-2.834
157404.000			31.177			-2.834
157505.000			31.178			-2.834
157603.000			31.178			-2.834
157704.000			31.178			-2.834
157805.000			31.176			-2.834
157904.000			31.175			-2.834
158004.000			31.176			-2.834
158105.000			31.175			-2.834
158204.000			31.175			-2.834
158304.000			31.175			-2.834
158405.000			31.173			-2.834
158503.000			31.172			-2.834
158604.000			31.172			-2.834
158705.000			31.173			-2.834
158804.000			31.172			-2.834
158904.000			31.171			-2.834
159005.000			31.172			-2.834
159104.000			31.171			-2.834
159204.000			31.171			-2.834
159305.000			31.170			-2.834
159403.000			31.169			-2.834
159504.000			31.168			-2.833
159605.000			31.168			-2.833
159704.000			31.168			-2.833
159804.000			31.168			-2.833
159905.000			31.167			-2.833
160004.000			31.166			-2.833
160104.000			31.166			-2.833
160205.000			31.165			-2.833
160303.000			31.166			-2.833
160404.000			31.165			-2.833
160505.000			31.164			-2.833
160604.000			31.164			-2.833
160705.000			31.163			-2.833
160804.000			31.162			-2.833
160904.000			31.163			-2.833
161004.000			31.161			-2.833
161104.000			31.161			-2.833
161203.000			31.161			-2.833
161305.000			31.160			-2.833
161404.000			31.160			-2.833
161504.000			31.159			-2.833
161605.000			31.159			-2.833
161704.000			31.157			-2.832
161804.000			31.158			-2.833
161904.000			31.158			-2.833
162004.000			31.158			-2.833
162103.000			31.158			-2.833
162205.000			31.156			-2.832
162304.000			31.156			-2.832
162404.000			31.155			-2.832
162505.000			31.154			-2.832
162604.000			31.154			-2.832
162704.000			31.154			-2.832
162804.000			31.154			-2.832
162904.000			31.154			-2.832
163004.000			31.153			-2.832
163105.000			31.153			-2.832
163204.000			31.152			-2.832
163304.000			31.152			-2.832
163405.000			31.151			-2.832
163504.000			31.150			-2.832
163604.000			31.150			-2.832
163703.000			31.151			-2.832
163804.000			31.150			-2.832
163905.000			31.150			-2.832
164004.000			31.149			-2.832
164104.000			31.148			-2.832
164205.000			31.147			-2.832
164304.000			31.146			-2.831
164404.000			31.147			-2.832
164505.000			31.147			-2.832
164603.000			31.146			-2.831
164704.000			31.146			-2.831
164805.000			31.145			-2.831
164904.000			31.144			-2.831
165004.000			31.144			-2.831
165105.000			31.143			-2.831
165204.000			31.142			-2.831
165303.000			31.144			-2.831
165405.000			31.143			-2.831
165504.000			31.142			-2.831
165604.000			31.142			-2.831
165705.000			31.142			-2.831
165804.000			31.142			-2.831
165904.000			31.140			-2.831
166005.000			31.139			-2.831
166104.000			31.139			-2.831
166203.000			31.138			-2.831
166305.000			31.137			-2.831
166404.000			31.137			-2.831
166504.000			31.138			-2.831
166605.000			31.138			-2.831
166704.000			31.135			-2.830
166804.000			31.136			-2.831
166904.000			31.137			-2.831
167004.000			31.136			-2.831
167103.000			31.135			-2.830
167204.000			31.134			-2.830
167304.000			31.133			-2.830
167405.000			31.134			-2.830
167504.000			31.133			-2.830
167604.000			31.132			-2.830
167705.000			31.131			-2.830
167804.000			31.131			-2.830
167904.000			31.131			-2.830
168004.000			31.131			-2.830
168104.000			31.131			-2.830
168204.000			31.129			-2.830
168305.000			31.129			-2.830
168404.000			31.130			-2.830
168504.000			31.129			-2.830
168605.000			31.128			-2.830
168704.000			31.128			-2.830
168804.000			31.127			-2.830
168904.000			31.127			-2.830
169004.000			31.126			-2.830
169104.000			31.125			-2.830
169205.000			31.124			-2.829
169304.000			31.124			-2.829
169404.000			31.124			-2.829
169505.000			31.125			-2.830
169604.000			31.124			-2.829
169704.000			31.123			-2.829
169804.000			31.123			-2.829
169904.000			31.123			-2.829
170004.000			31.123			-2.829
170104.000			31.121			-2.829
170204.000			31.121			-2.829
170305.000			31.121			-2.829
170404.000			31.121			-2.829
170503.000			31.120			-2.829
170605.000			31.120			-2.829
170704.000			31.119			-2.829
170804.000			31.118			-2.829
170905.000			31.118			-2.829
171004.000			31.117			-2.829
171104.000			31.116			-2.829
171205.000			31.116			-2.829
171304.000			31.117			-2.829
171403.000			31.116			-2.829
171505.000			31.114			-2.829
171604.000			31.114			-2.829
171704.000			31.114			-2.829
171805.000			31.114			-2.829
171904.000			31.114			-2.829
172004.000			31.114			-2.829
172104.000			31.113			-2.828
172204.000			31.112			-2.828
172304.000			31.112			-2.828
172405.000			31.112			-2.828
172504.000			31.110			-2.828
172604.000			31.110			-2.828
172705.000			31.110			-2.828
172804.000			31.109			-2.828
172904.000			31.109			-2.828
173004.000			31.108			-2.828
173104.000			31.108			-2.828
173204.000			31.108			-2.828
173304.000			31.107			-2.828
173404.000			31.107			-2.828
173505.000			31.105			-2.828
173604.000			31.106			-2.828
173704.000			31.106			-2.828
173805.000			31.107			-2.828
173903.000			31.106			-2.828
174004.000			31.105			-2.828
174105.000			31.105			-2.828
174204.000			31.104			-2.828
174304.000			31.104			-2.828
174405.000			31.103			-2.828
174504.000			31.101			-2.827
174603.000			31.101			-2.827
174705.000			31.101			-2.827
174804.000			31.102			-2.827
174904.000			31.100			-2.827
175005.000			31.100			-2.827
175104.000			31.099			-2.827
175204.000			31.100			-2.827
175305.000			31.099			-2.827
175404.000			31.097			-2.827
175503.000			31.097			-2.827
175605.000			31.097			-2.827
175704.000			31.097			-2.827
175804.000			31.097			-2.827
175905.000			31.096			-2.827
176004.000			31.095			-2.827
176104.000			31.096			-2.827
176205.000			31.095			-2.827
176304.000			31.094			-2.827
176403.000			31.094			-2.827
176505.000			31.093			-2.827
176604.000			31.093			-2.827
176705.000			31.092			-2.827
176804.000			31.093			-2.827
176904.000			31.092			-2.827
177005.000			31.092			-2.827
177104.000			31.092			-2.827
177204.000			31.092			-2.827
177304.000			31.092			-2.827
177404.000			31.091			-2.826
177504.000			31.090			-2.826
177605.000			31.088			-2.826
177704.000			31.088			-2.826
177804.000			31.087			-2.826
177905.000			31.087			-2.826
178004.000			31.087			-2.826
178104.000			31.087			-2.826
178204.000			31.087			-2.826
178304.000			31.085			-2.826
178403.000			31.085			-2.826
178505.000			31.085			-2.826
178604.000			31.085			-2.826
178704.000			31.085			-2.826
178805.000			31.085			-2.826
178904.000			31.085			-2.826
179004.000			31.085			-2.826
179104.000			31.084			-2.826
179204.000			31.082			-2.826
179303.000			31.082			-2.826
179405.000			31.081			-2.826
179504.000			31.081			-2.826
179604.000			31.080			-2.825
179705.000			31.080			-2.825
179804.000			31.080			-2.825
179905.000			31.080			-2.825
180004.000			31.079			-2.825
180104.000			31.078			-2.825
180204.000			31.078			-2.825
180304.000			31.078			-2.825
180404.000			31.078			-2.825
180505.000			31.077			-2.825
180604.000			31.077			-2.825
180704.000			31.076			-2.825
180805.000			31.076			-2.825
180904.000			31.076			-2.825
181004.000			31.076			-2.825
181104.000			31.075			-2.825
181204.000			31.073			-2.825
181304.000			31.073			-2.825
181405.000			31.073			-2.825
181504.000			31.072			-2.825
181604.000			31.072			-2.825
181705.000			31.070			-2.825
181803.000			31.070			-2.825
181904.000			31.070			-2.825
182004.000			31.070			-2.825
182104.000			31.071			-2.825
182204.000			31.070			-2.825
182305.000			31.070			-2.825
182404.000			31.069			-2.824
182504.000			31.069			-2.824
182605.000			31.068			-2.824
182703.000			31.068			-2.824
182804.000			31.069			-2.824
182905.000			31.069			-2.824
183004.000			31.067			-2.824
183105.000			31.067			-2.824
183204.000			31.067			-2.824
183304.000			31.067			-2.824
183405.000			31.065			-2.824
183504.000			31.064			-2.824
183603.000			31.063			-2.824
183705.000			31.063			-2.824
183804.000			31.062			-2.824
183904.000			31.062			-2.824
184005.000			31.062			-2.824
184104.000			31.062			-2.824
184204.000			31.062			-2.824
184305.000			31.062			-2.824
184404.000			31.061			-2.824
184503.000			31.060			-2.824
184605.000			31.060			-2.824
184704.000			31.061			-2.824
184804.000			31.059			-2.824
184905.000			31.058			-2.823
185004.000			31.058			-2.823
185104.000			31.058			-2.823
185205.000			31.058			-2.823
185304.000			31.058			-2.823
185403.000			31.057			-2.823
185505.000			31.056			-2.823
185604.000			31.056			-2.823
185704.000			31.055			-2.823
185805.000			31.054			-2.823
185904.000			31.054			-2.823
186004.000			31.055			-2.823
186104.000			31.054			-2.823
186204.000			31.053			-2.823
186303.000			31.053			-2.823
186404.000			31.053			-2.823
186504.000			31.053			-2.823
186605.000			31.052			-2.823
186704.000			31.051			-2.823
186804.000			31.051			-2.823
186905.000			31.051			-2.823
187004.000			31.050			-2.823
187104.000			31.050			-2.823
187204.000			31.049			-2.823
187304.000			31.049			-2.823
187404.000			31.050			-2.823
187505.000			31.050			-2.823
187604.000			31.049			-2.823
187704.000			31.047			-2.822
187805.000			31.047			-2.822
187903.000			31.047			-2.822
188004.000			31.046			-2.822
188104.000			31.046			-2.822
188204.000			31.046			-2.822
188304.000			31.045			-2.822
188405.000			31.044			-2.822
188504.000			31.044			-2.822
188604.000			31.044			-2.822
188705.000			31.044			-2.822
188803.000			31.044			-2.822
188904.000			31.043			-2.822
189004.000			31.043			-2.822
189104.000			31.043			-2.822
189204.000			31.041			-2.822
189304.000			31.041			-2.822
189404.000			31.041			-2.822
189505.000			31.041			-2.822
189604.000			31.041			-2.822
189703.000			31.039			-2.822
189805.000			31.039			-2.822
189903.000			31.038			-2.822
190004.000			31.038			-2.822
190105.000			31.038			-2.822
190204.000			31.039			-2.822
190304.000			31.038			-2.822
190405.000			31.038			-2.822
190504.000			31.037			-2.822
190603.000			31.036			-2.821
190705.000			31.035			-2.821
190804.000			31.034			-2.821
190904.000			31.035			-2.821
191005.000			31.035			-2.821
191104.000			31.034			-2.821
191204.000			31.035			-2.821
191305.000			31.034			-2.821
191404.000			31.034			-2.821
191503.000			31.034			-2.821
191605.000			31.034			-2.821
191704.000			31.033			-2.821
191804.000			31.032			-2.821
191905.000			31.030			-2.821
192004.000			31.030			-2.821
192104.000			31.030			-2.821
192204.000			31.030			-2.821
192304.000			31.030			-2.821
192403.000			31.029			-2.821
192505.000			31.028			-2.821
192604.000			31.028			-2.821
192705.000			31.029			-2.821
192804.000			31.027			-2.821
192904.000			31.027			-2.821
193005.000			31.027			-2.821
193103.000			31.027			-2.821
193204.000			31.026			-2.821
193305.000			31.025			-2.820
193404.000			31.024			-2.820
193504.000			31.024			-2.820
193605.000			31.025			-2.820
193704.000			31.024			-2.820
193804.000			31.023			-2.820
193905.000			31.023			-2.820
194003.000			31.024			-2.820
194104.000			31.024			-2.820
194205.000			31.024			-2.820
194304.000			31.022			-2.820
194404.000			31.021			-2.820
194505.000			31.021			-2.820
194604.000			31.021			-2.820
194703.000			31.020			-2.820
194805.000			31.020			-2.820
194904.000			31.019			-2.820
195004.000			31.019			-2.820
195105.000			31.018			-2.820
195204.000			31.017			-2.820
195304.000			31.017			-2.820
195405.000			31.017			-2.820
195504.000			31.017			-2.820
195603.000			31.015			-2.820
195705.000			31.016			-2.820
195804.000			31.016			-2.820
195905.000			31.016			-2.820
196004.000			31.016			-2.820
196104.000			31.015			-2.820
196205.000			31.014			-2.819
196304.000			31.015			-2.820
196404.000			31.015			-2.820
196504.000			31.013			-2.819
196604.000			31.013			-2.819
196704.000			31.013			-2.819
196805.000			31.014			-2.819
196904.000			31.013			-2.819
197004.000			31.012			-2.819
197105.000			31.011			-2.819
197204.000			31.011			-2.819
197304.000			31.010			-2.819
197404.000			31.009			-2.819
197504.000			31.010			-2.819
197604.000			31.009			-2.819
197705.000			31.008			-2.819
197804.000			31.008			-2.819
197904.000			31.007			-2.819
198005.000			31.007			-2.819
198104.000			31.006			-2.819
198204.000			31.005			-2.819
198304.000			31.006			-2.819
198404.000			31.006			-2.819
198504.000			31.006			-2.819
198605.000			31.006			-2.819
198704.000			31.005			-2.819
198804.000			31.006			-2.819
198905.000			31.005			-2.819
199004.000			31.004			-2.819
199105.000			31.004			-2.819
199203.000			31.003			-2.818
199304.000			31.002			-2.818
199405.000			31.003			-2.818
199504.000			31.001			-2.818
199604.000			31.001			-2.818
199705.000			31.001			-2.818
199804.000			31.001			-2.818
199903.000			31.001			-2.818
200005.000			31.001			-2.818
200104.000			31.000			-2.818
200204.000			31.000			-2.818
200305.000			31.000			-2.818
200404.000			30.999			-2.818
200504.000			30.998			-2.818
200605.000			30.998			-2.818
200704.000			30.998			-2.818
200803.000			30.998			-2.818
200905.000			30.997			-2.818
201004.000			30.996			-2.818
201104.000			30.996			-2.818
201205.000			30.996			-2.818
201304.000			30.995			-2.818
201404.000			30.994			-2.818
201505.000			30.994			-2.818
201604.000			30.994			-2.818
201703.000			30.995			-2.818
201805.000			30.994			-2.818
201904.000			30.993			-2.818
202004.000			30.993			-2.818
202105.000			30.991			-2.817
202204.000			30.991			-2.817
202305.000			30.990			-2.817
202404.000			30.989			-2.817
202504.000			30.991			-2.817
202604.000			30.992			-2.817
202704.000			30.990			-2.817
202804.000			30.990			-2.817
202905.000			30.989			-2.817
203004.000			30.989			-2.817
203104.000			30.989			-2.817
203205.000			30.988			-2.817
203304.000			30.988			-2.817
203404.000			30.987			-2.817
203504.000			30.987			-2.817
203604.000			30.986			-2.817
203704.000			30.986			-2.817
203805.000			30.986			-2.817
203904.000			30.986			-2.817
204004.000			30.985			-2.817
204105.000			30.984			-2.817
204204.000			30.984			-2.817
204304.000			30.984			-2.817
204404.000			30.984			-2.817
204504.000			30.984			-2.817
204604.000			30.983			-2.817
204705.000			30.982			-2.817
204804.000			30.982			-2.817
204904.000			30.981			-2.816
205005.000			30.980			-2.816
205104.000			30.980			-2.816
205204.000			30.981			-2.816
205303.000			30.981			-2.816
205404.000			30.980			-2.816
205505.000			30.980			-2.816
205604.000			30.979			-2.816
205704.000			30.979			-2.816
205805.000			30.979			-2.816
205904.000			30.977			-2.816
206004.000			30.978			-2.816
206105.000			30.977			-2.816
206203.000			30.977			-2.816
206304.000			30.976			-2.816
206405.000			30.976			-2.816
206504.000			30.974			-2.816
206604.000			30.975			-2.816
206705.000			30.974			-2.816
206804.000			30.973			-2.816
206904.000			30.974			-2.816
207005.000			30.974			-2.816
207103.000			30.973			-2.816
207204.000			30.973			-2.816
207304.000			30.972			-2.816
207404.000			30.972			-2.816
207504.000			30.973			-2.816
207605.000			30.973			-2.816
207704.000			30.972			-2.816
207804.000			30.971			-2.816
207905.000			30.971			-2.816
208003.000			30.970			-2.815
208104.000			30.970			-2.815
208205.000			30.970			-2.815
208304.000			30.969			-2.815
208404.000			30.969			-2.815
208504.000			30.969			-2.815
208604.000			30.968			-2.815
208705.000			30.968			-2.815
208804.000			30.967			-2.815
208903.000			30.967			-2.815
209005.000			30.966			-2.815
209103.000			30.967			-2.815
209204.000			30.967			-2.815
209305.000			30.966			-2.815
209404.000			30.965			-2.815
209504.000			30.964			-2.815
209605.000			30.965			-2.815
209704.000			30.963			-2.815
209803.000			30.963			-2.815
209905.000			30.962			-2.815
210003.000			30.963			-2.815
210104.000			30.963			-2.815
210205.000			30.963			-2.815
210304.000			30.962			-2.815
210404.000			30.962			-2.815
210505.000			30.962			-2.815
210604.000			30.962			-2.815
210703.000			30.962			-2.815
210805.000			30.961			-2.815
210904.000			30.960			-2.815
211004.000			30.959			-2.814
211105.000			30.959			-2.814
211204.000			30.960			-2.815
211304.000			30.960			-2.815
211405.000			30.959			-2.814
211504.000			30.959			-2.814
211603.000			30.957			-2.814
211705.000			30.957			-2.814
211804.000			30.957			-2.814
211905.000			30.956			-2.814
212004.000			30.956			-2.814
212104.000			30.956			-2.814
212205.000			30.955			-2.814
212304.000			30.954			-2.814
212404.000			30.954			-2.814
212504.000			30.954			-2.814
212604.000			30.955			-2.814
212704.000			30.955			-2.814
212805.000			30.953			-2.814
212904.000			30.953			-2.814
213004.000			30.953			-2.814
213105.000			30.953			-2.814
213203.000			30.951			-2.814
213304.000			30.951			-2.814
213404.000			30.951			-2.814
213504.000			30.951			-2.814
213604.000			30.950			-2.814
213705.000			30.950			-2.814
213804.000			30.950			-2.814
213904.000			30.948			-2.813
214005.000			30.949			-2.814
214103.000			30.949			-2.814
214204.000			30.949			-2.814
214305.000			30.948			-2.813
214404.000			30.947			-2.813
214504.000			30.947			-2.813
214605.000			30.948			-2.813
214704.000			30.946			-2.813
214804.000			30.945			-2.813
214905.000			30.946			-2.813
215003.000			30.946			-2.813
215105.000			30.945			-2.813
215204.000			30.945			-2.813
215304.000			30.946			-2.813
215405.000			30.945			-2.813
215504.000			30.943			-2.813
215604.000			30.944			-2.813
215705.000			30.943			-2.813
215804.000			30.943			-2.813
215903.000			30.942			-2.813
216005.000			30.941			-2.813
216104.000			30.940			-2.813
216204.000			30.941			-2.813
216305.000			30.942			-2.813
216404.000			30.941			-2.813
216504.000			30.941			-2.813
216604.000			30.939			-2.813
216704.000			30.939			-2.813
216803.000			30.938			-2.813
216905.000			30.938			-2.813
217004.000			30.939			-2.813
217104.000			30.938			-2.813
217205.000			30.938			-2.813
217304.000			30.936			-2.812
217404.000			30.936			-2.812
217504.000			30.936			-2.812
217604.000			30.935			-2.812
217703.000			30.935			-2.812
217805.000			30.935			-2.812
217904.000			30.935			-2.812
218004.000			30.934			-2.812
218105.000			30.935			-2.812
218204.000			30.935			-2.812
218305.000			30.934			-2.812
218403.000			30.934			-2.812
218504.000			30.934			-2.812
218604.000			30.933			-2.812
218704.000			30.931			-2.812
218804.000			30.932			-2.812
218905.000			30.931			-2.812
219004.000			30.931			-2.812
219104.000			30.932			-2.812
219205.000			30.931			-2.812
219303.000			30.930			-2.812
219404.000			30.930			-2.812
219504.000			30.930			-2.812
219604.000			30.929			-2.812
219704.000			30.929			-2.812
219805.000			30.929			-2.812
219904.000			30.929			-2.812
220004.000			30.928			-2.812
220105.000			30.928			-2.812
220203.000			30.927			-2.812
220304.000			30.927			-2.812
220405.000			30.927			-2.812
220504.000			30.927			-2.812
220604.000			30.926			-2.811
220705.000			30.926			-2.811
220804.000			30.926			-2.811
220904.000			30.925			-2.811
221005.000			30.924			-2.811
221103.000			30.923			-2.811
221204.000			30.922			-2.811
221305.000			30.922			-2.811
221404.000			30.922			-2.811
221505.000			30.922			-2.811
221604.000			30.922			-2.811
221704.000			30.921			-2.811
221804.000			30.921			-2.811
221904.000			30.921			-2.811
222003.000			30.920			-2.811
222105.000			30.920			-2.811
222204.000			30.921			-2.811
222304.000			30.921			-2.811
222405.000			30.921			-2.811
222504.000			30.920			-2.811
222604.000			30.918			-2.811
222704.000			30.918			-2.811
222804.000			30.918			-2.811
222904.000			30.917			-2.811
223005.000			30.918			-2.811
223104.000			30.917			-2.811
223204.000			30.917			-2.811
223305.000			30.917			-2.811
223404.000			30.917			-2.811
223504.000			30.916			-2.811
223604.000			30.915			-2.810
223704.000			30.916			-2.811
223804.000			30.915			-2.810
223905.000			30.915			-2.810
224004.000			30.914			-2.810
224104.000			30.912			-2.810
224205.000			30.912			-2.810
224303.000			30.913			-2.810
224404.000			30.913			-2.810
224503.000			30.912			-2.810
224604.000			30.913			-2.810
224705.000			30.912			-2.810
224804.000			30.911			-2.810
224904.000			30.911			-2.810
225005.000			30.911			-2.810
225104.000			30.910			-2.810
225203.000			30.910			-2.810
225305.000			30.910			-2.810
225404.000			30.910			-2.810
225504.000			30.910			-2.810
225605.000			30.910			-2.810
225704.000			30.909			-2.810
225804.000			30.909			-2.810
225905.000			30.909			-2.810
226004.000			30.907			-2.810
226103.000			30.907			-2.810
226205.000			30.906			-2.810
226304.000			30.906			-2.810
226404.000			30.906			-2.810
226505.000			30.907			-2.810
226604.000			30.905			-2.810
226704.000			30.904			-2.809
226805.000			30.904			-2.809
226904.000			30.903			-2.809
227003.000			30.903			-2.809
227105.000			30.902			-2.809
227204.000			30.902			-2.809
227304.000			30.903			-2.809
227405.000			30.902			-2.809
227504.000			30.901			-2.809
227604.000			30.901			-2.809
227704.000			30.901			-2.809
227804.000			30.901			-2.809
227903.000			30.900			-2.809
228004.000			30.901			-2.809
228104.000			30.899			-2.809
228205.000			30.899			-2.809
228304.000			30.899			-2.809
228404.000			30.899			-2.809
228505.000			30.899			-2.809
228604.000			30.899			-2.809
228704.000			30.898			-2.809
228804.000			30.898			-2.809
228904.000			30.898			-2.809
229004.000			30.897			-2.809
229105.000			30.896			-2.809
229204.000			30.897			-2.809
229304.000			30.896			-2.809
229405.000			30.896			-2.809
229504.000			30.895			-2.809
229604.000			30.894			-2.809
229704.000			30.895			-2.809
229804.000			30.895			-2.809
229903.000			30.895			-2.809
230005.000			30.894			-2.809
230104.000			30.895			-2.809
230204.000			30.894			-2.809
230305.000			30.894			-2.809
230404.000			30.893			-2.808
230504.000			30.891			-2.808
230604.000			30.891			-2.808
230704.000			30.892			-2.808
230804.000			30.891			-2.808
230904.000			30.891			-2.808
231004.000			30.892			-2.808
231105.000			30.890			-2.808
231204.000			30.889			-2.808
231304.000			30.891			-2.808
231405.000			30.891			-2.808
231503.000			30.890			-2.808
231604.000			30.890			-2.808
231705.000			30.888			-2.808
231804.000			30.888			-2.808
231904.000			30.889			-2.808
232005.000			30.888			-2.808
232104.000			30.888			-2.808
232204.000			30.886			-2.808
232305.000			30.886			-2.808
232403.000			30.886			-2.808
232504.000			30.885			-2.808
232605.000			30.885			-2.808
232704.000			30.885			-2.808
232804.000			30.884			-2.808
232905.000			30.885			-2.808
233004.000			30.884			-2.808
233104.000			30.884			-2.808
233205.000			30.884			-2.808
233303.000			30.882			-2.807
233404.000			30.882			-2.807
233505.000			30.882			-2.807
233604.000			30.882			-2.807
233704.000			30.882			-2.807
233805.000			30.881			-2.807
233904.000			30.881			-2.807
234004.000			30.881			-2.807
234105.000			30.880			-2.807
234203.000			30.880			-2.807
234305.000			30.881			-2.807
234404.000			30.880			-2.807
234504.000			30.880			-2.807
234605.000			30.879			-2.807
234704.000			30.880			-2.807
234804.000			30.879			-2.807
234905.000			30.878			-2.807
235004.000			30.877			-2.807
235103.000			30.877			-2.807
235205.000			30.876			-2.807
235304.000			5.337			-0.485
235404.000			-100.911			9.174
235505.000			30.877			-2.807
235604.000			30.877			-2.807
235704.000			30.876			-2.807
235805.000			30.875			-2.807
235904.000			30.876			-2.807
236003.000			30.875			-2.807
236105.000			30.875			-2.807
236204.000			30.874			-2.807
236304.000			30.874			-2.807
236405.000			30.874			-2.807
236504.000			30.873			-2.807
236604.000			30.873			-2.807
236705.000			30.873			-2.807
236804.000			30.872			-2.807
236903.000			30.872			-2.807
237005.000			30.872			-2.807
237104.000			30.871			-2.806
237204.000			30.871			-2.806
237305.000			30.871			-2.806
237404.000			30.870			-2.806
237505.000			30.870			-2.806
237604.000			30.869			-2.806
237704.000			30.869			-2.806
237804.000			30.869			-2.806
237904.000			30.868			-2.806
238003.000			30.867			-2.806
238105.000			30.868			-2.806
238204.000			30.867			-2.806
238304.000			30.868			-2.806
238405.000			30.867			-2.806
238504.000			30.867			-2.806
238604.000			30.867			-2.806
238704.000			30.867			-2.806
238804.000			30.866			-2.806
238903.000			30.865			-2.806
239005.000			30.864			-2.806
239104.000			30.863			-2.806
239204.000			30.864			-2.806
239305.000			30.864			-2.806
239404.000			30.863			-2.806
239504.000			30.863			-2.806
239604.000			30.862			-2.806
239704.000			30.862			-2.806
239803.000			30.863			-2.806
239905.000			30.861			-2.806
240004.000			30.861			-2.806
240104.000			30.861			-2.806
240205.000			30.861			-2.806
240304.000			30.862			-2.806
240404.000			30.859			-2.805
240504.000			30.860			-2.805
240604.000			30.859			-2.805
240703.000			30.859			-2.805
240804.000			30.858			-2.805
240904.000			30.859			-2.805
241005.000			30.858			-2.805
241104.000			30.858			-2.805
241204.000			30.858			-2.805
241305.000			30.858			-2.805
241404.000			30.858			-2.805
241504.000			30.857			-2.805
241604.000			30.856			-2.805
241704.000			30.857			-2.805
241804.000			30.855			-2.805
241905.000			30.855			-2.805
242004.000			30.854			-2.805
242104.000			30.855			-2.805
242205.000			30.854			-2.805
242303.000			30.854			-2.805
242404.000			30.854			-2.805
242504.000			30.854			-2.805
242604.000			30.854			-2.805
242704.000			30.853			-2.805
242805.000			30.852			-2.805
242904.000			30.852			-2.805
243004.000			30.852			-2.805
243105.000			30.852			-2.805
243203.000			30.852			-2.805
243304.000			30.850			-2.805
243405.000			30.850			-2.805
243504.000			30.851			-2.805
243604.000			30.851			-2.805
243704.000			30.851			-2.805
243804.000			30.850			-2.805
243905.000			30.849			-2.804
244004.000			30.848			-2.804
244103.000			30.848			-2.804
244205.000			30.848			-2.804
244304.000			30.848			-2.804
244404.000			30.847			-2.804
244505.000			30.846			-2.804
244604.000			30.846			-2.804
244704.000			30.846			-2.804
244805.000			30.846			-2.804
244904.000			30.846			-2.804
245003.000			30.846			-2.804
245105.000			30.846			-2.804
245204.000			30.845			-2.804
245304.000			30.844			-2.804
245405.000			30.844			-2.804
245504.000			30.843			-2.804
245604.000			30.844			-2.804
245705.000			30.843			-2.804
245804.000			30.843			-2.804
245903.000			30.844			-2.804
246005.000			30.843			-2.804
246104.000			30.843			-2.804
246204.000			30.841			-2.804
246305.000			30.841			-2.804
246404.000			30.842			-2.804
246504.000			30.841			-2.804
246605.000			30.840			-2.804
246704.000			30.840			-2.804
246803.000			30.840			-2.804
246905.000			30.838			-2.803
247004.000			30.839			-2.804
247105.000			30.839			-2.804
247204.000			30.839			-2.804
247304.000			30.838			-2.803
247405.000			30.838			-2.803
247504.000			30.838			-2.803
247604.000			30.838			-2.803
247704.000			30.837			-2.803
247804.000			30.838			-2.803
247904.000			30.838			-2.803
248005.000			30.837			-2.803
248104.000			30.837			-2.803
248204.000			30.836			-2.803
248305.000			30.836			-2.803
248404.000			30.834			-2.803
248504.000			30.833			-2.803
248604.000			30.834			-2.803
248704.000			30.834			-2.803
248804.000			30.834			-2.803
248905.000			30.834			-2.803
249004.000			30.833			-2.803
249104.000			30.832			-2.803
249205.000			30.832			-2.803
249304.000			30.832			-2.803
249404.000			30.833			-2.803
249504.000			30.832			-2.803
249604.000			30.831			-2.803
249704.000			30.832			-2.803
249805.000			30.833			-2.803
249904.000			30.831			-2.803
250004.000			30.829			-2.803
250105.000			30.829			-2.803
250204.000			30.829			-2.803
250305.000			30.828			-2.803
250403.000			30.829			-2.803
250504.000			30.829			-2.803
250605.000			30.829			-2.803
250704.000			30.828			-2.803
250804.000			30.827			-2.802
250905.000			30.828			-2.803
251004.000			30.828			-2.803
251104.000			30.828			-2.803
251205.000			30.827			-2.802
251303.000			30.827			-2.802
251404.000			30.827			-2.802
251505.000			30.827			-2.802
251604.000			30.826			-2.802
251704.000			30.826			-2.802
251805.000			30.825			-2.802
251904.000			30.825			-2.802
252004.000			30.824			-2.802
252105.000			30.823			-2.802
252203.000			30.823			-2.802
252304.000			30.824			-2.802
252405.000			30.823			-2.802
252504.000			30.822			-2.802
252604.000			30.822			-2.802
252705.000			30.821			-2.802
252804.000			30.821			-2.802
252904.000			30.821			-2.802
253005.000			30.822			-2.802
253103.000			30.821			-2.802
253204.000			30.821			-2.802
253305.000			30.821			-2.802
253404.000			30.821			-2.802
253505.000			30.821			-2.802
253604.000			30.819			-2.802
253704.000			30.818			-2.802
253804.000			30.818			-2.802
253904.000			30.818			-2.802
254003.000			30.818			-2.802
254105.000			30.817			-2.802
254204.000			30.818			-2.802
254304.000			30.817			-2.802
254405.000			30.817			-2.802
254504.000			30.817			-2.802
254604.000			30.817			-2.802
254704.000			30.817			-2.802
254804.000			30.815			-2.801
254903.000			30.814			-2.801
255005.000			30.814			-2.801
255104.000			30.814			-2.801
255204.000			30.814			-2.801
255305.000			30.814			-2.801
255404.000			30.814			-2.801
255504.000			30.813			-2.801
255604.000			30.813			-2.801
255704.000			30.812			-2.801
255804.000			30.813			-2.801
255905.000			30.813			-2.801
256004.000			30.813			-2.801
256104.000			30.811			-2.801
256205.000			30.810			-2.801
256304.000			30.811			-2.801
256404.000			30.811			-2.801
256503.000			30.810			-2.801
256604.000			30.810			-2.801
256705.000			30.810			-2.801
256804.000			30.810			-2.801
256904.000			30.809			-2.801
257005.000			30.808			-2.801
257104.000			30.808			-2.801
257204.000			30.809			-2.801
257305.000			30.809			-2.801
257403.000			30.809			-2.801
257504.000			30.808			-2.801
257605.000			30.806			-2.801
257704.000			30.808			-2.801
257804.000			30.806			-2.801
257905.000			30.805			-2.800
258004.000			30.805			-2.800
258104.000			30.806			-2.801
258205.000			30.806			-2.801
258303.000			30.805			-2.800
258404.000			30.805			-2.800
258505.000			30.805			-2.800
258604.000			30.804			-2.800
258704.000			30.804			-2.800
258805.000			30.804			-2.800
258904.000			30.803			-2.800
259004.000			30.804			-2.800
259105.000			30.803			-2.800
259203.000			30.802			-2.800
259304.000			30.802			-2.800
259405.000			30.803			-2.800
259504.000			30.802			-2.800
259604.000			30.801			-2.800
259704.000			30.801			-2.800
259804.000			30.801			-2.800
259905.000			30.800			-2.800
260004.000			30.800			-2.800
260103.000			30.799			-2.800
260205.000			30.800			-2.800
260304.000			30.799			-2.800
260404.000			30.799			-2.800
260505.000			30.799			-2.800
260604.000			30.799			-2.800
260704.000			30.799			-2.800
260805.000			30.798			-2.800
260904.000			30.798			-2.800
261003.000			30.797			-2.800
261105.000			30.797			-2.800
261204.000			30.797			-2.800
261304.000			30.795			-2.800
261405.000			30.795			-2.800
261504.000			30.795			-2.800
261604.000			30.795			-2.800
261705.000			30.796			-2.800
261804.000			30.796			-2.800
261903.000			30.796			-2.800
262005.000			30.795			-2.800
262104.000			30.793			-2.799
262204.000			30.793			-2.799
262305.000			30.792			-2.799
262404.000			30.793			-2.799
262504.000			30.793			-2.799
262605.000			30.792			-2.799
262704.000			30.790			-2.799
262803.000			30.792			-2.799
262905.000			30.792			-2.799
263004.000			30.791			-2.799
263105.000			30.791			-2.799
263204.000			30.791			-2.799
263304.000			30.790			-2.799
263405.000			30.789			-2.799
263504.000			30.789			-2.799
263604.000			30.790			-2.799
263704.000			30.789			-2.799
263804.000			30.788			-2.799
263904.000			30.789			-2.799
264005.000			30.788			-2.799
264104.000			30.788			-2.799
264204.000			30.786			-2.799
264305.000			30.787			-2.799
264404.000			30.787			-2.799
264504.000			30.786			-2.799
264604.000			30.786			-2.799
264704.000			30.786			-2.799
264803.000			30.785			-2.799
264905.000			30.786			-2.799
265004.000			30.786			-2.799
265104.000			30.785			-2.799
265205.000			30.785			-2.799
265304.000			30.785			-2.799
265404.000			30.785			-2.799
265504.000			30.784			-2.799
265604.000			30.783			-2.798
265703.000			30.784			-2.799
265805.000			30.784			-2.799
265904.000			30.783			-2.798
266004.000			30.782			-2.798
266105.000			30.782			-2.798
266204.000			30.783			-2.798
266305.000			30.783			-2.798
266403.000			30.780			-2.798
266504.000			30.781			-2.798
266604.000			30.782			-2.798
266704.000			30.780			-2.798
266804.000			30.780			-2.798
266905.000			30.779			-2.798
267004.000			30.780			-2.798
267104.000			30.779			-2.798
267205.000			30.777			-2.798
267303.000			30.778			-2.798
267404.000			30.778			-2.798
267504.000			30.779			-2.798
267604.000			30.778			-2.798
267704.000			30.777			-2.798
267805.000			30.778			-2.798
267904.000			30.778			-2.798
268004.000			30.777			-2.798
268105.000			30.776			-2.798
268204.000			30.775			-2.798
268304.000			30.775			-2.798
268404.000			30.775			-2.798
268504.000			30.774			-2.798
268604.000			30.773			-2.798
268705.000			30.774			-2.798
268804.000			30.774			-2.798
268904.000			30.774			-2.798
269005.000			30.773			-2.798
269104.000			30.773			-2.798
269204.000			30.774			-2.798
269303.000			30.773			-2.798
269404.000			30.773			-2.798
269505.000			30.772			-2.797
269604.000			30.772			-2.797
269704.000			30.771			-2.797
269805.000			30.771			-2.797
269904.000			30.771			-2.797
270004.000			30.769			-2.797
270105.000			30.770			-2.797
270203.000			30.770			-2.797
270304.000			30.769			-2.797
270405.000			30.770			-2.797
270504.000			30.770			-2.797
270604.000			30.769			-2.797
270705.000			30.769			-2.797
270804.000			30.768			-2.797
270904.000			30.768			-2.797
271005.000			30.769			-2.797
271103.000			30.767			-2.797
271204.000			30.767			-2.797
271305.000			30.767			-2.797
271404.000			30.766			-2.797
271504.000			30.766			-2.797
271605.000			30.766			-2.797
271704.000			30.766			-2.797
271804.000			30.766			-2.797
271905.000			30.765			-2.797
272003.000			30.765			-2.797
272104.000			30.766			-2.797
272205.000			30.765			-2.797
272304.000			30.765			-2.797
272404.000			30.763			-2.797
272504.000			30.764			-2.797
272604.000			30.764			-2.797
272705.000			30.764			-2.797
272804.000			30.763			-2.797
272903.000			30.762			-2.797
273005.000			30.762			-2.797
273104.000			30.762			-2.797
273204.000			30.762			-2.797
273305.000			30.761			-2.796
273404.000			30.761			-2.796
273504.000			30.761			-2.796
273605.000			30.760			-2.796
273704.000			30.760			-2.796
273803.000			30.759			-2.796
273905.000			30.759			-2.796
274004.000			30.760			-2.796
274104.000			30.759			-2.796
274205.000			30.759			-2.796
274304.000			30.758			-2.796
274404.000			30.758			-2.796
274505.000			30.759			-2.796
274604.000			30.759			-2.796
274703.000			30.758			-2.796
274805.000			30.757			-2.796
274904.000			30.756			-2.796
275004.000			30.755			-2.796
275105.000			30.756			-2.796
275204.000			30.756			-2.796
275304.000			30.756			-2.796
275405.000			30.755			-2.796
275504.000			30.754			-2.796
275603.000			30.755			-2.796
275705.000			30.756			-2.796
275804.000			30.754			-2.796
275905.000			30.754			-2.796
276004.000			30.754			-2.796
276104.000			30.753			-2.796
276205.000			30.753			-2.796
276304.000			30.754			-2.796
276404.000			30.753			-2.796
276504.000			30.753			-2.796
276604.000			30.753			-2.796
276704.000			30.752			-2.796
276805.000			30.752			-2.796
276904.000			30.752			-2.796
277004.000			30.751			-2.796
277105.000			30.750			-2.795
277204.000			30.751			-2.796
277304.000			30.751			-2.796
277404.000			30.750			-2.795
277504.000			30.749			-2.795
277604.000			30.749			-2.795
277705.000			30.749			-2.795
277804.000			30.749			-2.795
277904.000			30.748			-2.795
278005.000			30.748			-2.795
278104.000			30.748			-2.795
278204.000			30.748			-2.795
278304.000			30.747			-2.795
278404.000			30.747			-2.795
278503.000			30.746			-2.795
278605.000			30.746			-2.795
278704.000			30.746			-2.795
278804.000			30.745			-2.795
278905.000			30.745			-2.795
279004.000			30.746			-2.795
279105.000			30.746			-2.795
279203.000			30.745			-2.795
279304.000			30.745			-2.795
279404.000			30.744			-2.795
279504.000			30.744			-2.795
279604.000			30.743			-2.795
279705.000			30.743			-2.795
279804.000			30.743			-2.795
279904.000			30.743			-2.795
280005.000			30.742			-2.795
280103.000			30.742			-2.795
280204.000			30.741			-2.795
280304.000			30.741			-2.795
280404.000			30.742			-2.795
280504.000			30.742			-2.795
280605.000			30.742			-2.795
280704.000			30.741			-2.795
280804.000			30.741			-2.795
280905.000			30.740			-2.795
281003.000			30.740			-2.795
281104.000			30.740			-2.795
281205.000			30.740			-2.795
281304.000			30.738			-2.794
281404.000			30.738			-2.794
281505.000			30.739			-2.794
281604.000			30.738			-2.794
281704.000			30.738			-2.794
281805.000			30.738			-2.794
281903.000			30.737			-2.794
282004.000			30.737			-2.794
282105.000			30.737			-2.794
282204.000			30.737			-2.794
282305.000			30.737			-2.794
282404.000			30.736			-2.794
282504.000			30.736			-2.794
282605.000			30.736			-2.794
282704.000			30.736			-2.794
282803.000			30.735			-2.794
282905.000			30.735			-2.794
283004.000			30.735			-2.794
283104.000			30.734			-2.794
283205.000			30.733			-2.794
283304.000			30.733			-2.794
283404.000			30.734			-2.794
283505.000			30.734			-2.794
283604.000			30.734			-2.794
283703.000			30.734			-2.794
283805.000			30.733			-2.794
283904.000			30.731			-2.794
284004.000			30.731			-2.794
284105.000			30.732			-2.794
284204.000			30.731			-2.794
284304.000			30.731			-2.794
284405.000			30.731			-2.794
284504.000			30.730			-2.794
284603.000			30.729			-2.794
284705.000			30.728			-2.793
284804.000			30.729			-2.794
284904.000			30.730			-2.794
285005.000			30.729			-2.794
285104.000			30.729			-2.794
285204.000			30.730			-2.794
285304.000			30.728			-2.793
285404.000			30.728			-2.793
285503.000			30.728			-2.793
285604.000			30.728			-2.793
285704.000			30.728			-2.793
285805.000			30.728			-2.793
285904.000			30.726			-2.793
286004.000			30.726			-2.793
286105.000			30.726			-2.793
286204.000			30.725			-2.793
286304.000			30.725			-2.793
286404.000			30.725			-2.793
286504.000			30.726			-2.793
286604.000			30.725			-2.793
286705.000			30.724			-2.793
286804.000			30.725			-2.793
286904.000			30.724			-2.793
287005.000			30.724			-2.793
287104.000			30.724			-2.793
287204.000			30.724			-2.793
287304.000			30.723			-2.793
287404.000			30.723			-2.793
287504.000			30.722			-2.793
287605.000			30.722			-2.793
287704.000			30.722			-2.793
287804.000			30.721			-2.793
287905.000			30.721			-2.793
288004.000			30.721			-2.793
288104.000			30.722			-2.793
288204.000			30.721			-2.793
288304.000			30.721			-2.793
288404.000			30.721			-2.793
288504.000			30.720			-2.793
288604.000			30.718			-2.793
288705.000			30.719			-2.793
288804.000			30.718			-2.793
288904.000			30.718			-2.793
289005.000			30.717			-2.792
289103.000			30.718			-2.793
289204.000			30.718			-2.793
289305.000			30.717			-2.792
289404.000			30.718			-2.793
289504.000			30.718			-2.793
289605.000			30.717			-2.792
289704.000			30.717			-2.792
289804.000			30.717			-2.792
289905.000			30.717			-2.792
290003.000			30.716			-2.792
290104.000			30.716			-2.792
290205.000			30.715			-2.792
290304.000			30.714			-2.792
290404.000			30.714			-2.792
290505.000			30.713			-2.792
290604.000			30.714			-2.792
290704.000			30.715			-2.792
290805.000			30.714			-2.792
290903.000			30.713			-2.792
291004.000			30.713			-2.792
291105.000			30.713			-2.792
291204.000			30.712			-2.792
291304.000			30.712			-2.792
291405.000			30.712			-2.792
291504.000			30.712			-2.792
291604.000			30.711			-2.792
291705.000			30.710			-2.792
291803.000			30.711			-2.792
291905.000			30.711			-2.792
292004.000			30.711			-2.792
292104.000			30.710			-2.792
292205.000			30.710			-2.792
292304.000			30.709			-2.792
292404.000			30.708			-2.792
292504.000			30.710			-2.792
292604.000			30.710			-2.792
292703.000			30.709			-2.792
292805.000			30.707			-2.792
292904.000			30.707			-2.792
293004.000			30.708			-2.792
293105.000			30.708			-2.792
293204.000			30.708			-2.792
293304.000			30.707			-2.792
293404.000			30.707			-2.792
293504.000			30.707			-2.792
293603.000			30.706			-2.791
293705.000			30.706			-2.791
293804.000			30.706			-2.791
293904.000			30.706			-2.791
294005.000			30.705			-2.791
294104.000			30.705			-2.791
294204.000			30.705			-2.791
294304.000			30.704			-2.791
294404.000			30.703			-2.791
294504.000			30.704			-2.791
294605.000			30.704			-2.791
294704.000			30.704			-2.791
294804.000			30.703			-2.791
294905.000			30.703			-2.791
295004.000			30.703			-2.791
295105.000			30.701			-2.791
295203.000			30.701			-2.791
295304.000			30.701			-2.791
295405.000			30.701			-2.791
295504.000			30.701			-2.791
295604.000			30.701			-2.791
295705.000			30.700			-2.791
295804.000			30.700			-2.791
295904.000			30.700			-2.791
296005.000			30.698			-2.791
296103.000			30.699			-2.791
296204.000			30.699			-2.791
296304.000			30.698			-2.791
296404.000			30.698			-2.791
296504.000			30.699			-2.791
296605.000			30.699			-2.791
296704.000			30.698			-2.791
296804.000			30.697			-2.791
296905.000			30.698			-2.791
297004.000			30.698			-2.791
297104.000			30.698			-2.791
297204.000			30.697			-2.791
297304.000			30.696			-2.791
297404.000			30.696			-2.791
297505.000			30.695			-2.790
297604.000			30.696			-2.791
297704.000			30.696			-2.791
297805.000			30.695			-2.790
297904.000			30.694			-2.790
298004.000			30.694			-2.790
298103.000			30.694			-2.790
298204.000			30.694			-2.790
298303.000			30.694			-2.790
298404.000			30.693			-2.790
298504.000			30.692			-2.790
298605.000			30.693			-2.790
298704.000			30.693			-2.790
298804.000			30.692			-2.790
298905.000			30.691			-2.790
299003.000			30.691			-2.790
299104.000			30.691			-2.790
299204.000			30.692			-2.790
299304.000			30.691			-2.790
299404.000			30.690			-2.790
299505.000			30.691			-2.790
299604.000			30.689			-2.790
299704.000			30.690			-2.790
299805.000			30.689			-2.790
299904.000			30.689			-2.790
