# Acquired on 21/12/2023 11:51:41 
# SPIDER: Creep_-7mm_07714532B-1
# CREEP MEASUREMENT

# time [ms]		force [N]		stiffness [N/mm]
1.000			26.542			-3.792
101.000			27.763			-3.966
200.000			28.194			-4.028
300.000			28.151			-4.022
401.000			28.029			-4.004
500.000			27.935			-3.991
601.000			27.791			-3.970
702.000			27.734			-3.962
800.000			27.682			-3.955
900.000			27.635			-3.948
1001.000			27.592			-3.942
1100.000			27.553			-3.936
1200.000			27.517			-3.931
1302.000			27.451			-3.922
1401.000			27.420			-3.917
1500.000			27.393			-3.913
1601.000			27.368			-3.910
1700.000			27.343			-3.906
1800.000			27.319			-3.903
1901.000			27.296			-3.899
2000.000			27.275			-3.896
2101.000			27.234			-3.891
2202.000			27.216			-3.888
2300.000			27.198			-3.885
2400.000			27.180			-3.883
2501.000			27.163			-3.880
2600.000			27.147			-3.878
2700.000			27.130			-3.876
2802.000			27.101			-3.872
2901.000			27.086			-3.869
3001.000			27.072			-3.867
3100.000			27.059			-3.866
3200.000			27.046			-3.864
3301.000			27.033			-3.862
3400.000			27.021			-3.860
3500.000			26.997			-3.857
3602.000			26.985			-3.855
3701.000			26.974			-3.853
3800.000			26.963			-3.852
3901.000			26.953			-3.850
4000.000			26.943			-3.849
4100.000			26.933			-3.848
4201.000			26.922			-3.846
4300.000			26.902			-3.843
4401.000			26.892			-3.842
4502.000			26.883			-3.840
4600.000			26.875			-3.839
4700.000			26.866			-3.838
4801.000			26.857			-3.837
4900.000			26.849			-3.836
5000.000			26.834			-3.833
5102.000			26.825			-3.832
5201.000			26.816			-3.831
5301.000			26.808			-3.830
5401.000			26.800			-3.829
5500.000			26.792			-3.827
5600.000			26.785			-3.826
5701.000			26.772			-3.825
5800.000			26.764			-3.823
5902.000			26.757			-3.822
6001.000			26.751			-3.822
6100.000			26.744			-3.821
6201.000			26.737			-3.820
6300.000			26.731			-3.819
6400.000			26.724			-3.818
6501.000			26.710			-3.816
6600.000			26.705			-3.815
6701.000			26.699			-3.814
6802.000			26.693			-3.813
6900.000			26.687			-3.812
7000.000			26.681			-3.812
7101.000			26.675			-3.811
7200.000			26.664			-3.809
7300.000			26.658			-3.808
7401.000			26.652			-3.807
7501.000			26.648			-3.807
7601.000			26.643			-3.806
7701.000			26.637			-3.805
7800.000			26.632			-3.805
7900.000			26.621			-3.803
8001.000			26.616			-3.802
8100.000			26.611			-3.802
8200.000			26.607			-3.801
8302.000			26.602			-3.800
8401.000			26.597			-3.800
8500.000			26.591			-3.799
8601.000			26.586			-3.798
8700.000			26.578			-3.797
8800.000			26.574			-3.796
8901.000			26.569			-3.796
9000.000			26.563			-3.795
9102.000			26.558			-3.794
9201.000			26.555			-3.794
9300.000			26.551			-3.793
9401.000			26.542			-3.792
9500.000			26.537			-3.791
9600.000			26.534			-3.791
9701.000			26.530			-3.790
9801.000			26.525			-3.789
9901.000			26.522			-3.789
10001.000			26.516			-3.788
10100.000			26.509			-3.787
10200.000			26.505			-3.786
10301.000			26.502			-3.786
10400.000			26.497			-3.785
10500.000			26.493			-3.785
10602.000			26.489			-3.784
10701.000			26.485			-3.784
10800.000			26.482			-3.783
10901.000			26.474			-3.782
11000.000			26.470			-3.781
11100.000			26.467			-3.781
11201.000			26.463			-3.780
11300.000			26.460			-3.780
11401.000			26.457			-3.780
11502.000			26.453			-3.779
11600.000			26.447			-3.778
11700.000			26.444			-3.778
11801.000			26.440			-3.777
11900.000			26.437			-3.777
12000.000			26.433			-3.776
12101.000			26.430			-3.776
12201.000			26.426			-3.775
12302.000			26.420			-3.774
12400.000			26.418			-3.774
12500.000			26.414			-3.773
12601.000			26.411			-3.773
12700.000			26.408			-3.773
12800.000			26.404			-3.772
12901.000			26.400			-3.771
13001.000			26.396			-3.771
13101.000			26.392			-3.770
13201.000			26.389			-3.770
13300.000			26.386			-3.769
13400.000			26.382			-3.769
13501.000			26.379			-3.768
13600.000			26.376			-3.768
13700.000			26.374			-3.768
13802.000			26.369			-3.767
13901.000			26.367			-3.767
14000.000			26.363			-3.766
14101.000			26.360			-3.766
14200.000			26.357			-3.765
14300.000			26.354			-3.765
14401.000			26.352			-3.765
14500.000			26.349			-3.764
14601.000			26.344			-3.763
14702.000			26.341			-3.763
14801.000			26.338			-3.763
14900.000			26.335			-3.762
15001.000			26.332			-3.762
15100.000			26.330			-3.761
15200.000			26.327			-3.761
15301.000			26.321			-3.760
15401.000			26.320			-3.760
15502.000			26.317			-3.760
15600.000			26.314			-3.759
15700.000			26.311			-3.759
15801.000			26.308			-3.758
15900.000			26.306			-3.758
16000.000			26.301			-3.757
16101.000			26.298			-3.757
16201.000			26.295			-3.756
16301.000			26.294			-3.756
16401.000			26.291			-3.756
16500.000			26.289			-3.756
16600.000			26.288			-3.755
16701.000			26.286			-3.755
16800.000			26.279			-3.754
16900.000			26.277			-3.754
17001.000			26.275			-3.754
17101.000			26.273			-3.753
17201.000			26.271			-3.753
17301.000			26.268			-3.753
17400.000			26.266			-3.752
17500.000			26.261			-3.752
17601.000			26.258			-3.751
17700.000			26.258			-3.751
17800.000			26.256			-3.751
17902.000			26.253			-3.750
18001.000			26.251			-3.750
18100.000			26.247			-3.750
18201.000			26.242			-3.749
18300.000			26.241			-3.749
18400.000			26.239			-3.748
18501.000			26.236			-3.748
18600.000			26.234			-3.748
18702.000			26.232			-3.747
18801.000			26.230			-3.747
18900.000			26.228			-3.747
19001.000			26.223			-3.746
19100.000			26.222			-3.746
19200.000			26.220			-3.746
19301.000			26.217			-3.745
19400.000			26.216			-3.745
19501.000			26.214			-3.745
19602.000			26.211			-3.744
19700.000			26.207			-3.744
19800.000			26.205			-3.744
19901.000			26.203			-3.743
20000.000			26.202			-3.743
20100.000			26.200			-3.743
20201.000			26.197			-3.742
20301.000			26.194			-3.742
20401.000			26.191			-3.742
20501.000			26.189			-3.741
20600.000			26.187			-3.741
20700.000			26.186			-3.741
20801.000			26.184			-3.741
20900.000			26.182			-3.740
21000.000			26.180			-3.740
21102.000			26.179			-3.740
21201.000			26.175			-3.739
21300.000			26.173			-3.739
21401.000			26.171			-3.739
21500.000			26.168			-3.738
21600.000			26.166			-3.738
21701.000			26.164			-3.738
21801.000			26.163			-3.738
21902.000			26.160			-3.737
22001.000			26.158			-3.737
22100.000			26.155			-3.736
22201.000			26.154			-3.736
22300.000			26.152			-3.736
22400.000			26.151			-3.736
22501.000			26.150			-3.736
22601.000			26.146			-3.735
22701.000			26.144			-3.735
22801.000			26.142			-3.735
22900.000			26.139			-3.734
23000.000			26.137			-3.734
23101.000			26.136			-3.734
23200.000			26.135			-3.734
23300.000			26.133			-3.733
23402.000			26.129			-3.733
23501.000			26.127			-3.732
23600.000			26.126			-3.732
23701.000			26.126			-3.732
23800.000			26.124			-3.732
23900.000			26.121			-3.732
24001.000			26.120			-3.731
24100.000			26.116			-3.731
24201.000			26.115			-3.731
24302.000			26.113			-3.730
24400.000			26.111			-3.730
24500.000			26.110			-3.730
24601.000			26.108			-3.730
24700.000			26.106			-3.729
24800.000			26.104			-3.729
24901.000			26.102			-3.729
25001.000			26.100			-3.729
25102.000			26.099			-3.728
25200.000			26.098			-3.728
25300.000			26.095			-3.728
25401.000			26.093			-3.728
25500.000			26.092			-3.727
25600.000			26.090			-3.727
25701.000			26.088			-3.727
25801.000			26.087			-3.727
25901.000			26.084			-3.726
26001.000			26.082			-3.726
26100.000			26.081			-3.726
26200.000			26.080			-3.726
26301.000			26.078			-3.725
26400.000			26.076			-3.725
26500.000			26.074			-3.725
26602.000			26.072			-3.725
26701.000			26.071			-3.724
26800.000			26.070			-3.724
26901.000			26.068			-3.724
27000.000			26.067			-3.724
27100.000			26.063			-3.723
27201.000			26.062			-3.723
27301.000			26.061			-3.723
27401.000			26.060			-3.723
27501.000			26.058			-3.723
27600.000			26.056			-3.722
27700.000			26.056			-3.722
27801.000			26.053			-3.722
27900.000			26.051			-3.722
28000.000			26.050			-3.721
28102.000			26.049			-3.721
28201.000			26.047			-3.721
28300.000			26.045			-3.721
28400.000			26.044			-3.721
28500.000			26.041			-3.720
28601.000			26.041			-3.720
28700.000			26.039			-3.720
28800.000			26.037			-3.720
28902.000			26.036			-3.719
29001.000			26.036			-3.719
29100.000			26.034			-3.719
29201.000			26.031			-3.719
29300.000			26.029			-3.718
29400.000			26.028			-3.718
29501.000			26.027			-3.718
29600.000			26.025			-3.718
29701.000			26.023			-3.718
29802.000			26.022			-3.717
29900.000			26.020			-3.717
30000.000			26.018			-3.717
30101.000			26.017			-3.717
30200.000			26.017			-3.717
30300.000			26.017			-3.717
30401.000			26.015			-3.716
30501.000			26.012			-3.716
30601.000			26.011			-3.716
30701.000			26.009			-3.716
30800.000			26.007			-3.715
30900.000			26.005			-3.715
31001.000			26.004			-3.715
31100.000			26.003			-3.715
31200.000			26.002			-3.715
31302.000			26.000			-3.714
31401.000			25.999			-3.714
31500.000			25.998			-3.714
31600.000			25.998			-3.714
31700.000			25.996			-3.714
31801.000			25.994			-3.713
31900.000			25.993			-3.713
32000.000			25.991			-3.713
32102.000			25.989			-3.713
32201.000			25.988			-3.713
32300.000			25.986			-3.712
32401.000			25.985			-3.712
32500.000			25.985			-3.712
32600.000			25.983			-3.712
32701.000			25.981			-3.712
32800.000			25.980			-3.711
32901.000			25.977			-3.711
33002.000			25.976			-3.711
33100.000			25.975			-3.711
33200.000			25.974			-3.711
33301.000			25.972			-3.710
33400.000			25.972			-3.710
33500.000			25.970			-3.710
33601.000			25.969			-3.710
33701.000			25.966			-3.709
33801.000			25.965			-3.709
33901.000			25.964			-3.709
34000.000			25.964			-3.709
34100.000			25.962			-3.709
34201.000			25.960			-3.709
34300.000			25.959			-3.708
34400.000			25.957			-3.708
34502.000			25.957			-3.708
34601.000			25.955			-3.708
34700.000			25.955			-3.708
34800.000			25.954			-3.708
34900.000			25.953			-3.708
35001.000			25.951			-3.707
35100.000			25.949			-3.707
35200.000			25.948			-3.707
35302.000			25.946			-3.707
35401.000			25.946			-3.707
35500.000			25.945			-3.706
35601.000			25.943			-3.706
35700.000			25.942			-3.706
35800.000			25.941			-3.706
35901.000			25.939			-3.706
36000.000			25.938			-3.705
36100.000			25.937			-3.705
36202.000			25.936			-3.705
36301.000			25.934			-3.705
36400.000			25.933			-3.705
36501.000			25.931			-3.704
36600.000			25.928			-3.704
36700.000			25.928			-3.704
36801.000			25.926			-3.704
36900.000			25.925			-3.704
37001.000			25.926			-3.704
37102.000			25.924			-3.703
37200.000			25.924			-3.703
37300.000			25.920			-3.703
37401.000			25.920			-3.703
37500.000			25.919			-3.703
37600.000			25.918			-3.703
37701.000			25.917			-3.702
37801.000			25.916			-3.702
37902.000			25.915			-3.702
38000.000			25.914			-3.702
38100.000			25.912			-3.702
38201.000			25.912			-3.702
38300.000			25.909			-3.701
38400.000			25.908			-3.701
38501.000			25.907			-3.701
38601.000			25.906			-3.701
38701.000			25.905			-3.701
38801.000			25.904			-3.701
38900.000			25.903			-3.700
39000.000			25.901			-3.700
39101.000			25.900			-3.700
39200.000			25.900			-3.700
39300.000			25.899			-3.700
39402.000			25.897			-3.700
39501.000			25.896			-3.699
39601.000			25.895			-3.699
39701.000			25.895			-3.699
39800.000			25.892			-3.699
39900.000			25.890			-3.699
40001.000			25.890			-3.699
40100.000			25.890			-3.699
40200.000			25.889			-3.698
40302.000			25.886			-3.698
40401.000			25.886			-3.698
40500.000			25.885			-3.698
40601.000			25.883			-3.698
40700.000			25.882			-3.697
40800.000			25.882			-3.697
40901.000			25.881			-3.697
41000.000			25.879			-3.697
41102.000			25.878			-3.697
41201.000			25.877			-3.697
41300.000			25.876			-3.697
41401.000			25.875			-3.696
41500.000			25.874			-3.696
41600.000			25.874			-3.696
41701.000			25.871			-3.696
41800.000			25.870			-3.696
41901.000			25.869			-3.696
42002.000			25.869			-3.696
42100.000			25.867			-3.695
42200.000			25.866			-3.695
42301.000			25.865			-3.695
42400.000			25.864			-3.695
42500.000			25.864			-3.695
42601.000			25.862			-3.695
42701.000			25.860			-3.694
42801.000			25.858			-3.694
42901.000			25.857			-3.694
43000.000			25.857			-3.694
43100.000			25.856			-3.694
43201.000			25.855			-3.694
43300.000			25.853			-3.693
43400.000			25.852			-3.693
43502.000			25.853			-3.693
43601.000			25.852			-3.693
43700.000			25.850			-3.693
43801.000			25.849			-3.693
43900.000			25.848			-3.693
44000.000			25.847			-3.692
44101.000			25.845			-3.692
44200.000			25.843			-3.692
44302.000			25.843			-3.692
44401.000			25.844			-3.692
44500.000			25.842			-3.692
44601.000			25.841			-3.692
44700.000			25.841			-3.692
44800.000			25.840			-3.691
44901.000			25.839			-3.691
45000.000			25.837			-3.691
45101.000			25.836			-3.691
45202.000			25.837			-3.691
45301.000			25.836			-3.691
45400.000			25.833			-3.690
45501.000			25.833			-3.690
45600.000			25.832			-3.690
45700.000			25.830			-3.690
45801.000			25.830			-3.690
45901.000			25.830			-3.690
46001.000			25.828			-3.690
46101.000			25.821			-3.689
46200.000			25.820			-3.689
46300.000			25.819			-3.688
46401.000			25.818			-3.688
46500.000			25.817			-3.688
46600.000			25.817			-3.688
46702.000			25.818			-3.688
46801.000			25.818			-3.688
46901.000			25.816			-3.688
47001.000			25.816			-3.688
47100.000			25.815			-3.688
47200.000			25.813			-3.688
47301.000			25.813			-3.688
47400.000			25.813			-3.688
47500.000			25.811			-3.687
47602.000			25.810			-3.687
47701.000			25.809			-3.687
47801.000			25.808			-3.687
47900.000			25.808			-3.687
48000.000			25.807			-3.687
48101.000			25.807			-3.687
48200.000			25.806			-3.687
48300.000			25.805			-3.686
48402.000			25.802			-3.686
48501.000			25.802			-3.686
48600.000			25.801			-3.686
48701.000			25.799			-3.686
48800.000			25.798			-3.685
48900.000			25.798			-3.685
49001.000			25.797			-3.685
49100.000			25.796			-3.685
49201.000			25.795			-3.685
49302.000			25.794			-3.685
49401.000			25.793			-3.685
49500.000			25.792			-3.685
49601.000			25.791			-3.684
49700.000			25.791			-3.684
49800.000			25.789			-3.684
49901.000			25.788			-3.684
50000.000			25.788			-3.684
50101.000			25.787			-3.684
50202.000			25.787			-3.684
50300.000			25.785			-3.684
50400.000			25.784			-3.683
50501.000			25.784			-3.683
50600.000			25.782			-3.683
50700.000			25.781			-3.683
50800.000			25.780			-3.683
50901.000			25.780			-3.683
51002.000			25.779			-3.683
51100.000			25.778			-3.683
51200.000			25.777			-3.682
51301.000			25.776			-3.682
51400.000			25.776			-3.682
51500.000			25.775			-3.682
51601.000			25.773			-3.682
51701.000			25.773			-3.682
51801.000			25.772			-3.682
51901.000			25.771			-3.682
52000.000			25.770			-3.681
52100.000			25.769			-3.681
52201.000			25.769			-3.681
52300.000			25.768			-3.681
52400.000			25.767			-3.681
52502.000			25.767			-3.681
52601.000			25.766			-3.681
52700.000			25.765			-3.681
52801.000			25.763			-3.680
52900.000			25.762			-3.680
53000.000			25.762			-3.680
53101.000			25.762			-3.680
53200.000			25.760			-3.680
53301.000			25.759			-3.680
53402.000			25.759			-3.680
53501.000			25.757			-3.680
53600.000			25.757			-3.680
53701.000			25.757			-3.680
53800.000			25.757			-3.680
53900.000			25.755			-3.679
54000.000			25.753			-3.679
54100.000			25.754			-3.679
54202.000			25.751			-3.679
54301.000			25.750			-3.679
54400.000			25.750			-3.679
54501.000			25.749			-3.678
54600.000			25.750			-3.679
54700.000			25.748			-3.678
54801.000			25.747			-3.678
54900.000			25.747			-3.678
55001.000			25.745			-3.678
55102.000			25.744			-3.678
55200.000			25.743			-3.678
55300.000			25.743			-3.678
55401.000			25.741			-3.677
55500.000			25.740			-3.677
55600.000			25.741			-3.677
55701.000			25.739			-3.677
55801.000			25.738			-3.677
55901.000			25.738			-3.677
56001.000			25.737			-3.677
56100.000			25.737			-3.677
56200.000			25.736			-3.677
56301.000			25.735			-3.676
56400.000			25.733			-3.676
56500.000			25.733			-3.676
56602.000			25.732			-3.676
56701.000			25.732			-3.676
56800.000			25.731			-3.676
56901.000			25.730			-3.676
57000.000			25.729			-3.676
57100.000			25.729			-3.676
57200.000			25.728			-3.675
57300.000			25.727			-3.675
57402.000			25.726			-3.675
57501.000			25.726			-3.675
57600.000			25.725			-3.675
57701.000			25.724			-3.675
57800.000			25.723			-3.675
57900.000			25.723			-3.675
58001.000			25.722			-3.675
58100.000			25.722			-3.675
58201.000			25.720			-3.674
58302.000			25.720			-3.674
58401.000			25.719			-3.674
58500.000			25.719			-3.674
58601.000			25.717			-3.674
58700.000			25.716			-3.674
58800.000			25.714			-3.673
58901.000			25.714			-3.673
59000.000			25.714			-3.673
59101.000			25.714			-3.673
59202.000			25.712			-3.673
59300.000			25.711			-3.673
59400.000			25.711			-3.673
59501.000			25.711			-3.673
59600.000			25.710			-3.673
59700.000			25.709			-3.673
59801.000			25.708			-3.673
59901.000			25.706			-3.672
60001.000			25.706			-3.672
60101.000			25.706			-3.672
60200.000			25.705			-3.672
60300.000			25.705			-3.672
60400.000			25.704			-3.672
60500.000			25.703			-3.672
60601.000			25.703			-3.672
60701.000			25.702			-3.672
60801.000			25.700			-3.671
60901.000			25.700			-3.671
61000.000			25.699			-3.671
61100.000			25.699			-3.671
61201.000			25.698			-3.671
61300.000			25.698			-3.671
61400.000			25.696			-3.671
61502.000			25.695			-3.671
61601.000			25.694			-3.671
61700.000			25.693			-3.670
61801.000			25.693			-3.670
61900.000			25.693			-3.670
62000.000			25.693			-3.670
62101.000			25.691			-3.670
62200.000			25.690			-3.670
62301.000			25.690			-3.670
62402.000			25.689			-3.670
62501.000			25.690			-3.670
62600.000			25.689			-3.670
62701.000			25.687			-3.670
62800.000			25.685			-3.669
62900.000			25.685			-3.669
63001.000			25.684			-3.669
63100.000			25.685			-3.669
63201.000			25.683			-3.669
63302.000			25.683			-3.669
63400.000			25.683			-3.669
63500.000			25.681			-3.669
63600.000			25.680			-3.669
63700.000			25.680			-3.669
63801.000			25.679			-3.668
63900.000			25.679			-3.668
64001.000			25.677			-3.668
64102.000			25.676			-3.668
64200.000			25.676			-3.668
64300.000			25.676			-3.668
64401.000			25.675			-3.668
64500.000			25.674			-3.668
64600.000			25.674			-3.668
64701.000			25.673			-3.668
64801.000			25.673			-3.668
64901.000			25.673			-3.668
65001.000			25.672			-3.667
65100.000			25.671			-3.667
65200.000			25.669			-3.667
65301.000			25.668			-3.667
65400.000			25.668			-3.667
65500.000			25.666			-3.667
65602.000			25.666			-3.667
65701.000			25.666			-3.667
65800.000			25.666			-3.667
65901.000			25.665			-3.666
66000.000			25.664			-3.666
66100.000			25.663			-3.666
66201.000			25.663			-3.666
66300.000			25.662			-3.666
66400.000			25.661			-3.666
66502.000			25.661			-3.666
66601.000			25.660			-3.666
66700.000			25.659			-3.666
66800.000			25.659			-3.666
66900.000			25.659			-3.666
67001.000			25.658			-3.665
67100.000			25.658			-3.665
67200.000			25.656			-3.665
67302.000			25.655			-3.665
67401.000			25.655			-3.665
67500.000			25.653			-3.665
67601.000			25.653			-3.665
67700.000			25.652			-3.665
67800.000			25.652			-3.665
67901.000			25.651			-3.664
68000.000			25.651			-3.664
68100.000			25.650			-3.664
68202.000			25.649			-3.664
68301.000			25.649			-3.664
68400.000			25.648			-3.664
68501.000			25.647			-3.664
68600.000			25.646			-3.664
68700.000			25.646			-3.664
68801.000			25.646			-3.664
68900.000			25.644			-3.663
69001.000			25.644			-3.663
69102.000			25.643			-3.663
69200.000			25.643			-3.663
69300.000			25.643			-3.663
69401.000			25.642			-3.663
69500.000			25.641			-3.663
69600.000			25.639			-3.663
69701.000			25.638			-3.663
69801.000			25.638			-3.663
69902.000			25.638			-3.663
70001.000			25.638			-3.663
70100.000			25.638			-3.663
70201.000			25.637			-3.662
70300.000			25.636			-3.662
70400.000			25.635			-3.662
70501.000			25.635			-3.662
70601.000			25.634			-3.662
70701.000			25.634			-3.662
70802.000			25.633			-3.662
70900.000			25.633			-3.662
71000.000			25.632			-3.662
71101.000			25.631			-3.662
71200.000			25.630			-3.661
71300.000			25.630			-3.661
71401.000			25.629			-3.661
71501.000			25.629			-3.661
71601.000			25.627			-3.661
71701.000			25.627			-3.661
71800.000			25.626			-3.661
71900.000			25.626			-3.661
72001.000			25.625			-3.661
72100.000			25.624			-3.661
72200.000			25.624			-3.661
72302.000			25.623			-3.660
72401.000			25.623			-3.660
72500.000			25.622			-3.660
72601.000			25.622			-3.660
72700.000			25.621			-3.660
72800.000			25.622			-3.660
72901.000			25.621			-3.660
73000.000			25.619			-3.660
73102.000			25.619			-3.660
73201.000			25.618			-3.660
73300.000			25.617			-3.660
73401.000			25.617			-3.660
73500.000			25.615			-3.659
73600.000			25.615			-3.659
73701.000			25.615			-3.659
73800.000			25.614			-3.659
73901.000			25.614			-3.659
74002.000			25.612			-3.659
74100.000			25.612			-3.659
74200.000			25.611			-3.659
74301.000			25.611			-3.659
74400.000			25.611			-3.659
74500.000			25.610			-3.659
74601.000			25.611			-3.659
74701.000			25.609			-3.658
74801.000			25.607			-3.658
74901.000			25.607			-3.658
75000.000			25.607			-3.658
75100.000			25.606			-3.658
75201.000			25.605			-3.658
75300.000			25.606			-3.658
75400.000			25.605			-3.658
75502.000			25.604			-3.658
75601.000			25.603			-3.658
75701.000			25.603			-3.658
75801.000			25.603			-3.658
75900.000			25.602			-3.657
76000.000			25.602			-3.657
76101.000			25.601			-3.657
76200.000			25.600			-3.657
76300.000			25.599			-3.657
76402.000			25.599			-3.657
76501.000			25.599			-3.657
76601.000			25.598			-3.657
76700.000			25.598			-3.657
76800.000			25.596			-3.657
76901.000			25.595			-3.656
77000.000			25.595			-3.656
77100.000			25.594			-3.656
77202.000			25.594			-3.656
77301.000			25.594			-3.656
77401.000			25.593			-3.656
77501.000			25.593			-3.656
77600.000			25.591			-3.656
77700.000			25.590			-3.656
77801.000			25.590			-3.656
77900.000			25.590			-3.656
78000.000			25.589			-3.656
78102.000			25.588			-3.655
78201.000			25.588			-3.655
78300.000			25.587			-3.655
78401.000			25.587			-3.655
78500.000			25.586			-3.655
78600.000			25.586			-3.655
78701.000			25.585			-3.655
78800.000			25.585			-3.655
78901.000			25.585			-3.655
79002.000			25.584			-3.655
79101.000			25.584			-3.655
79200.000			25.582			-3.655
79301.000			25.582			-3.655
79400.000			25.581			-3.654
79500.000			25.581			-3.654
79600.000			25.580			-3.654
79700.000			25.579			-3.654
79802.000			25.578			-3.654
79901.000			25.579			-3.654
80000.000			25.577			-3.654
80101.000			25.576			-3.654
80200.000			25.576			-3.654
80300.000			25.576			-3.654
80401.000			25.575			-3.654
80500.000			25.575			-3.654
80601.000			25.575			-3.654
80702.000			25.573			-3.653
80801.000			25.572			-3.653
80900.000			25.572			-3.653
81001.000			25.572			-3.653
81100.000			25.572			-3.653
81200.000			25.571			-3.653
81301.000			25.570			-3.653
81400.000			25.570			-3.653
81501.000			25.569			-3.653
81602.000			25.568			-3.653
81700.000			25.568			-3.653
81800.000			25.568			-3.653
81901.000			25.567			-3.652
82000.000			25.567			-3.652
82100.000			25.565			-3.652
82201.000			25.565			-3.652
82301.000			25.565			-3.652
82401.000			25.565			-3.652
82501.000			25.563			-3.652
82600.000			25.563			-3.652
82700.000			25.562			-3.652
82800.000			25.561			-3.652
82900.000			25.561			-3.652
83001.000			25.559			-3.651
83101.000			25.559			-3.651
83201.000			25.560			-3.651
83301.000			25.560			-3.651
83400.000			25.559			-3.651
83500.000			25.558			-3.651
83601.000			25.557			-3.651
83700.000			25.556			-3.651
83800.000			25.556			-3.651
83901.000			25.556			-3.651
84001.000			25.555			-3.651
84101.000			25.554			-3.651
84201.000			25.554			-3.651
84300.000			25.553			-3.650
84400.000			25.553			-3.650
84501.000			25.552			-3.650
84600.000			25.551			-3.650
84700.000			25.550			-3.650
84802.000			25.550			-3.650
84901.000			25.550			-3.650
85000.000			25.549			-3.650
85101.000			25.549			-3.650
85200.000			25.548			-3.650
85300.000			25.547			-3.650
85401.000			25.546			-3.649
85500.000			25.546			-3.649
85601.000			25.547			-3.650
85702.000			25.546			-3.649
85800.000			25.545			-3.649
85900.000			25.546			-3.649
86000.000			25.545			-3.649
86100.000			25.545			-3.649
86201.000			25.544			-3.649
86300.000			25.543			-3.649
86400.000			25.542			-3.649
86502.000			25.543			-3.649
86601.000			25.542			-3.649
86700.000			25.540			-3.649
86801.000			25.540			-3.649
86900.000			25.539			-3.648
87000.000			25.538			-3.648
87101.000			25.538			-3.648
87200.000			25.538			-3.648
87301.000			25.538			-3.648
87402.000			25.536			-3.648
87500.000			25.535			-3.648
87600.000			25.536			-3.648
87701.000			25.535			-3.648
87800.000			25.534			-3.648
87900.000			25.534			-3.648
88001.000			25.533			-3.648
88101.000			25.533			-3.648
88201.000			25.533			-3.648
88301.000			25.532			-3.647
88400.000			25.531			-3.647
88500.000			25.532			-3.647
88601.000			25.531			-3.647
88700.000			25.530			-3.647
88800.000			25.530			-3.647
88901.000			25.529			-3.647
89001.000			25.528			-3.647
89102.000			25.528			-3.647
89200.000			25.528			-3.647
89300.000			25.527			-3.647
89401.000			25.527			-3.647
89500.000			25.526			-3.647
89600.000			25.526			-3.647
89701.000			25.525			-3.646
89801.000			25.525			-3.646
89901.000			25.525			-3.646
90001.000			25.524			-3.646
90100.000			25.523			-3.646
90200.000			25.523			-3.646
90301.000			25.522			-3.646
90400.000			25.522			-3.646
90500.000			25.521			-3.646
90602.000			25.521			-3.646
90701.000			25.520			-3.646
90800.000			25.520			-3.646
90901.000			25.520			-3.646
91000.000			25.519			-3.646
91100.000			25.518			-3.645
91201.000			25.519			-3.646
91300.000			25.518			-3.645
91401.000			25.518			-3.645
91502.000			25.517			-3.645
91600.000			25.517			-3.645
91700.000			25.516			-3.645
91801.000			25.516			-3.645
91900.000			25.515			-3.645
92000.000			25.514			-3.645
92101.000			25.513			-3.645
92201.000			25.514			-3.645
92302.000			25.513			-3.645
92401.000			25.512			-3.645
92500.000			25.511			-3.644
92601.000			25.510			-3.644
92700.000			25.510			-3.644
92800.000			25.510			-3.644
92901.000			25.509			-3.644
93001.000			25.510			-3.644
93101.000			25.507			-3.644
93202.000			25.508			-3.644
93300.000			25.508			-3.644
93400.000			25.507			-3.644
93501.000			25.506			-3.644
93600.000			25.506			-3.644
93700.000			25.505			-3.644
93801.000			25.505			-3.644
93901.000			25.504			-3.643
94001.000			25.504			-3.643
94101.000			25.504			-3.643
94200.000			25.503			-3.643
94300.000			25.503			-3.643
94401.000			25.502			-3.643
94500.000			25.501			-3.643
94600.000			25.501			-3.643
94702.000			25.500			-3.643
94801.000			25.500			-3.643
94900.000			25.499			-3.643
95001.000			25.499			-3.643
95100.000			25.498			-3.643
95200.000			25.498			-3.643
95301.000			25.498			-3.643
95400.000			25.496			-3.642
95502.000			25.495			-3.642
95601.000			25.496			-3.642
95701.000			25.496			-3.642
95801.000			25.495			-3.642
95900.000			25.494			-3.642
96000.000			25.495			-3.642
96101.000			25.494			-3.642
96200.000			25.494			-3.642
96300.000			25.494			-3.642
96402.000			25.493			-3.642
96501.000			25.492			-3.642
96600.000			25.491			-3.642
96701.000			25.490			-3.641
96800.000			25.490			-3.641
96900.000			25.490			-3.641
97001.000			25.489			-3.641
97100.000			25.490			-3.641
97201.000			25.489			-3.641
97302.000			25.488			-3.641
97401.000			25.487			-3.641
97500.000			25.487			-3.641
97601.000			25.486			-3.641
97700.000			25.486			-3.641
97800.000			25.486			-3.641
97901.000			25.485			-3.641
98000.000			25.484			-3.641
98101.000			25.484			-3.641
98202.000			25.484			-3.641
98300.000			25.483			-3.640
98400.000			25.483			-3.640
98501.000			25.483			-3.640
98600.000			25.483			-3.640
98700.000			25.482			-3.640
98800.000			25.481			-3.640
98900.000			25.482			-3.640
99002.000			25.480			-3.640
99101.000			25.480			-3.640
99200.000			25.479			-3.640
99301.000			25.479			-3.640
99400.000			25.479			-3.640
99500.000			25.478			-3.640
99601.000			25.477			-3.640
99700.000			25.477			-3.640
99801.000			25.477			-3.640
99902.000			25.476			-3.639
100001.000			25.476			-3.639
100100.000			25.477			-3.640
100201.000			25.475			-3.639
100300.000			25.474			-3.639
100400.000			25.475			-3.639
100501.000			25.472			-3.639
100600.000			25.473			-3.639
100701.000			25.473			-3.639
100802.000			25.472			-3.639
100900.000			25.472			-3.639
101000.000			25.472			-3.639
101101.000			25.472			-3.639
101200.000			25.470			-3.639
101300.000			25.470			-3.639
101401.000			25.470			-3.639
101501.000			25.469			-3.638
101601.000			25.468			-3.638
101701.000			25.468			-3.638
101800.000			25.468			-3.638
101900.000			25.467			-3.638
102000.000			25.467			-3.638
102100.000			25.467			-3.638
102201.000			25.466			-3.638
102300.000			25.465			-3.638
102401.000			25.465			-3.638
102502.000			25.464			-3.638
102600.000			25.463			-3.638
102700.000			25.464			-3.638
102801.000			25.464			-3.638
102900.000			25.463			-3.638
103000.000			25.463			-3.638
103101.000			25.462			-3.637
103201.000			25.461			-3.637
103301.000			25.461			-3.637
103401.000			25.460			-3.637
103500.000			25.459			-3.637
103600.000			25.460			-3.637
103701.000			25.459			-3.637
103800.000			25.458			-3.637
103900.000			25.458			-3.637
104002.000			25.456			-3.637
104101.000			25.457			-3.637
104200.000			25.456			-3.637
104301.000			25.455			-3.636
104400.000			25.455			-3.636
104500.000			25.456			-3.637
104601.000			25.455			-3.636
104700.000			25.455			-3.636
104800.000			25.454			-3.636
104902.000			25.453			-3.636
105001.000			25.453			-3.636
105100.000			25.453			-3.636
105200.000			25.452			-3.636
105300.000			25.452			-3.636
105401.000			25.452			-3.636
105500.000			25.452			-3.636
105600.000			25.450			-3.636
105702.000			25.450			-3.636
105801.000			25.450			-3.636
105900.000			25.450			-3.636
106001.000			25.449			-3.636
106100.000			25.449			-3.636
106200.000			25.449			-3.636
106301.000			25.449			-3.636
106400.000			25.448			-3.635
106500.000			25.447			-3.635
106602.000			25.446			-3.635
106701.000			25.446			-3.635
106800.000			25.445			-3.635
106901.000			25.445			-3.635
107000.000			25.445			-3.635
107100.000			25.445			-3.635
107201.000			25.444			-3.635
107300.000			25.443			-3.635
107401.000			25.443			-3.635
107502.000			25.443			-3.635
107600.000			25.444			-3.635
107700.000			25.443			-3.635
107801.000			25.441			-3.634
107900.000			25.441			-3.634
108000.000			25.440			-3.634
108101.000			25.440			-3.634
108201.000			25.440			-3.634
108302.000			25.439			-3.634
108401.000			25.440			-3.634
108500.000			25.440			-3.634
108601.000			25.438			-3.634
108700.000			25.438			-3.634
108800.000			25.438			-3.634
108901.000			25.438			-3.634
109000.000			25.437			-3.634
109101.000			25.436			-3.634
109202.000			25.437			-3.634
109301.000			25.435			-3.634
109400.000			25.435			-3.634
109501.000			25.434			-3.633
109600.000			25.434			-3.633
109700.000			25.434			-3.633
109801.000			25.433			-3.633
109900.000			25.432			-3.633
110001.000			25.433			-3.633
110102.000			25.432			-3.633
110200.000			25.431			-3.633
110300.000			25.431			-3.633
110401.000			25.430			-3.633
110500.000			25.431			-3.633
110600.000			25.430			-3.633
110701.000			25.431			-3.633
110801.000			25.429			-3.633
110901.000			25.429			-3.633
111001.000			25.428			-3.633
111100.000			25.430			-3.633
111200.000			25.429			-3.633
111301.000			25.428			-3.633
111400.000			25.427			-3.632
111500.000			25.426			-3.632
111602.000			25.426			-3.632
111701.000			25.426			-3.632
111801.000			25.426			-3.632
111900.000			25.427			-3.632
112000.000			25.426			-3.632
112101.000			25.425			-3.632
112200.000			25.424			-3.632
112300.000			25.424			-3.632
112401.000			25.423			-3.632
112501.000			25.422			-3.632
112601.000			25.423			-3.632
112701.000			25.422			-3.632
112800.000			25.421			-3.632
112900.000			25.421			-3.632
113001.000			25.421			-3.632
113100.000			25.421			-3.632
113200.000			25.419			-3.631
113302.000			25.419			-3.631
113401.000			25.420			-3.631
113500.000			25.419			-3.631
113601.000			25.419			-3.631
113700.000			25.418			-3.631
113800.000			25.417			-3.631
113901.000			25.417			-3.631
114000.000			25.416			-3.631
114101.000			25.416			-3.631
114202.000			25.416			-3.631
114300.000			25.416			-3.631
114400.000			25.415			-3.631
114501.000			25.415			-3.631
114600.000			25.415			-3.631
114700.000			25.415			-3.631
114800.000			25.413			-3.630
114900.000			25.413			-3.630
115002.000			25.414			-3.631
115101.000			25.413			-3.630
115200.000			25.411			-3.630
115301.000			25.411			-3.630
115400.000			25.411			-3.630
115500.000			25.411			-3.630
115601.000			25.412			-3.630
115700.000			25.411			-3.630
115801.000			25.410			-3.630
115902.000			25.409			-3.630
116000.000			25.409			-3.630
116100.000			25.409			-3.630
116201.000			25.408			-3.630
116300.000			25.407			-3.630
116400.000			25.407			-3.630
116501.000			25.407			-3.630
116601.000			25.407			-3.630
116701.000			25.407			-3.630
116801.000			25.406			-3.629
116900.000			25.405			-3.629
117000.000			25.404			-3.629
117101.000			25.404			-3.629
117200.000			25.404			-3.629
117300.000			25.403			-3.629
117401.000			25.403			-3.629
117501.000			25.402			-3.629
117601.000			25.403			-3.629
117701.000			25.403			-3.629
117800.000			25.402			-3.629
117900.000			25.403			-3.629
118000.000			25.402			-3.629
118100.000			25.402			-3.629
118201.000			25.402			-3.629
118301.000			25.402			-3.629
118401.000			25.401			-3.629
118501.000			25.400			-3.629
118600.000			25.399			-3.628
118700.000			25.399			-3.628
118801.000			25.398			-3.628
118900.000			25.398			-3.628
119000.000			25.398			-3.628
119101.000			25.398			-3.628
119201.000			25.397			-3.628
119301.000			25.396			-3.628
119401.000			25.395			-3.628
119500.000			25.396			-3.628
119600.000			25.395			-3.628
119701.000			25.396			-3.628
119800.000			25.395			-3.628
119900.000			25.394			-3.628
120001.000			25.393			-3.628
120101.000			25.393			-3.628
120201.000			25.392			-3.627
120301.000			25.392			-3.627
120400.000			25.392			-3.627
120500.000			25.392			-3.627
120601.000			25.390			-3.627
120700.000			25.390			-3.627
120800.000			25.390			-3.627
120902.000			25.391			-3.627
121001.000			25.391			-3.627
121100.000			25.390			-3.627
121200.000			25.390			-3.627
121300.000			25.389			-3.627
121401.000			25.389			-3.627
121500.000			25.388			-3.627
121600.000			25.388			-3.627
121702.000			25.387			-3.627
121801.000			25.388			-3.627
121901.000			25.388			-3.627
122001.000			25.388			-3.627
122100.000			25.387			-3.627
122200.000			25.387			-3.627
122301.000			25.387			-3.627
122400.000			25.386			-3.627
122500.000			25.385			-3.626
122602.000			25.384			-3.626
122701.000			25.384			-3.626
122800.000			25.384			-3.626
122901.000			25.384			-3.626
123000.000			25.383			-3.626
123100.000			25.383			-3.626
123201.000			25.382			-3.626
123300.000			25.382			-3.626
123400.000			25.382			-3.626
123502.000			25.381			-3.626
123601.000			25.381			-3.626
123700.000			25.381			-3.626
123801.000			25.381			-3.626
123900.000			25.380			-3.626
124000.000			25.380			-3.626
124101.000			25.379			-3.626
124200.000			25.378			-3.625
124300.000			25.378			-3.625
124402.000			25.378			-3.625
124501.000			25.378			-3.625
124601.000			25.378			-3.625
124700.000			25.378			-3.625
124800.000			25.377			-3.625
124901.000			25.375			-3.625
125000.000			25.375			-3.625
125100.000			25.376			-3.625
125202.000			25.375			-3.625
125301.000			25.374			-3.625
125400.000			25.375			-3.625
125501.000			25.374			-3.625
125600.000			25.374			-3.625
125700.000			25.373			-3.625
125801.000			25.373			-3.625
125900.000			25.374			-3.625
126000.000			25.373			-3.625
126102.000			25.372			-3.625
126201.000			25.372			-3.625
126300.000			25.372			-3.625
126401.000			25.371			-3.624
126500.000			25.370			-3.624
126600.000			25.370			-3.624
126701.000			25.370			-3.624
126800.000			25.370			-3.624
126900.000			25.369			-3.624
127002.000			25.369			-3.624
127101.000			25.368			-3.624
127200.000			25.367			-3.624
127301.000			25.368			-3.624
127400.000			25.367			-3.624
127500.000			25.366			-3.624
127600.000			25.365			-3.624
127700.000			25.366			-3.624
127802.000			25.367			-3.624
127901.000			25.367			-3.624
128001.000			25.365			-3.624
128101.000			25.364			-3.623
128200.000			25.364			-3.623
128300.000			25.364			-3.623
128401.000			25.363			-3.623
128500.000			25.363			-3.623
128600.000			25.363			-3.623
128702.000			25.364			-3.623
128801.000			25.364			-3.623
128900.000			25.363			-3.623
129001.000			25.362			-3.623
129100.000			25.360			-3.623
129200.000			25.361			-3.623
129301.000			25.362			-3.623
129400.000			25.361			-3.623
129500.000			25.361			-3.623
129602.000			25.360			-3.623
129701.000			25.359			-3.623
129800.000			25.360			-3.623
129901.000			25.358			-3.623
130000.000			25.359			-3.623
130100.000			25.359			-3.623
130201.000			25.357			-3.622
130300.000			25.357			-3.622
130401.000			25.356			-3.622
130502.000			25.356			-3.622
130600.000			25.355			-3.622
130700.000			25.356			-3.622
130800.000			25.356			-3.622
130900.000			25.356			-3.622
131001.000			25.355			-3.622
131100.000			25.354			-3.622
131200.000			25.355			-3.622
131302.000			25.354			-3.622
131401.000			25.354			-3.622
131500.000			25.353			-3.622
131601.000			25.353			-3.622
131700.000			25.352			-3.622
131800.000			25.352			-3.622
131901.000			25.351			-3.622
132000.000			25.351			-3.622
132101.000			25.351			-3.622
132202.000			25.351			-3.622
132301.000			25.351			-3.622
132400.000			25.349			-3.621
132501.000			25.348			-3.621
132600.000			25.349			-3.621
132700.000			25.349			-3.621
132801.000			25.349			-3.621
132900.000			25.348			-3.621
133000.000			25.347			-3.621
133102.000			25.347			-3.621
133201.000			25.348			-3.621
133300.000			25.347			-3.621
133401.000			25.346			-3.621
133500.000			25.346			-3.621
133600.000			25.345			-3.621
133701.000			25.346			-3.621
133800.000			25.346			-3.621
133900.000			25.345			-3.621
134002.000			25.344			-3.621
134101.000			25.344			-3.621
134201.000			25.343			-3.620
134300.000			25.345			-3.621
134400.000			25.344			-3.621
134501.000			25.344			-3.621
134600.000			25.343			-3.620
134700.000			25.343			-3.620
134801.000			25.343			-3.620
134901.000			25.342			-3.620
135001.000			25.341			-3.620
135102.000			25.342			-3.620
135200.000			25.341			-3.620
135300.000			25.340			-3.620
135401.000			25.340			-3.620
135500.000			25.340			-3.620
135600.000			25.340			-3.620
135701.000			25.339			-3.620
135801.000			25.339			-3.620
135901.000			25.339			-3.620
136002.000			25.339			-3.620
136100.000			25.339			-3.620
136200.000			25.338			-3.620
136301.000			25.338			-3.620
136400.000			25.338			-3.620
136500.000			25.336			-3.619
136601.000			25.335			-3.619
136700.000			25.335			-3.619
136801.000			25.336			-3.619
136902.000			25.335			-3.619
137000.000			25.335			-3.619
137100.000			25.335			-3.619
137200.000			25.333			-3.619
137300.000			25.333			-3.619
137401.000			25.333			-3.619
137500.000			25.333			-3.619
137600.000			25.333			-3.619
137702.000			25.333			-3.619
137801.000			25.332			-3.619
137900.000			25.332			-3.619
138001.000			25.331			-3.619
138100.000			25.331			-3.619
138200.000			25.332			-3.619
138301.000			25.332			-3.619
138400.000			25.331			-3.619
138500.000			25.331			-3.619
138602.000			25.331			-3.619
138701.000			25.330			-3.619
138801.000			25.329			-3.618
138901.000			25.329			-3.618
139000.000			25.328			-3.618
139100.000			25.330			-3.619
139201.000			25.329			-3.618
139300.000			25.327			-3.618
139400.000			25.327			-3.618
139502.000			25.328			-3.618
139601.000			25.327			-3.618
139701.000			25.327			-3.618
139801.000			25.325			-3.618
139900.000			25.326			-3.618
140000.000			25.327			-3.618
140101.000			25.325			-3.618
140200.000			25.325			-3.618
140300.000			25.324			-3.618
140400.000			25.324			-3.618
140501.000			25.324			-3.618
140602.000			25.323			-3.618
140700.000			25.324			-3.618
140800.000			25.324			-3.618
140901.000			25.322			-3.617
141000.000			25.322			-3.617
141100.000			25.322			-3.617
141201.000			25.322			-3.617
141300.000			25.322			-3.617
141401.000			25.322			-3.617
141502.000			25.322			-3.617
141600.000			25.321			-3.617
141700.000			25.321			-3.617
141801.000			25.320			-3.617
141900.000			25.320			-3.617
142000.000			25.320			-3.617
142101.000			25.319			-3.617
142200.000			25.319			-3.617
142301.000			25.319			-3.617
142402.000			25.317			-3.617
142500.000			25.317			-3.617
142600.000			25.317			-3.617
142701.000			25.317			-3.617
142800.000			25.316			-3.617
142900.000			25.316			-3.617
143001.000			25.316			-3.617
143100.000			25.315			-3.616
143201.000			25.315			-3.616
143302.000			25.314			-3.616
143400.000			25.314			-3.616
143500.000			25.314			-3.616
143600.000			25.314			-3.616
143700.000			25.312			-3.616
143801.000			25.312			-3.616
143900.000			25.312			-3.616
144000.000			25.311			-3.616
144102.000			25.311			-3.616
144201.000			25.312			-3.616
144300.000			25.311			-3.616
144401.000			25.311			-3.616
144500.000			25.311			-3.616
144600.000			25.310			-3.616
144701.000			25.309			-3.616
144800.000			25.309			-3.616
144900.000			25.309			-3.616
145002.000			25.309			-3.616
145101.000			25.310			-3.616
145201.000			25.309			-3.616
145301.000			25.307			-3.615
145400.000			25.307			-3.615
145500.000			25.308			-3.615
145601.000			25.308			-3.615
145700.000			25.307			-3.615
145800.000			25.306			-3.615
145902.000			25.305			-3.615
146001.000			25.305			-3.615
146101.000			25.305			-3.615
146201.000			25.306			-3.615
146300.000			25.305			-3.615
146400.000			25.305			-3.615
146501.000			25.305			-3.615
146600.000			25.304			-3.615
146700.000			25.303			-3.615
146802.000			25.303			-3.615
146901.000			25.303			-3.615
147002.000			25.302			-3.615
147100.000			25.301			-3.614
147200.000			25.301			-3.614
147301.000			25.301			-3.614
147400.000			25.301			-3.614
147500.000			25.302			-3.615
147601.000			25.301			-3.614
147701.000			25.299			-3.614
147801.000			25.299			-3.614
147902.000			25.300			-3.614
148000.000			25.300			-3.614
148100.000			25.299			-3.614
148201.000			25.299			-3.614
148300.000			25.298			-3.614
148400.000			25.298			-3.614
148501.000			25.298			-3.614
148600.000			25.298			-3.614
148700.000			25.297			-3.614
148802.000			25.297			-3.614
148901.000			25.297			-3.614
149000.000			25.297			-3.614
149101.000			25.297			-3.614
149200.000			25.296			-3.614
149300.000			25.296			-3.614
149401.000			25.297			-3.614
149500.000			25.296			-3.614
149600.000			25.295			-3.614
149702.000			25.293			-3.613
149801.000			25.293			-3.613
149902.000			25.294			-3.613
150000.000			25.294			-3.613
150100.000			25.293			-3.613
150201.000			25.292			-3.613
150300.000			25.293			-3.613
150400.000			25.293			-3.613
150501.000			25.293			-3.613
150600.000			25.291			-3.613
150701.000			25.290			-3.613
150802.000			25.291			-3.613
150900.000			25.291			-3.613
151000.000			25.290			-3.613
151101.000			25.290			-3.613
151200.000			25.289			-3.613
151300.000			25.289			-3.613
151401.000			25.289			-3.613
151500.000			25.288			-3.613
151601.000			25.288			-3.613
151702.000			25.288			-3.613
151801.000			25.288			-3.613
151900.000			25.288			-3.613
152001.000			25.288			-3.613
152100.000			25.287			-3.612
152200.000			25.286			-3.612
152301.000			25.286			-3.612
152400.000			25.286			-3.612
152500.000			25.287			-3.612
152602.000			25.286			-3.612
152701.000			25.286			-3.612
152800.000			25.284			-3.612
152901.000			25.285			-3.612
153000.000			25.285			-3.612
153100.000			25.285			-3.612
153200.000			25.285			-3.612
153300.000			25.285			-3.612
153401.000			25.283			-3.612
153501.000			25.282			-3.612
153601.000			25.283			-3.612
153701.000			25.283			-3.612
153800.000			25.283			-3.612
153900.000			25.283			-3.612
154001.000			25.283			-3.612
154100.000			25.282			-3.612
154200.000			25.281			-3.612
154301.000			25.280			-3.611
154401.000			25.281			-3.612
154501.000			25.280			-3.611
154602.000			25.280			-3.611
154700.000			25.280			-3.611
154800.000			25.280			-3.611
154901.000			25.279			-3.611
155000.000			25.278			-3.611
155100.000			25.278			-3.611
155201.000			25.277			-3.611
155300.000			25.277			-3.611
155401.000			25.277			-3.611
155502.000			25.276			-3.611
155600.000			25.277			-3.611
155700.000			25.276			-3.611
155801.000			25.275			-3.611
155900.000			25.275			-3.611
156000.000			25.276			-3.611
156101.000			25.276			-3.611
156200.000			25.275			-3.611
156302.000			25.275			-3.611
156401.000			25.275			-3.611
156501.000			25.274			-3.611
156601.000			25.274			-3.611
156700.000			25.273			-3.610
156800.000			25.272			-3.610
156901.000			25.272			-3.610
157000.000			25.273			-3.610
157100.000			25.273			-3.610
157201.000			25.272			-3.610
157301.000			25.273			-3.610
157401.000			25.272			-3.610
157501.000			25.272			-3.610
157600.000			25.270			-3.610
157700.000			25.270			-3.610
157801.000			25.270			-3.610
157900.000			25.270			-3.610
158000.000			25.270			-3.610
158101.000			25.269			-3.610
158201.000			25.270			-3.610
158301.000			25.269			-3.610
158402.000			25.269			-3.610
158500.000			25.268			-3.610
158600.000			25.269			-3.610
158701.000			25.268			-3.610
158800.000			25.268			-3.610
158900.000			25.267			-3.610
159001.000			25.268			-3.610
159100.000			25.268			-3.610
159201.000			25.267			-3.610
159302.000			25.267			-3.610
159401.000			25.266			-3.609
159500.000			25.265			-3.609
159600.000			25.264			-3.609
159700.000			25.264			-3.609
159801.000			25.265			-3.609
159900.000			25.265			-3.609
160000.000			25.264			-3.609
160101.000			25.264			-3.609
160201.000			25.264			-3.609
160301.000			25.263			-3.609
160401.000			25.263			-3.609
160500.000			25.262			-3.609
160600.000			25.262			-3.609
160701.000			25.262			-3.609
160800.000			25.262			-3.609
160900.000			25.262			-3.609
161001.000			25.262			-3.609
161101.000			25.261			-3.609
161201.000			25.260			-3.609
161301.000			25.260			-3.609
161400.000			25.260			-3.609
161500.000			25.260			-3.609
161601.000			25.260			-3.609
161700.000			25.259			-3.608
161800.000			25.259			-3.608
161901.000			25.259			-3.608
162001.000			25.259			-3.608
162101.000			25.258			-3.608
162202.000			25.257			-3.608
162300.000			25.256			-3.608
162400.000			25.257			-3.608
162501.000			25.256			-3.608
162600.000			25.255			-3.608
162700.000			25.256			-3.608
162800.000			25.256			-3.608
162900.000			25.255			-3.608
163002.000			25.255			-3.608
163101.000			25.255			-3.608
163200.000			25.255			-3.608
163301.000			25.255			-3.608
163400.000			25.254			-3.608
163500.000			25.254			-3.608
163601.000			25.254			-3.608
163700.000			25.254			-3.608
163800.000			25.254			-3.608
163902.000			25.253			-3.608
164001.000			25.253			-3.608
164100.000			25.252			-3.607
164201.000			25.252			-3.607
164300.000			25.252			-3.607
164400.000			25.252			-3.607
164501.000			25.252			-3.607
164600.000			25.251			-3.607
164700.000			25.250			-3.607
164802.000			25.250			-3.607
164901.000			25.251			-3.607
165001.000			25.250			-3.607
165101.000			25.250			-3.607
165200.000			25.250			-3.607
165300.000			25.249			-3.607
165401.000			25.250			-3.607
165500.000			25.250			-3.607
165600.000			25.250			-3.607
165702.000			25.249			-3.607
165801.000			25.247			-3.607
165902.000			25.248			-3.607
166000.000			25.247			-3.607
166100.000			25.247			-3.607
166201.000			25.246			-3.607
166300.000			25.246			-3.607
166400.000			25.246			-3.607
166501.000			25.247			-3.607
166600.000			25.246			-3.607
166701.000			25.246			-3.607
166802.000			25.246			-3.607
166900.000			25.246			-3.607
167000.000			25.245			-3.606
167101.000			25.244			-3.606
167200.000			25.245			-3.606
167300.000			25.244			-3.606
167401.000			25.244			-3.606
167500.000			25.244			-3.606
167601.000			25.243			-3.606
167702.000			25.243			-3.606
167801.000			25.242			-3.606
167900.000			25.243			-3.606
168001.000			25.243			-3.606
168100.000			25.243			-3.606
168200.000			25.242			-3.606
168301.000			25.240			-3.606
168400.000			25.240			-3.606
168500.000			25.240			-3.606
168602.000			25.241			-3.606
168701.000			25.241			-3.606
168800.000			25.239			-3.606
168901.000			25.240			-3.606
169000.000			25.238			-3.605
169100.000			25.238			-3.605
169200.000			25.238			-3.605
169300.000			25.238			-3.605
169401.000			25.239			-3.606
169501.000			25.238			-3.605
169601.000			25.238			-3.605
169702.000			25.238			-3.605
169800.000			25.238			-3.605
169900.000			25.237			-3.605
170001.000			25.237			-3.605
170100.000			25.237			-3.605
170200.000			25.236			-3.605
170301.000			25.236			-3.605
170400.000			25.235			-3.605
170501.000			25.235			-3.605
170602.000			25.234			-3.605
170700.000			25.235			-3.605
170800.000			25.234			-3.605
170901.000			25.234			-3.605
171000.000			25.234			-3.605
171100.000			25.235			-3.605
171201.000			25.234			-3.605
171300.000			25.234			-3.605
171401.000			25.233			-3.605
171502.000			25.233			-3.605
171601.000			25.232			-3.605
171700.000			25.232			-3.605
171801.000			25.231			-3.604
171900.000			25.231			-3.604
172000.000			25.232			-3.605
172101.000			25.231			-3.604
172200.000			25.231			-3.604
172302.000			25.230			-3.604
172401.000			25.231			-3.604
172501.000			25.229			-3.604
172601.000			25.229			-3.604
172700.000			25.229			-3.604
172800.000			25.230			-3.604
172901.000			25.229			-3.604
173000.000			25.228			-3.604
173100.000			25.228			-3.604
173201.000			25.227			-3.604
173301.000			25.227			-3.604
173401.000			25.228			-3.604
173501.000			25.228			-3.604
173600.000			25.227			-3.604
173700.000			25.227			-3.604
173801.000			25.227			-3.604
173900.000			25.226			-3.604
174000.000			25.225			-3.604
174101.000			25.226			-3.604
174201.000			25.226			-3.604
174301.000			25.226			-3.604
174401.000			25.225			-3.604
174500.000			25.225			-3.604
174600.000			25.224			-3.603
174701.000			25.224			-3.603
174800.000			25.223			-3.603
174900.000			25.222			-3.603
175001.000			25.223			-3.603
175101.000			25.224			-3.603
175201.000			25.223			-3.603
175301.000			25.222			-3.603
175400.000			25.222			-3.603
175500.000			25.222			-3.603
175600.000			25.221			-3.603
175700.000			25.221			-3.603
175801.000			25.221			-3.603
175900.000			25.222			-3.603
176001.000			25.222			-3.603
176102.000			25.219			-3.603
176201.000			25.220			-3.603
176300.000			25.221			-3.603
176401.000			25.220			-3.603
176500.000			25.220			-3.603
176600.000			25.220			-3.603
176701.000			25.219			-3.603
176800.000			25.219			-3.603
176900.000			25.218			-3.603
177002.000			25.217			-3.602
177101.000			25.218			-3.603
177200.000			25.219			-3.603
177301.000			25.218			-3.603
177400.000			25.218			-3.603
177500.000			25.217			-3.602
177601.000			25.217			-3.602
177700.000			25.216			-3.602
177800.000			25.215			-3.602
177902.000			25.215			-3.602
178001.000			25.216			-3.602
178101.000			25.215			-3.602
178201.000			25.215			-3.602
178300.000			25.215			-3.602
178400.000			25.214			-3.602
178501.000			25.214			-3.602
178600.000			25.213			-3.602
178700.000			25.213			-3.602
178800.000			25.214			-3.602
178901.000			25.213			-3.602
179002.000			25.212			-3.602
179101.000			25.212			-3.602
179200.000			25.211			-3.602
179301.000			25.212			-3.602
179400.000			25.212			-3.602
179500.000			25.212			-3.602
179601.000			25.212			-3.602
179700.000			25.212			-3.602
179801.000			25.212			-3.602
179902.000			25.212			-3.602
180001.000			25.211			-3.602
180100.000			25.210			-3.601
180201.000			25.210			-3.601
180300.000			25.209			-3.601
180400.000			25.209			-3.601
180501.000			25.210			-3.601
180600.000			25.210			-3.601
180700.000			25.209			-3.601
180802.000			25.208			-3.601
180901.000			25.208			-3.601
181000.000			25.209			-3.601
181101.000			25.208			-3.601
181200.000			25.208			-3.601
181300.000			25.207			-3.601
181401.000			25.206			-3.601
181500.000			25.206			-3.601
181600.000			25.207			-3.601
181702.000			25.207			-3.601
181801.000			25.207			-3.601
181900.000			25.207			-3.601
182000.000			25.206			-3.601
182100.000			25.205			-3.601
182201.000			25.205			-3.601
182300.000			25.205			-3.601
182400.000			25.204			-3.601
182501.000			25.205			-3.601
182601.000			25.204			-3.601
182701.000			25.204			-3.601
182801.000			25.203			-3.600
182900.000			25.203			-3.600
183000.000			25.203			-3.600
183101.000			25.203			-3.600
183200.000			25.203			-3.600
183300.000			25.202			-3.600
183401.000			25.201			-3.600
183501.000			25.201			-3.600
183601.000			25.201			-3.600
183701.000			25.201			-3.600
183800.000			25.201			-3.600
183900.000			25.201			-3.600
184001.000			25.201			-3.600
184100.000			25.200			-3.600
184200.000			25.200			-3.600
184301.000			25.200			-3.600
184401.000			25.200			-3.600
184501.000			25.200			-3.600
184601.000			25.199			-3.600
184700.000			25.199			-3.600
184800.000			25.199			-3.600
184901.000			25.198			-3.600
185000.000			25.197			-3.600
185100.000			25.197			-3.600
185200.000			25.197			-3.600
185300.000			25.197			-3.600
185402.000			25.196			-3.599
185501.000			25.196			-3.599
185600.000			25.196			-3.599
185701.000			25.196			-3.599
185800.000			25.195			-3.599
185900.000			25.195			-3.599
186001.000			25.196			-3.599
186100.000			25.196			-3.599
186200.000			25.195			-3.599
186302.000			25.193			-3.599
186401.000			25.195			-3.599
186501.000			25.194			-3.599
186601.000			25.194			-3.599
186700.000			25.193			-3.599
186800.000			25.193			-3.599
186901.000			25.193			-3.599
187000.000			25.192			-3.599
187100.000			25.192			-3.599
187201.000			25.192			-3.599
187301.000			25.192			-3.599
187401.000			25.192			-3.599
187501.000			25.192			-3.599
187600.000			25.191			-3.599
187700.000			25.191			-3.599
187801.000			25.191			-3.599
187900.000			25.192			-3.599
188000.000			25.191			-3.599
188101.000			25.190			-3.599
188200.000			25.190			-3.599
188302.000			25.190			-3.599
188401.000			25.190			-3.599
188500.000			25.189			-3.598
188601.000			25.188			-3.598
188700.000			25.188			-3.598
188800.000			25.189			-3.598
188901.000			25.188			-3.598
189000.000			25.188			-3.598
189100.000			25.189			-3.598
189201.000			25.189			-3.598
189301.000			25.187			-3.598
189401.000			25.187			-3.598
189501.000			25.186			-3.598
189600.000			25.186			-3.598
189700.000			25.187			-3.598
189801.000			25.186			-3.598
189900.000			25.186			-3.598
190000.000			25.187			-3.598
190101.000			25.185			-3.598
190201.000			25.185			-3.598
190301.000			25.185			-3.598
190402.000			25.186			-3.598
190500.000			25.186			-3.598
190600.000			25.185			-3.598
190701.000			25.184			-3.598
190800.000			25.184			-3.598
190900.000			25.184			-3.598
191001.000			25.184			-3.598
191100.000			25.184			-3.598
191201.000			25.182			-3.597
191302.000			25.182			-3.597
191401.000			25.182			-3.597
191500.000			25.182			-3.597
191600.000			25.182			-3.597
191700.000			25.182			-3.597
191801.000			25.182			-3.597
191900.000			25.181			-3.597
192000.000			25.181			-3.597
192102.000			25.180			-3.597
192201.000			25.180			-3.597
192301.000			25.181			-3.597
192401.000			25.180			-3.597
192500.000			25.180			-3.597
192600.000			25.179			-3.597
192701.000			25.178			-3.597
192800.000			25.179			-3.597
192900.000			25.180			-3.597
193001.000			25.179			-3.597
193101.000			25.178			-3.597
193201.000			25.178			-3.597
193301.000			25.179			-3.597
193400.000			25.178			-3.597
193500.000			25.176			-3.597
193601.000			25.177			-3.597
193700.000			25.177			-3.597
193800.000			25.177			-3.597
193901.000			25.177			-3.597
194001.000			25.177			-3.597
194101.000			25.176			-3.597
194202.000			25.176			-3.597
194300.000			25.175			-3.596
194400.000			25.175			-3.596
194501.000			25.175			-3.596
194600.000			25.175			-3.596
194700.000			25.175			-3.596
194800.000			25.174			-3.596
194900.000			25.174			-3.596
195002.000			25.173			-3.596
195101.000			25.173			-3.596
195201.000			25.172			-3.596
195301.000			25.172			-3.596
195400.000			25.172			-3.596
195500.000			25.172			-3.596
195601.000			25.172			-3.596
195700.000			25.173			-3.596
195800.000			25.172			-3.596
195901.000			25.172			-3.596
196001.000			25.171			-3.596
196101.000			25.171			-3.596
196201.000			25.170			-3.596
196300.000			25.170			-3.596
196400.000			25.171			-3.596
196501.000			25.171			-3.596
196600.000			25.171			-3.596
196700.000			25.171			-3.596
196801.000			25.170			-3.596
196901.000			25.170			-3.596
197001.000			25.170			-3.596
197102.000			25.169			-3.596
197200.000			25.167			-3.595
197300.000			25.167			-3.595
197401.000			25.168			-3.595
197500.000			25.167			-3.595
197600.000			25.166			-3.595
197701.000			25.167			-3.595
197800.000			25.168			-3.595
197902.000			25.167			-3.595
198001.000			25.166			-3.595
198101.000			25.167			-3.595
198201.000			25.167			-3.595
198300.000			25.166			-3.595
198400.000			25.165			-3.595
198501.000			25.165			-3.595
198600.000			25.166			-3.595
198700.000			25.166			-3.595
198801.000			25.165			-3.595
198901.000			25.165			-3.595
199001.000			25.165			-3.595
199102.000			25.165			-3.595
199200.000			25.163			-3.595
199300.000			25.163			-3.595
199401.000			25.164			-3.595
199500.000			25.164			-3.595
199600.000			25.163			-3.595
199701.000			25.162			-3.595
199800.000			25.163			-3.595
199901.000			25.162			-3.595
200002.000			25.162			-3.595
200101.000			25.162			-3.595
200200.000			25.163			-3.595
200301.000			25.162			-3.595
200400.000			25.161			-3.594
200500.000			25.160			-3.594
200601.000			25.160			-3.594
200700.000			25.160			-3.594
200801.000			25.161			-3.594
200902.000			25.160			-3.594
201001.000			25.158			-3.594
201100.000			25.160			-3.594
201200.000			25.160			-3.594
201300.000			25.160			-3.594
201401.000			25.160			-3.594
201500.000			25.158			-3.594
201600.000			25.158			-3.594
201702.000			25.158			-3.594
201801.000			25.158			-3.594
201901.000			25.158			-3.594
202001.000			25.157			-3.594
202100.000			25.158			-3.594
202200.000			25.157			-3.594
202301.000			25.157			-3.594
202400.000			25.157			-3.594
202500.000			25.157			-3.594
202602.000			25.156			-3.594
202701.000			25.156			-3.594
202801.000			25.156			-3.594
202901.000			25.156			-3.594
203000.000			25.156			-3.594
203100.000			25.156			-3.594
203201.000			25.155			-3.594
203300.000			25.154			-3.593
203400.000			25.154			-3.593
203502.000			25.154			-3.593
203601.000			25.154			-3.593
203701.000			25.155			-3.594
203801.000			25.154			-3.593
203900.000			25.153			-3.593
204000.000			25.153			-3.593
204101.000			25.154			-3.593
204200.000			25.154			-3.593
204300.000			25.152			-3.593
204402.000			25.152			-3.593
204501.000			25.152			-3.593
204602.000			25.152			-3.593
204700.000			25.151			-3.593
204800.000			25.152			-3.593
204901.000			25.150			-3.593
205000.000			25.150			-3.593
205100.000			25.150			-3.593
205201.000			25.150			-3.593
205301.000			25.150			-3.593
205401.000			25.150			-3.593
205502.000			25.150			-3.593
205600.000			25.149			-3.593
205700.000			25.149			-3.593
205801.000			25.149			-3.593
205900.000			25.150			-3.593
206000.000			25.148			-3.593
206101.000			25.149			-3.593
206200.000			25.149			-3.593
206301.000			25.149			-3.593
206402.000			25.148			-3.593
206500.000			25.147			-3.592
206600.000			25.146			-3.592
206701.000			25.147			-3.592
206800.000			25.147			-3.592
206900.000			25.147			-3.592
207001.000			25.146			-3.592
207100.000			25.146			-3.592
207201.000			25.145			-3.592
207302.000			25.145			-3.592
207400.000			25.146			-3.592
207500.000			25.146			-3.592
207600.000			25.145			-3.592
207700.000			25.145			-3.592
207801.000			25.146			-3.592
207900.000			25.144			-3.592
208000.000			25.144			-3.592
208102.000			25.145			-3.592
208201.000			25.144			-3.592
208300.000			25.144			-3.592
208401.000			25.144			-3.592
208500.000			25.143			-3.592
208600.000			25.144			-3.592
208701.000			25.144			-3.592
208800.000			25.142			-3.592
208900.000			25.142			-3.592
209002.000			25.142			-3.592
209101.000			25.142			-3.592
209200.000			25.143			-3.592
209301.000			25.141			-3.592
209400.000			25.141			-3.592
209500.000			25.141			-3.592
209601.000			25.142			-3.592
209700.000			25.141			-3.592
209800.000			25.140			-3.591
209902.000			25.140			-3.591
210001.000			25.140			-3.591
210100.000			25.140			-3.591
210201.000			25.139			-3.591
210300.000			25.139			-3.591
210400.000			25.139			-3.591
210501.000			25.138			-3.591
210600.000			25.139			-3.591
210700.000			25.138			-3.591
210802.000			25.137			-3.591
210901.000			25.137			-3.591
211002.000			25.138			-3.591
211100.000			25.137			-3.591
211200.000			25.136			-3.591
211301.000			25.136			-3.591
211400.000			25.136			-3.591
211500.000			25.136			-3.591
211601.000			25.136			-3.591
211701.000			25.137			-3.591
211801.000			25.137			-3.591
211901.000			25.135			-3.591
212000.000			25.135			-3.591
212100.000			25.135			-3.591
212201.000			25.135			-3.591
212300.000			25.134			-3.591
212400.000			25.135			-3.591
212501.000			25.134			-3.591
212601.000			25.133			-3.590
212701.000			25.133			-3.590
212801.000			25.134			-3.591
212900.000			25.133			-3.590
213000.000			25.132			-3.590
213101.000			25.132			-3.590
213200.000			25.132			-3.590
213300.000			25.133			-3.590
213401.000			25.132			-3.590
213501.000			25.133			-3.590
213601.000			25.132			-3.590
213701.000			25.131			-3.590
213800.000			25.131			-3.590
213900.000			25.131			-3.590
214000.000			25.130			-3.590
214100.000			25.131			-3.590
214201.000			25.131			-3.590
214300.000			25.131			-3.590
214401.000			25.129			-3.590
214502.000			25.129			-3.590
214600.000			25.129			-3.590
214700.000			25.130			-3.590
214801.000			25.130			-3.590
214900.000			25.130			-3.590
215000.000			25.130			-3.590
215101.000			25.128			-3.590
215200.000			25.128			-3.590
215301.000			25.128			-3.590
215402.000			25.127			-3.590
215500.000			25.127			-3.590
215600.000			25.127			-3.590
215701.000			25.127			-3.590
215800.000			25.127			-3.590
215900.000			25.127			-3.590
216001.000			25.127			-3.590
216101.000			25.126			-3.589
216201.000			25.126			-3.589
216302.000			25.126			-3.589
216400.000			25.127			-3.590
216500.000			25.126			-3.589
216601.000			25.126			-3.589
216700.000			25.125			-3.589
216800.000			25.125			-3.589
216901.000			25.126			-3.589
217000.000			25.126			-3.589
217102.000			25.126			-3.589
217201.000			25.125			-3.589
217300.000			25.124			-3.589
217401.000			25.125			-3.589
217500.000			25.124			-3.589
217600.000			25.123			-3.589
217701.000			25.123			-3.589
217800.000			25.124			-3.589
217900.000			25.123			-3.589
218002.000			25.122			-3.589
218101.000			25.122			-3.589
218200.000			25.122			-3.589
218301.000			25.121			-3.589
218400.000			25.121			-3.589
218500.000			25.121			-3.589
218601.000			25.122			-3.589
218700.000			25.121			-3.589
218800.000			25.121			-3.589
218902.000			25.121			-3.589
219001.000			25.120			-3.589
219100.000			25.120			-3.589
219201.000			25.120			-3.589
219300.000			25.121			-3.589
219400.000			25.121			-3.589
219501.000			25.118			-3.588
219600.000			25.119			-3.588
219700.000			25.120			-3.589
219802.000			25.119			-3.588
219901.000			25.119			-3.588
220001.000			25.118			-3.588
220101.000			25.118			-3.588
220200.000			25.118			-3.588
220300.000			25.117			-3.588
220400.000			25.118			-3.588
220500.000			25.118			-3.588
220601.000			25.118			-3.588
220701.000			25.117			-3.588
220801.000			25.117			-3.588
220901.000			25.116			-3.588
221000.000			25.116			-3.588
221100.000			25.116			-3.588
221201.000			25.115			-3.588
221300.000			25.115			-3.588
221400.000			25.116			-3.588
221501.000			25.116			-3.588
221601.000			25.116			-3.588
221701.000			25.114			-3.588
221801.000			25.114			-3.588
221900.000			25.113			-3.588
222000.000			25.114			-3.588
222101.000			25.114			-3.588
222200.000			25.114			-3.588
222300.000			25.114			-3.588
222401.000			25.113			-3.588
222501.000			25.114			-3.588
222601.000			25.113			-3.588
222701.000			25.113			-3.588
222800.000			25.113			-3.588
222900.000			25.113			-3.588
223001.000			25.111			-3.587
223100.000			25.111			-3.587
223200.000			25.111			-3.587
223301.000			25.111			-3.587
223401.000			25.112			-3.587
223502.000			25.111			-3.587
223600.000			25.111			-3.587
223700.000			25.110			-3.587
223801.000			25.110			-3.587
223900.000			25.109			-3.587
224000.000			25.109			-3.587
224101.000			25.109			-3.587
224201.000			25.109			-3.587
224301.000			25.109			-3.587
224402.000			25.109			-3.587
224500.000			25.108			-3.587
224600.000			25.109			-3.587
224701.000			25.108			-3.587
224800.000			25.107			-3.587
224900.000			25.107			-3.587
225001.000			25.108			-3.587
225100.000			25.108			-3.587
225201.000			25.108			-3.587
225302.000			25.107			-3.587
225400.000			25.107			-3.587
225500.000			25.106			-3.587
225601.000			25.107			-3.587
225700.000			25.106			-3.587
225800.000			25.107			-3.587
225901.000			25.106			-3.587
226000.000			25.106			-3.587
226101.000			25.105			-3.586
226202.000			25.105			-3.586
226300.000			25.104			-3.586
226400.000			25.103			-3.586
226501.000			25.103			-3.586
226600.000			25.104			-3.586
226700.000			25.105			-3.586
226800.000			25.104			-3.586
226900.000			25.103			-3.586
227002.000			25.104			-3.586
227101.000			25.104			-3.586
227200.000			25.103			-3.586
227301.000			25.103			-3.586
227400.000			25.103			-3.586
227500.000			25.102			-3.586
227601.000			25.102			-3.586
227700.000			25.102			-3.586
227800.000			25.102			-3.586
227902.000			25.103			-3.586
228001.000			25.102			-3.586
228100.000			25.100			-3.586
228201.000			25.101			-3.586
228300.000			25.101			-3.586
228400.000			25.100			-3.586
228501.000			25.100			-3.586
228600.000			25.100			-3.586
228700.000			25.100			-3.586
228802.000			25.099			-3.586
228901.000			25.099			-3.586
229000.000			25.099			-3.586
229101.000			25.098			-3.585
229200.000			25.098			-3.585
229300.000			25.098			-3.585
229401.000			25.098			-3.585
229500.000			25.099			-3.586
229600.000			25.099			-3.586
229702.000			25.099			-3.586
229801.000			25.098			-3.585
229902.000			25.098			-3.585
230000.000			25.097			-3.585
230100.000			25.098			-3.585
230201.000			25.098			-3.585
230300.000			25.097			-3.585
230400.000			25.097			-3.585
230501.000			25.097			-3.585
230600.000			25.096			-3.585
230701.000			25.096			-3.585
230802.000			25.095			-3.585
230900.000			25.095			-3.585
231000.000			25.095			-3.585
231101.000			25.096			-3.585
231200.000			25.096			-3.585
231300.000			25.095			-3.585
231401.000			25.094			-3.585
231500.000			25.094			-3.585
231601.000			25.094			-3.585
231702.000			25.094			-3.585
231800.000			25.094			-3.585
231900.000			25.094			-3.585
232001.000			25.093			-3.585
232100.000			25.094			-3.585
232200.000			25.093			-3.585
232301.000			25.093			-3.585
232400.000			25.093			-3.585
232501.000			25.093			-3.585
232602.000			25.093			-3.585
232700.000			25.091			-3.584
232800.000			25.092			-3.585
232901.000			25.092			-3.585
233000.000			25.092			-3.585
233100.000			25.092			-3.585
233200.000			25.092			-3.585
233300.000			25.091			-3.584
233402.000			25.090			-3.584
233501.000			25.089			-3.584
233600.000			25.090			-3.584
233701.000			25.089			-3.584
233800.000			25.089			-3.584
233900.000			25.090			-3.584
234001.000			25.089			-3.584
234100.000			25.090			-3.584
234200.000			25.089			-3.584
234302.000			25.089			-3.584
234401.000			25.088			-3.584
234501.000			25.088			-3.584
234601.000			25.087			-3.584
234700.000			25.088			-3.584
234800.000			25.089			-3.584
234901.000			25.087			-3.584
235000.000			25.088			-3.584
235100.000			25.088			-3.584
235201.000			25.087			-3.584
235301.000			25.087			-3.584
235401.000			25.087			-3.584
235501.000			25.086			-3.584
235600.000			25.086			-3.584
235700.000			25.087			-3.584
235801.000			25.087			-3.584
235900.000			25.085			-3.584
236000.000			25.086			-3.584
236101.000			25.086			-3.584
236200.000			25.086			-3.584
236302.000			25.085			-3.584
236401.000			25.084			-3.583
236501.000			25.084			-3.583
236601.000			25.084			-3.583
236700.000			25.084			-3.583
236800.000			25.085			-3.584
236901.000			25.085			-3.584
237000.000			25.084			-3.583
237100.000			25.084			-3.583
237201.000			25.083			-3.583
237301.000			25.082			-3.583
237401.000			25.083			-3.583
237501.000			25.083			-3.583
237600.000			25.082			-3.583
237700.000			25.082			-3.583
237801.000			25.082			-3.583
237900.000			25.082			-3.583
238000.000			25.083			-3.583
238101.000			25.082			-3.583
238201.000			25.082			-3.583
238301.000			25.083			-3.583
238402.000			25.082			-3.583
238500.000			25.081			-3.583
238600.000			25.080			-3.583
238701.000			25.080			-3.583
238800.000			25.080			-3.583
238900.000			25.080			-3.583
239001.000			25.081			-3.583
239101.000			25.080			-3.583
239201.000			25.079			-3.583
239302.000			25.080			-3.583
239400.000			25.079			-3.583
239500.000			25.079			-3.583
239600.000			25.078			-3.583
239700.000			25.078			-3.583
239801.000			25.079			-3.583
239900.000			25.078			-3.583
240000.000			25.077			-3.582
240102.000			25.077			-3.582
240201.000			25.077			-3.582
240301.000			25.077			-3.582
240401.000			25.076			-3.582
240500.000			25.076			-3.582
240600.000			25.077			-3.582
240701.000			25.076			-3.582
240800.000			25.076			-3.582
240900.000			25.076			-3.582
241002.000			25.076			-3.582
241101.000			25.076			-3.582
241201.000			25.076			-3.582
241301.000			25.076			-3.582
241400.000			25.075			-3.582
241500.000			25.076			-3.582
241601.000			25.074			-3.582
241700.000			25.074			-3.582
241800.000			25.075			-3.582
241901.000			25.074			-3.582
242001.000			25.074			-3.582
242101.000			25.074			-3.582
242201.000			25.073			-3.582
242300.000			25.073			-3.582
242400.000			25.072			-3.582
242501.000			25.073			-3.582
242600.000			25.072			-3.582
242700.000			25.072			-3.582
242800.000			25.072			-3.582
242901.000			25.073			-3.582
243002.000			25.072			-3.582
243100.000			25.071			-3.582
243200.000			25.071			-3.582
243301.000			25.071			-3.582
243400.000			25.072			-3.582
243500.000			25.072			-3.582
243601.000			25.071			-3.582
243700.000			25.070			-3.581
243801.000			25.070			-3.581
243902.000			25.070			-3.581
244000.000			25.070			-3.581
244100.000			25.069			-3.581
244201.000			25.069			-3.581
244300.000			25.069			-3.581
244400.000			25.068			-3.581
244501.000			25.069			-3.581
244600.000			25.069			-3.581
244701.000			25.068			-3.581
244802.000			25.069			-3.581
244901.000			25.069			-3.581
245000.000			25.068			-3.581
245101.000			25.069			-3.581
245200.000			25.068			-3.581
245300.000			25.068			-3.581
245401.000			25.068			-3.581
245500.000			25.067			-3.581
245600.000			25.068			-3.581
245702.000			25.068			-3.581
245801.000			25.068			-3.581
245900.000			25.066			-3.581
246000.000			25.066			-3.581
246100.000			25.066			-3.581
246201.000			25.066			-3.581
246300.000			25.065			-3.581
246400.000			25.065			-3.581
246501.000			25.065			-3.581
246601.000			25.066			-3.581
246701.000			25.065			-3.581
246802.000			25.065			-3.581
246900.000			25.065			-3.581
247000.000			25.065			-3.581
247101.000			25.065			-3.581
247200.000			25.064			-3.581
247300.000			25.064			-3.581
247401.000			25.062			-3.580
247501.000			25.063			-3.580
247601.000			25.063			-3.580
247702.000			25.063			-3.580
247800.000			25.063			-3.580
247900.000			25.062			-3.580
248001.000			25.062			-3.580
248100.000			25.063			-3.580
248200.000			25.062			-3.580
248301.000			25.062			-3.580
248400.000			25.062			-3.580
248501.000			25.061			-3.580
248602.000			25.061			-3.580
248700.000			25.062			-3.580
248800.000			25.061			-3.580
248901.000			25.061			-3.580
249000.000			25.060			-3.580
249100.000			25.061			-3.580
249200.000			25.062			-3.580
249300.000			25.061			-3.580
249401.000			25.060			-3.580
249501.000			25.059			-3.580
249601.000			25.058			-3.580
249701.000			25.059			-3.580
249800.000			25.058			-3.580
249900.000			25.058			-3.580
250001.000			25.059			-3.580
250100.000			25.059			-3.580
250200.000			25.058			-3.580
250301.000			25.058			-3.580
250401.000			25.058			-3.580
250501.000			25.058			-3.580
250601.000			25.058			-3.580
250700.000			25.058			-3.580
250800.000			25.058			-3.580
250901.000			25.058			-3.580
251000.000			25.057			-3.580
251100.000			25.057			-3.580
251201.000			25.057			-3.580
251301.000			25.057			-3.580
251401.000			25.056			-3.579
251502.000			25.056			-3.579
251600.000			25.057			-3.580
251700.000			25.055			-3.579
251801.000			25.055			-3.579
251900.000			25.055			-3.579
252000.000			25.056			-3.579
252101.000			25.056			-3.579
252201.000			25.055			-3.579
252302.000			25.055			-3.579
252401.000			25.054			-3.579
252500.000			25.053			-3.579
252601.000			25.053			-3.579
252700.000			25.055			-3.579
252800.000			25.053			-3.579
252901.000			25.053			-3.579
253000.000			25.054			-3.579
253101.000			25.054			-3.579
253202.000			25.053			-3.579
253301.000			25.052			-3.579
253400.000			25.051			-3.579
253501.000			25.053			-3.579
253600.000			25.053			-3.579
253700.000			25.052			-3.579
253801.000			25.051			-3.579
253900.000			25.051			-3.579
254001.000			25.051			-3.579
254102.000			25.052			-3.579
254201.000			25.052			-3.579
254300.000			25.051			-3.579
254401.000			25.051			-3.579
254500.000			25.050			-3.579
254600.000			25.050			-3.579
254701.000			25.050			-3.579
254800.000			25.050			-3.579
254900.000			25.050			-3.579
255002.000			25.050			-3.579
255101.000			25.050			-3.579
255200.000			25.050			-3.579
255301.000			25.049			-3.578
255400.000			25.049			-3.578
255500.000			25.047			-3.578
255600.000			25.047			-3.578
255700.000			25.047			-3.578
255801.000			25.048			-3.578
255901.000			25.048			-3.578
256001.000			25.048			-3.578
256101.000			25.048			-3.578
256200.000			25.047			-3.578
256300.000			25.047			-3.578
256401.000			25.046			-3.578
256500.000			25.046			-3.578
256600.000			25.047			-3.578
256701.000			25.048			-3.578
256801.000			25.046			-3.578
256901.000			25.045			-3.578
257002.000			25.045			-3.578
257100.000			25.044			-3.578
257200.000			25.045			-3.578
257301.000			25.045			-3.578
257400.000			25.045			-3.578
257500.000			25.045			-3.578
257601.000			25.045			-3.578
257701.000			25.045			-3.578
257801.000			25.044			-3.578
257902.000			25.044			-3.578
258000.000			25.044			-3.578
258100.000			25.044			-3.578
258201.000			25.044			-3.578
258300.000			25.044			-3.578
258400.000			25.044			-3.578
258501.000			25.043			-3.578
258600.000			25.043			-3.578
258702.000			25.043			-3.578
258801.000			25.043			-3.578
258900.000			25.043			-3.578
259001.000			25.042			-3.577
259100.000			25.042			-3.577
259200.000			25.042			-3.577
259301.000			25.042			-3.577
259400.000			25.041			-3.577
259500.000			25.041			-3.577
259602.000			25.041			-3.577
259701.000			25.042			-3.577
259801.000			25.041			-3.577
259901.000			25.040			-3.577
260000.000			25.041			-3.577
260100.000			25.041			-3.577
260201.000			25.040			-3.577
260300.000			25.040			-3.577
260400.000			25.041			-3.577
260502.000			25.040			-3.577
260601.000			25.038			-3.577
260701.000			25.039			-3.577
260801.000			25.039			-3.577
260900.000			25.039			-3.577
261000.000			25.040			-3.577
261101.000			25.040			-3.577
261200.000			25.039			-3.577
261300.000			25.039			-3.577
261402.000			25.038			-3.577
261501.000			25.038			-3.577
261601.000			25.038			-3.577
261701.000			25.038			-3.577
261800.000			25.037			-3.577
261900.000			25.037			-3.577
262000.000			25.037			-3.577
262100.000			25.037			-3.577
262201.000			25.036			-3.577
262300.000			25.036			-3.577
262401.000			25.035			-3.576
262502.000			25.036			-3.577
262600.000			25.036			-3.577
262700.000			25.035			-3.576
262801.000			25.036			-3.577
262900.000			25.035			-3.576
263000.000			25.034			-3.576
263101.000			25.034			-3.576
263200.000			25.035			-3.576
263301.000			25.035			-3.576
263402.000			25.034			-3.576
263500.000			25.034			-3.576
263600.000			25.035			-3.576
263701.000			25.034			-3.576
263800.000			25.034			-3.576
263900.000			25.033			-3.576
264001.000			25.033			-3.576
264100.000			25.033			-3.576
264201.000			25.033			-3.576
264302.000			25.032			-3.576
264400.000			25.032			-3.576
264500.000			25.032			-3.576
264601.000			25.033			-3.576
264700.000			25.032			-3.576
264800.000			25.031			-3.576
264901.000			25.031			-3.576
265000.000			25.031			-3.576
265102.000			25.031			-3.576
265201.000			25.031			-3.576
265301.000			25.032			-3.576
265401.000			25.031			-3.576
265500.000			25.031			-3.576
265600.000			25.031			-3.576
265701.000			25.030			-3.576
265800.000			25.030			-3.576
265900.000			25.029			-3.576
266002.000			25.029			-3.576
266101.000			25.029			-3.576
266201.000			25.029			-3.576
266301.000			25.029			-3.576
266400.000			25.030			-3.576
266500.000			25.029			-3.576
266601.000			25.029			-3.576
266700.000			25.029			-3.576
266800.000			25.029			-3.576
266901.000			25.028			-3.575
267001.000			25.028			-3.575
267101.000			25.028			-3.575
267201.000			25.027			-3.575
267300.000			25.028			-3.575
267400.000			25.028			-3.575
267501.000			25.027			-3.575
267600.000			25.028			-3.575
267700.000			25.028			-3.575
267801.000			25.027			-3.575
267901.000			25.027			-3.575
268001.000			25.026			-3.575
268101.000			25.026			-3.575
268200.000			25.026			-3.575
268300.000			25.025			-3.575
268400.000			25.026			-3.575
268500.000			25.026			-3.575
268601.000			25.025			-3.575
268700.000			25.025			-3.575
268801.000			25.024			-3.575
268902.000			25.024			-3.575
269001.000			25.023			-3.575
269100.000			25.024			-3.575
269201.000			25.024			-3.575
269300.000			25.024			-3.575
269400.000			25.024			-3.575
269501.000			25.024			-3.575
269600.000			25.023			-3.575
269700.000			25.023			-3.575
269802.000			25.023			-3.575
269901.000			25.023			-3.575
270000.000			25.024			-3.575
270101.000			25.024			-3.575
270200.000			25.022			-3.575
270300.000			25.023			-3.575
270401.000			25.022			-3.575
270500.000			25.022			-3.575
270600.000			25.022			-3.575
270702.000			25.021			-3.574
270801.000			25.021			-3.574
270900.000			25.022			-3.575
271001.000			25.022			-3.575
271100.000			25.021			-3.574
271200.000			25.021			-3.574
271301.000			25.021			-3.574
271400.000			25.020			-3.574
271500.000			25.020			-3.574
271602.000			25.019			-3.574
271701.000			25.019			-3.574
271801.000			25.019			-3.574
271900.000			25.020			-3.574
272000.000			25.020			-3.574
272101.000			25.019			-3.574
272200.000			25.019			-3.574
272300.000			25.019			-3.574
272401.000			25.019			-3.574
272501.000			25.020			-3.574
272601.000			25.020			-3.574
272701.000			25.018			-3.574
272800.000			25.018			-3.574
272900.000			25.018			-3.574
273001.000			25.018			-3.574
273100.000			25.019			-3.574
273200.000			25.018			-3.574
273301.000			25.017			-3.574
273401.000			25.018			-3.574
273501.000			25.018			-3.574
273601.000			25.018			-3.574
273700.000			25.018			-3.574
273800.000			25.017			-3.574
273901.000			25.016			-3.574
274000.000			25.016			-3.574
274100.000			25.016			-3.574
274201.000			25.016			-3.574
274301.000			25.016			-3.574
274401.000			25.015			-3.574
274501.000			25.015			-3.574
274600.000			25.016			-3.574
274700.000			25.017			-3.574
274800.000			25.015			-3.574
274900.000			25.014			-3.573
275001.000			25.015			-3.574
275100.000			25.014			-3.573
275201.000			25.013			-3.573
275302.000			25.014			-3.573
275401.000			25.014			-3.573
275500.000			25.013			-3.573
275601.000			25.013			-3.573
275700.000			25.014			-3.573
275800.000			25.013			-3.573
275901.000			25.013			-3.573
276000.000			25.011			-3.573
276101.000			25.011			-3.573
276202.000			25.011			-3.573
276301.000			25.011			-3.573
276400.000			25.012			-3.573
276501.000			25.011			-3.573
276600.000			25.011			-3.573
276700.000			25.011			-3.573
276801.000			25.011			-3.573
276900.000			25.011			-3.573
277001.000			25.011			-3.573
277102.000			25.011			-3.573
277201.000			25.011			-3.573
277300.000			25.010			-3.573
277401.000			25.010			-3.573
277500.000			25.010			-3.573
277600.000			25.009			-3.573
277701.000			25.010			-3.573
277800.000			25.010			-3.573
277900.000			25.009			-3.573
278002.000			25.009			-3.573
278101.000			25.009			-3.573
278201.000			25.009			-3.573
278300.000			25.009			-3.573
278400.000			25.009			-3.573
278501.000			25.008			-3.573
278600.000			25.008			-3.573
278700.000			25.008			-3.573
278801.000			25.009			-3.573
278901.000			25.008			-3.573
279001.000			25.007			-3.572
279101.000			25.007			-3.572
279200.000			25.007			-3.572
279300.000			25.006			-3.572
279401.000			25.007			-3.572
279500.000			25.006			-3.572
279600.000			25.006			-3.572
279701.000			25.005			-3.572
279801.000			25.005			-3.572
279901.000			25.006			-3.572
280002.000			25.006			-3.572
280100.000			25.005			-3.572
280200.000			25.005			-3.572
280301.000			25.005			-3.572
280400.000			25.004			-3.572
280500.000			25.004			-3.572
280601.000			25.004			-3.572
280700.000			25.005			-3.572
280801.000			25.005			-3.572
280902.000			25.004			-3.572
281000.000			25.005			-3.572
281100.000			25.004			-3.572
281200.000			25.003			-3.572
281300.000			25.003			-3.572
281401.000			25.003			-3.572
281500.000			25.002			-3.572
281600.000			25.002			-3.572
281702.000			25.002			-3.572
281801.000			25.002			-3.572
281900.000			25.002			-3.572
282001.000			25.001			-3.572
282100.000			25.002			-3.572
282200.000			25.001			-3.572
282301.000			25.001			-3.572
282400.000			25.001			-3.572
282501.000			25.002			-3.572
282602.000			25.001			-3.572
282701.000			25.000			-3.571
282800.000			25.001			-3.572
282901.000			25.000			-3.571
283000.000			25.000			-3.571
283100.000			24.999			-3.571
283201.000			24.999			-3.571
283300.000			24.999			-3.571
283400.000			24.998			-3.571
283502.000			24.999			-3.571
283601.000			25.000			-3.571
283700.000			25.000			-3.571
283801.000			24.999			-3.571
283900.000			24.999			-3.571
284000.000			24.997			-3.571
284101.000			24.997			-3.571
284200.000			24.997			-3.571
284300.000			24.998			-3.571
284400.000			24.996			-3.571
284501.000			24.997			-3.571
284602.000			24.997			-3.571
284700.000			24.997			-3.571
284800.000			24.997			-3.571
284901.000			24.997			-3.571
285000.000			24.996			-3.571
285100.000			24.996			-3.571
285201.000			24.996			-3.571
285300.000			24.996			-3.571
285400.000			24.996			-3.571
285502.000			24.996			-3.571
285601.000			24.995			-3.571
285701.000			24.995			-3.571
285801.000			24.995			-3.571
285900.000			24.995			-3.571
286000.000			24.995			-3.571
286101.000			24.995			-3.571
286200.000			24.995			-3.571
286300.000			24.995			-3.571
286401.000			24.994			-3.571
286501.000			24.995			-3.571
286601.000			24.994			-3.571
286702.000			24.993			-3.570
286800.000			24.993			-3.570
286900.000			24.994			-3.571
287001.000			24.992			-3.570
287100.000			24.993			-3.570
287200.000			24.992			-3.570
287301.000			24.991			-3.570
287400.000			24.993			-3.570
287502.000			24.993			-3.570
287601.000			24.993			-3.570
287701.000			24.994			-3.571
287801.000			24.991			-3.570
287900.000			24.992			-3.570
288000.000			24.991			-3.570
288101.000			24.990			-3.570
288200.000			24.991			-3.570
288300.000			24.992			-3.570
288401.000			24.992			-3.570
288501.000			24.990			-3.570
288601.000			24.990			-3.570
288702.000			24.990			-3.570
288800.000			24.990			-3.570
288900.000			24.990			-3.570
289001.000			24.990			-3.570
289100.000			24.990			-3.570
289200.000			24.989			-3.570
289301.000			24.989			-3.570
289400.000			24.989			-3.570
289500.000			24.989			-3.570
289602.000			24.989			-3.570
289701.000			24.989			-3.570
289800.000			24.988			-3.570
289901.000			24.988			-3.570
290000.000			24.988			-3.570
290100.000			24.988			-3.570
290201.000			24.988			-3.570
290300.000			24.987			-3.570
290400.000			24.987			-3.570
290501.000			24.987			-3.570
290601.000			24.987			-3.570
290702.000			24.986			-3.569
290801.000			24.987			-3.570
290900.000			24.988			-3.570
291001.000			24.988			-3.570
291100.000			24.986			-3.569
291200.000			24.985			-3.569
291301.000			24.986			-3.569
291400.000			24.986			-3.569
291500.000			24.986			-3.569
291602.000			24.985			-3.569
291701.000			24.986			-3.569
291800.000			24.985			-3.569
291901.000			24.985			-3.569
292000.000			24.985			-3.569
292100.000			24.985			-3.569
292201.000			24.985			-3.569
292300.000			24.985			-3.569
292400.000			24.984			-3.569
292501.000			24.984			-3.569
292601.000			24.984			-3.569
292701.000			24.985			-3.569
292801.000			24.985			-3.569
292900.000			24.983			-3.569
293000.000			24.984			-3.569
293101.000			24.984			-3.569
293200.000			24.983			-3.569
293300.000			24.983			-3.569
293401.000			24.982			-3.569
293501.000			24.982			-3.569
293601.000			24.982			-3.569
293702.000			24.982			-3.569
293800.000			24.982			-3.569
293900.000			24.982			-3.569
294000.000			24.982			-3.569
294100.000			24.981			-3.569
294201.000			24.981			-3.569
294300.000			24.980			-3.569
294400.000			24.981			-3.569
294502.000			24.981			-3.569
294601.000			24.981			-3.569
294701.000			24.981			-3.569
294801.000			24.980			-3.569
294900.000			24.980			-3.569
295000.000			24.980			-3.569
295101.000			24.981			-3.569
295200.000			24.980			-3.569
295300.000			24.980			-3.569
295401.000			24.980			-3.569
295501.000			24.980			-3.569
295601.000			24.979			-3.568
295702.000			24.977			-3.568
295800.000			24.978			-3.568
295900.000			24.980			-3.569
296001.000			24.978			-3.568
296100.000			24.978			-3.568
296200.000			24.978			-3.568
296301.000			24.978			-3.568
296400.000			24.978			-3.568
296501.000			24.978			-3.568
296602.000			24.979			-3.568
296701.000			24.980			-3.569
296800.000			24.979			-3.568
296901.000			24.978			-3.568
297000.000			24.978			-3.568
297100.000			24.978			-3.568
297200.000			24.977			-3.568
297300.000			24.977			-3.568
297401.000			24.976			-3.568
297501.000			24.976			-3.568
297601.000			24.976			-3.568
297702.000			24.976			-3.568
297800.000			24.977			-3.568
297900.000			24.976			-3.568
298001.000			24.975			-3.568
298100.000			24.975			-3.568
298200.000			24.975			-3.568
298301.000			24.975			-3.568
298400.000			24.975			-3.568
298500.000			24.975			-3.568
298602.000			24.976			-3.568
298701.000			24.975			-3.568
298800.000			24.975			-3.568
298901.000			24.974			-3.568
299000.000			24.973			-3.568
299100.000			24.974			-3.568
299201.000			24.975			-3.568
299300.000			24.974			-3.568
299400.000			24.974			-3.568
299501.000			24.974			-3.568
299601.000			24.974			-3.568
299701.000			24.974			-3.568
299801.000			24.973			-3.568
299900.000			24.972			-3.567
