# Acquired on 29/01/2024 17:31:18 
# SPIDER: Creep_-9mm_HM077x145x38AA-2
# CREEP MEASUREMENT

# time [ms]		force [N]		stiffness [N/mm]
1.000			50.045			-5.561
105.000			51.014			-5.668
204.000			51.182			-5.687
304.000			51.009			-5.668
404.000			50.866			-5.652
504.000			50.760			-5.640
604.000			50.591			-5.621
704.000			50.519			-5.613
804.000			50.455			-5.606
903.000			50.396			-5.600
1004.000			50.343			-5.594
1104.000			50.292			-5.588
1205.000			50.244			-5.583
1304.000			50.159			-5.573
1404.000			50.121			-5.569
1505.000			50.085			-5.565
1603.000			50.050			-5.561
1704.000			50.018			-5.558
1805.000			49.985			-5.554
1904.000			49.954			-5.550
2004.000			49.925			-5.547
2105.000			49.871			-5.541
2204.000			49.846			-5.538
2303.000			49.820			-5.536
2405.000			49.796			-5.533
2504.000			49.772			-5.530
2604.000			49.750			-5.528
2705.000			49.728			-5.525
2804.000			49.685			-5.521
2904.000			49.665			-5.518
3004.000			49.646			-5.516
3104.000			49.627			-5.514
3204.000			49.609			-5.512
3305.000			49.590			-5.510
3404.000			49.572			-5.508
3503.000			49.537			-5.504
3605.000			49.521			-5.502
3704.000			49.505			-5.501
3804.000			49.490			-5.499
3905.000			49.475			-5.497
4004.000			49.459			-5.495
4105.000			49.444			-5.494
4203.000			49.414			-5.490
4304.000			49.401			-5.489
4405.000			49.387			-5.487
4504.000			49.373			-5.486
4604.000			49.361			-5.485
4705.000			49.348			-5.483
4804.000			49.335			-5.482
4903.000			49.322			-5.480
5005.000			49.297			-5.477
5104.000			49.285			-5.476
5204.000			49.274			-5.475
5305.000			49.262			-5.474
5404.000			49.250			-5.472
5504.000			49.238			-5.471
5604.000			49.227			-5.470
5704.000			49.207			-5.467
5804.000			49.195			-5.466
5905.000			49.184			-5.465
6004.000			49.174			-5.464
6103.000			49.164			-5.463
6205.000			49.153			-5.461
6304.000			49.142			-5.460
6404.000			49.123			-5.458
6505.000			49.113			-5.457
6604.000			49.104			-5.456
6704.000			49.095			-5.455
6804.000			49.087			-5.454
6904.000			49.077			-5.453
7004.000			49.068			-5.452
7104.000			49.050			-5.450
7204.000			49.042			-5.449
7305.000			49.034			-5.448
7404.000			49.025			-5.447
7503.000			49.015			-5.446
7605.000			49.008			-5.445
7704.000			49.000			-5.444
7804.000			48.991			-5.443
7905.000			48.974			-5.442
8003.000			48.966			-5.441
8104.000			48.958			-5.440
8205.000			48.949			-5.439
8304.000			48.941			-5.438
8404.000			48.934			-5.437
8505.000			48.927			-5.436
8604.000			48.912			-5.435
8703.000			48.905			-5.434
8805.000			48.899			-5.433
8904.000			48.892			-5.432
9004.000			48.884			-5.432
9105.000			48.876			-5.431
9204.000			48.868			-5.430
9304.000			48.855			-5.428
9404.000			48.848			-5.428
9504.000			48.841			-5.427
9604.000			48.835			-5.426
9705.000			48.829			-5.425
9804.000			48.823			-5.425
9904.000			48.816			-5.424
10005.000			48.803			-5.423
10103.000			48.798			-5.422
10204.000			48.791			-5.421
10305.000			48.784			-5.420
10404.000			48.777			-5.420
10505.000			48.771			-5.419
10604.000			48.767			-5.419
10704.000			48.761			-5.418
10804.000			48.747			-5.416
10904.000			48.740			-5.416
11004.000			48.734			-5.415
11105.000			48.729			-5.414
11204.000			48.723			-5.414
11304.000			48.717			-5.413
11405.000			48.711			-5.412
11503.000			48.700			-5.411
11604.000			48.694			-5.410
11705.000			48.689			-5.410
11804.000			48.683			-5.409
11904.000			48.677			-5.409
12005.000			48.673			-5.408
12104.000			48.669			-5.408
12203.000			48.657			-5.406
12305.000			48.651			-5.406
12404.000			48.645			-5.405
12504.000			48.640			-5.404
12605.000			48.635			-5.404
12704.000			48.630			-5.403
12804.000			48.625			-5.403
12904.000			48.616			-5.402
13004.000			48.611			-5.401
13104.000			48.606			-5.401
13205.000			48.600			-5.400
13304.000			48.595			-5.399
13404.000			48.590			-5.399
13505.000			48.585			-5.398
13603.000			48.580			-5.398
13705.000			48.571			-5.397
13804.000			48.565			-5.396
13904.000			48.561			-5.396
14005.000			48.556			-5.395
14104.000			48.551			-5.395
14204.000			48.547			-5.394
14304.000			48.543			-5.394
14404.000			48.533			-5.393
14504.000			48.529			-5.392
14605.000			48.524			-5.392
14704.000			48.520			-5.391
14804.000			48.516			-5.391
14905.000			48.510			-5.390
15003.000			48.507			-5.390
15104.000			48.498			-5.389
15205.000			48.494			-5.388
15304.000			48.489			-5.388
15404.000			48.484			-5.387
15505.000			48.480			-5.387
15604.000			48.476			-5.386
15703.000			48.473			-5.386
15805.000			48.464			-5.385
15904.000			48.460			-5.384
16004.000			48.456			-5.384
16105.000			48.452			-5.384
16204.000			48.447			-5.383
16304.000			48.443			-5.383
16404.000			48.440			-5.382
16504.000			48.430			-5.381
16604.000			48.426			-5.381
16704.000			48.422			-5.380
16804.000			48.419			-5.380
16905.000			48.415			-5.379
17004.000			48.410			-5.379
17103.000			48.407			-5.379
17205.000			48.402			-5.378
17304.000			48.394			-5.377
17404.000			48.390			-5.377
17505.000			48.387			-5.376
17604.000			48.385			-5.376
17704.000			48.380			-5.376
17804.000			48.376			-5.375
17904.000			48.373			-5.375
18004.000			48.365			-5.374
18105.000			48.361			-5.373
18204.000			48.356			-5.373
18304.000			48.353			-5.373
18405.000			48.349			-5.372
18503.000			48.346			-5.372
18604.000			48.344			-5.372
18705.000			48.334			-5.370
18804.000			48.329			-5.370
18904.000			48.327			-5.370
19005.000			48.325			-5.369
19104.000			48.322			-5.369
19203.000			48.318			-5.369
19305.000			48.315			-5.368
19404.000			48.307			-5.367
19504.000			48.303			-5.367
19605.000			48.300			-5.367
19704.000			48.297			-5.366
19804.000			48.294			-5.366
19903.000			48.291			-5.366
20004.000			48.287			-5.365
20105.000			48.281			-5.365
20204.000			48.277			-5.364
20304.000			48.272			-5.364
20405.000			48.269			-5.363
20504.000			48.266			-5.363
20603.000			48.262			-5.362
20705.000			48.260			-5.362
20804.000			48.256			-5.362
20904.000			48.250			-5.361
21005.000			48.247			-5.361
21104.000			48.244			-5.360
21204.000			48.240			-5.360
21304.000			48.238			-5.360
21404.000			48.233			-5.359
21504.000			48.230			-5.359
21605.000			48.224			-5.358
21704.000			48.222			-5.358
21803.000			48.219			-5.358
21905.000			48.215			-5.357
22004.000			48.210			-5.357
22104.000			48.208			-5.356
22205.000			48.205			-5.356
22304.000			48.200			-5.356
22404.000			48.196			-5.355
22504.000			48.193			-5.355
22604.000			48.190			-5.354
22704.000			48.187			-5.354
22805.000			48.184			-5.354
22904.000			48.182			-5.354
23004.000			48.176			-5.353
23105.000			48.172			-5.352
23203.000			48.169			-5.352
23305.000			48.167			-5.352
23404.000			48.164			-5.352
23504.000			48.161			-5.351
23605.000			48.157			-5.351
23704.000			48.153			-5.350
23804.000			48.149			-5.350
23904.000			48.147			-5.350
24004.000			48.143			-5.349
24104.000			48.140			-5.349
24205.000			48.137			-5.349
24304.000			48.135			-5.348
24404.000			48.132			-5.348
24505.000			48.129			-5.348
24603.000			48.124			-5.347
24704.000			48.120			-5.347
24805.000			48.118			-5.346
24904.000			48.115			-5.346
25004.000			48.112			-5.346
25105.000			48.109			-5.345
25204.000			48.103			-5.345
25303.000			48.101			-5.345
25405.000			48.098			-5.344
25504.000			48.097			-5.344
25604.000			48.093			-5.344
25705.000			48.090			-5.343
25804.000			48.086			-5.343
25904.000			48.082			-5.342
26004.000			48.080			-5.342
26104.000			48.077			-5.342
26204.000			48.075			-5.342
26304.000			48.073			-5.341
26404.000			48.069			-5.341
26505.000			48.067			-5.341
26604.000			48.064			-5.340
26703.000			48.059			-5.340
26805.000			48.056			-5.340
26904.000			48.054			-5.339
27004.000			48.051			-5.339
27105.000			48.049			-5.339
27204.000			48.046			-5.338
27304.000			48.044			-5.338
27404.000			48.038			-5.338
27504.000			48.035			-5.337
27604.000			48.031			-5.337
27705.000			48.030			-5.337
27804.000			48.027			-5.336
27904.000			48.025			-5.336
28005.000			48.022			-5.336
28103.000			48.017			-5.335
28204.000			48.014			-5.335
28305.000			48.012			-5.335
28404.000			48.010			-5.334
28504.000			48.008			-5.334
28604.000			48.007			-5.334
28704.000			48.004			-5.334
28803.000			48.000			-5.333
28905.000			47.996			-5.333
29004.000			47.993			-5.333
29104.000			47.991			-5.332
29205.000			47.989			-5.332
29304.000			47.988			-5.332
29404.000			47.986			-5.332
29503.000			47.984			-5.332
29604.000			47.978			-5.331
29705.000			47.975			-5.331
29804.000			47.973			-5.330
29904.000			47.971			-5.330
30005.000			47.970			-5.330
30104.000			47.968			-5.330
30203.000			47.964			-5.329
30305.000			47.959			-5.329
30404.000			47.957			-5.329
30504.000			47.955			-5.328
30605.000			47.952			-5.328
30704.000			47.950			-5.328
30804.000			47.947			-5.327
30904.000			47.945			-5.327
31004.000			47.942			-5.327
31104.000			47.939			-5.327
31205.000			47.936			-5.326
31304.000			47.933			-5.326
31404.000			47.931			-5.326
31505.000			47.929			-5.325
31603.000			47.928			-5.325
31704.000			47.922			-5.325
31805.000			47.919			-5.324
31904.000			47.918			-5.324
32004.000			47.916			-5.324
32105.000			47.914			-5.324
32204.000			47.912			-5.324
32303.000			47.910			-5.323
32405.000			47.904			-5.323
32504.000			47.902			-5.322
32604.000			47.900			-5.322
32705.000			47.898			-5.322
32804.000			47.896			-5.322
32905.000			47.894			-5.322
33003.000			47.892			-5.321
33104.000			47.890			-5.321
33205.000			47.885			-5.321
33304.000			47.883			-5.320
33404.000			47.881			-5.320
33505.000			47.879			-5.320
33604.000			47.877			-5.320
33703.000			47.876			-5.320
33805.000			47.873			-5.319
33904.000			47.867			-5.319
34004.000			47.865			-5.318
34105.000			47.864			-5.318
34204.000			47.862			-5.318
34304.000			47.860			-5.318
34404.000			47.858			-5.318
34504.000			47.857			-5.317
34604.000			47.853			-5.317
34705.000			47.851			-5.317
34804.000			47.849			-5.317
34904.000			47.846			-5.316
35005.000			47.844			-5.316
35103.000			47.841			-5.316
35204.000			47.839			-5.315
35305.000			47.835			-5.315
35404.000			47.833			-5.315
35504.000			47.832			-5.315
35605.000			47.831			-5.315
35704.000			47.829			-5.314
35803.000			47.827			-5.314
35905.000			47.825			-5.314
36004.000			47.824			-5.314
36105.000			47.820			-5.313
36204.000			47.817			-5.313
36304.000			47.815			-5.313
36405.000			47.814			-5.313
36503.000			47.811			-5.312
36604.000			47.808			-5.312
36705.000			47.807			-5.312
36804.000			47.804			-5.312
36904.000			47.803			-5.311
37005.000			47.800			-5.311
37104.000			47.798			-5.311
37203.000			47.797			-5.311
37305.000			47.794			-5.310
37404.000			47.793			-5.310
37504.000			47.789			-5.310
37605.000			47.787			-5.310
37704.000			47.784			-5.309
37804.000			47.783			-5.309
37904.000			47.780			-5.309
38004.000			47.777			-5.309
38104.000			47.777			-5.309
38205.000			47.775			-5.308
38304.000			47.772			-5.308
38404.000			47.770			-5.308
38505.000			47.768			-5.308
38603.000			47.766			-5.307
38704.000			47.764			-5.307
38805.000			47.764			-5.307
38904.000			47.762			-5.307
39004.000			47.757			-5.306
39104.000			47.755			-5.306
39204.000			47.753			-5.306
39303.000			47.751			-5.306
39404.000			47.750			-5.306
39504.000			47.749			-5.305
39605.000			47.747			-5.305
39704.000			47.745			-5.305
39804.000			47.742			-5.305
39905.000			47.739			-5.304
40003.000			47.737			-5.304
40104.000			47.734			-5.304
40205.000			47.731			-5.303
40304.000			47.731			-5.303
40404.000			47.729			-5.303
40505.000			47.728			-5.303
40604.000			47.725			-5.303
40703.000			47.723			-5.303
40805.000			47.722			-5.302
40904.000			47.719			-5.302
41004.000			47.718			-5.302
41105.000			47.714			-5.302
41204.000			47.712			-5.301
41304.000			47.711			-5.301
41404.000			47.710			-5.301
41504.000			47.708			-5.301
41604.000			47.706			-5.301
41705.000			47.705			-5.301
41804.000			47.699			-5.300
41904.000			47.698			-5.300
42005.000			47.696			-5.300
42103.000			47.694			-5.299
42204.000			47.693			-5.299
42305.000			47.691			-5.299
42404.000			47.690			-5.299
42505.000			47.687			-5.299
42604.000			47.684			-5.298
42704.000			47.684			-5.298
42804.000			47.681			-5.298
42904.000			47.680			-5.298
43004.000			47.678			-5.298
43105.000			47.677			-5.297
43204.000			47.676			-5.297
43304.000			47.671			-5.297
43405.000			47.669			-5.297
43503.000			47.668			-5.296
43604.000			47.667			-5.296
43705.000			47.666			-5.296
43804.000			47.664			-5.296
43904.000			47.662			-5.296
44005.000			47.659			-5.295
44104.000			47.657			-5.295
44203.000			47.656			-5.295
44305.000			47.654			-5.295
44404.000			47.651			-5.295
44504.000			47.648			-5.294
44605.000			47.648			-5.294
44704.000			47.644			-5.294
44804.000			47.643			-5.294
44904.000			47.642			-5.294
45004.000			47.641			-5.293
45104.000			47.640			-5.293
45205.000			47.638			-5.293
45304.000			47.637			-5.293
45404.000			47.634			-5.293
45505.000			47.632			-5.292
45603.000			47.630			-5.292
45705.000			47.627			-5.292
45804.000			47.625			-5.292
45904.000			47.624			-5.292
46005.000			47.622			-5.291
46104.000			47.621			-5.291
46204.000			47.619			-5.291
46304.000			47.617			-5.291
46404.000			47.614			-5.290
46504.000			47.614			-5.290
46605.000			47.612			-5.290
46704.000			47.611			-5.290
46803.000			47.610			-5.290
46905.000			47.607			-5.290
47004.000			47.605			-5.289
47104.000			47.603			-5.289
47205.000			47.601			-5.289
47304.000			47.600			-5.289
47404.000			47.599			-5.289
47504.000			47.598			-5.289
47604.000			47.594			-5.288
47703.000			47.592			-5.288
47805.000			47.591			-5.288
47904.000			47.589			-5.288
48004.000			47.589			-5.288
48105.000			47.586			-5.287
48204.000			47.584			-5.287
48304.000			47.583			-5.287
48404.000			47.579			-5.287
48504.000			47.578			-5.286
48604.000			47.577			-5.286
48704.000			47.574			-5.286
48804.000			47.573			-5.286
48905.000			47.572			-5.286
49004.000			47.571			-5.286
49103.000			47.568			-5.285
49205.000			47.567			-5.285
49304.000			47.565			-5.285
49404.000			47.563			-5.285
49505.000			47.562			-5.285
49604.000			47.562			-5.285
49704.000			47.560			-5.284
49804.000			47.556			-5.284
49904.000			47.555			-5.284
50004.000			47.554			-5.284
50105.000			47.553			-5.284
50204.000			47.551			-5.283
50304.000			47.549			-5.283
50405.000			47.547			-5.283
50503.000			47.543			-5.283
50604.000			47.543			-5.283
50705.000			47.542			-5.282
50804.000			47.541			-5.282
50904.000			47.540			-5.282
51005.000			47.539			-5.282
51104.000			47.537			-5.282
51203.000			47.537			-5.282
51305.000			47.531			-5.281
51404.000			47.529			-5.281
51504.000			47.529			-5.281
51605.000			47.528			-5.281
51704.000			47.526			-5.281
51804.000			47.525			-5.281
51903.000			47.523			-5.280
52004.000			47.521			-5.280
52105.000			47.519			-5.280
52204.000			47.518			-5.280
52304.000			47.515			-5.279
52404.000			47.514			-5.279
52504.000			47.514			-5.279
52603.000			47.513			-5.279
52705.000			47.509			-5.279
52804.000			47.508			-5.279
52904.000			47.506			-5.278
53005.000			47.505			-5.278
53103.000			47.504			-5.278
53204.000			47.503			-5.278
53305.000			47.502			-5.278
53404.000			47.500			-5.278
53504.000			47.498			-5.278
53605.000			47.495			-5.277
53704.000			47.493			-5.277
53803.000			47.492			-5.277
53905.000			47.491			-5.277
54004.000			47.490			-5.277
54104.000			47.487			-5.276
54205.000			47.486			-5.276
54304.000			47.485			-5.276
54404.000			47.484			-5.276
54504.000			47.483			-5.276
54604.000			47.480			-5.276
54704.000			47.479			-5.275
54805.000			47.478			-5.275
54904.000			47.475			-5.275
55004.000			47.474			-5.275
55105.000			47.474			-5.275
55203.000			47.472			-5.275
55305.000			47.471			-5.275
55404.000			47.468			-5.274
55504.000			47.466			-5.274
55605.000			47.465			-5.274
55704.000			47.464			-5.274
55804.000			47.463			-5.274
55904.000			47.461			-5.273
56004.000			47.459			-5.273
56104.000			47.457			-5.273
56205.000			47.456			-5.273
56304.000			47.454			-5.273
56404.000			47.453			-5.273
56505.000			47.453			-5.273
56603.000			47.452			-5.272
56704.000			47.450			-5.272
56805.000			47.449			-5.272
56904.000			47.448			-5.272
57004.000			47.444			-5.272
57105.000			47.443			-5.271
57204.000			47.441			-5.271
57303.000			47.440			-5.271
57405.000			47.439			-5.271
57504.000			47.437			-5.271
57604.000			47.436			-5.271
57705.000			47.434			-5.270
57804.000			47.433			-5.270
57904.000			47.432			-5.270
58004.000			47.430			-5.270
58104.000			47.428			-5.270
58204.000			47.428			-5.270
58304.000			47.427			-5.270
58404.000			47.426			-5.270
58505.000			47.423			-5.269
58604.000			47.422			-5.269
58703.000			47.421			-5.269
58805.000			47.419			-5.269
58904.000			47.417			-5.269
59004.000			47.416			-5.268
59105.000			47.415			-5.268
59204.000			47.413			-5.268
59304.000			47.412			-5.268
59404.000			47.411			-5.268
59504.000			47.408			-5.268
59604.000			47.408			-5.268
59705.000			47.407			-5.267
59804.000			47.405			-5.267
59904.000			47.403			-5.267
60005.000			47.403			-5.267
60103.000			47.402			-5.267
60204.000			47.400			-5.267
60305.000			47.398			-5.266
60404.000			47.396			-5.266
60504.000			47.394			-5.266
60604.000			47.394			-5.266
60704.000			47.393			-5.266
60803.000			47.391			-5.266
60905.000			47.390			-5.266
61004.000			47.389			-5.265
61104.000			47.387			-5.265
61205.000			47.386			-5.265
61304.000			47.385			-5.265
61404.000			47.382			-5.265
61503.000			47.381			-5.265
61604.000			47.380			-5.264
61705.000			47.380			-5.264
61804.000			47.378			-5.264
61904.000			47.375			-5.264
62005.000			47.374			-5.264
62104.000			47.373			-5.264
62203.000			47.372			-5.264
62305.000			47.371			-5.263
62404.000			47.370			-5.263
62504.000			47.368			-5.263
62605.000			47.367			-5.263
62704.000			47.366			-5.263
62804.000			47.364			-5.263
62904.000			47.363			-5.263
63004.000			47.361			-5.262
63104.000			47.360			-5.262
63205.000			47.359			-5.262
63304.000			47.357			-5.262
63404.000			47.355			-5.262
63505.000			47.353			-5.261
63603.000			47.353			-5.261
63704.000			47.351			-5.261
63805.000			47.350			-5.261
63904.000			47.348			-5.261
64004.000			47.348			-5.261
64105.000			47.347			-5.261
64204.000			47.344			-5.260
64303.000			47.343			-5.260
64405.000			47.342			-5.260
64504.000			47.341			-5.260
64604.000			47.340			-5.260
64705.000			47.339			-5.260
64804.000			47.337			-5.260
64905.000			47.336			-5.260
65003.000			47.334			-5.259
65104.000			47.332			-5.259
65205.000			47.331			-5.259
65304.000			47.331			-5.259
65404.000			47.330			-5.259
65504.000			47.329			-5.259
65604.000			47.328			-5.259
65703.000			47.324			-5.258
65805.000			47.323			-5.258
65904.000			47.322			-5.258
66004.000			47.322			-5.258
66105.000			47.320			-5.258
66203.000			47.319			-5.258
66304.000			47.318			-5.258
66405.000			47.315			-5.257
66504.000			47.315			-5.257
66604.000			47.314			-5.257
66705.000			47.312			-5.257
66804.000			47.312			-5.257
66903.000			47.311			-5.257
67005.000			47.309			-5.257
67104.000			47.307			-5.256
67204.000			47.306			-5.256
67305.000			47.306			-5.256
67404.000			47.305			-5.256
67504.000			47.303			-5.256
67604.000			47.302			-5.256
67704.000			47.299			-5.255
67803.000			47.298			-5.255
67905.000			47.297			-5.255
68004.000			47.295			-5.255
68105.000			47.294			-5.255
68204.000			47.292			-5.255
68304.000			47.291			-5.255
68405.000			47.290			-5.254
68503.000			47.289			-5.254
68604.000			47.288			-5.254
68705.000			47.287			-5.254
68804.000			47.284			-5.254
68904.000			47.284			-5.254
69005.000			47.285			-5.254
69104.000			47.285			-5.254
69203.000			47.282			-5.254
69305.000			47.279			-5.253
69404.000			47.279			-5.253
69504.000			47.277			-5.253
69605.000			47.275			-5.253
69704.000			47.275			-5.253
69804.000			47.274			-5.253
69904.000			47.271			-5.252
70004.000			47.270			-5.252
70104.000			47.270			-5.252
70205.000			47.268			-5.252
70304.000			47.267			-5.252
70404.000			47.266			-5.252
70505.000			47.264			-5.252
70603.000			47.263			-5.251
70704.000			47.263			-5.251
70805.000			47.260			-5.251
70904.000			47.260			-5.251
71004.000			47.259			-5.251
71104.000			47.259			-5.251
71204.000			47.258			-5.251
71303.000			47.257			-5.251
71404.000			47.256			-5.251
71504.000			47.254			-5.250
71605.000			47.252			-5.250
71704.000			47.250			-5.250
71804.000			47.249			-5.250
71905.000			47.248			-5.250
72003.000			47.247			-5.250
72104.000			47.246			-5.250
72205.000			47.245			-5.249
72304.000			47.242			-5.249
72404.000			47.241			-5.249
72505.000			47.241			-5.249
72604.000			47.240			-5.249
72703.000			47.240			-5.249
72805.000			47.238			-5.249
72904.000			47.236			-5.248
73004.000			47.235			-5.248
73105.000			47.234			-5.248
73204.000			47.234			-5.248
73304.000			47.233			-5.248
73404.000			47.232			-5.248
73504.000			47.229			-5.248
73603.000			47.229			-5.248
73705.000			47.226			-5.247
73804.000			47.226			-5.247
73904.000			47.225			-5.247
74005.000			47.224			-5.247
74104.000			47.223			-5.247
74204.000			47.223			-5.247
74303.000			47.222			-5.247
74404.000			47.218			-5.246
74505.000			47.217			-5.246
74604.000			47.216			-5.246
74704.000			47.215			-5.246
74804.000			47.213			-5.246
74904.000			47.212			-5.246
75003.000			47.212			-5.246
75105.000			47.210			-5.246
75204.000			47.210			-5.246
75304.000			47.210			-5.246
75405.000			47.209			-5.245
75503.000			47.208			-5.245
75604.000			47.207			-5.245
75705.000			47.205			-5.245
75804.000			47.202			-5.245
75904.000			47.201			-5.245
76005.000			47.201			-5.245
76104.000			47.200			-5.244
76203.000			47.198			-5.244
76305.000			47.197			-5.244
76404.000			47.196			-5.244
76504.000			47.195			-5.244
76605.000			47.193			-5.244
76704.000			47.192			-5.244
76804.000			47.193			-5.244
76904.000			47.191			-5.243
77004.000			47.189			-5.243
77104.000			47.187			-5.243
77205.000			47.187			-5.243
77304.000			47.187			-5.243
77404.000			47.184			-5.243
77505.000			47.183			-5.243
77604.000			47.183			-5.243
77705.000			47.182			-5.242
77803.000			47.181			-5.242
77904.000			47.181			-5.242
78005.000			47.179			-5.242
78104.000			47.178			-5.242
78204.000			47.177			-5.242
78305.000			47.176			-5.242
78404.000			47.175			-5.242
78503.000			47.174			-5.242
78605.000			47.172			-5.241
78704.000			47.171			-5.241
78804.000			47.170			-5.241
78905.000			47.169			-5.241
79004.000			47.169			-5.241
79104.000			47.168			-5.241
79204.000			47.165			-5.241
79304.000			47.164			-5.240
79404.000			47.163			-5.240
79505.000			47.162			-5.240
79604.000			47.161			-5.240
79704.000			47.161			-5.240
79805.000			47.161			-5.240
79903.000			47.159			-5.240
80004.000			47.157			-5.240
80105.000			47.156			-5.240
80204.000			47.154			-5.239
80304.000			47.152			-5.239
80405.000			47.152			-5.239
80504.000			47.150			-5.239
80603.000			47.150			-5.239
80705.000			47.149			-5.239
80804.000			47.148			-5.239
80905.000			47.147			-5.239
81004.000			47.147			-5.239
81104.000			47.146			-5.238
81205.000			47.146			-5.238
81303.000			47.143			-5.238
81404.000			47.142			-5.238
81505.000			47.141			-5.238
81604.000			47.139			-5.238
81704.000			47.139			-5.238
81805.000			47.138			-5.238
81904.000			47.137			-5.237
82003.000			47.137			-5.237
82105.000			47.135			-5.237
82204.000			47.133			-5.237
82304.000			47.131			-5.237
82405.000			47.131			-5.237
82504.000			47.130			-5.237
82604.000			47.130			-5.237
82704.000			47.128			-5.236
82804.000			47.127			-5.236
82904.000			47.126			-5.236
83005.000			47.125			-5.236
83104.000			47.124			-5.236
83203.000			47.124			-5.236
83305.000			47.123			-5.236
83404.000			47.122			-5.236
83504.000			47.122			-5.236
83605.000			47.120			-5.236
83704.000			47.118			-5.235
83804.000			47.116			-5.235
83903.000			47.115			-5.235
84004.000			47.114			-5.235
84105.000			47.113			-5.235
84204.000			47.114			-5.235
84304.000			47.113			-5.235
84405.000			47.112			-5.235
84504.000			47.110			-5.234
84603.000			47.108			-5.234
84705.000			47.107			-5.234
84804.000			47.106			-5.234
84904.000			47.105			-5.234
85005.000			47.105			-5.234
85104.000			47.104			-5.234
85204.000			47.101			-5.233
85304.000			47.100			-5.233
85404.000			47.100			-5.233
85504.000			47.099			-5.233
85605.000			47.100			-5.233
85704.000			47.099			-5.233
85804.000			47.097			-5.233
85905.000			47.096			-5.233
86003.000			47.094			-5.233
86104.000			47.094			-5.233
86204.000			47.093			-5.233
86304.000			47.092			-5.232
86404.000			47.092			-5.232
86505.000			47.091			-5.232
86604.000			47.090			-5.232
86704.000			47.087			-5.232
86805.000			47.086			-5.232
86903.000			47.085			-5.232
87004.000			47.084			-5.232
87105.000			47.083			-5.231
87204.000			47.084			-5.232
87305.000			47.083			-5.231
87404.000			47.080			-5.231
87504.000			47.078			-5.231
87604.000			47.077			-5.231
87704.000			47.077			-5.231
87804.000			47.077			-5.231
87905.000			47.077			-5.231
88004.000			47.076			-5.231
88104.000			47.075			-5.231
88205.000			47.074			-5.230
88303.000			47.073			-5.230
88404.000			47.072			-5.230
88504.000			47.069			-5.230
88604.000			47.069			-5.230
88704.000			47.068			-5.230
88805.000			47.066			-5.230
88904.000			47.065			-5.229
89004.000			47.064			-5.229
89105.000			47.063			-5.229
89203.000			47.063			-5.229
89304.000			47.061			-5.229
89405.000			47.061			-5.229
89504.000			47.060			-5.229
89604.000			47.059			-5.229
89705.000			47.057			-5.229
89804.000			47.057			-5.229
89903.000			47.056			-5.228
90005.000			47.055			-5.228
90104.000			47.054			-5.228
90204.000			47.054			-5.228
90305.000			47.052			-5.228
90404.000			47.051			-5.228
90505.000			47.051			-5.228
90603.000			47.051			-5.228
90704.000			47.050			-5.228
90805.000			47.049			-5.228
90904.000			47.047			-5.227
91004.000			47.045			-5.227
91105.000			47.044			-5.227
91204.000			47.043			-5.227
91303.000			47.043			-5.227
91405.000			47.043			-5.227
91504.000			47.043			-5.227
91604.000			47.041			-5.227
91705.000			47.039			-5.227
91804.000			47.038			-5.226
91904.000			47.038			-5.226
92004.000			47.036			-5.226
92104.000			47.036			-5.226
92204.000			47.036			-5.226
92305.000			47.034			-5.226
92404.000			47.033			-5.226
92504.000			47.031			-5.226
92605.000			47.029			-5.225
92703.000			47.029			-5.225
92804.000			47.029			-5.225
92905.000			47.028			-5.225
93004.000			47.026			-5.225
93104.000			47.025			-5.225
93204.000			47.025			-5.225
93304.000			47.024			-5.225
93403.000			47.023			-5.225
93505.000			47.023			-5.225
93604.000			47.022			-5.225
93705.000			47.021			-5.225
93804.000			47.021			-5.225
93904.000			47.019			-5.224
94005.000			47.018			-5.224
94103.000			47.018			-5.224
94204.000			47.017			-5.224
94305.000			47.016			-5.224
94404.000			47.015			-5.224
94504.000			47.013			-5.224
94605.000			47.011			-5.223
94704.000			47.011			-5.223
94803.000			47.010			-5.223
94905.000			47.008			-5.223
95004.000			47.008			-5.223
95104.000			47.008			-5.223
95205.000			47.006			-5.223
95304.000			47.005			-5.223
95404.000			47.006			-5.223
95504.000			47.004			-5.223
95604.000			47.001			-5.222
95704.000			47.002			-5.222
95805.000			47.002			-5.222
95904.000			47.000			-5.222
96003.000			46.999			-5.222
96105.000			46.998			-5.222
96204.000			46.998			-5.222
96304.000			46.997			-5.222
96405.000			46.997			-5.222
96504.000			46.996			-5.222
96604.000			46.994			-5.222
96704.000			46.995			-5.222
96804.000			46.992			-5.221
96903.000			46.991			-5.221
97004.000			46.991			-5.221
97104.000			46.991			-5.221
97205.000			46.990			-5.221
97304.000			46.989			-5.221
97404.000			46.988			-5.221
97505.000			46.986			-5.221
97604.000			46.983			-5.220
97704.000			46.982			-5.220
97804.000			46.982			-5.220
97904.000			46.982			-5.220
98004.000			46.981			-5.220
98105.000			46.980			-5.220
98204.000			46.980			-5.220
98304.000			46.979			-5.220
98405.000			46.978			-5.220
98503.000			46.978			-5.220
98604.000			46.976			-5.220
98705.000			46.974			-5.219
98804.000			46.975			-5.219
98904.000			46.973			-5.219
99005.000			46.972			-5.219
99104.000			46.972			-5.219
99204.000			46.971			-5.219
99305.000			46.970			-5.219
99403.000			46.969			-5.219
99504.000			46.968			-5.219
99605.000			46.967			-5.219
99704.000			46.966			-5.218
99804.000			46.965			-5.218
99904.000			46.964			-5.218
100004.000			46.964			-5.218
100103.000			46.963			-5.218
100204.000			46.963			-5.218
100304.000			46.962			-5.218
100405.000			46.959			-5.218
100504.000			46.957			-5.217
100604.000			46.956			-5.217
100705.000			46.957			-5.217
100803.000			46.958			-5.218
100904.000			46.958			-5.218
101004.000			46.956			-5.217
101104.000			46.953			-5.217
101204.000			46.953			-5.217
101305.000			46.952			-5.217
101404.000			46.950			-5.217
101504.000			46.950			-5.217
101605.000			46.949			-5.217
101703.000			46.948			-5.216
101804.000			46.947			-5.216
101905.000			46.947			-5.216
102004.000			46.946			-5.216
102104.000			46.945			-5.216
102205.000			46.944			-5.216
102304.000			46.945			-5.216
102403.000			46.944			-5.216
102505.000			46.943			-5.216
102604.000			46.941			-5.216
102704.000			46.941			-5.216
102805.000			46.939			-5.215
102904.000			46.939			-5.215
103004.000			46.938			-5.215
103104.000			46.937			-5.215
103204.000			46.937			-5.215
103303.000			46.935			-5.215
103404.000			46.935			-5.215
103504.000			46.934			-5.215
103605.000			46.932			-5.215
103704.000			46.931			-5.215
103804.000			46.931			-5.215
103905.000			46.930			-5.214
104003.000			46.929			-5.214
104104.000			46.928			-5.214
104205.000			46.927			-5.214
104304.000			46.926			-5.214
104404.000			46.925			-5.214
104505.000			46.925			-5.214
104604.000			46.925			-5.214
104703.000			46.923			-5.214
104805.000			46.923			-5.214
104904.000			46.923			-5.214
105004.000			46.921			-5.213
105105.000			46.920			-5.213
105204.000			46.919			-5.213
105304.000			46.919			-5.213
105404.000			46.919			-5.213
105504.000			46.916			-5.213
105603.000			46.915			-5.213
105705.000			46.914			-5.213
105804.000			46.914			-5.213
105904.000			46.914			-5.213
106005.000			46.913			-5.213
106104.000			46.912			-5.212
106204.000			46.911			-5.212
106303.000			46.911			-5.212
106404.000			46.909			-5.212
106505.000			46.908			-5.212
106604.000			46.908			-5.212
106704.000			46.907			-5.212
106805.000			46.906			-5.212
106904.000			46.906			-5.212
107003.000			46.905			-5.212
107105.000			46.904			-5.212
107204.000			46.903			-5.211
107304.000			46.902			-5.211
107405.000			46.901			-5.211
107504.000			46.901			-5.211
107604.000			46.899			-5.211
107704.000			46.898			-5.211
107804.000			46.897			-5.211
107903.000			46.897			-5.211
108005.000			46.896			-5.211
108104.000			46.895			-5.211
108204.000			46.894			-5.210
108305.000			46.893			-5.210
108404.000			46.892			-5.210
108504.000			46.891			-5.210
108604.000			46.891			-5.210
108704.000			46.892			-5.210
108804.000			46.890			-5.210
108905.000			46.889			-5.210
109004.000			46.888			-5.210
109104.000			46.887			-5.210
109205.000			46.887			-5.210
109303.000			46.886			-5.210
109404.000			46.885			-5.209
109503.000			46.885			-5.209
109604.000			46.884			-5.209
109705.000			46.883			-5.209
109804.000			46.882			-5.209
109904.000			46.883			-5.209
110005.000			46.881			-5.209
110104.000			46.880			-5.209
110203.000			46.879			-5.209
110305.000			46.877			-5.209
110404.000			46.877			-5.209
110504.000			46.875			-5.208
110605.000			46.875			-5.208
110704.000			46.875			-5.208
110804.000			46.874			-5.208
110904.000			46.873			-5.208
111004.000			46.872			-5.208
111103.000			46.872			-5.208
111205.000			46.871			-5.208
111304.000			46.870			-5.208
111404.000			46.869			-5.208
111505.000			46.869			-5.208
111604.000			46.868			-5.208
111704.000			46.866			-5.207
111804.000			46.867			-5.207
111904.000			46.867			-5.207
112004.000			46.863			-5.207
112105.000			46.863			-5.207
112204.000			46.863			-5.207
112304.000			46.862			-5.207
112405.000			46.862			-5.207
112503.000			46.860			-5.207
112604.000			46.859			-5.207
112705.000			46.857			-5.206
112804.000			46.857			-5.206
112905.000			46.857			-5.206
113004.000			46.857			-5.206
113104.000			46.857			-5.206
113204.000			46.855			-5.206
113304.000			46.855			-5.206
113403.000			46.854			-5.206
113505.000			46.853			-5.206
113604.000			46.852			-5.206
113704.000			46.851			-5.206
113805.000			46.849			-5.205
113904.000			46.848			-5.205
114004.000			46.850			-5.206
114104.000			46.848			-5.205
114204.000			46.847			-5.205
114304.000			46.846			-5.205
114405.000			46.845			-5.205
114504.000			46.845			-5.205
114604.000			46.844			-5.205
114705.000			46.843			-5.205
114803.000			46.842			-5.205
114904.000			46.842			-5.205
115005.000			46.841			-5.205
115104.000			46.840			-5.204
115204.000			46.840			-5.204
115305.000			46.840			-5.204
115404.000			46.839			-5.204
115504.000			46.839			-5.204
115605.000			46.837			-5.204
115703.000			46.835			-5.204
115804.000			46.835			-5.204
115905.000			46.835			-5.204
116004.000			46.834			-5.204
116105.000			46.834			-5.204
116204.000			46.832			-5.204
116304.000			46.830			-5.203
116404.000			46.829			-5.203
116504.000			46.828			-5.203
116604.000			46.827			-5.203
116705.000			46.827			-5.203
116804.000			46.826			-5.203
116904.000			46.826			-5.203
117005.000			46.824			-5.203
117104.000			46.824			-5.203
117204.000			46.824			-5.203
117304.000			46.823			-5.203
117404.000			46.821			-5.202
117504.000			46.821			-5.202
117605.000			46.821			-5.202
117704.000			46.819			-5.202
117804.000			46.819			-5.202
117905.000			46.818			-5.202
118003.000			46.816			-5.202
118104.000			46.816			-5.202
118205.000			46.816			-5.202
118304.000			46.816			-5.202
118404.000			46.815			-5.202
118505.000			46.815			-5.202
118604.000			46.814			-5.202
118703.000			46.813			-5.201
118805.000			46.812			-5.201
118904.000			46.811			-5.201
119004.000			46.810			-5.201
119105.000			46.809			-5.201
119204.000			46.809			-5.201
119305.000			46.808			-5.201
119404.000			46.808			-5.201
119504.000			46.807			-5.201
119604.000			46.807			-5.201
119704.000			46.805			-5.201
119804.000			46.804			-5.200
119905.000			46.803			-5.200
120004.000			46.802			-5.200
120104.000			46.802			-5.200
120205.000			46.802			-5.200
120303.000			46.801			-5.200
120404.000			46.799			-5.200
120505.000			46.798			-5.200
120604.000			46.798			-5.200
120704.000			46.797			-5.200
120805.000			46.798			-5.200
120904.000			46.796			-5.200
121003.000			46.795			-5.199
121105.000			46.794			-5.199
121204.000			46.794			-5.199
121304.000			46.794			-5.199
121405.000			46.791			-5.199
121504.000			46.791			-5.199
121604.000			46.791			-5.199
121705.000			46.790			-5.199
121804.000			46.790			-5.199
121903.000			46.789			-5.199
122005.000			46.787			-5.199
122104.000			46.786			-5.198
122204.000			46.785			-5.198
122305.000			46.785			-5.198
122404.000			46.785			-5.198
122505.000			46.785			-5.198
122603.000			46.785			-5.198
122704.000			46.783			-5.198
122805.000			46.781			-5.198
122904.000			46.782			-5.198
123004.000			46.781			-5.198
123105.000			46.780			-5.198
123204.000			46.779			-5.198
123304.000			46.780			-5.198
123405.000			46.779			-5.198
123503.000			46.776			-5.197
123604.000			46.777			-5.197
123705.000			46.776			-5.197
123804.000			46.775			-5.197
123904.000			46.774			-5.197
124005.000			46.774			-5.197
124104.000			46.774			-5.197
124203.000			46.773			-5.197
124305.000			46.773			-5.197
124404.000			46.771			-5.197
124504.000			46.769			-5.197
124605.000			46.769			-5.197
124704.000			46.769			-5.197
124804.000			46.768			-5.196
124904.000			46.767			-5.196
125004.000			46.767			-5.196
125103.000			46.766			-5.196
125205.000			46.766			-5.196
125304.000			46.765			-5.196
125404.000			46.764			-5.196
125505.000			46.765			-5.196
125604.000			46.764			-5.196
125705.000			46.760			-5.196
125803.000			46.760			-5.196
125904.000			46.760			-5.196
126005.000			46.759			-5.195
126104.000			46.759			-5.195
126204.000			46.760			-5.196
126305.000			46.759			-5.195
126404.000			46.757			-5.195
126503.000			46.756			-5.195
126605.000			46.755			-5.195
126704.000			46.754			-5.195
126804.000			46.754			-5.195
126905.000			46.754			-5.195
127004.000			46.753			-5.195
127104.000			46.753			-5.195
127205.000			46.752			-5.195
127304.000			46.751			-5.195
127403.000			46.750			-5.194
127505.000			46.749			-5.194
127604.000			46.748			-5.194
127704.000			46.747			-5.194
127805.000			46.747			-5.194
127904.000			46.747			-5.194
128004.000			46.745			-5.194
128104.000			46.745			-5.194
128204.000			46.745			-5.194
128303.000			46.745			-5.194
128405.000			46.743			-5.194
128504.000			46.742			-5.194
128604.000			46.741			-5.193
128705.000			46.742			-5.194
128804.000			46.741			-5.193
128905.000			46.740			-5.193
129003.000			46.740			-5.193
129104.000			46.738			-5.193
129205.000			46.737			-5.193
129304.000			46.737			-5.193
129404.000			46.736			-5.193
129505.000			46.734			-5.193
129604.000			46.735			-5.193
129703.000			46.734			-5.193
129805.000			46.734			-5.193
129904.000			46.734			-5.193
130004.000			46.732			-5.192
130105.000			46.731			-5.192
130204.000			46.731			-5.192
130304.000			46.730			-5.192
130404.000			46.728			-5.192
130504.000			46.728			-5.192
130603.000			46.727			-5.192
130705.000			46.727			-5.192
130804.000			46.726			-5.192
130904.000			46.727			-5.192
131005.000			46.726			-5.192
131104.000			46.725			-5.192
131204.000			46.726			-5.192
131304.000			46.724			-5.192
131404.000			46.721			-5.191
131504.000			46.721			-5.191
131605.000			46.721			-5.191
131704.000			46.721			-5.191
131804.000			46.719			-5.191
131905.000			46.719			-5.191
132004.000			46.719			-5.191
132105.000			46.718			-5.191
132203.000			46.716			-5.191
132304.000			46.716			-5.191
132405.000			46.715			-5.191
132504.000			46.714			-5.190
132604.000			46.713			-5.190
132705.000			46.713			-5.190
132804.000			46.714			-5.190
132904.000			46.711			-5.190
133005.000			46.710			-5.190
133103.000			46.710			-5.190
133204.000			46.711			-5.190
133305.000			46.711			-5.190
133404.000			46.709			-5.190
133504.000			46.708			-5.190
133605.000			46.707			-5.190
133704.000			46.707			-5.190
133804.000			46.707			-5.190
133905.000			46.705			-5.189
134003.000			46.705			-5.189
134104.000			46.705			-5.189
134205.000			46.704			-5.189
134304.000			46.703			-5.189
134404.000			46.702			-5.189
134505.000			46.702			-5.189
134604.000			46.701			-5.189
134703.000			46.700			-5.189
134805.000			46.698			-5.189
134903.000			46.698			-5.189
135004.000			46.698			-5.189
135105.000			46.697			-5.189
135204.000			46.696			-5.188
135305.000			46.695			-5.188
135404.000			46.695			-5.188
135504.000			46.694			-5.188
135605.000			46.694			-5.188
135704.000			46.694			-5.188
135803.000			46.694			-5.188
135905.000			46.693			-5.188
136004.000			46.692			-5.188
136104.000			46.690			-5.188
136205.000			46.689			-5.188
136304.000			46.689			-5.188
136404.000			46.689			-5.188
136505.000			46.687			-5.187
136604.000			46.686			-5.187
136703.000			46.685			-5.187
136805.000			46.686			-5.187
136903.000			46.686			-5.187
137004.000			46.685			-5.187
137105.000			46.685			-5.187
137204.000			46.684			-5.187
137304.000			46.682			-5.187
137405.000			46.681			-5.187
137504.000			46.682			-5.187
137604.000			46.681			-5.187
137705.000			46.681			-5.187
137803.000			46.681			-5.187
137904.000			46.679			-5.187
138005.000			46.679			-5.187
138104.000			46.678			-5.186
138204.000			46.677			-5.186
138304.000			46.677			-5.186
138404.000			46.676			-5.186
138505.000			46.675			-5.186
138604.000			46.675			-5.186
138703.000			46.674			-5.186
138805.000			46.673			-5.186
138903.000			46.671			-5.186
139004.000			46.670			-5.186
139105.000			46.671			-5.186
139204.000			46.671			-5.186
139304.000			46.670			-5.186
139405.000			46.669			-5.185
139504.000			46.668			-5.185
139604.000			46.667			-5.185
139705.000			46.667			-5.185
139803.000			46.667			-5.185
139904.000			46.666			-5.185
140005.000			46.666			-5.185
140104.000			46.664			-5.185
140204.000			46.665			-5.185
140305.000			46.665			-5.185
140404.000			46.663			-5.185
140504.000			46.662			-5.185
140605.000			46.662			-5.185
140703.000			46.661			-5.185
140804.000			46.660			-5.184
140905.000			46.659			-5.184
141004.000			46.659			-5.184
141104.000			46.659			-5.184
141205.000			46.659			-5.184
141304.000			46.657			-5.184
141404.000			46.655			-5.184
141505.000			46.654			-5.184
141603.000			46.655			-5.184
141705.000			46.653			-5.184
141804.000			46.653			-5.184
141904.000			46.653			-5.184
142005.000			46.653			-5.184
142104.000			46.652			-5.184
142204.000			46.651			-5.183
142305.000			46.651			-5.183
142404.000			46.651			-5.183
142503.000			46.650			-5.183
142605.000			46.649			-5.183
142704.000			46.649			-5.183
142804.000			46.648			-5.183
142905.000			46.647			-5.183
143004.000			46.646			-5.183
143104.000			46.646			-5.183
143205.000			46.645			-5.183
143304.000			46.643			-5.183
143403.000			46.642			-5.182
143505.000			46.641			-5.182
143604.000			46.642			-5.182
143704.000			46.641			-5.182
143805.000			46.641			-5.182
143904.000			46.640			-5.182
144004.000			46.638			-5.182
144105.000			46.638			-5.182
144204.000			46.639			-5.182
144303.000			46.639			-5.182
144405.000			46.637			-5.182
144504.000			46.635			-5.182
144604.000			46.635			-5.182
144705.000			46.635			-5.182
144804.000			46.635			-5.182
144905.000			46.635			-5.182
145004.000			46.634			-5.182
145104.000			46.633			-5.181
145204.000			46.632			-5.181
145304.000			46.631			-5.181
145404.000			46.631			-5.181
145505.000			46.632			-5.181
145604.000			46.631			-5.181
145704.000			46.629			-5.181
145805.000			46.629			-5.181
145904.000			46.628			-5.181
146004.000			46.627			-5.181
146104.000			46.626			-5.181
146204.000			46.626			-5.181
146303.000			46.626			-5.181
146405.000			46.626			-5.181
146504.000			46.625			-5.181
146604.000			46.624			-5.180
146705.000			46.623			-5.180
146804.000			46.621			-5.180
146904.000			46.620			-5.180
147004.000			46.621			-5.180
147104.000			46.622			-5.180
147203.000			46.621			-5.180
147305.000			46.620			-5.180
147404.000			46.619			-5.180
147504.000			46.618			-5.180
147605.000			46.617			-5.180
147704.000			46.617			-5.180
147804.000			46.616			-5.180
147903.000			46.616			-5.180
148004.000			46.616			-5.180
148103.000			46.613			-5.179
148204.000			46.613			-5.179
148304.000			46.613			-5.179
148405.000			46.613			-5.179
148504.000			46.611			-5.179
148604.000			46.609			-5.179
148705.000			46.611			-5.179
148803.000			46.609			-5.179
148904.000			46.608			-5.179
149004.000			46.608			-5.179
149104.000			46.608			-5.179
149204.000			46.607			-5.179
149305.000			46.606			-5.178
149404.000			46.605			-5.178
149504.000			46.604			-5.178
149605.000			46.605			-5.178
149704.000			46.604			-5.178
149804.000			46.604			-5.178
149904.000			46.604			-5.178
150004.000			46.603			-5.178
150104.000			46.603			-5.178
150205.000			46.601			-5.178
150304.000			46.600			-5.178
150404.000			46.599			-5.178
150505.000			46.598			-5.178
150603.000			46.599			-5.178
150704.000			46.599			-5.178
150804.000			46.599			-5.178
150904.000			46.597			-5.177
151004.000			46.597			-5.177
151104.000			46.596			-5.177
151204.000			46.595			-5.177
151305.000			46.595			-5.177
151404.000			46.594			-5.177
151503.000			46.594			-5.177
151605.000			46.593			-5.177
151703.000			46.593			-5.177
151804.000			46.592			-5.177
151905.000			46.591			-5.177
152004.000			46.590			-5.177
152104.000			46.589			-5.177
152205.000			46.588			-5.176
152304.000			46.589			-5.177
152404.000			46.589			-5.177
152505.000			46.588			-5.176
152603.000			46.586			-5.176
152704.000			46.586			-5.176
152805.000			46.586			-5.176
152904.000			46.585			-5.176
153004.000			46.584			-5.176
153105.000			46.583			-5.176
153204.000			46.582			-5.176
153304.000			46.581			-5.176
153405.000			46.581			-5.176
153503.000			46.582			-5.176
153604.000			46.580			-5.176
153705.000			46.579			-5.175
153804.000			46.579			-5.175
153904.000			46.579			-5.175
154005.000			46.578			-5.175
154104.000			46.578			-5.175
154204.000			46.577			-5.175
154305.000			46.577			-5.175
154403.000			46.578			-5.175
154505.000			46.577			-5.175
154603.000			46.575			-5.175
154704.000			46.574			-5.175
154805.000			46.574			-5.175
154904.000			46.573			-5.175
155004.000			46.573			-5.175
155105.000			46.573			-5.175
155204.000			46.572			-5.175
155303.000			46.571			-5.175
155405.000			46.570			-5.174
155503.000			46.569			-5.174
155604.000			46.569			-5.174
155705.000			46.569			-5.174
155804.000			46.568			-5.174
155904.000			46.567			-5.174
156005.000			46.567			-5.174
156104.000			46.565			-5.174
156204.000			46.565			-5.174
156305.000			46.565			-5.174
156403.000			46.565			-5.174
156504.000			46.565			-5.174
156605.000			46.564			-5.174
156704.000			46.563			-5.174
156804.000			46.562			-5.174
156905.000			46.563			-5.174
157004.000			46.562			-5.174
157104.000			46.560			-5.173
157205.000			46.559			-5.173
157303.000			46.560			-5.173
157404.000			46.560			-5.173
157505.000			46.557			-5.173
157604.000			46.557			-5.173
157705.000			46.556			-5.173
157804.000			46.556			-5.173
157904.000			46.556			-5.173
158005.000			46.557			-5.173
158104.000			46.555			-5.173
158203.000			46.554			-5.173
158305.000			46.553			-5.173
158403.000			46.553			-5.173
158504.000			46.553			-5.173
158605.000			46.552			-5.172
158704.000			46.552			-5.172
158804.000			46.552			-5.172
158905.000			46.552			-5.172
159004.000			46.549			-5.172
159104.000			46.548			-5.172
159205.000			46.548			-5.172
159303.000			46.548			-5.172
159404.000			46.548			-5.172
159505.000			46.547			-5.172
159604.000			46.547			-5.172
159704.000			46.546			-5.172
159805.000			46.545			-5.172
159904.000			46.545			-5.172
160004.000			46.544			-5.172
160105.000			46.543			-5.171
160203.000			46.544			-5.172
160304.000			46.544			-5.172
160405.000			46.542			-5.171
160504.000			46.541			-5.171
160604.000			46.541			-5.171
160704.000			46.542			-5.171
160804.000			46.542			-5.171
160905.000			46.540			-5.171
161004.000			46.538			-5.171
161103.000			46.538			-5.171
161205.000			46.537			-5.171
161304.000			46.537			-5.171
161404.000			46.536			-5.171
161505.000			46.535			-5.171
161604.000			46.535			-5.171
161704.000			46.535			-5.171
161805.000			46.535			-5.171
161904.000			46.535			-5.171
162003.000			46.534			-5.170
162105.000			46.534			-5.170
162204.000			46.534			-5.170
162304.000			46.532			-5.170
162405.000			46.530			-5.170
162504.000			46.530			-5.170
162604.000			46.530			-5.170
162705.000			46.529			-5.170
162804.000			46.529			-5.170
162903.000			46.529			-5.170
163005.000			46.528			-5.170
163104.000			46.527			-5.170
163204.000			46.526			-5.170
163305.000			46.526			-5.170
163404.000			46.526			-5.170
163504.000			46.526			-5.170
163605.000			46.526			-5.170
163704.000			46.525			-5.169
163803.000			46.523			-5.169
163905.000			46.522			-5.169
164004.000			46.522			-5.169
164105.000			46.522			-5.169
164204.000			46.521			-5.169
164304.000			46.520			-5.169
164405.000			46.519			-5.169
164504.000			46.519			-5.169
164604.000			46.519			-5.169
164704.000			46.517			-5.169
164804.000			46.516			-5.168
164903.000			46.516			-5.168
165005.000			46.516			-5.168
165104.000			46.516			-5.168
165204.000			46.515			-5.168
165305.000			46.515			-5.168
165404.000			46.515			-5.168
165504.000			46.514			-5.168
165604.000			46.514			-5.168
165704.000			46.513			-5.168
165803.000			46.513			-5.168
165905.000			46.512			-5.168
166004.000			46.511			-5.168
166104.000			46.511			-5.168
166205.000			46.510			-5.168
166304.000			46.508			-5.168
166404.000			46.509			-5.168
166504.000			46.510			-5.168
166604.000			46.508			-5.168
166703.000			46.508			-5.168
166805.000			46.508			-5.168
166904.000			46.507			-5.167
167004.000			46.507			-5.167
167105.000			46.504			-5.167
167204.000			46.505			-5.167
167305.000			46.506			-5.167
167403.000			46.504			-5.167
167504.000			46.503			-5.167
167604.000			46.502			-5.167
167704.000			46.501			-5.167
167804.000			46.501			-5.167
167905.000			46.501			-5.167
168004.000			46.502			-5.167
168104.000			46.501			-5.167
168205.000			46.500			-5.167
168303.000			46.499			-5.167
168404.000			46.499			-5.167
168504.000			46.498			-5.166
168604.000			46.497			-5.166
168704.000			46.498			-5.166
168805.000			46.496			-5.166
168904.000			46.495			-5.166
169004.000			46.495			-5.166
169105.000			46.495			-5.166
169204.000			46.494			-5.166
169304.000			46.493			-5.166
169404.000			46.493			-5.166
169504.000			46.492			-5.166
169603.000			46.491			-5.166
169705.000			46.491			-5.166
169804.000			46.491			-5.166
169904.000			46.490			-5.166
170005.000			46.490			-5.166
170104.000			46.489			-5.165
170204.000			46.489			-5.165
170303.000			46.489			-5.165
170404.000			46.488			-5.165
170503.000			46.488			-5.165
170604.000			46.486			-5.165
170704.000			46.485			-5.165
170805.000			46.485			-5.165
170904.000			46.484			-5.165
171004.000			46.483			-5.165
171105.000			46.482			-5.165
171204.000			46.482			-5.165
171304.000			46.483			-5.165
171404.000			46.483			-5.165
171504.000			46.483			-5.165
171604.000			46.482			-5.165
171705.000			46.481			-5.165
171804.000			46.480			-5.164
171904.000			46.479			-5.164
172005.000			46.479			-5.164
172104.000			46.479			-5.164
172204.000			46.479			-5.164
172304.000			46.479			-5.164
172404.000			46.478			-5.164
172504.000			46.477			-5.164
172605.000			46.477			-5.164
172704.000			46.474			-5.164
172804.000			46.473			-5.164
172905.000			46.473			-5.164
173004.000			46.473			-5.164
173104.000			46.473			-5.164
173204.000			46.472			-5.164
173304.000			46.471			-5.163
173404.000			46.471			-5.163
173504.000			46.470			-5.163
173604.000			46.469			-5.163
173705.000			46.470			-5.163
173804.000			46.469			-5.163
173904.000			46.467			-5.163
174005.000			46.467			-5.163
174103.000			46.467			-5.163
174204.000			46.467			-5.163
174304.000			46.467			-5.163
174404.000			46.465			-5.163
174504.000			46.465			-5.163
174605.000			46.466			-5.163
174704.000			46.465			-5.163
174804.000			46.464			-5.163
174905.000			46.463			-5.163
175003.000			46.462			-5.162
175104.000			46.461			-5.162
175204.000			46.460			-5.162
175304.000			46.461			-5.162
175404.000			46.460			-5.162
175505.000			46.460			-5.162
175604.000			46.459			-5.162
175704.000			46.460			-5.162
175805.000			46.460			-5.162
175904.000			46.459			-5.162
176004.000			46.458			-5.162
176104.000			46.457			-5.162
176204.000			46.457			-5.162
176304.000			46.457			-5.162
176405.000			46.456			-5.162
176504.000			46.456			-5.162
176604.000			46.453			-5.161
176705.000			46.452			-5.161
176804.000			46.452			-5.161
176905.000			46.452			-5.161
177003.000			46.453			-5.161
177104.000			46.452			-5.161
177204.000			46.451			-5.161
177304.000			46.451			-5.161
177404.000			46.450			-5.161
177505.000			46.450			-5.161
177604.000			46.449			-5.161
177704.000			46.449			-5.161
177805.000			46.448			-5.161
177904.000			46.447			-5.161
178004.000			46.448			-5.161
178104.000			46.447			-5.161
178204.000			46.446			-5.161
178304.000			46.446			-5.161
178405.000			46.445			-5.161
178504.000			46.443			-5.160
178604.000			46.444			-5.160
178705.000			46.444			-5.160
178804.000			46.443			-5.160
178904.000			46.443			-5.160
179004.000			46.443			-5.160
179104.000			46.442			-5.160
179204.000			46.441			-5.160
179305.000			46.441			-5.160
179404.000			46.440			-5.160
179504.000			46.439			-5.160
179605.000			46.439			-5.160
179704.000			46.441			-5.160
179804.000			46.440			-5.160
179903.000			46.438			-5.160
180004.000			46.437			-5.160
180103.000			46.436			-5.160
180204.000			46.436			-5.160
180304.000			46.436			-5.160
180405.000			46.434			-5.159
180504.000			46.434			-5.159
180604.000			46.434			-5.159
180705.000			46.433			-5.159
180803.000			46.433			-5.159
180904.000			46.432			-5.159
181004.000			46.431			-5.159
181104.000			46.431			-5.159
181204.000			46.432			-5.159
181305.000			46.431			-5.159
181404.000			46.430			-5.159
181504.000			46.429			-5.159
181605.000			46.429			-5.159
181704.000			46.429			-5.159
181804.000			46.429			-5.159
181904.000			46.428			-5.159
182004.000			46.428			-5.159
182104.000			46.426			-5.158
182205.000			46.425			-5.158
182304.000			46.425			-5.158
182404.000			46.424			-5.158
182505.000			46.425			-5.158
182603.000			46.425			-5.158
182704.000			46.422			-5.158
182804.000			46.422			-5.158
182904.000			46.423			-5.158
183004.000			46.423			-5.158
183104.000			46.422			-5.158
183204.000			46.422			-5.158
183305.000			46.421			-5.158
183404.000			46.421			-5.158
183503.000			46.419			-5.158
183605.000			46.419			-5.158
183704.000			46.419			-5.158
183804.000			46.418			-5.158
183905.000			46.416			-5.157
184004.000			46.417			-5.157
184104.000			46.417			-5.157
184205.000			46.416			-5.157
184304.000			46.414			-5.157
184403.000			46.413			-5.157
184505.000			46.413			-5.157
184604.000			46.414			-5.157
184704.000			46.413			-5.157
184805.000			46.413			-5.157
184904.000			46.412			-5.157
185004.000			46.411			-5.157
185105.000			46.411			-5.157
185204.000			46.411			-5.157
185303.000			46.409			-5.157
185405.000			46.410			-5.157
185504.000			46.410			-5.157
185604.000			46.409			-5.157
185705.000			46.407			-5.156
185804.000			46.407			-5.156
185904.000			46.408			-5.156
186005.000			46.408			-5.156
186104.000			46.408			-5.156
186203.000			46.408			-5.156
186305.000			46.406			-5.156
186404.000			46.405			-5.156
186505.000			46.404			-5.156
186604.000			46.403			-5.156
186704.000			46.404			-5.156
186805.000			46.404			-5.156
186904.000			46.402			-5.156
187004.000			46.401			-5.156
187104.000			46.402			-5.156
187204.000			46.401			-5.156
187303.000			46.401			-5.156
187405.000			46.400			-5.156
187504.000			46.399			-5.155
187604.000			46.399			-5.155
187705.000			46.399			-5.155
187804.000			46.398			-5.155
187904.000			46.397			-5.155
188005.000			46.396			-5.155
188104.000			46.397			-5.155
188203.000			46.396			-5.155
188305.000			46.396			-5.155
188404.000			46.397			-5.155
188504.000			46.395			-5.155
188605.000			46.396			-5.155
188704.000			46.394			-5.155
188804.000			46.393			-5.155
188905.000			46.393			-5.155
189004.000			46.392			-5.155
189103.000			46.392			-5.155
189205.000			46.391			-5.155
189303.000			46.391			-5.155
189404.000			46.391			-5.155
189505.000			46.391			-5.155
189604.000			46.390			-5.154
189705.000			46.389			-5.154
189804.000			46.389			-5.154
189904.000			46.388			-5.154
190005.000			46.389			-5.154
190104.000			46.387			-5.154
190203.000			46.387			-5.154
190305.000			46.386			-5.154
190403.000			46.385			-5.154
190504.000			46.384			-5.154
190605.000			46.385			-5.154
190704.000			46.385			-5.154
190804.000			46.382			-5.154
190905.000			46.383			-5.154
191004.000			46.384			-5.154
191103.000			46.383			-5.154
191205.000			46.382			-5.154
191303.000			46.382			-5.154
191404.000			46.382			-5.154
191505.000			46.380			-5.153
191604.000			46.380			-5.153
191704.000			46.379			-5.153
191805.000			46.379			-5.153
191904.000			46.379			-5.153
192003.000			46.379			-5.153
192105.000			46.379			-5.153
192203.000			46.377			-5.153
192304.000			46.377			-5.153
192405.000			46.376			-5.153
192504.000			46.376			-5.153
192604.000			46.376			-5.153
192704.000			46.375			-5.153
192804.000			46.374			-5.153
192905.000			46.373			-5.153
193004.000			46.373			-5.153
193103.000			46.372			-5.152
193205.000			46.371			-5.152
193304.000			46.371			-5.152
193404.000			46.370			-5.152
193505.000			46.370			-5.152
193604.000			46.369			-5.152
193704.000			46.370			-5.152
193805.000			46.370			-5.152
193904.000			46.368			-5.152
194003.000			46.369			-5.152
194105.000			46.369			-5.152
194204.000			46.369			-5.152
194304.000			46.367			-5.152
194405.000			46.368			-5.152
194504.000			46.365			-5.152
194604.000			46.365			-5.152
194705.000			46.365			-5.152
194804.000			46.366			-5.152
194903.000			46.366			-5.152
195005.000			46.364			-5.152
195103.000			46.364			-5.152
195204.000			46.364			-5.152
195305.000			46.364			-5.152
195404.000			46.363			-5.151
195504.000			46.361			-5.151
195605.000			46.360			-5.151
195704.000			46.361			-5.151
195804.000			46.360			-5.151
195905.000			46.359			-5.151
196003.000			46.359			-5.151
196105.000			46.358			-5.151
196204.000			46.357			-5.151
196304.000			46.357			-5.151
196405.000			46.358			-5.151
196504.000			46.355			-5.151
196604.000			46.355			-5.151
196705.000			46.355			-5.151
196804.000			46.355			-5.151
196903.000			46.355			-5.151
197005.000			46.354			-5.150
197104.000			46.354			-5.150
197204.000			46.353			-5.150
197305.000			46.353			-5.150
197404.000			46.353			-5.150
197504.000			46.353			-5.150
197605.000			46.351			-5.150
197704.000			46.351			-5.150
197803.000			46.351			-5.150
197905.000			46.352			-5.150
198003.000			46.350			-5.150
198104.000			46.349			-5.150
198205.000			46.348			-5.150
198304.000			46.349			-5.150
198404.000			46.349			-5.150
198505.000			46.348			-5.150
198604.000			46.347			-5.150
198704.000			46.347			-5.150
198805.000			46.346			-5.150
198903.000			46.345			-5.149
199004.000			46.346			-5.150
199105.000			46.345			-5.149
199204.000			46.345			-5.149
199305.000			46.345			-5.149
199404.000			46.344			-5.149
199504.000			46.344			-5.149
199605.000			46.344			-5.149
199704.000			46.342			-5.149
199803.000			46.342			-5.149
199905.000			46.342			-5.149
200003.000			46.341			-5.149
200104.000			46.339			-5.149
200205.000			46.340			-5.149
200304.000			46.340			-5.149
200404.000			46.339			-5.149
200505.000			46.339			-5.149
200604.000			46.339			-5.149
200703.000			46.339			-5.149
200805.000			46.338			-5.149
200904.000			46.337			-5.149
201004.000			46.336			-5.148
201105.000			46.336			-5.148
201204.000			46.336			-5.148
201304.000			46.335			-5.148
201405.000			46.336			-5.148
201504.000			46.334			-5.148
201603.000			46.333			-5.148
201705.000			46.332			-5.148
201804.000			46.332			-5.148
201904.000			46.332			-5.148
202005.000			46.332			-5.148
202104.000			46.331			-5.148
202204.000			46.331			-5.148
202304.000			46.331			-5.148
202404.000			46.330			-5.148
202503.000			46.329			-5.148
202604.000			46.328			-5.148
202704.000			46.328			-5.148
202805.000			46.329			-5.148
202904.000			46.329			-5.148
203004.000			46.328			-5.148
203105.000			46.326			-5.147
203203.000			46.325			-5.147
203304.000			46.324			-5.147
203404.000			46.324			-5.147
203504.000			46.325			-5.147
203604.000			46.324			-5.147
203705.000			46.325			-5.147
203804.000			46.324			-5.147
203904.000			46.325			-5.147
204005.000			46.324			-5.147
204103.000			46.323			-5.147
204204.000			46.323			-5.147
204305.000			46.323			-5.147
204404.000			46.322			-5.147
204504.000			46.319			-5.147
204605.000			46.320			-5.147
204704.000			46.320			-5.147
204804.000			46.318			-5.146
204905.000			46.317			-5.146
205003.000			46.318			-5.146
205104.000			46.317			-5.146
205205.000			46.317			-5.146
205304.000			46.316			-5.146
205404.000			46.317			-5.146
205504.000			46.316			-5.146
205604.000			46.316			-5.146
205703.000			46.316			-5.146
205804.000			46.315			-5.146
205903.000			46.313			-5.146
206005.000			46.313			-5.146
206104.000			46.314			-5.146
206204.000			46.315			-5.146
206305.000			46.314			-5.146
206404.000			46.313			-5.146
206504.000			46.311			-5.146
206604.000			46.310			-5.146
206704.000			46.310			-5.146
206804.000			46.310			-5.146
206905.000			46.310			-5.146
207004.000			46.311			-5.146
207104.000			46.309			-5.145
207205.000			46.309			-5.145
207304.000			46.309			-5.145
207404.000			46.308			-5.145
207504.000			46.306			-5.145
207604.000			46.306			-5.145
207704.000			46.306			-5.145
207805.000			46.306			-5.145
207904.000			46.306			-5.145
208004.000			46.306			-5.145
208105.000			46.305			-5.145
208204.000			46.305			-5.145
208304.000			46.304			-5.145
208404.000			46.304			-5.145
208504.000			46.303			-5.145
208604.000			46.302			-5.145
208704.000			46.301			-5.145
208804.000			46.301			-5.145
208905.000			46.300			-5.144
209004.000			46.300			-5.144
209103.000			46.299			-5.144
209205.000			46.299			-5.144
209303.000			46.298			-5.144
209404.000			46.297			-5.144
209505.000			46.298			-5.144
209604.000			46.297			-5.144
209704.000			46.297			-5.144
209805.000			46.296			-5.144
209904.000			46.296			-5.144
210004.000			46.296			-5.144
210105.000			46.297			-5.144
210203.000			46.296			-5.144
210304.000			46.295			-5.144
210405.000			46.294			-5.144
210504.000			46.293			-5.144
210604.000			46.294			-5.144
210705.000			46.294			-5.144
210804.000			46.293			-5.144
210904.000			46.292			-5.144
211005.000			46.292			-5.144
211103.000			46.291			-5.143
211204.000			46.291			-5.143
211305.000			46.291			-5.143
211404.000			46.291			-5.143
211504.000			46.290			-5.143
211605.000			46.290			-5.143
211704.000			46.289			-5.143
211803.000			46.288			-5.143
211905.000			46.287			-5.143
212003.000			46.287			-5.143
212105.000			46.288			-5.143
212204.000			46.287			-5.143
212304.000			46.286			-5.143
212405.000			46.285			-5.143
212504.000			46.285			-5.143
212604.000			46.285			-5.143
212704.000			46.284			-5.143
212804.000			46.284			-5.143
212903.000			46.284			-5.143
213005.000			46.284			-5.143
213104.000			46.284			-5.143
213204.000			46.283			-5.143
213305.000			46.282			-5.142
213404.000			46.282			-5.142
213504.000			46.281			-5.142
213604.000			46.281			-5.142
213704.000			46.280			-5.142
213803.000			46.280			-5.142
213905.000			46.280			-5.142
214004.000			46.278			-5.142
214104.000			46.277			-5.142
214205.000			46.278			-5.142
214304.000			46.277			-5.142
214404.000			46.277			-5.142
214504.000			46.278			-5.142
214604.000			46.276			-5.142
214703.000			46.275			-5.142
214805.000			46.275			-5.142
214904.000			46.275			-5.142
215004.000			46.275			-5.142
215105.000			46.274			-5.142
215204.000			46.274			-5.142
215305.000			46.273			-5.141
215403.000			46.272			-5.141
215504.000			46.272			-5.141
215605.000			46.272			-5.141
215704.000			46.272			-5.141
215804.000			46.271			-5.141
215905.000			46.271			-5.141
216004.000			46.271			-5.141
216104.000			46.270			-5.141
216205.000			46.270			-5.141
216303.000			46.269			-5.141
216404.000			46.268			-5.141
216505.000			46.268			-5.141
216604.000			46.268			-5.141
216704.000			46.267			-5.141
216805.000			46.267			-5.141
216904.000			46.265			-5.141
217004.000			46.265			-5.141
217105.000			46.266			-5.141
217203.000			46.265			-5.141
217304.000			46.265			-5.141
217405.000			46.266			-5.141
217504.000			46.263			-5.140
217604.000			46.263			-5.140
217705.000			46.263			-5.140
217804.000			46.263			-5.140
217904.000			46.262			-5.140
218005.000			46.262			-5.140
218103.000			46.262			-5.140
218204.000			46.260			-5.140
218305.000			46.259			-5.140
218404.000			46.260			-5.140
218505.000			46.260			-5.140
218604.000			46.259			-5.140
218704.000			46.259			-5.140
218805.000			46.259			-5.140
218904.000			46.259			-5.140
219003.000			46.258			-5.140
219105.000			46.257			-5.140
219203.000			46.258			-5.140
219304.000			46.257			-5.140
219405.000			46.256			-5.140
219504.000			46.254			-5.139
219604.000			46.254			-5.139
219705.000			46.255			-5.139
219804.000			46.255			-5.139
219903.000			46.255			-5.139
220005.000			46.253			-5.139
220103.000			46.253			-5.139
220204.000			46.253			-5.139
220305.000			46.252			-5.139
220404.000			46.251			-5.139
220504.000			46.251			-5.139
220605.000			46.250			-5.139
220704.000			46.250			-5.139
220803.000			46.249			-5.139
220905.000			46.248			-5.139
221004.000			46.247			-5.139
221104.000			46.249			-5.139
221205.000			46.249			-5.139
221304.000			46.248			-5.139
221404.000			46.247			-5.139
221504.000			46.248			-5.139
221604.000			46.248			-5.139
221703.000			46.247			-5.139
221804.000			46.247			-5.139
221904.000			46.246			-5.138
222005.000			46.245			-5.138
222104.000			46.246			-5.138
222204.000			46.245			-5.138
222305.000			46.244			-5.138
222404.000			46.243			-5.138
222504.000			46.242			-5.138
222604.000			46.243			-5.138
222704.000			46.242			-5.138
222804.000			46.241			-5.138
222905.000			46.241			-5.138
223004.000			46.240			-5.138
223104.000			46.241			-5.138
223205.000			46.240			-5.138
223303.000			46.240			-5.138
223404.000			46.239			-5.138
223504.000			46.239			-5.138
223604.000			46.238			-5.138
223704.000			46.238			-5.138
223805.000			46.237			-5.137
223904.000			46.236			-5.137
224004.000			46.237			-5.137
224105.000			46.238			-5.138
224203.000			46.237			-5.137
224304.000			46.236			-5.137
224404.000			46.235			-5.137
224504.000			46.234			-5.137
224604.000			46.234			-5.137
224704.000			46.233			-5.137
224804.000			46.233			-5.137
224905.000			46.233			-5.137
225004.000			46.233			-5.137
225103.000			46.232			-5.137
225205.000			46.231			-5.137
225304.000			46.231			-5.137
225404.000			46.231			-5.137
225505.000			46.231			-5.137
225604.000			46.229			-5.137
225704.000			46.228			-5.136
225805.000			46.229			-5.137
225904.000			46.228			-5.136
226003.000			46.226			-5.136
226105.000			46.228			-5.136
226204.000			46.227			-5.136
226304.000			46.226			-5.136
226405.000			46.227			-5.136
226504.000			46.226			-5.136
226604.000			46.227			-5.136
226705.000			46.226			-5.136
226804.000			46.224			-5.136
226903.000			46.223			-5.136
227005.000			46.223			-5.136
227104.000			46.224			-5.136
227204.000			46.225			-5.136
227305.000			46.224			-5.136
227404.000			46.223			-5.136
227504.000			46.222			-5.136
227605.000			46.221			-5.136
227704.000			46.221			-5.136
227803.000			46.220			-5.136
227905.000			46.220			-5.136
228004.000			46.220			-5.136
228105.000			46.220			-5.136
228204.000			46.219			-5.135
228304.000			46.218			-5.135
228405.000			46.218			-5.135
228503.000			46.217			-5.135
228604.000			46.218			-5.135
228704.000			46.218			-5.135
228804.000			46.217			-5.135
228904.000			46.216			-5.135
229005.000			46.217			-5.135
229104.000			46.215			-5.135
229204.000			46.215			-5.135
229305.000			46.216			-5.135
229403.000			46.215			-5.135
229504.000			46.215			-5.135
229604.000			46.216			-5.135
229704.000			46.214			-5.135
229804.000			46.213			-5.135
229905.000			46.212			-5.135
230004.000			46.211			-5.135
230104.000			46.211			-5.135
230205.000			46.211			-5.135
230303.000			46.210			-5.134
230404.000			46.210			-5.134
230504.000			46.211			-5.135
230604.000			46.210			-5.134
230704.000			46.210			-5.134
230805.000			46.209			-5.134
230904.000			46.209			-5.134
231004.000			46.210			-5.134
231105.000			46.208			-5.134
231203.000			46.206			-5.134
231305.000			46.206			-5.134
231404.000			46.207			-5.134
231504.000			46.206			-5.134
231605.000			46.205			-5.134
231704.000			46.206			-5.134
231804.000			46.205			-5.134
231904.000			46.204			-5.134
232004.000			46.204			-5.134
232103.000			46.203			-5.134
232205.000			46.203			-5.134
232304.000			46.203			-5.134
232404.000			46.200			-5.133
232505.000			46.201			-5.133
232604.000			46.201			-5.133
232704.000			46.201			-5.133
232804.000			46.201			-5.133
232904.000			46.201			-5.133
233004.000			46.200			-5.133
233105.000			46.200			-5.133
233204.000			46.199			-5.133
233304.000			46.198			-5.133
233405.000			46.198			-5.133
233504.000			46.197			-5.133
233604.000			46.199			-5.133
233704.000			46.198			-5.133
233804.000			46.196			-5.133
233904.000			46.195			-5.133
234005.000			46.195			-5.133
234104.000			46.195			-5.133
234204.000			46.196			-5.133
234305.000			46.195			-5.133
234404.000			46.195			-5.133
234505.000			46.196			-5.133
234603.000			46.195			-5.133
234704.000			46.194			-5.133
234805.000			46.192			-5.132
234904.000			46.192			-5.132
235004.000			46.192			-5.132
235105.000			46.192			-5.132
235204.000			46.191			-5.132
235304.000			46.190			-5.132
235405.000			46.191			-5.132
235503.000			46.191			-5.132
235604.000			46.190			-5.132
235705.000			46.190			-5.132
235804.000			46.189			-5.132
235904.000			46.189			-5.132
236005.000			46.189			-5.132
236104.000			46.188			-5.132
236204.000			46.188			-5.132
236305.000			46.188			-5.132
236403.000			46.186			-5.132
236504.000			46.186			-5.132
236604.000			46.187			-5.132
236704.000			46.186			-5.132
236804.000			46.185			-5.132
236905.000			46.185			-5.132
237004.000			46.184			-5.132
237104.000			46.183			-5.131
237205.000			46.184			-5.132
237303.000			46.185			-5.132
237404.000			46.182			-5.131
237503.000			46.182			-5.131
237604.000			46.182			-5.131
237705.000			46.181			-5.131
237804.000			46.180			-5.131
237904.000			46.181			-5.131
238005.000			46.182			-5.131
238104.000			46.181			-5.131
238203.000			46.180			-5.131
238305.000			46.179			-5.131
238403.000			46.181			-5.131
238504.000			46.178			-5.131
238605.000			46.178			-5.131
238704.000			46.178			-5.131
238804.000			46.178			-5.131
238905.000			46.177			-5.131
239004.000			46.177			-5.131
239104.000			46.176			-5.131
239205.000			46.175			-5.131
239303.000			46.174			-5.130
239404.000			46.174			-5.130
239505.000			46.174			-5.130
239604.000			46.175			-5.131
239704.000			46.175			-5.131
239805.000			46.173			-5.130
239904.000			46.172			-5.130
240004.000			46.172			-5.130
240105.000			46.172			-5.130
240203.000			46.173			-5.130
240304.000			46.171			-5.130
240405.000			46.170			-5.130
240504.000			46.170			-5.130
240604.000			46.169			-5.130
240704.000			46.168			-5.130
240804.000			46.169			-5.130
240905.000			46.169			-5.130
241004.000			46.169			-5.130
241103.000			46.168			-5.130
241205.000			46.167			-5.130
241304.000			46.168			-5.130
241404.000			46.168			-5.130
241505.000			46.168			-5.130
241604.000			46.167			-5.130
241704.000			46.167			-5.130
241805.000			46.167			-5.130
241904.000			46.167			-5.130
242003.000			46.165			-5.129
242105.000			46.164			-5.129
242204.000			46.164			-5.129
242304.000			46.164			-5.129
242405.000			46.163			-5.129
242504.000			46.164			-5.129
242604.000			46.164			-5.129
242705.000			46.162			-5.129
242804.000			46.162			-5.129
242903.000			46.162			-5.129
243005.000			46.161			-5.129
243104.000			46.161			-5.129
243204.000			46.161			-5.129
243305.000			46.160			-5.129
243404.000			46.159			-5.129
243504.000			46.158			-5.129
243604.000			46.158			-5.129
243704.000			46.158			-5.129
243803.000			46.157			-5.129
243905.000			46.157			-5.129
244004.000			46.157			-5.129
244105.000			46.157			-5.129
244204.000			46.156			-5.128
244304.000			46.156			-5.128
244405.000			46.155			-5.128
244504.000			46.154			-5.128
244604.000			46.154			-5.128
244704.000			46.155			-5.128
244804.000			46.156			-5.128
244904.000			46.154			-5.128
245005.000			46.152			-5.128
245104.000			46.152			-5.128
245204.000			46.153			-5.128
245305.000			46.152			-5.128
245403.000			46.153			-5.128
245504.000			46.152			-5.128
245605.000			46.153			-5.128
245704.000			46.151			-5.128
245804.000			46.151			-5.128
245905.000			46.150			-5.128
246004.000			46.150			-5.128
246104.000			46.150			-5.128
246205.000			46.149			-5.128
246303.000			46.148			-5.128
246404.000			46.149			-5.128
246504.000			46.149			-5.128
246604.000			46.149			-5.128
246704.000			46.149			-5.128
246805.000			46.147			-5.127
246904.000			46.146			-5.127
247004.000			46.146			-5.127
247105.000			46.145			-5.127
247203.000			46.146			-5.127
247305.000			46.145			-5.127
247403.000			46.144			-5.127
247504.000			46.143			-5.127
247605.000			46.144			-5.127
247704.000			46.144			-5.127
247804.000			46.143			-5.127
247905.000			46.142			-5.127
248004.000			46.142			-5.127
248103.000			46.141			-5.127
248205.000			46.142			-5.127
248303.000			46.142			-5.127
248404.000			46.141			-5.127
248505.000			46.140			-5.127
248604.000			46.141			-5.127
248704.000			46.140			-5.127
248805.000			46.140			-5.127
248904.000			46.139			-5.127
249003.000			46.138			-5.126
249105.000			46.138			-5.126
249203.000			46.138			-5.126
249304.000			46.137			-5.126
249405.000			46.136			-5.126
249504.000			46.137			-5.126
249604.000			46.136			-5.126
249705.000			46.137			-5.126
249804.000			46.136			-5.126
249904.000			46.136			-5.126
250005.000			46.135			-5.126
250103.000			46.135			-5.126
250204.000			46.134			-5.126
250305.000			46.133			-5.126
250404.000			46.133			-5.126
250505.000			46.133			-5.126
250604.000			46.133			-5.126
250704.000			46.133			-5.126
250804.000			46.131			-5.126
250904.000			46.130			-5.126
251003.000			46.130			-5.126
251105.000			46.131			-5.126
251204.000			46.131			-5.126
251304.000			46.130			-5.126
251405.000			46.129			-5.125
251504.000			46.129			-5.125
251604.000			46.129			-5.125
251704.000			46.128			-5.125
251804.000			46.127			-5.125
251903.000			46.128			-5.125
252005.000			46.128			-5.125
252104.000			46.127			-5.125
252204.000			46.125			-5.125
252305.000			46.124			-5.125
252404.000			46.125			-5.125
252504.000			46.125			-5.125
252604.000			46.125			-5.125
252704.000			46.125			-5.125
252803.000			46.124			-5.125
252905.000			46.122			-5.125
253004.000			46.122			-5.125
253104.000			46.124			-5.125
253205.000			46.124			-5.125
253304.000			46.123			-5.125
253404.000			46.123			-5.125
253503.000			46.122			-5.125
253604.000			46.123			-5.125
253705.000			46.122			-5.125
253804.000			46.122			-5.125
253904.000			46.120			-5.124
254005.000			46.119			-5.124
254104.000			46.120			-5.124
254204.000			46.119			-5.124
254305.000			46.119			-5.124
254403.000			46.118			-5.124
254504.000			46.118			-5.124
254605.000			46.119			-5.124
254704.000			46.117			-5.124
254804.000			46.117			-5.124
254905.000			46.118			-5.124
255004.000			46.117			-5.124
255104.000			46.115			-5.124
255205.000			46.116			-5.124
255303.000			46.116			-5.124
255404.000			46.116			-5.124
255505.000			46.114			-5.124
255604.000			46.114			-5.124
255704.000			46.113			-5.124
255805.000			46.113			-5.124
255904.000			46.113			-5.124
256004.000			46.112			-5.124
256105.000			46.112			-5.124
256203.000			46.111			-5.123
256304.000			46.111			-5.123
256405.000			46.111			-5.123
256504.000			46.111			-5.123
256604.000			46.110			-5.123
256704.000			46.110			-5.123
256804.000			46.110			-5.123
256905.000			46.109			-5.123
257004.000			46.109			-5.123
257103.000			46.108			-5.123
257205.000			46.108			-5.123
257304.000			46.107			-5.123
257404.000			46.106			-5.123
257505.000			46.107			-5.123
257604.000			46.107			-5.123
257704.000			46.106			-5.123
257805.000			46.105			-5.123
257904.000			46.105			-5.123
258003.000			46.103			-5.123
258105.000			46.104			-5.123
258204.000			46.104			-5.123
258304.000			46.103			-5.123
258405.000			46.103			-5.123
258504.000			46.103			-5.123
258604.000			46.103			-5.123
258704.000			46.103			-5.123
258804.000			46.102			-5.122
258903.000			46.101			-5.122
259005.000			46.101			-5.122
259104.000			46.101			-5.122
259204.000			46.101			-5.122
259305.000			46.101			-5.122
259404.000			46.099			-5.122
259504.000			46.098			-5.122
259604.000			46.100			-5.122
259704.000			46.099			-5.122
259803.000			46.098			-5.122
259905.000			46.098			-5.122
260004.000			46.098			-5.122
260105.000			46.099			-5.122
260204.000			46.098			-5.122
260304.000			46.096			-5.122
260405.000			46.096			-5.122
260504.000			46.095			-5.122
260604.000			46.095			-5.122
260704.000			46.094			-5.122
260804.000			46.094			-5.122
260904.000			46.094			-5.122
261005.000			46.094			-5.122
261104.000			46.092			-5.121
261204.000			46.093			-5.121
261305.000			46.094			-5.122
261404.000			46.093			-5.121
261504.000			46.093			-5.121
261604.000			46.091			-5.121
261704.000			46.091			-5.121
261804.000			46.091			-5.121
261905.000			46.090			-5.121
262004.000			46.090			-5.121
262104.000			46.090			-5.121
262205.000			46.091			-5.121
262304.000			46.090			-5.121
262404.000			46.090			-5.121
262504.000			46.089			-5.121
262604.000			46.087			-5.121
262704.000			46.088			-5.121
262805.000			46.088			-5.121
262904.000			46.088			-5.121
263004.000			46.087			-5.121
263105.000			46.087			-5.121
263204.000			46.087			-5.121
263305.000			46.087			-5.121
263403.000			46.086			-5.121
263504.000			46.084			-5.120
263604.000			46.085			-5.121
263704.000			46.085			-5.121
263804.000			46.084			-5.120
263905.000			46.083			-5.120
264004.000			46.083			-5.120
264104.000			46.084			-5.120
264205.000			46.084			-5.120
264303.000			46.084			-5.120
264404.000			46.082			-5.120
264504.000			46.083			-5.120
264604.000			46.082			-5.120
264704.000			46.081			-5.120
264805.000			46.080			-5.120
264904.000			46.080			-5.120
265004.000			46.081			-5.120
265105.000			46.079			-5.120
265203.000			46.080			-5.120
265304.000			46.080			-5.120
265404.000			46.079			-5.120
265504.000			46.079			-5.120
265604.000			46.079			-5.120
265705.000			46.078			-5.120
265804.000			46.078			-5.120
265904.000			46.077			-5.120
266005.000			46.078			-5.120
266104.000			46.078			-5.120
266204.000			46.076			-5.120
266303.000			46.075			-5.119
266404.000			46.074			-5.119
266505.000			46.074			-5.119
266604.000			46.076			-5.120
266704.000			46.076			-5.120
266805.000			46.075			-5.119
266904.000			46.074			-5.119
267004.000			46.074			-5.119
267105.000			46.074			-5.119
267203.000			46.073			-5.119
267304.000			46.072			-5.119
267405.000			46.072			-5.119
267504.000			46.071			-5.119
267604.000			46.071			-5.119
267705.000			46.071			-5.119
267804.000			46.072			-5.119
267904.000			46.071			-5.119
268005.000			46.069			-5.119
268103.000			46.070			-5.119
268204.000			46.070			-5.119
268304.000			46.069			-5.119
268404.000			46.068			-5.119
268504.000			46.067			-5.119
268605.000			46.068			-5.119
268704.000			46.067			-5.119
268804.000			46.066			-5.118
268905.000			46.066			-5.118
269003.000			46.067			-5.119
269104.000			46.066			-5.118
269204.000			46.065			-5.118
269304.000			46.064			-5.118
269404.000			46.064			-5.118
269504.000			46.063			-5.118
269604.000			46.063			-5.118
269705.000			46.064			-5.118
269804.000			46.065			-5.118
269903.000			46.062			-5.118
270005.000			46.062			-5.118
270103.000			46.062			-5.118
270204.000			46.063			-5.118
270305.000			46.062			-5.118
270404.000			46.061			-5.118
270504.000			46.060			-5.118
270605.000			46.060			-5.118
270704.000			46.060			-5.118
270803.000			46.060			-5.118
270905.000			46.059			-5.118
271003.000			46.059			-5.118
271104.000			46.059			-5.118
271205.000			46.059			-5.118
271304.000			46.058			-5.118
271404.000			46.057			-5.117
271505.000			46.057			-5.117
271604.000			46.057			-5.117
271703.000			46.056			-5.117
271805.000			46.056			-5.117
271904.000			46.055			-5.117
272004.000			46.054			-5.117
272105.000			46.055			-5.117
272204.000			46.056			-5.117
272304.000			46.056			-5.117
272405.000			46.054			-5.117
272504.000			46.054			-5.117
272603.000			46.054			-5.117
272705.000			46.053			-5.117
272804.000			46.052			-5.117
272905.000			46.052			-5.117
273004.000			46.052			-5.117
273104.000			46.051			-5.117
273205.000			46.051			-5.117
273304.000			46.050			-5.117
273404.000			46.050			-5.117
273504.000			46.050			-5.117
273604.000			46.051			-5.117
273704.000			46.050			-5.117
273805.000			46.050			-5.117
273904.000			46.050			-5.117
274004.000			46.050			-5.117
274105.000			46.049			-5.117
274204.000			46.049			-5.117
274304.000			46.049			-5.117
274404.000			46.049			-5.117
274504.000			46.047			-5.116
274604.000			46.047			-5.116
274705.000			46.045			-5.116
274804.000			46.045			-5.116
274904.000			46.045			-5.116
275005.000			46.045			-5.116
275104.000			46.044			-5.116
275204.000			46.044			-5.116
275304.000			46.044			-5.116
275404.000			46.043			-5.116
275504.000			46.043			-5.116
275605.000			46.042			-5.116
275704.000			46.042			-5.116
275804.000			46.042			-5.116
275905.000			46.042			-5.116
276004.000			46.042			-5.116
276105.000			46.041			-5.116
276203.000			46.041			-5.116
276304.000			46.039			-5.115
276405.000			46.040			-5.116
276504.000			46.040			-5.116
276604.000			46.040			-5.116
276705.000			46.040			-5.116
276804.000			46.038			-5.115
276904.000			46.038			-5.115
277005.000			46.037			-5.115
277103.000			46.037			-5.115
277204.000			46.038			-5.115
277305.000			46.038			-5.115
277404.000			46.038			-5.115
277504.000			46.037			-5.115
277605.000			46.037			-5.115
277704.000			46.036			-5.115
277804.000			46.035			-5.115
277905.000			46.036			-5.115
278003.000			46.035			-5.115
278104.000			46.034			-5.115
278205.000			46.034			-5.115
278304.000			46.034			-5.115
278404.000			46.034			-5.115
278505.000			46.032			-5.115
278604.000			46.032			-5.115
278704.000			46.032			-5.115
278805.000			46.030			-5.114
278903.000			46.031			-5.115
279004.000			46.031			-5.115
279105.000			46.031			-5.115
279204.000			46.030			-5.114
279305.000			46.030			-5.114
279404.000			46.031			-5.115
279504.000			46.029			-5.114
279605.000			46.028			-5.114
279704.000			46.029			-5.114
279803.000			46.029			-5.114
279905.000			46.028			-5.114
280003.000			46.028			-5.114
280104.000			46.026			-5.114
280205.000			46.026			-5.114
280304.000			46.027			-5.114
280404.000			46.026			-5.114
280505.000			46.025			-5.114
280604.000			46.026			-5.114
280703.000			46.025			-5.114
280805.000			46.025			-5.114
280904.000			46.025			-5.114
281004.000			46.025			-5.114
281105.000			46.022			-5.114
281204.000			46.024			-5.114
281304.000			46.024			-5.114
281405.000			46.024			-5.114
281504.000			46.023			-5.114
281603.000			46.022			-5.114
281705.000			46.021			-5.113
281804.000			46.021			-5.113
281904.000			46.021			-5.113
282005.000			46.022			-5.114
282104.000			46.022			-5.114
282204.000			46.021			-5.113
282304.000			46.020			-5.113
282404.000			46.020			-5.113
282503.000			46.020			-5.113
282604.000			46.019			-5.113
282704.000			46.018			-5.113
282805.000			46.018			-5.113
282904.000			46.017			-5.113
283004.000			46.017			-5.113
283105.000			46.018			-5.113
283203.000			46.018			-5.113
283304.000			46.017			-5.113
283404.000			46.016			-5.113
283504.000			46.015			-5.113
283604.000			46.015			-5.113
283705.000			46.015			-5.113
283804.000			46.014			-5.113
283904.000			46.014			-5.113
284005.000			46.014			-5.113
284103.000			46.013			-5.113
284204.000			46.014			-5.113
284305.000			46.013			-5.113
284404.000			46.013			-5.113
284504.000			46.013			-5.113
284605.000			46.012			-5.112
284704.000			46.012			-5.112
284804.000			46.012			-5.112
284905.000			46.011			-5.112
285003.000			46.010			-5.112
285104.000			46.010			-5.112
285205.000			46.010			-5.112
285304.000			46.011			-5.112
285404.000			46.009			-5.112
285504.000			46.010			-5.112
285604.000			46.010			-5.112
285705.000			46.008			-5.112
285804.000			46.008			-5.112
285903.000			46.009			-5.112
286005.000			46.008			-5.112
286104.000			46.008			-5.112
286204.000			46.007			-5.112
286305.000			46.006			-5.112
286404.000			46.006			-5.112
286504.000			46.005			-5.112
286605.000			46.005			-5.112
286704.000			46.005			-5.112
286803.000			46.006			-5.112
286905.000			46.005			-5.112
287004.000			46.005			-5.112
287104.000			46.005			-5.112
287205.000			46.004			-5.112
287304.000			46.003			-5.111
287404.000			46.003			-5.111
287505.000			46.003			-5.111
287604.000			46.002			-5.111
287703.000			46.002			-5.111
287805.000			46.002			-5.111
287904.000			46.001			-5.111
288004.000			46.000			-5.111
288105.000			46.001			-5.111
288204.000			46.001			-5.111
288304.000			45.999			-5.111
288404.000			46.000			-5.111
288504.000			45.999			-5.111
288603.000			45.999			-5.111
288705.000			45.998			-5.111
288804.000			45.997			-5.111
288905.000			45.998			-5.111
289004.000			45.999			-5.111
289104.000			45.998			-5.111
289205.000			45.997			-5.111
289304.000			45.998			-5.111
289404.000			45.998			-5.111
289505.000			45.996			-5.111
289604.000			45.996			-5.111
289703.000			45.996			-5.111
289805.000			45.996			-5.111
289904.000			45.995			-5.111
290004.000			45.994			-5.110
290105.000			45.993			-5.110
290204.000			45.993			-5.110
290304.000			45.994			-5.110
290405.000			45.993			-5.110
290504.000			45.993			-5.110
290603.000			45.992			-5.110
290705.000			45.992			-5.110
290803.000			45.992			-5.110
290904.000			45.991			-5.110
291005.000			45.992			-5.110
291104.000			45.991			-5.110
291204.000			45.991			-5.110
291305.000			45.990			-5.110
291404.000			45.990			-5.110
291504.000			45.989			-5.110
291605.000			45.988			-5.110
291703.000			45.989			-5.110
291804.000			45.989			-5.110
291905.000			45.987			-5.110
292004.000			45.987			-5.110
292105.000			45.987			-5.110
292204.000			45.987			-5.110
292304.000			45.988			-5.110
292405.000			45.986			-5.110
292504.000			45.985			-5.109
292604.000			45.985			-5.109
292705.000			45.985			-5.109
292803.000			45.984			-5.109
292904.000			45.985			-5.109
293005.000			45.985			-5.109
293104.000			45.984			-5.109
293204.000			45.984			-5.109
293305.000			45.983			-5.109
293404.000			45.984			-5.109
293504.000			45.984			-5.109
293605.000			45.983			-5.109
293703.000			45.982			-5.109
293804.000			45.981			-5.109
293904.000			45.981			-5.109
294004.000			45.981			-5.109
294104.000			45.982			-5.109
294205.000			45.980			-5.109
294304.000			45.979			-5.109
294404.000			45.979			-5.109
294505.000			45.979			-5.109
294604.000			45.979			-5.109
294704.000			45.979			-5.109
294804.000			45.979			-5.109
294904.000			45.978			-5.109
295004.000			45.977			-5.109
295104.000			45.978			-5.109
295204.000			45.978			-5.109
295305.000			45.979			-5.109
295404.000			45.978			-5.109
295504.000			45.975			-5.108
295605.000			45.975			-5.108
295704.000			45.976			-5.108
295804.000			45.976			-5.108
295904.000			45.975			-5.108
296004.000			45.975			-5.108
296104.000			45.975			-5.108
296205.000			45.975			-5.108
296304.000			45.975			-5.108
296404.000			45.974			-5.108
296505.000			45.973			-5.108
296604.000			45.973			-5.108
296704.000			45.973			-5.108
296804.000			45.973			-5.108
296904.000			45.972			-5.108
297003.000			45.971			-5.108
297105.000			45.971			-5.108
297204.000			45.971			-5.108
297304.000			45.970			-5.108
297405.000			45.969			-5.108
297504.000			45.969			-5.108
297604.000			45.970			-5.108
297705.000			45.971			-5.108
297804.000			45.971			-5.108
297903.000			45.971			-5.108
298005.000			45.970			-5.108
298104.000			45.969			-5.108
298204.000			45.969			-5.108
298305.000			45.968			-5.108
298404.000			45.967			-5.107
298505.000			45.967			-5.107
298604.000			45.966			-5.107
298704.000			45.966			-5.107
298805.000			45.967			-5.107
298904.000			45.965			-5.107
299003.000			45.964			-5.107
299105.000			45.965			-5.107
299204.000			45.965			-5.107
299304.000			45.964			-5.107
299405.000			45.964			-5.107
299504.000			45.965			-5.107
299604.000			45.963			-5.107
299705.000			45.963			-5.107
299804.000			45.963			-5.107
299904.000			45.962			-5.107
