# Acquired on 19/12/2023 16:38:15 
# SPIDER: Creep_1mm_07714532B-2
# CREEP MEASUREMENT

# time [ms]		force [N]		stiffness [N/mm]
1.000			-1.543			-1.543
101.000			-2.540			-2.540
201.000			-2.985			-2.985
301.000			-3.050			-3.050
400.000			-3.028			-3.028
500.000			-2.999			-2.999
601.000			-2.988			-2.988
700.000			-2.979			-2.979
802.000			-2.972			-2.972
901.000			-2.965			-2.965
1000.000			-2.960			-2.960
1101.000			-2.955			-2.955
1200.000			-2.946			-2.946
1300.000			-2.943			-2.943
1401.000			-2.940			-2.940
1500.000			-2.935			-2.935
1601.000			-2.930			-2.930
1702.000			-2.928			-2.928
1800.000			-2.925			-2.925
1900.000			-2.920			-2.920
2001.000			-2.918			-2.918
2100.000			-2.915			-2.915
2200.000			-2.914			-2.914
2302.000			-2.912			-2.912
2401.000			-2.909			-2.909
2500.000			-2.908			-2.908
2601.000			-2.906			-2.906
2700.000			-2.902			-2.902
2800.000			-2.900			-2.900
2901.000			-2.898			-2.898
3001.000			-2.896			-2.896
3101.000			-2.896			-2.896
3201.000			-2.895			-2.895
3300.000			-2.893			-2.893
3400.000			-2.889			-2.889
3501.000			-2.888			-2.888
3600.000			-2.887			-2.887
3700.000			-2.885			-2.885
3802.000			-2.883			-2.883
3901.000			-2.883			-2.883
4001.000			-2.881			-2.881
4100.000			-2.880			-2.880
4200.000			-2.877			-2.877
4301.000			-2.877			-2.877
4400.000			-2.876			-2.876
4500.000			-2.875			-2.875
4602.000			-2.873			-2.873
4701.000			-2.872			-2.872
4800.000			-2.871			-2.871
4901.000			-2.869			-2.869
5000.000			-2.868			-2.868
5100.000			-2.867			-2.867
5201.000			-2.867			-2.867
5300.000			-2.866			-2.866
5401.000			-2.866			-2.866
5502.000			-2.864			-2.864
5600.000			-2.862			-2.862
5700.000			-2.862			-2.862
5801.000			-2.861			-2.861
5900.000			-2.860			-2.860
6000.000			-2.859			-2.859
6102.000			-2.859			-2.859
6201.000			-2.857			-2.857
6300.000			-2.855			-2.855
6401.000			-2.855			-2.855
6500.000			-2.854			-2.854
6600.000			-2.853			-2.853
6701.000			-2.852			-2.852
6800.000			-2.852			-2.852
6901.000			-2.852			-2.852
7002.000			-2.850			-2.850
7100.000			-2.848			-2.848
7201.000			-2.847			-2.847
7300.000			-2.847			-2.847
7400.000			-2.846			-2.846
7501.000			-2.845			-2.845
7600.000			-2.845			-2.845
7701.000			-2.844			-2.844
7802.000			-2.844			-2.844
7900.000			-2.842			-2.842
8000.000			-2.841			-2.841
8101.000			-2.841			-2.841
8200.000			-2.842			-2.842
8300.000			-2.841			-2.841
8402.000			-2.840			-2.840
8501.000			-2.840			-2.840
8600.000			-2.837			-2.837
8701.000			-2.838			-2.838
8800.000			-2.837			-2.837
8900.000			-2.836			-2.836
9001.000			-2.835			-2.835
9100.000			-2.835			-2.835
9201.000			-2.835			-2.835
9302.000			-2.834			-2.834
9400.000			-2.833			-2.833
9500.000			-2.833			-2.833
9601.000			-2.832			-2.832
9700.000			-2.832			-2.832
9800.000			-2.832			-2.832
9901.000			-2.831			-2.831
10001.000			-2.831			-2.831
10101.000			-2.830			-2.830
10201.000			-2.829			-2.829
10300.000			-2.828			-2.828
10401.000			-2.828			-2.828
10500.000			-2.828			-2.828
10600.000			-2.827			-2.827
10702.000			-2.827			-2.827
10801.000			-2.826			-2.826
10900.000			-2.824			-2.824
11001.000			-2.824			-2.824
11100.000			-2.824			-2.824
11200.000			-2.824			-2.824
11301.000			-2.823			-2.823
11400.000			-2.822			-2.822
11501.000			-2.822			-2.822
11602.000			-2.821			-2.821
11700.000			-2.821			-2.821
11800.000			-2.821			-2.821
11901.000			-2.820			-2.820
12000.000			-2.820			-2.820
12100.000			-2.820			-2.820
12201.000			-2.818			-2.818
12301.000			-2.817			-2.817
12401.000			-2.818			-2.818
12501.000			-2.818			-2.818
12600.000			-2.817			-2.817
12700.000			-2.817			-2.817
12801.000			-2.815			-2.815
12900.000			-2.815			-2.815
13000.000			-2.814			-2.814
13102.000			-2.814			-2.814
13201.000			-2.814			-2.814
13300.000			-2.813			-2.813
13401.000			-2.813			-2.813
13500.000			-2.813			-2.813
13601.000			-2.811			-2.811
13700.000			-2.812			-2.812
13800.000			-2.811			-2.811
13902.000			-2.810			-2.810
14001.000			-2.810			-2.810
14100.000			-2.810			-2.810
14201.000			-2.810			-2.810
14300.000			-2.810			-2.810
14400.000			-2.810			-2.810
14501.000			-2.808			-2.808
14601.000			-2.808			-2.808
14701.000			-2.808			-2.808
14801.000			-2.808			-2.808
14900.000			-2.807			-2.807
15000.000			-2.807			-2.807
15101.000			-2.807			-2.807
15200.000			-2.806			-2.806
15300.000			-2.807			-2.807
15402.000			-2.807			-2.807
15501.000			-2.806			-2.806
15600.000			-2.805			-2.805
15701.000			-2.805			-2.805
15800.000			-2.805			-2.805
15900.000			-2.805			-2.805
16001.000			-2.804			-2.804
16100.000			-2.803			-2.803
16201.000			-2.803			-2.803
16302.000			-2.803			-2.803
16400.000			-2.803			-2.803
16500.000			-2.802			-2.802
16601.000			-2.801			-2.801
16700.000			-2.800			-2.800
16801.000			-2.801			-2.801
16900.000			-2.800			-2.800
17001.000			-2.800			-2.800
17102.000			-2.800			-2.800
17200.000			-2.800			-2.800
17300.000			-2.800			-2.800
17401.000			-2.799			-2.799
17500.000			-2.798			-2.798
17600.000			-2.798			-2.798
17701.000			-2.798			-2.798
17801.000			-2.798			-2.798
17901.000			-2.798			-2.798
18001.000			-2.797			-2.797
18100.000			-2.797			-2.797
18200.000			-2.796			-2.796
18301.000			-2.795			-2.795
18400.000			-2.796			-2.796
18500.000			-2.796			-2.796
18602.000			-2.795			-2.795
18701.000			-2.796			-2.796
18800.000			-2.795			-2.795
18901.000			-2.795			-2.795
19000.000			-2.795			-2.795
19100.000			-2.795			-2.795
19201.000			-2.795			-2.795
19300.000			-2.794			-2.794
19401.000			-2.793			-2.793
19502.000			-2.793			-2.793
19600.000			-2.792			-2.792
19700.000			-2.792			-2.792
19801.000			-2.792			-2.792
19900.000			-2.792			-2.792
20001.000			-2.791			-2.791
20100.000			-2.790			-2.790
20200.000			-2.790			-2.790
20302.000			-2.790			-2.790
20401.000			-2.789			-2.789
20500.000			-2.790			-2.790
20601.000			-2.790			-2.790
20700.000			-2.789			-2.789
20800.000			-2.788			-2.788
20901.000			-2.789			-2.789
21001.000			-2.789			-2.789
21101.000			-2.789			-2.789
21202.000			-2.788			-2.788
21300.000			-2.788			-2.788
21400.000			-2.788			-2.788
21501.000			-2.787			-2.787
21600.000			-2.787			-2.787
21700.000			-2.786			-2.786
21802.000			-2.786			-2.786
21901.000			-2.787			-2.787
22001.000			-2.786			-2.786
22101.000			-2.786			-2.786
22200.000			-2.787			-2.787
22300.000			-2.786			-2.786
22401.000			-2.786			-2.786
22500.000			-2.785			-2.785
22600.000			-2.785			-2.785
22702.000			-2.785			-2.785
22801.000			-2.784			-2.784
22900.000			-2.784			-2.784
23001.000			-2.784			-2.784
23100.000			-2.783			-2.783
23201.000			-2.783			-2.783
23300.000			-2.783			-2.783
23400.000			-2.783			-2.783
23502.000			-2.783			-2.783
23601.000			-2.782			-2.782
23700.000			-2.783			-2.783
23801.000			-2.782			-2.782
23900.000			-2.781			-2.781
24000.000			-2.781			-2.781
24101.000			-2.781			-2.781
24201.000			-2.780			-2.780
24301.000			-2.780			-2.780
24401.000			-2.781			-2.781
24500.000			-2.780			-2.780
24600.000			-2.781			-2.781
24701.000			-2.779			-2.779
24800.000			-2.780			-2.780
24900.000			-2.780			-2.780
25001.000			-2.780			-2.780
25101.000			-2.780			-2.780
25201.000			-2.779			-2.779
25301.000			-2.779			-2.779
25400.000			-2.779			-2.779
25500.000			-2.777			-2.777
25601.000			-2.777			-2.777
25700.000			-2.777			-2.777
25800.000			-2.777			-2.777
25902.000			-2.778			-2.778
26001.000			-2.778			-2.778
26100.000			-2.777			-2.777
26201.000			-2.776			-2.776
26300.000			-2.777			-2.777
26401.000			-2.777			-2.777
26500.000			-2.777			-2.777
26600.000			-2.777			-2.777
26702.000			-2.777			-2.777
26801.000			-2.777			-2.777
26900.000			-2.777			-2.777
27001.000			-2.776			-2.776
27100.000			-2.776			-2.776
27200.000			-2.776			-2.776
27301.000			-2.775			-2.775
27400.000			-2.775			-2.775
27501.000			-2.775			-2.775
27602.000			-2.775			-2.775
27700.000			-2.775			-2.775
27800.000			-2.775			-2.775
27901.000			-2.775			-2.775
28000.000			-2.774			-2.774
28100.000			-2.774			-2.774
28201.000			-2.773			-2.773
28301.000			-2.773			-2.773
28401.000			-2.773			-2.773
28501.000			-2.773			-2.773
28600.000			-2.773			-2.773
28700.000			-2.773			-2.773
28801.000			-2.773			-2.773
28900.000			-2.773			-2.773
29000.000			-2.773			-2.773
29102.000			-2.773			-2.773
29201.000			-2.772			-2.772
29300.000			-2.771			-2.771
29401.000			-2.771			-2.771
29500.000			-2.772			-2.772
29601.000			-2.771			-2.771
29700.000			-2.771			-2.771
29800.000			-2.771			-2.771
29902.000			-2.770			-2.770
30001.000			-2.769			-2.769
30100.000			-2.770			-2.770
30201.000			-2.768			-2.768
30300.000			-2.768			-2.768
30400.000			-2.768			-2.768
30501.000			-2.769			-2.769
30600.000			-2.769			-2.769
30701.000			-2.769			-2.769
30802.000			-2.769			-2.769
30900.000			-2.769			-2.769
31000.000			-2.769			-2.769
31101.000			-2.770			-2.770
31200.000			-2.768			-2.768
31300.000			-2.768			-2.768
31401.000			-2.768			-2.768
31501.000			-2.768			-2.768
31601.000			-2.768			-2.768
31701.000			-2.768			-2.768
31800.000			-2.767			-2.767
31900.000			-2.767			-2.767
32001.000			-2.767			-2.767
32100.000			-2.766			-2.766
32200.000			-2.767			-2.767
32302.000			-2.767			-2.767
32401.000			-2.767			-2.767
32500.000			-2.766			-2.766
32601.000			-2.765			-2.765
32700.000			-2.766			-2.766
32801.000			-2.766			-2.766
32900.000			-2.765			-2.765
33000.000			-2.766			-2.766
33102.000			-2.765			-2.765
33201.000			-2.765			-2.765
33300.000			-2.764			-2.764
33401.000			-2.764			-2.764
33500.000			-2.765			-2.765
33600.000			-2.765			-2.765
33701.000			-2.764			-2.764
33800.000			-2.764			-2.764
33901.000			-2.765			-2.765
34002.000			-2.764			-2.764
34100.000			-2.765			-2.765
34200.000			-2.764			-2.764
34301.000			-2.763			-2.763
34400.000			-2.764			-2.764
34500.000			-2.763			-2.763
34601.000			-2.763			-2.763
34701.000			-2.763			-2.763
34801.000			-2.763			-2.763
34901.000			-2.762			-2.762
35000.000			-2.762			-2.762
35100.000			-2.762			-2.762
35201.000			-2.762			-2.762
35300.000			-2.762			-2.762
35400.000			-2.761			-2.761
35502.000			-2.761			-2.761
35601.000			-2.762			-2.762
35700.000			-2.762			-2.762
35801.000			-2.760			-2.760
35900.000			-2.761			-2.761
36001.000			-2.761			-2.761
36100.000			-2.760			-2.760
36200.000			-2.760			-2.760
36302.000			-2.760			-2.760
36401.000			-2.760			-2.760
36500.000			-2.760			-2.760
36601.000			-2.759			-2.759
36700.000			-2.759			-2.759
36800.000			-2.760			-2.760
36901.000			-2.760			-2.760
37000.000			-2.760			-2.760
37101.000			-2.760			-2.760
37202.000			-2.759			-2.759
37300.000			-2.758			-2.758
37400.000			-2.758			-2.758
37501.000			-2.758			-2.758
37600.000			-2.758			-2.758
37700.000			-2.757			-2.757
37801.000			-2.757			-2.757
37901.000			-2.758			-2.758
38001.000			-2.757			-2.757
38101.000			-2.757			-2.757
38200.000			-2.757			-2.757
38300.000			-2.757			-2.757
38401.000			-2.756			-2.756
38500.000			-2.756			-2.756
38600.000			-2.756			-2.756
38702.000			-2.756			-2.756
38801.000			-2.756			-2.756
38900.000			-2.756			-2.756
39001.000			-2.756			-2.756
39100.000			-2.755			-2.755
39201.000			-2.755			-2.755
39300.000			-2.755			-2.755
39400.000			-2.756			-2.756
39502.000			-2.755			-2.755
39601.000			-2.755			-2.755
39700.000			-2.755			-2.755
39801.000			-2.754			-2.754
39900.000			-2.754			-2.754
40000.000			-2.755			-2.755
40101.000			-2.754			-2.754
40200.000			-2.754			-2.754
40301.000			-2.754			-2.754
40402.000			-2.753			-2.753
40500.000			-2.754			-2.754
40600.000			-2.754			-2.754
40701.000			-2.755			-2.755
40800.000			-2.754			-2.754
40900.000			-2.753			-2.753
41001.000			-2.752			-2.752
41101.000			-2.752			-2.752
41201.000			-2.752			-2.752
41301.000			-2.752			-2.752
41400.000			-2.753			-2.753
41500.000			-2.753			-2.753
41601.000			-2.752			-2.752
41700.000			-2.752			-2.752
41800.000			-2.752			-2.752
41902.000			-2.752			-2.752
42001.000			-2.752			-2.752
42100.000			-2.751			-2.751
42201.000			-2.752			-2.752
42300.000			-2.753			-2.753
42401.000			-2.751			-2.751
42500.000			-2.751			-2.751
42601.000			-2.752			-2.752
42702.000			-2.752			-2.752
42800.000			-2.751			-2.751
42900.000			-2.750			-2.750
43001.000			-2.749			-2.749
43100.000			-2.749			-2.749
43200.000			-2.750			-2.750
43301.000			-2.750			-2.750
43401.000			-2.749			-2.749
43501.000			-2.749			-2.749
43601.000			-2.750			-2.750
43700.000			-2.749			-2.749
43800.000			-2.748			-2.748
43901.000			-2.748			-2.748
44000.000			-2.748			-2.748
44100.000			-2.748			-2.748
44202.000			-2.748			-2.748
44301.000			-2.749			-2.749
44400.000			-2.749			-2.749
44501.000			-2.748			-2.748
44600.000			-2.748			-2.748
44700.000			-2.748			-2.748
44801.000			-2.747			-2.747
44900.000			-2.747			-2.747
45001.000			-2.747			-2.747
45102.000			-2.747			-2.747
45200.000			-2.745			-2.745
45300.000			-2.747			-2.747
45401.000			-2.746			-2.746
45500.000			-2.746			-2.746
45601.000			-2.746			-2.746
45700.000			-2.745			-2.745
45801.000			-2.745			-2.745
45902.000			-2.746			-2.746
46000.000			-2.745			-2.745
46100.000			-2.746			-2.746
46201.000			-2.745			-2.745
46300.000			-2.745			-2.745
46400.000			-2.745			-2.745
46501.000			-2.745			-2.745
46601.000			-2.745			-2.745
46701.000			-2.744			-2.744
46801.000			-2.744			-2.744
46900.000			-2.744			-2.744
47000.000			-2.743			-2.743
47101.000			-2.743			-2.743
47200.000			-2.743			-2.743
47300.000			-2.742			-2.742
47402.000			-2.741			-2.741
47501.000			-2.742			-2.742
47600.000			-2.741			-2.741
47701.000			-2.742			-2.742
47800.000			-2.741			-2.741
47900.000			-2.741			-2.741
48001.000			-2.743			-2.743
48100.000			-2.742			-2.742
48201.000			-2.742			-2.742
48302.000			-2.741			-2.741
48400.000			-2.741			-2.741
48500.000			-2.742			-2.742
48601.000			-2.741			-2.741
48700.000			-2.741			-2.741
48801.000			-2.741			-2.741
48900.000			-2.740			-2.740
49001.000			-2.740			-2.740
49102.000			-2.740			-2.740
49200.000			-2.739			-2.739
49300.000			-2.739			-2.739
49401.000			-2.739			-2.739
49500.000			-2.740			-2.740
49600.000			-2.740			-2.740
49701.000			-2.739			-2.739
49801.000			-2.738			-2.738
49901.000			-2.737			-2.737
50001.000			-2.738			-2.738
50100.000			-2.740			-2.740
50200.000			-2.739			-2.739
50301.000			-2.738			-2.738
50400.000			-2.738			-2.738
50500.000			-2.739			-2.739
50602.000			-2.738			-2.738
50701.000			-2.739			-2.739
50800.000			-2.738			-2.738
50901.000			-2.737			-2.737
51000.000			-2.737			-2.737
51100.000			-2.737			-2.737
51201.000			-2.737			-2.737
51300.000			-2.736			-2.736
51401.000			-2.737			-2.737
51502.000			-2.736			-2.736
51600.000			-2.736			-2.736
51700.000			-2.736			-2.736
51801.000			-2.736			-2.736
51900.000			-2.736			-2.736
52001.000			-2.737			-2.737
52100.000			-2.736			-2.736
52201.000			-2.735			-2.735
52302.000			-2.736			-2.736
52400.000			-2.736			-2.736
52500.000			-2.735			-2.735
52601.000			-2.735			-2.735
52700.000			-2.736			-2.736
52800.000			-2.736			-2.736
52901.000			-2.736			-2.736
53001.000			-2.735			-2.735
53101.000			-2.735			-2.735
53201.000			-2.735			-2.735
53300.000			-2.735			-2.735
53400.000			-2.735			-2.735
53501.000			-2.735			-2.735
53600.000			-2.734			-2.734
53700.000			-2.734			-2.734
53802.000			-2.734			-2.734
53901.000			-2.734			-2.734
54000.000			-2.733			-2.733
54101.000			-2.733			-2.733
54200.000			-2.734			-2.734
54300.000			-2.734			-2.734
54401.000			-2.734			-2.734
54500.000			-2.735			-2.735
54601.000			-2.735			-2.735
54702.000			-2.734			-2.734
54800.000			-2.734			-2.734
54900.000			-2.733			-2.733
55001.000			-2.733			-2.733
55100.000			-2.733			-2.733
55201.000			-2.733			-2.733
55301.000			-2.733			-2.733
55401.000			-2.732			-2.732
55501.000			-2.732			-2.732
55600.000			-2.733			-2.733
55700.000			-2.733			-2.733
55801.000			-2.732			-2.732
55900.000			-2.732			-2.732
56000.000			-2.733			-2.733
56102.000			-2.732			-2.732
56201.000			-2.731			-2.731
56300.000			-2.732			-2.732
56401.000			-2.733			-2.733
56500.000			-2.733			-2.733
56600.000			-2.733			-2.733
56701.000			-2.732			-2.732
56800.000			-2.733			-2.733
56901.000			-2.732			-2.732
57002.000			-2.731			-2.731
57100.000			-2.732			-2.732
57200.000			-2.732			-2.732
57301.000			-2.731			-2.731
57400.000			-2.732			-2.732
57500.000			-2.732			-2.732
57601.000			-2.731			-2.731
57701.000			-2.730			-2.730
57801.000			-2.730			-2.730
57901.000			-2.729			-2.729
58000.000			-2.731			-2.731
58100.000			-2.731			-2.731
58201.000			-2.731			-2.731
58300.000			-2.730			-2.730
58401.000			-2.729			-2.729
58501.000			-2.731			-2.731
58601.000			-2.730			-2.730
58701.000			-2.730			-2.730
58800.000			-2.730			-2.730
58900.000			-2.730			-2.730
59001.000			-2.730			-2.730
59100.000			-2.731			-2.731
59200.000			-2.730			-2.730
59302.000			-2.730			-2.730
59401.000			-2.730			-2.730
59501.000			-2.730			-2.730
59601.000			-2.730			-2.730
59700.000			-2.729			-2.729
59800.000			-2.729			-2.729
59901.000			-2.729			-2.729
60000.000			-2.729			-2.729
60100.000			-2.729			-2.729
60202.000			-2.729			-2.729
60301.000			-2.728			-2.728
60400.000			-2.729			-2.729
60501.000			-2.729			-2.729
60600.000			-2.729			-2.729
60700.000			-2.729			-2.729
60801.000			-2.728			-2.728
60901.000			-2.728			-2.728
61001.000			-2.728			-2.728
61102.000			-2.728			-2.728
61200.000			-2.727			-2.727
61300.000			-2.727			-2.727
61401.000			-2.727			-2.727
61500.000			-2.727			-2.727
61601.000			-2.728			-2.728
61701.000			-2.728			-2.728
61801.000			-2.728			-2.728
61901.000			-2.728			-2.728
62000.000			-2.728			-2.728
62100.000			-2.727			-2.727
62201.000			-2.726			-2.726
62300.000			-2.726			-2.726
62400.000			-2.727			-2.727
62502.000			-2.727			-2.727
62601.000			-2.727			-2.727
62700.000			-2.726			-2.726
62801.000			-2.726			-2.726
62900.000			-2.727			-2.727
63000.000			-2.727			-2.727
63101.000			-2.726			-2.726
63200.000			-2.726			-2.726
63301.000			-2.727			-2.727
63402.000			-2.727			-2.727
63500.000			-2.726			-2.726
63600.000			-2.725			-2.725
63701.000			-2.726			-2.726
63800.000			-2.726			-2.726
63900.000			-2.726			-2.726
64001.000			-2.727			-2.727
64101.000			-2.727			-2.727
64201.000			-2.726			-2.726
64301.000			-2.725			-2.725
64400.000			-2.725			-2.725
64500.000			-2.726			-2.726
64601.000			-2.726			-2.726
64700.000			-2.725			-2.725
64801.000			-2.725			-2.725
64901.000			-2.725			-2.725
65001.000			-2.725			-2.725
65101.000			-2.726			-2.726
65200.000			-2.725			-2.725
65300.000			-2.724			-2.724
65401.000			-2.724			-2.724
65500.000			-2.725			-2.725
65600.000			-2.725			-2.725
65702.000			-2.725			-2.725
65801.000			-2.725			-2.725
65900.000			-2.726			-2.726
66001.000			-2.725			-2.725
66100.000			-2.725			-2.725
66200.000			-2.724			-2.724
66301.000			-2.724			-2.724
66400.000			-2.724			-2.724
66501.000			-2.724			-2.724
66602.000			-2.723			-2.723
66700.000			-2.724			-2.724
66800.000			-2.724			-2.724
66901.000			-2.724			-2.724
67000.000			-2.724			-2.724
67100.000			-2.724			-2.724
67201.000			-2.723			-2.723
67301.000			-2.724			-2.724
67401.000			-2.723			-2.723
67501.000			-2.723			-2.723
67600.000			-2.723			-2.723
67700.000			-2.723			-2.723
67801.000			-2.723			-2.723
67900.000			-2.723			-2.723
68001.000			-2.722			-2.722
68101.000			-2.723			-2.723
68201.000			-2.723			-2.723
68301.000			-2.722			-2.722
68400.000			-2.721			-2.721
68500.000			-2.723			-2.723
68601.000			-2.723			-2.723
68700.000			-2.723			-2.723
68800.000			-2.723			-2.723
68902.000			-2.722			-2.722
69001.000			-2.722			-2.722
69101.000			-2.722			-2.722
69201.000			-2.722			-2.722
69300.000			-2.722			-2.722
69400.000			-2.721			-2.721
69501.000			-2.722			-2.722
69600.000			-2.721			-2.721
69700.000			-2.722			-2.722
69802.000			-2.721			-2.721
69901.000			-2.722			-2.722
70000.000			-2.722			-2.722
70101.000			-2.721			-2.721
70200.000			-2.721			-2.721
70300.000			-2.721			-2.721
70401.000			-2.722			-2.722
70500.000			-2.720			-2.720
70601.000			-2.720			-2.720
70702.000			-2.720			-2.720
70800.000			-2.719			-2.719
70900.000			-2.719			-2.719
71001.000			-2.718			-2.718
71100.000			-2.719			-2.719
71201.000			-2.720			-2.720
71300.000			-2.720			-2.720
71401.000			-2.720			-2.720
71502.000			-2.721			-2.721
71600.000			-2.720			-2.720
71700.000			-2.719			-2.719
71801.000			-2.719			-2.719
71900.000			-2.719			-2.719
72000.000			-2.719			-2.719
72101.000			-2.719			-2.719
72201.000			-2.720			-2.720
72301.000			-2.719			-2.719
72401.000			-2.718			-2.718
72500.000			-2.718			-2.718
72600.000			-2.718			-2.718
72701.000			-2.718			-2.718
72800.000			-2.718			-2.718
72900.000			-2.718			-2.718
73002.000			-2.718			-2.718
73101.000			-2.717			-2.717
73200.000			-2.717			-2.717
73301.000			-2.718			-2.718
73400.000			-2.717			-2.717
73500.000			-2.717			-2.717
73601.000			-2.716			-2.716
73700.000			-2.716			-2.716
73801.000			-2.717			-2.717
73902.000			-2.717			-2.717
74000.000			-2.717			-2.717
74100.000			-2.718			-2.718
74201.000			-2.718			-2.718
74300.000			-2.717			-2.717
74401.000			-2.716			-2.716
74500.000			-2.716			-2.716
74601.000			-2.716			-2.716
74702.000			-2.716			-2.716
74801.000			-2.717			-2.717
74900.000			-2.716			-2.716
75001.000			-2.716			-2.716
75100.000			-2.716			-2.716
75200.000			-2.716			-2.716
75301.000			-2.716			-2.716
75401.000			-2.715			-2.715
75501.000			-2.715			-2.715
75601.000			-2.715			-2.715
75700.000			-2.714			-2.714
75800.000			-2.714			-2.714
75901.000			-2.715			-2.715
76000.000			-2.715			-2.715
76100.000			-2.715			-2.715
76201.000			-2.714			-2.714
76301.000			-2.714			-2.714
76401.000			-2.715			-2.715
76501.000			-2.715			-2.715
76600.000			-2.715			-2.715
76700.000			-2.715			-2.715
76801.000			-2.715			-2.715
76900.000			-2.715			-2.715
77000.000			-2.715			-2.715
77102.000			-2.714			-2.714
77201.000			-2.714			-2.714
77300.000			-2.714			-2.714
77401.000			-2.714			-2.714
77500.000			-2.715			-2.715
77601.000			-2.714			-2.714
77700.000			-2.714			-2.714
77800.000			-2.714			-2.714
77902.000			-2.713			-2.713
78001.000			-2.714			-2.714
78100.000			-2.714			-2.714
78201.000			-2.714			-2.714
78300.000			-2.714			-2.714
78400.000			-2.714			-2.714
78501.000			-2.713			-2.713
78600.000			-2.712			-2.712
78701.000			-2.713			-2.713
78802.000			-2.713			-2.713
78900.000			-2.713			-2.713
79000.000			-2.713			-2.713
79101.000			-2.713			-2.713
79200.000			-2.712			-2.712
79300.000			-2.712			-2.712
79401.000			-2.713			-2.713
79501.000			-2.713			-2.713
79601.000			-2.713			-2.713
79701.000			-2.713			-2.713
79800.000			-2.713			-2.713
79900.000			-2.714			-2.714
80001.000			-2.712			-2.712
80100.000			-2.712			-2.712
80200.000			-2.713			-2.713
80302.000			-2.713			-2.713
80401.000			-2.711			-2.711
80500.000			-2.711			-2.711
80601.000			-2.711			-2.711
80700.000			-2.711			-2.711
80801.000			-2.712			-2.712
80900.000			-2.712			-2.712
81000.000			-2.711			-2.711
81102.000			-2.712			-2.712
81201.000			-2.712			-2.712
81300.000			-2.711			-2.711
81401.000			-2.710			-2.710
81500.000			-2.710			-2.710
81600.000			-2.711			-2.711
81701.000			-2.711			-2.711
81800.000			-2.711			-2.711
81901.000			-2.710			-2.710
82002.000			-2.711			-2.711
82100.000			-2.710			-2.710
82200.000			-2.709			-2.709
82301.000			-2.709			-2.709
82400.000			-2.710			-2.710
82500.000			-2.710			-2.710
82601.000			-2.709			-2.709
82701.000			-2.710			-2.710
82801.000			-2.710			-2.710
82901.000			-2.710			-2.710
83000.000			-2.709			-2.709
83100.000			-2.710			-2.710
83201.000			-2.710			-2.710
83300.000			-2.710			-2.710
83400.000			-2.710			-2.710
83502.000			-2.710			-2.710
83601.000			-2.709			-2.709
83700.000			-2.708			-2.708
83801.000			-2.710			-2.710
83900.000			-2.711			-2.711
84001.000			-2.710			-2.710
84100.000			-2.709			-2.709
84200.000			-2.710			-2.710
84302.000			-2.708			-2.708
84401.000			-2.707			-2.707
84500.000			-2.708			-2.708
84601.000			-2.708			-2.708
84700.000			-2.708			-2.708
84800.000			-2.709			-2.709
84901.000			-2.709			-2.709
85000.000			-2.708			-2.708
85101.000			-2.707			-2.707
85202.000			-2.707			-2.707
85300.000			-2.707			-2.707
85400.000			-2.709			-2.709
85501.000			-2.709			-2.709
85600.000			-2.707			-2.707
85700.000			-2.708			-2.708
85801.000			-2.707			-2.707
85901.000			-2.707			-2.707
86001.000			-2.707			-2.707
86101.000			-2.708			-2.708
86200.000			-2.707			-2.707
86300.000			-2.707			-2.707
86401.000			-2.707			-2.707
86500.000			-2.707			-2.707
86600.000			-2.706			-2.706
86702.000			-2.707			-2.707
86801.000			-2.707			-2.707
86900.000			-2.706			-2.706
87001.000			-2.707			-2.707
87100.000			-2.707			-2.707
87201.000			-2.707			-2.707
87300.000			-2.706			-2.706
87400.000			-2.707			-2.707
87502.000			-2.707			-2.707
87601.000			-2.706			-2.706
87701.000			-2.706			-2.706
87801.000			-2.706			-2.706
87900.000			-2.706			-2.706
88000.000			-2.706			-2.706
88101.000			-2.705			-2.705
88200.000			-2.705			-2.705
88300.000			-2.707			-2.707
88402.000			-2.706			-2.706
88501.000			-2.706			-2.706
88600.000			-2.707			-2.707
88701.000			-2.707			-2.707
88800.000			-2.707			-2.707
88900.000			-2.706			-2.706
89001.000			-2.706			-2.706
89100.000			-2.706			-2.706
89201.000			-2.706			-2.706
89302.000			-2.706			-2.706
89400.000			-2.706			-2.706
89500.000			-2.706			-2.706
89601.000			-2.706			-2.706
89700.000			-2.705			-2.705
89800.000			-2.705			-2.705
89901.000			-2.705			-2.705
90001.000			-2.706			-2.706
90101.000			-2.706			-2.706
90201.000			-2.705			-2.705
90300.000			-2.704			-2.704
90401.000			-2.705			-2.705
90500.000			-2.705			-2.705
90600.000			-2.704			-2.704
90701.000			-2.705			-2.705
90801.000			-2.705			-2.705
90901.000			-2.704			-2.704
91001.000			-2.705			-2.705
91100.000			-2.705			-2.705
91200.000			-2.705			-2.705
91301.000			-2.704			-2.704
91400.000			-2.704			-2.704
91500.000			-2.705			-2.705
91602.000			-2.704			-2.704
91701.000			-2.704			-2.704
91800.000			-2.705			-2.705
91901.000			-2.704			-2.704
92000.000			-2.705			-2.705
92100.000			-2.706			-2.706
92201.000			-2.705			-2.705
92300.000			-2.705			-2.705
92401.000			-2.704			-2.704
92502.000			-2.704			-2.704
92600.000			-2.704			-2.704
92700.000			-2.703			-2.703
92801.000			-2.704			-2.704
92900.000			-2.704			-2.704
93000.000			-2.704			-2.704
93101.000			-2.704			-2.704
93201.000			-2.703			-2.703
93301.000			-2.703			-2.703
93401.000			-2.702			-2.702
93500.000			-2.702			-2.702
93601.000			-2.702			-2.702
93700.000			-2.702			-2.702
93800.000			-2.702			-2.702
93901.000			-2.703			-2.703
94001.000			-2.702			-2.702
94101.000			-2.702			-2.702
94201.000			-2.703			-2.703
94300.000			-2.703			-2.703
94400.000			-2.702			-2.702
94501.000			-2.702			-2.702
94600.000			-2.702			-2.702
94700.000			-2.701			-2.701
94802.000			-2.702			-2.702
94901.000			-2.703			-2.703
95000.000			-2.702			-2.702
95101.000			-2.701			-2.701
95200.000			-2.701			-2.701
95300.000			-2.701			-2.701
95401.000			-2.701			-2.701
95501.000			-2.701			-2.701
95601.000			-2.701			-2.701
95702.000			-2.701			-2.701
95800.000			-2.701			-2.701
95900.000			-2.701			-2.701
96001.000			-2.701			-2.701
96100.000			-2.701			-2.701
96200.000			-2.702			-2.702
96302.000			-2.701			-2.701
96401.000			-2.701			-2.701
96500.000			-2.701			-2.701
96601.000			-2.700			-2.700
96700.000			-2.701			-2.701
96801.000			-2.701			-2.701
96900.000			-2.700			-2.700
97000.000			-2.699			-2.699
97101.000			-2.699			-2.699
97201.000			-2.700			-2.700
97301.000			-2.700			-2.700
97401.000			-2.701			-2.701
97500.000			-2.700			-2.700
97600.000			-2.700			-2.700
97701.000			-2.700			-2.700
97800.000			-2.700			-2.700
97900.000			-2.699			-2.699
98002.000			-2.699			-2.699
98101.000			-2.700			-2.700
98201.000			-2.700			-2.700
98301.000			-2.700			-2.700
98400.000			-2.699			-2.699
98500.000			-2.698			-2.698
98601.000			-2.699			-2.699
98700.000			-2.699			-2.699
98800.000			-2.699			-2.699
98902.000			-2.699			-2.699
99001.000			-2.699			-2.699
99100.000			-2.698			-2.698
99201.000			-2.699			-2.699
99300.000			-2.699			-2.699
99400.000			-2.699			-2.699
99501.000			-2.700			-2.700
99600.000			-2.699			-2.699
99700.000			-2.699			-2.699
99802.000			-2.698			-2.698
99901.000			-2.697			-2.697
100001.000			-2.698			-2.698
100100.000			-2.698			-2.698
100200.000			-2.699			-2.699
100301.000			-2.698			-2.698
100400.000			-2.697			-2.697
100500.000			-2.698			-2.698
100602.000			-2.698			-2.698
100701.000			-2.698			-2.698
100801.000			-2.698			-2.698
100901.000			-2.698			-2.698
101000.000			-2.698			-2.698
101100.000			-2.697			-2.697
101201.000			-2.698			-2.698
101300.000			-2.697			-2.697
101400.000			-2.698			-2.698
101502.000			-2.699			-2.699
101601.000			-2.698			-2.698
101700.000			-2.697			-2.697
101801.000			-2.697			-2.697
101900.000			-2.697			-2.697
102000.000			-2.697			-2.697
102101.000			-2.697			-2.697
102200.000			-2.698			-2.698
102301.000			-2.698			-2.698
102402.000			-2.697			-2.697
102501.000			-2.697			-2.697
102600.000			-2.697			-2.697
102701.000			-2.697			-2.697
102800.000			-2.698			-2.698
102900.000			-2.698			-2.698
103001.000			-2.698			-2.698
103100.000			-2.697			-2.697
103202.000			-2.696			-2.696
103301.000			-2.696			-2.696
103400.000			-2.696			-2.696
103501.000			-2.696			-2.696
103600.000			-2.697			-2.697
103700.000			-2.697			-2.697
103801.000			-2.696			-2.696
103900.000			-2.696			-2.696
104001.000			-2.696			-2.696
104102.000			-2.695			-2.695
104200.000			-2.696			-2.696
104300.000			-2.696			-2.696
104401.000			-2.695			-2.695
104500.000			-2.696			-2.696
104600.000			-2.695			-2.695
104701.000			-2.695			-2.695
104801.000			-2.696			-2.696
104901.000			-2.696			-2.696
105002.000			-2.696			-2.696
105100.000			-2.697			-2.697
105200.000			-2.697			-2.697
105301.000			-2.696			-2.696
105400.000			-2.696			-2.696
105500.000			-2.695			-2.695
105601.000			-2.696			-2.696
105701.000			-2.696			-2.696
105801.000			-2.696			-2.696
105901.000			-2.696			-2.696
106000.000			-2.695			-2.695
106100.000			-2.695			-2.695
106201.000			-2.695			-2.695
106300.000			-2.695			-2.695
106401.000			-2.695			-2.695
106500.000			-2.695			-2.695
106601.000			-2.696			-2.696
106702.000			-2.694			-2.694
106800.000			-2.694			-2.694
106900.000			-2.695			-2.695
107001.000			-2.694			-2.694
107100.000			-2.695			-2.695
107200.000			-2.694			-2.694
107301.000			-2.694			-2.694
107401.000			-2.695			-2.695
107501.000			-2.695			-2.695
107601.000			-2.695			-2.695
107700.000			-2.695			-2.695
107800.000			-2.695			-2.695
107901.000			-2.695			-2.695
108000.000			-2.695			-2.695
108100.000			-2.694			-2.694
108201.000			-2.694			-2.694
108301.000			-2.694			-2.694
108401.000			-2.694			-2.694
108501.000			-2.694			-2.694
108600.000			-2.693			-2.693
108700.000			-2.693			-2.693
108801.000			-2.693			-2.693
108900.000			-2.694			-2.694
109000.000			-2.694			-2.694
109101.000			-2.693			-2.693
109201.000			-2.694			-2.694
109301.000			-2.694			-2.694
109401.000			-2.694			-2.694
109500.000			-2.693			-2.693
109601.000			-2.694			-2.694
109700.000			-2.693			-2.693
109800.000			-2.692			-2.692
109901.000			-2.692			-2.692
110001.000			-2.692			-2.692
110101.000			-2.693			-2.693
110201.000			-2.693			-2.693
110300.000			-2.693			-2.693
110400.000			-2.693			-2.693
110501.000			-2.694			-2.694
110600.000			-2.693			-2.693
110700.000			-2.694			-2.694
110802.000			-2.693			-2.693
110901.000			-2.693			-2.693
111001.000			-2.694			-2.694
111101.000			-2.693			-2.693
111200.000			-2.692			-2.692
111300.000			-2.692			-2.692
111401.000			-2.693			-2.693
111500.000			-2.692			-2.692
111600.000			-2.692			-2.692
111702.000			-2.691			-2.691
111801.000			-2.692			-2.692
111900.000			-2.692			-2.692
112001.000			-2.692			-2.692
112100.000			-2.692			-2.692
112200.000			-2.692			-2.692
112301.000			-2.692			-2.692
112400.000			-2.693			-2.693
112501.000			-2.693			-2.693
112602.000			-2.692			-2.692
112700.000			-2.691			-2.691
112801.000			-2.692			-2.692
112900.000			-2.692			-2.692
113000.000			-2.692			-2.692
113101.000			-2.691			-2.691
113200.000			-2.692			-2.692
113301.000			-2.692			-2.692
113402.000			-2.691			-2.691
113500.000			-2.691			-2.691
113600.000			-2.690			-2.690
113701.000			-2.691			-2.691
113800.000			-2.692			-2.692
113900.000			-2.691			-2.691
114001.000			-2.691			-2.691
114101.000			-2.691			-2.691
114201.000			-2.690			-2.690
114302.000			-2.690			-2.690
114400.000			-2.690			-2.690
114500.000			-2.691			-2.691
114601.000			-2.690			-2.690
114700.000			-2.690			-2.690
114800.000			-2.691			-2.691
114901.000			-2.691			-2.691
115001.000			-2.690			-2.690
115101.000			-2.690			-2.690
115201.000			-2.689			-2.689
115300.000			-2.690			-2.690
115400.000			-2.689			-2.689
115501.000			-2.689			-2.689
115600.000			-2.690			-2.690
115700.000			-2.691			-2.691
115802.000			-2.691			-2.691
115901.000			-2.690			-2.690
116002.000			-2.690			-2.690
116100.000			-2.691			-2.691
116200.000			-2.690			-2.690
116301.000			-2.689			-2.689
116400.000			-2.690			-2.690
116500.000			-2.689			-2.689
116601.000			-2.689			-2.689
116701.000			-2.689			-2.689
116801.000			-2.689			-2.689
116902.000			-2.690			-2.690
117000.000			-2.689			-2.689
117100.000			-2.688			-2.688
117201.000			-2.690			-2.690
117300.000			-2.690			-2.690
117400.000			-2.689			-2.689
117501.000			-2.689			-2.689
117601.000			-2.689			-2.689
117701.000			-2.689			-2.689
117802.000			-2.688			-2.688
117900.000			-2.689			-2.689
118000.000			-2.688			-2.688
118101.000			-2.688			-2.688
118200.000			-2.688			-2.688
118300.000			-2.687			-2.687
118401.000			-2.688			-2.688
118501.000			-2.689			-2.689
118601.000			-2.688			-2.688
118701.000			-2.688			-2.688
118800.000			-2.687			-2.687
118900.000			-2.689			-2.689
119001.000			-2.688			-2.688
119100.000			-2.688			-2.688
119201.000			-2.688			-2.688
119300.000			-2.688			-2.688
119401.000			-2.688			-2.688
119502.000			-2.688			-2.688
119600.000			-2.687			-2.687
119700.000			-2.687			-2.687
119801.000			-2.687			-2.687
119900.000			-2.687			-2.687
120000.000			-2.687			-2.687
120101.000			-2.687			-2.687
120200.000			-2.687			-2.687
120301.000			-2.686			-2.686
120402.000			-2.686			-2.686
120500.000			-2.686			-2.686
120600.000			-2.686			-2.686
120701.000			-2.687			-2.687
120800.000			-2.686			-2.686
120900.000			-2.686			-2.686
121001.000			-2.686			-2.686
121101.000			-2.685			-2.685
121201.000			-2.685			-2.685
121302.000			-2.686			-2.686
121400.000			-2.686			-2.686
121500.000			-2.685			-2.685
121601.000			-2.685			-2.685
121700.000			-2.685			-2.685
121800.000			-2.686			-2.686
121901.000			-2.685			-2.685
122001.000			-2.684			-2.684
122101.000			-2.684			-2.684
122201.000			-2.685			-2.685
122300.000			-2.685			-2.685
122401.000			-2.685			-2.685
122500.000			-2.685			-2.685
122600.000			-2.684			-2.684
122701.000			-2.685			-2.685
122801.000			-2.685			-2.685
122901.000			-2.685			-2.685
123001.000			-2.685			-2.685
123100.000			-2.685			-2.685
123200.000			-2.684			-2.684
123301.000			-2.685			-2.685
123400.000			-2.685			-2.685
123500.000			-2.684			-2.684
123601.000			-2.684			-2.684
123701.000			-2.684			-2.684
123801.000			-2.684			-2.684
123901.000			-2.683			-2.683
124000.000			-2.684			-2.684
124100.000			-2.685			-2.685
124201.000			-2.683			-2.683
124300.000			-2.683			-2.683
124400.000			-2.684			-2.684
124502.000			-2.684			-2.684
124601.000			-2.684			-2.684
124700.000			-2.683			-2.683
124801.000			-2.684			-2.684
124900.000			-2.684			-2.684
125000.000			-2.683			-2.683
125101.000			-2.683			-2.683
125200.000			-2.683			-2.683
125300.000			-2.683			-2.683
125402.000			-2.683			-2.683
125501.000			-2.684			-2.684
125601.000			-2.684			-2.684
125700.000			-2.683			-2.683
125800.000			-2.682			-2.682
125901.000			-2.683			-2.683
126000.000			-2.683			-2.683
126100.000			-2.682			-2.682
126202.000			-2.683			-2.683
126301.000			-2.682			-2.682
126400.000			-2.683			-2.683
126501.000			-2.682			-2.682
126600.000			-2.682			-2.682
126700.000			-2.683			-2.683
126801.000			-2.683			-2.683
126900.000			-2.683			-2.683
127000.000			-2.682			-2.682
127102.000			-2.681			-2.681
127201.000			-2.683			-2.683
127300.000			-2.683			-2.683
127401.000			-2.683			-2.683
127500.000			-2.683			-2.683
127600.000			-2.682			-2.682
127701.000			-2.683			-2.683
127800.000			-2.683			-2.683
127901.000			-2.683			-2.683
128002.000			-2.683			-2.683
128101.000			-2.682			-2.682
128200.000			-2.682			-2.682
128301.000			-2.682			-2.682
128400.000			-2.682			-2.682
128500.000			-2.681			-2.681
128601.000			-2.682			-2.682
128700.000			-2.682			-2.682
128802.000			-2.682			-2.682
128901.000			-2.681			-2.681
129000.000			-2.681			-2.681
129101.000			-2.681			-2.681
129200.000			-2.681			-2.681
129300.000			-2.681			-2.681
129401.000			-2.681			-2.681
129500.000			-2.681			-2.681
129601.000			-2.681			-2.681
129702.000			-2.681			-2.681
129801.000			-2.681			-2.681
129900.000			-2.680			-2.680
130001.000			-2.680			-2.680
130100.000			-2.680			-2.680
130200.000			-2.680			-2.680
130301.000			-2.680			-2.680
130400.000			-2.681			-2.681
130501.000			-2.681			-2.681
130602.000			-2.680			-2.680
130700.000			-2.680			-2.680
130800.000			-2.681			-2.681
130901.000			-2.682			-2.682
131000.000			-2.681			-2.681
131100.000			-2.680			-2.680
131201.000			-2.680			-2.680
131301.000			-2.681			-2.681
131401.000			-2.680			-2.680
131502.000			-2.680			-2.680
131600.000			-2.680			-2.680
131700.000			-2.680			-2.680
131801.000			-2.680			-2.680
131900.000			-2.681			-2.681
132001.000			-2.680			-2.680
132100.000			-2.680			-2.680
132200.000			-2.679			-2.679
132302.000			-2.679			-2.679
132401.000			-2.680			-2.680
132500.000			-2.680			-2.680
132601.000			-2.680			-2.680
132700.000			-2.679			-2.679
132800.000			-2.680			-2.680
132901.000			-2.679			-2.679
133000.000			-2.679			-2.679
133100.000			-2.680			-2.680
133202.000			-2.680			-2.680
133301.000			-2.680			-2.680
133400.000			-2.679			-2.679
133501.000			-2.679			-2.679
133600.000			-2.680			-2.680
133700.000			-2.680			-2.680
133801.000			-2.680			-2.680
133900.000			-2.680			-2.680
134000.000			-2.680			-2.680
134102.000			-2.680			-2.680
134201.000			-2.680			-2.680
134301.000			-2.679			-2.679
134401.000			-2.679			-2.679
134500.000			-2.680			-2.680
134600.000			-2.679			-2.679
134701.000			-2.678			-2.678
134800.000			-2.679			-2.679
134900.000			-2.680			-2.680
135001.000			-2.680			-2.680
135101.000			-2.679			-2.679
135202.000			-2.679			-2.679
135300.000			-2.680			-2.680
135400.000			-2.679			-2.679
135501.000			-2.678			-2.678
135600.000			-2.678			-2.678
135700.000			-2.679			-2.679
135801.000			-2.678			-2.678
135900.000			-2.677			-2.677
136001.000			-2.678			-2.678
136102.000			-2.677			-2.677
136201.000			-2.678			-2.678
136300.000			-2.678			-2.678
136401.000			-2.679			-2.679
136500.000			-2.678			-2.678
136600.000			-2.678			-2.678
136701.000			-2.678			-2.678
136800.000			-2.678			-2.678
136900.000			-2.679			-2.679
137002.000			-2.678			-2.678
137101.000			-2.677			-2.677
137200.000			-2.677			-2.677
137301.000			-2.678			-2.678
137400.000			-2.677			-2.677
137500.000			-2.677			-2.677
137601.000			-2.677			-2.677
137700.000			-2.677			-2.677
137800.000			-2.677			-2.677
137902.000			-2.676			-2.676
138001.000			-2.677			-2.677
138101.000			-2.677			-2.677
138201.000			-2.677			-2.677
138300.000			-2.677			-2.677
138401.000			-2.676			-2.676
138500.000			-2.676			-2.676
138600.000			-2.677			-2.677
138701.000			-2.675			-2.675
138800.000			-2.676			-2.676
138901.000			-2.676			-2.676
139002.000			-2.676			-2.676
139101.000			-2.676			-2.676
139200.000			-2.676			-2.676
139301.000			-2.676			-2.676
139400.000			-2.676			-2.676
139500.000			-2.675			-2.675
139601.000			-2.676			-2.676
139700.000			-2.675			-2.675
139800.000			-2.676			-2.676
139902.000			-2.676			-2.676
140001.000			-2.676			-2.676
140100.000			-2.676			-2.676
140201.000			-2.676			-2.676
140300.000			-2.676			-2.676
140400.000			-2.674			-2.674
140501.000			-2.675			-2.675
140600.000			-2.675			-2.675
140700.000			-2.676			-2.676
140802.000			-2.676			-2.676
140901.000			-2.675			-2.675
141000.000			-2.675			-2.675
141101.000			-2.675			-2.675
141200.000			-2.675			-2.675
141300.000			-2.676			-2.676
141401.000			-2.676			-2.676
141500.000			-2.676			-2.676
141601.000			-2.675			-2.675
141701.000			-2.675			-2.675
141801.000			-2.675			-2.675
141902.000			-2.675			-2.675
142000.000			-2.675			-2.675
142100.000			-2.675			-2.675
142201.000			-2.675			-2.675
142300.000			-2.675			-2.675
142400.000			-2.673			-2.673
142501.000			-2.674			-2.674
142601.000			-2.674			-2.674
142701.000			-2.674			-2.674
142802.000			-2.674			-2.674
142900.000			-2.674			-2.674
143000.000			-2.674			-2.674
143101.000			-2.674			-2.674
143200.000			-2.674			-2.674
143300.000			-2.673			-2.673
143401.000			-2.674			-2.674
143501.000			-2.674			-2.674
143601.000			-2.674			-2.674
143702.000			-2.674			-2.674
143800.000			-2.675			-2.675
143900.000			-2.673			-2.673
144001.000			-2.674			-2.674
144100.000			-2.674			-2.674
144200.000			-2.673			-2.673
144301.000			-2.674			-2.674
144400.000			-2.674			-2.674
144501.000			-2.674			-2.674
144602.000			-2.675			-2.675
144700.000			-2.675			-2.675
144801.000			-2.674			-2.674
144900.000			-2.672			-2.672
145000.000			-2.673			-2.673
145101.000			-2.674			-2.674
145200.000			-2.674			-2.674
145300.000			-2.674			-2.674
145402.000			-2.673			-2.673
145501.000			-2.674			-2.674
145601.000			-2.673			-2.673
145701.000			-2.672			-2.672
145800.000			-2.672			-2.672
145900.000			-2.672			-2.672
146001.000			-2.673			-2.673
146100.000			-2.673			-2.673
146200.000			-2.673			-2.673
146302.000			-2.673			-2.673
146401.000			-2.673			-2.673
146501.000			-2.673			-2.673
146601.000			-2.673			-2.673
146700.000			-2.672			-2.672
146800.000			-2.673			-2.673
146901.000			-2.673			-2.673
147000.000			-2.673			-2.673
147100.000			-2.673			-2.673
147201.000			-2.672			-2.672
147301.000			-2.673			-2.673
147401.000			-2.673			-2.673
147501.000			-2.673			-2.673
147600.000			-2.673			-2.673
147700.000			-2.672			-2.672
147801.000			-2.672			-2.672
147900.000			-2.672			-2.672
148001.000			-2.673			-2.673
148100.000			-2.673			-2.673
148201.000			-2.672			-2.672
148302.000			-2.673			-2.673
148401.000			-2.673			-2.673
148500.000			-2.673			-2.673
148601.000			-2.673			-2.673
148700.000			-2.672			-2.672
148800.000			-2.672			-2.672
148901.000			-2.672			-2.672
149000.000			-2.673			-2.673
149100.000			-2.673			-2.673
149202.000			-2.673			-2.673
149301.000			-2.672			-2.672
149400.000			-2.673			-2.673
149501.000			-2.673			-2.673
149600.000			-2.672			-2.672
149700.000			-2.673			-2.673
149801.000			-2.672			-2.672
149900.000			-2.671			-2.671
150000.000			-2.672			-2.672
150102.000			-2.672			-2.672
150201.000			-2.672			-2.672
150301.000			-2.672			-2.672
150401.000			-2.672			-2.672
150500.000			-2.672			-2.672
150600.000			-2.671			-2.671
150701.000			-2.671			-2.671
150800.000			-2.671			-2.671
150900.000			-2.672			-2.672
151002.000			-2.672			-2.672
151101.000			-2.672			-2.672
151201.000			-2.672			-2.672
151300.000			-2.673			-2.673
151400.000			-2.673			-2.673
151501.000			-2.672			-2.672
151600.000			-2.672			-2.672
151700.000			-2.673			-2.673
151801.000			-2.672			-2.672
151901.000			-2.672			-2.672
152001.000			-2.671			-2.671
152102.000			-2.671			-2.671
152200.000			-2.671			-2.671
152300.000			-2.672			-2.672
152401.000			-2.672			-2.672
152500.000			-2.672			-2.672
152600.000			-2.671			-2.671
152701.000			-2.672			-2.672
152801.000			-2.672			-2.672
152901.000			-2.671			-2.671
153002.000			-2.672			-2.672
153100.000			-2.672			-2.672
153200.000			-2.672			-2.672
153301.000			-2.671			-2.671
153400.000			-2.672			-2.672
153500.000			-2.672			-2.672
153601.000			-2.672			-2.672
153701.000			-2.672			-2.672
153801.000			-2.672			-2.672
153902.000			-2.672			-2.672
154000.000			-2.671			-2.671
154100.000			-2.672			-2.672
154201.000			-2.671			-2.671
154300.000			-2.671			-2.671
154401.000			-2.671			-2.671
154500.000			-2.670			-2.670
154600.000			-2.672			-2.672
154702.000			-2.672			-2.672
154801.000			-2.671			-2.671
154900.000			-2.672			-2.672
155001.000			-2.671			-2.671
155100.000			-2.671			-2.671
155200.000			-2.671			-2.671
155301.000			-2.671			-2.671
155400.000			-2.671			-2.671
155500.000			-2.671			-2.671
155602.000			-2.672			-2.672
155701.000			-2.672			-2.672
155801.000			-2.671			-2.671
155901.000			-2.671			-2.671
156000.000			-2.672			-2.672
156100.000			-2.670			-2.670
156201.000			-2.670			-2.670
156300.000			-2.670			-2.670
156400.000			-2.671			-2.671
156502.000			-2.671			-2.671
156601.000			-2.670			-2.670
156701.000			-2.670			-2.670
156801.000			-2.670			-2.670
156900.000			-2.670			-2.670
157000.000			-2.670			-2.670
157101.000			-2.670			-2.670
157200.000			-2.670			-2.670
157300.000			-2.669			-2.669
157401.000			-2.669			-2.669
157501.000			-2.670			-2.670
157602.000			-2.670			-2.670
157701.000			-2.670			-2.670
157800.000			-2.670			-2.670
157901.000			-2.670			-2.670
158000.000			-2.669			-2.669
158100.000			-2.670			-2.670
158201.000			-2.670			-2.670
158300.000			-2.670			-2.670
158400.000			-2.671			-2.671
158502.000			-2.670			-2.670
158601.000			-2.670			-2.670
158700.000			-2.670			-2.670
158801.000			-2.670			-2.670
158900.000			-2.669			-2.669
159000.000			-2.668			-2.668
159101.000			-2.668			-2.668
159200.000			-2.669			-2.669
159300.000			-2.668			-2.668
159402.000			-2.669			-2.669
159501.000			-2.668			-2.668
159601.000			-2.669			-2.669
159701.000			-2.670			-2.670
159800.000			-2.669			-2.669
159900.000			-2.668			-2.668
160001.000			-2.669			-2.669
160100.000			-2.669			-2.669
160200.000			-2.668			-2.668
160301.000			-2.668			-2.668
160401.000			-2.668			-2.668
160501.000			-2.668			-2.668
160601.000			-2.668			-2.668
160700.000			-2.669			-2.669
160801.000			-2.669			-2.669
160900.000			-2.668			-2.668
161000.000			-2.668			-2.668
161101.000			-2.668			-2.668
161200.000			-2.668			-2.668
161301.000			-2.668			-2.668
161402.000			-2.668			-2.668
161501.000			-2.668			-2.668
161600.000			-2.668			-2.668
161701.000			-2.668			-2.668
161800.000			-2.668			-2.668
161900.000			-2.667			-2.667
162001.000			-2.667			-2.667
162100.000			-2.668			-2.668
162200.000			-2.668			-2.668
162302.000			-2.667			-2.667
162401.000			-2.667			-2.667
162500.000			-2.668			-2.668
162601.000			-2.668			-2.668
162700.000			-2.667			-2.667
162800.000			-2.667			-2.667
162901.000			-2.666			-2.666
163000.000			-2.667			-2.667
163100.000			-2.669			-2.669
163202.000			-2.668			-2.668
163301.000			-2.668			-2.668
163401.000			-2.668			-2.668
163501.000			-2.667			-2.667
163600.000			-2.667			-2.667
163700.000			-2.666			-2.666
163801.000			-2.667			-2.667
163900.000			-2.668			-2.668
164001.000			-2.668			-2.668
164100.000			-2.668			-2.668
164201.000			-2.669			-2.669
164302.000			-2.668			-2.668
164400.000			-2.666			-2.666
164500.000			-2.668			-2.668
164601.000			-2.668			-2.668
164700.000			-2.667			-2.667
164800.000			-2.667			-2.667
164901.000			-2.667			-2.667
165000.000			-2.667			-2.667
165101.000			-2.667			-2.667
165202.000			-2.667			-2.667
165301.000			-2.667			-2.667
165400.000			-2.667			-2.667
165501.000			-2.666			-2.666
165600.000			-2.666			-2.666
165700.000			-2.668			-2.668
165801.000			-2.668			-2.668
165900.000			-2.667			-2.667
166000.000			-2.668			-2.668
166102.000			-2.667			-2.667
166201.000			-2.667			-2.667
166301.000			-2.668			-2.668
166401.000			-2.667			-2.667
166500.000			-2.667			-2.667
166600.000			-2.667			-2.667
166701.000			-2.667			-2.667
166800.000			-2.666			-2.666
166900.000			-2.666			-2.666
167001.000			-2.668			-2.668
167101.000			-2.667			-2.667
167202.000			-2.667			-2.667
167300.000			-2.667			-2.667
167400.000			-2.666			-2.666
167501.000			-2.666			-2.666
167600.000			-2.666			-2.666
167700.000			-2.667			-2.667
167801.000			-2.667			-2.667
167900.000			-2.667			-2.667
168001.000			-2.666			-2.666
168102.000			-2.666			-2.666
168201.000			-2.667			-2.667
168300.000			-2.667			-2.667
168401.000			-2.666			-2.666
168500.000			-2.666			-2.666
168600.000			-2.667			-2.667
168701.000			-2.667			-2.667
168800.000			-2.666			-2.666
168900.000			-2.666			-2.666
169002.000			-2.666			-2.666
169101.000			-2.666			-2.666
169200.000			-2.666			-2.666
169301.000			-2.666			-2.666
169400.000			-2.666			-2.666
169500.000			-2.667			-2.667
169601.000			-2.667			-2.667
169700.000			-2.665			-2.665
169800.000			-2.665			-2.665
169902.000			-2.665			-2.665
170001.000			-2.666			-2.666
170101.000			-2.666			-2.666
170201.000			-2.667			-2.667
170300.000			-2.666			-2.666
170401.000			-2.666			-2.666
170500.000			-2.665			-2.665
170600.000			-2.665			-2.665
170701.000			-2.665			-2.665
170800.000			-2.666			-2.666
170901.000			-2.666			-2.666
171002.000			-2.665			-2.665
171101.000			-2.664			-2.664
171200.000			-2.665			-2.665
171301.000			-2.665			-2.665
171400.000			-2.664			-2.664
171500.000			-2.666			-2.666
171601.000			-2.666			-2.666
171700.000			-2.666			-2.666
171800.000			-2.665			-2.665
171902.000			-2.665			-2.665
172001.000			-2.665			-2.665
172100.000			-2.665			-2.665
172201.000			-2.665			-2.665
172300.000			-2.665			-2.665
172400.000			-2.664			-2.664
172501.000			-2.664			-2.664
172600.000			-2.664			-2.664
172700.000			-2.665			-2.665
172802.000			-2.665			-2.665
172901.000			-2.664			-2.664
173000.000			-2.664			-2.664
173101.000			-2.665			-2.665
173200.000			-2.665			-2.665
173300.000			-2.664			-2.664
173401.000			-2.664			-2.664
173500.000			-2.664			-2.664
173601.000			-2.664			-2.664
173701.000			-2.664			-2.664
173801.000			-2.664			-2.664
173902.000			-2.664			-2.664
174000.000			-2.664			-2.664
174100.000			-2.665			-2.665
174201.000			-2.664			-2.664
174300.000			-2.664			-2.664
174400.000			-2.665			-2.665
174501.000			-2.664			-2.664
174601.000			-2.664			-2.664
174701.000			-2.663			-2.663
174802.000			-2.663			-2.663
174900.000			-2.663			-2.663
175000.000			-2.664			-2.664
175101.000			-2.664			-2.664
175200.000			-2.664			-2.664
175300.000			-2.663			-2.663
175401.000			-2.663			-2.663
175500.000			-2.663			-2.663
175601.000			-2.663			-2.663
175702.000			-2.663			-2.663
175801.000			-2.662			-2.662
175900.000			-2.661			-2.661
176001.000			-2.662			-2.662
176100.000			-2.663			-2.663
176200.000			-2.663			-2.663
176301.000			-2.663			-2.663
176400.000			-2.664			-2.664
176500.000			-2.663			-2.663
176602.000			-2.663			-2.663
176701.000			-2.662			-2.662
176801.000			-2.663			-2.663
176900.000			-2.663			-2.663
177000.000			-2.662			-2.662
177101.000			-2.662			-2.662
177200.000			-2.662			-2.662
177300.000			-2.662			-2.662
177401.000			-2.662			-2.662
177500.000			-2.662			-2.662
177601.000			-2.663			-2.663
177702.000			-2.660			-2.660
177801.000			-2.662			-2.662
177900.000			-2.662			-2.662
178001.000			-2.661			-2.661
178100.000			-2.662			-2.662
178200.000			-2.661			-2.661
178301.000			-2.661			-2.661
178400.000			-2.661			-2.661
178500.000			-2.661			-2.661
178602.000			-2.660			-2.660
178701.000			-2.661			-2.661
178800.000			-2.660			-2.660
178901.000			-2.660			-2.660
179000.000			-2.660			-2.660
179100.000			-2.661			-2.661
179201.000			-2.661			-2.661
179300.000			-2.661			-2.661
179400.000			-2.662			-2.662
179502.000			-2.662			-2.662
179601.000			-2.660			-2.660
179700.000			-2.659			-2.659
179801.000			-2.661			-2.661
179900.000			-2.661			-2.661
180001.000			-2.661			-2.661
180100.000			-2.661			-2.661
180200.000			-2.661			-2.661
180301.000			-2.660			-2.660
180401.000			-2.660			-2.660
180501.000			-2.661			-2.661
180602.000			-2.660			-2.660
180700.000			-2.661			-2.661
180800.000			-2.661			-2.661
180901.000			-2.661			-2.661
181000.000			-2.661			-2.661
181100.000			-2.661			-2.661
181201.000			-2.660			-2.660
181300.000			-2.660			-2.660
181401.000			-2.661			-2.661
181502.000			-2.661			-2.661
181600.000			-2.660			-2.660
181700.000			-2.661			-2.661
181801.000			-2.661			-2.661
181900.000			-2.660			-2.660
182000.000			-2.658			-2.658
182101.000			-2.660			-2.660
182200.000			-2.660			-2.660
182301.000			-2.660			-2.660
182402.000			-2.660			-2.660
182500.000			-2.659			-2.659
182600.000			-2.660			-2.660
182701.000			-2.659			-2.659
182800.000			-2.659			-2.659
182900.000			-2.660			-2.660
183001.000			-2.660			-2.660
183100.000			-2.659			-2.659
183202.000			-2.659			-2.659
183301.000			-2.659			-2.659
183401.000			-2.659			-2.659
183501.000			-2.660			-2.660
183600.000			-2.659			-2.659
183700.000			-2.659			-2.659
183801.000			-2.660			-2.660
183900.000			-2.660			-2.660
184000.000			-2.660			-2.660
184101.000			-2.659			-2.659
184201.000			-2.659			-2.659
184301.000			-2.659			-2.659
184401.000			-2.659			-2.659
184500.000			-2.659			-2.659
184600.000			-2.659			-2.659
184701.000			-2.660			-2.660
184800.000			-2.659			-2.659
184900.000			-2.659			-2.659
185001.000			-2.659			-2.659
185101.000			-2.659			-2.659
185201.000			-2.658			-2.658
185302.000			-2.658			-2.658
185400.000			-2.659			-2.659
185500.000			-2.658			-2.658
185601.000			-2.658			-2.658
185700.000			-2.659			-2.659
185800.000			-2.659			-2.659
185901.000			-2.659			-2.659
186000.000			-2.659			-2.659
186101.000			-2.660			-2.660
186202.000			-2.660			-2.660
186301.000			-2.659			-2.659
186401.000			-2.659			-2.659
186500.000			-2.660			-2.660
186600.000			-2.659			-2.659
186701.000			-2.658			-2.658
186800.000			-2.658			-2.658
186900.000			-2.658			-2.658
187001.000			-2.657			-2.657
187101.000			-2.657			-2.657
187201.000			-2.658			-2.658
187301.000			-2.658			-2.658
187400.000			-2.658			-2.658
187500.000			-2.659			-2.659
187601.000			-2.659			-2.659
187700.000			-2.659			-2.659
187800.000			-2.658			-2.658
187901.000			-2.658			-2.658
188001.000			-2.658			-2.658
188101.000			-2.658			-2.658
188202.000			-2.658			-2.658
188300.000			-2.658			-2.658
188400.000			-2.658			-2.658
188501.000			-2.657			-2.657
188600.000			-2.657			-2.657
188700.000			-2.659			-2.659
188801.000			-2.658			-2.658
188900.000			-2.658			-2.658
189001.000			-2.658			-2.658
189102.000			-2.657			-2.657
189201.000			-2.658			-2.658
189300.000			-2.658			-2.658
189401.000			-2.658			-2.658
189500.000			-2.658			-2.658
189601.000			-2.658			-2.658
189700.000			-2.657			-2.657
189800.000			-2.657			-2.657
189901.000			-2.657			-2.657
190001.000			-2.658			-2.658
190101.000			-2.658			-2.658
190202.000			-2.658			-2.658
190300.000			-2.657			-2.657
190400.000			-2.657			-2.657
190501.000			-2.657			-2.657
190600.000			-2.658			-2.658
190700.000			-2.659			-2.659
190801.000			-2.657			-2.657
190900.000			-2.657			-2.657
191001.000			-2.658			-2.658
191102.000			-2.658			-2.658
191200.000			-2.658			-2.658
191300.000			-2.657			-2.657
191401.000			-2.657			-2.657
191500.000			-2.657			-2.657
191600.000			-2.656			-2.656
191701.000			-2.657			-2.657
191800.000			-2.657			-2.657
191901.000			-2.657			-2.657
192002.000			-2.657			-2.657
192101.000			-2.657			-2.657
192200.000			-2.657			-2.657
192301.000			-2.656			-2.656
192400.000			-2.656			-2.656
192500.000			-2.656			-2.656
192601.000			-2.656			-2.656
192700.000			-2.656			-2.656
192801.000			-2.656			-2.656
192901.000			-2.655			-2.655
193001.000			-2.656			-2.656
193101.000			-2.657			-2.657
193200.000			-2.657			-2.657
193300.000			-2.657			-2.657
193401.000			-2.656			-2.656
193500.000			-2.657			-2.657
193600.000			-2.658			-2.658
193701.000			-2.657			-2.657
193801.000			-2.656			-2.656
193901.000			-2.655			-2.655
194002.000			-2.656			-2.656
194100.000			-2.657			-2.657
194200.000			-2.657			-2.657
194301.000			-2.656			-2.656
194400.000			-2.656			-2.656
194500.000			-2.656			-2.656
194601.000			-2.655			-2.655
194700.000			-2.656			-2.656
194801.000			-2.656			-2.656
194902.000			-2.656			-2.656
195001.000			-2.656			-2.656
195100.000			-2.656			-2.656
195201.000			-2.655			-2.655
195300.000			-2.655			-2.655
195400.000			-2.655			-2.655
195501.000			-2.655			-2.655
195600.000			-2.655			-2.655
195700.000			-2.656			-2.656
195802.000			-2.655			-2.655
195901.000			-2.656			-2.656
196001.000			-2.655			-2.655
196100.000			-2.655			-2.655
196200.000			-2.655			-2.655
196301.000			-2.655			-2.655
196400.000			-2.655			-2.655
196500.000			-2.655			-2.655
196601.000			-2.655			-2.655
196701.000			-2.656			-2.656
196801.000			-2.656			-2.656
196901.000			-2.655			-2.655
197000.000			-2.655			-2.655
197100.000			-2.656			-2.656
197201.000			-2.655			-2.655
197300.000			-2.655			-2.655
197400.000			-2.655			-2.655
197501.000			-2.655			-2.655
197601.000			-2.655			-2.655
197701.000			-2.655			-2.655
197802.000			-2.655			-2.655
197900.000			-2.655			-2.655
198000.000			-2.655			-2.655
198101.000			-2.655			-2.655
198200.000			-2.655			-2.655
198300.000			-2.655			-2.655
198401.000			-2.655			-2.655
198500.000			-2.655			-2.655
198601.000			-2.655			-2.655
198702.000			-2.654			-2.654
198801.000			-2.655			-2.655
198900.000			-2.654			-2.654
199001.000			-2.654			-2.654
199100.000			-2.654			-2.654
199201.000			-2.654			-2.654
199300.000			-2.654			-2.654
199400.000			-2.654			-2.654
199501.000			-2.654			-2.654
199601.000			-2.655			-2.655
199701.000			-2.655			-2.655
199801.000			-2.655			-2.655
199900.000			-2.655			-2.655
200000.000			-2.654			-2.654
200101.000			-2.654			-2.654
200200.000			-2.654			-2.654
200300.000			-2.653			-2.653
200401.000			-2.654			-2.654
200501.000			-2.654			-2.654
200601.000			-2.653			-2.653
200702.000			-2.654			-2.654
200800.000			-2.655			-2.655
200900.000			-2.654			-2.654
201001.000			-2.654			-2.654
201100.000			-2.654			-2.654
201200.000			-2.654			-2.654
201301.000			-2.654			-2.654
201401.000			-2.654			-2.654
201501.000			-2.654			-2.654
201602.000			-2.654			-2.654
201700.000			-2.654			-2.654
201800.000			-2.653			-2.653
201901.000			-2.654			-2.654
202000.000			-2.654			-2.654
202100.000			-2.653			-2.653
202201.000			-2.653			-2.653
202301.000			-2.654			-2.654
202402.000			-2.654			-2.654
202500.000			-2.654			-2.654
202600.000			-2.654			-2.654
202701.000			-2.653			-2.653
202800.000			-2.653			-2.653
202900.000			-2.652			-2.652
203001.000			-2.652			-2.652
203100.000			-2.653			-2.653
203201.000			-2.654			-2.654
203302.000			-2.653			-2.653
203400.000			-2.653			-2.653
203500.000			-2.653			-2.653
203601.000			-2.653			-2.653
203700.000			-2.654			-2.654
203800.000			-2.653			-2.653
203901.000			-2.653			-2.653
204000.000			-2.653			-2.653
204101.000			-2.653			-2.653
204202.000			-2.653			-2.653
204301.000			-2.653			-2.653
204400.000			-2.653			-2.653
204501.000			-2.653			-2.653
204600.000			-2.653			-2.653
204700.000			-2.652			-2.652
204801.000			-2.652			-2.652
204900.000			-2.652			-2.652
205001.000			-2.652			-2.652
205102.000			-2.652			-2.652
205201.000			-2.653			-2.653
205300.000			-2.652			-2.652
205401.000			-2.653			-2.653
205500.000			-2.652			-2.652
205601.000			-2.652			-2.652
205700.000			-2.652			-2.652
205800.000			-2.652			-2.652
205902.000			-2.652			-2.652
206001.000			-2.651			-2.651
206101.000			-2.651			-2.651
206201.000			-2.652			-2.652
206300.000			-2.652			-2.652
206400.000			-2.652			-2.652
206501.000			-2.652			-2.652
206600.000			-2.652			-2.652
206700.000			-2.652			-2.652
206802.000			-2.652			-2.652
206901.000			-2.651			-2.651
207001.000			-2.651			-2.651
207101.000			-2.651			-2.651
207200.000			-2.653			-2.653
207300.000			-2.652			-2.652
207401.000			-2.652			-2.652
207500.000			-2.651			-2.651
207600.000			-2.652			-2.652
207702.000			-2.652			-2.652
207801.000			-2.652			-2.652
207901.000			-2.653			-2.653
208001.000			-2.653			-2.653
208100.000			-2.653			-2.653
208200.000			-2.651			-2.651
208301.000			-2.651			-2.651
208400.000			-2.651			-2.651
208500.000			-2.652			-2.652
208602.000			-2.651			-2.651
208701.000			-2.651			-2.651
208802.000			-2.651			-2.651
208900.000			-2.652			-2.652
209000.000			-2.653			-2.653
209101.000			-2.652			-2.652
209200.000			-2.651			-2.651
209300.000			-2.650			-2.650
209401.000			-2.651			-2.651
209501.000			-2.651			-2.651
209601.000			-2.652			-2.652
209702.000			-2.651			-2.651
209800.000			-2.651			-2.651
209900.000			-2.651			-2.651
210001.000			-2.651			-2.651
210100.000			-2.650			-2.650
210200.000			-2.652			-2.652
210301.000			-2.652			-2.652
210401.000			-2.652			-2.652
210501.000			-2.652			-2.652
210602.000			-2.652			-2.652
210700.000			-2.652			-2.652
210800.000			-2.651			-2.651
210901.000			-2.651			-2.651
211000.000			-2.651			-2.651
211100.000			-2.651			-2.651
211201.000			-2.651			-2.651
211301.000			-2.652			-2.652
211401.000			-2.651			-2.651
211502.000			-2.651			-2.651
211600.000			-2.651			-2.651
211700.000			-2.651			-2.651
211801.000			-2.650			-2.650
211900.000			-2.650			-2.650
212001.000			-2.651			-2.651
212100.000			-2.651			-2.651
212201.000			-2.651			-2.651
212302.000			-2.651			-2.651
212401.000			-2.651			-2.651
212500.000			-2.650			-2.650
212601.000			-2.651			-2.651
212700.000			-2.651			-2.651
212800.000			-2.650			-2.650
212901.000			-2.651			-2.651
213000.000			-2.651			-2.651
213101.000			-2.650			-2.650
213202.000			-2.649			-2.649
213301.000			-2.650			-2.650
213400.000			-2.650			-2.650
213501.000			-2.650			-2.650
213600.000			-2.649			-2.649
213700.000			-2.651			-2.651
213801.000			-2.651			-2.651
213900.000			-2.651			-2.651
214001.000			-2.651			-2.651
214102.000			-2.651			-2.651
214201.000			-2.650			-2.650
214300.000			-2.649			-2.649
214401.000			-2.649			-2.649
214500.000			-2.649			-2.649
214600.000			-2.650			-2.650
214701.000			-2.650			-2.650
214800.000			-2.650			-2.650
214901.000			-2.650			-2.650
215002.000			-2.649			-2.649
215101.000			-2.649			-2.649
215201.000			-2.650			-2.650
215300.000			-2.651			-2.651
215400.000			-2.650			-2.650
215501.000			-2.650			-2.650
215600.000			-2.650			-2.650
215700.000			-2.649			-2.649
215801.000			-2.650			-2.650
215901.000			-2.649			-2.649
216001.000			-2.649			-2.649
216101.000			-2.649			-2.649
216200.000			-2.650			-2.650
216300.000			-2.650			-2.650
216401.000			-2.649			-2.649
216500.000			-2.648			-2.648
216600.000			-2.649			-2.649
216701.000			-2.650			-2.650
216801.000			-2.649			-2.649
216901.000			-2.650			-2.650
217002.000			-2.650			-2.650
217100.000			-2.649			-2.649
217200.000			-2.648			-2.648
217301.000			-2.649			-2.649
217400.000			-2.649			-2.649
217500.000			-2.649			-2.649
217601.000			-2.649			-2.649
217701.000			-2.650			-2.650
217801.000			-2.650			-2.650
217902.000			-2.648			-2.648
218000.000			-2.649			-2.649
218100.000			-2.649			-2.649
218201.000			-2.650			-2.650
218300.000			-2.650			-2.650
218401.000			-2.650			-2.650
218500.000			-2.650			-2.650
218600.000			-2.650			-2.650
218702.000			-2.650			-2.650
218801.000			-2.650			-2.650
218900.000			-2.649			-2.649
219001.000			-2.648			-2.648
219100.000			-2.648			-2.648
219200.000			-2.648			-2.648
219301.000			-2.648			-2.648
219400.000			-2.648			-2.648
219500.000			-2.648			-2.648
219602.000			-2.649			-2.649
219701.000			-2.649			-2.649
219801.000			-2.648			-2.648
219901.000			-2.647			-2.647
220000.000			-2.648			-2.648
220100.000			-2.648			-2.648
220201.000			-2.648			-2.648
220300.000			-2.649			-2.649
220400.000			-2.649			-2.649
220502.000			-2.648			-2.648
220601.000			-2.648			-2.648
220701.000			-2.649			-2.649
220801.000			-2.648			-2.648
220900.000			-2.647			-2.647
221000.000			-2.647			-2.647
221101.000			-2.648			-2.648
221200.000			-2.648			-2.648
221300.000			-2.647			-2.647
221401.000			-2.647			-2.647
221501.000			-2.647			-2.647
221602.000			-2.648			-2.648
221700.000			-2.647			-2.647
221800.000			-2.647			-2.647
221901.000			-2.648			-2.648
222000.000			-2.648			-2.648
222100.000			-2.648			-2.648
222201.000			-2.647			-2.647
222300.000			-2.646			-2.646
222401.000			-2.646			-2.646
222502.000			-2.647			-2.647
222600.000			-2.647			-2.647
222700.000			-2.647			-2.647
222801.000			-2.647			-2.647
222900.000			-2.647			-2.647
223000.000			-2.647			-2.647
223101.000			-2.647			-2.647
223200.000			-2.648			-2.648
223301.000			-2.647			-2.647
223402.000			-2.647			-2.647
223500.000			-2.647			-2.647
223600.000			-2.647			-2.647
223701.000			-2.646			-2.646
223800.000			-2.648			-2.648
223900.000			-2.647			-2.647
224001.000			-2.647			-2.647
224100.000			-2.648			-2.648
224201.000			-2.647			-2.647
224302.000			-2.647			-2.647
224401.000			-2.647			-2.647
224500.000			-2.647			-2.647
224601.000			-2.646			-2.646
224700.000			-2.647			-2.647
224801.000			-2.647			-2.647
224900.000			-2.647			-2.647
225000.000			-2.646			-2.646
225101.000			-2.645			-2.645
225201.000			-2.646			-2.646
225301.000			-2.647			-2.647
225401.000			-2.647			-2.647
225500.000			-2.647			-2.647
225600.000			-2.647			-2.647
225701.000			-2.647			-2.647
225800.000			-2.646			-2.646
225900.000			-2.646			-2.646
226001.000			-2.646			-2.646
226101.000			-2.647			-2.647
226201.000			-2.647			-2.647
226301.000			-2.646			-2.646
226400.000			-2.647			-2.647
226500.000			-2.647			-2.647
226601.000			-2.646			-2.646
226700.000			-2.646			-2.646
226800.000			-2.647			-2.647
226901.000			-2.645			-2.645
227001.000			-2.646			-2.646
227101.000			-2.646			-2.646
227202.000			-2.645			-2.645
227300.000			-2.645			-2.645
227400.000			-2.646			-2.646
227501.000			-2.646			-2.646
227600.000			-2.646			-2.646
227700.000			-2.645			-2.645
227801.000			-2.645			-2.645
227900.000			-2.646			-2.646
228002.000			-2.646			-2.646
228101.000			-2.646			-2.646
228200.000			-2.647			-2.647
228301.000			-2.647			-2.647
228400.000			-2.647			-2.647
228500.000			-2.646			-2.646
228601.000			-2.646			-2.646
228700.000			-2.646			-2.646
228800.000			-2.645			-2.645
228902.000			-2.646			-2.646
229001.000			-2.645			-2.645
229101.000			-2.646			-2.646
229201.000			-2.646			-2.646
229300.000			-2.647			-2.647
229400.000			-2.647			-2.647
229501.000			-2.648			-2.648
229600.000			-2.647			-2.647
229700.000			-2.646			-2.646
229801.000			-2.646			-2.646
229901.000			-2.647			-2.647
230001.000			-2.647			-2.647
230101.000			-2.646			-2.646
230200.000			-2.646			-2.646
230300.000			-2.646			-2.646
230401.000			-2.647			-2.647
230500.000			-2.648			-2.648
230600.000			-2.645			-2.645
230701.000			-2.645			-2.645
230801.000			-2.644			-2.644
230901.000			-2.644			-2.644
231001.000			-2.644			-2.644
231100.000			-2.643			-2.643
231201.000			-2.645			-2.645
231300.000			-2.643			-2.643
231400.000			-2.643			-2.643
231501.000			-2.644			-2.644
231600.000			-2.645			-2.645
231701.000			-2.645			-2.645
231802.000			-2.644			-2.644
231900.000			-2.644			-2.644
232000.000			-2.644			-2.644
232101.000			-2.643			-2.643
232200.000			-2.643			-2.643
232300.000			-2.644			-2.644
232401.000			-2.644			-2.644
232500.000			-2.645			-2.645
232601.000			-2.644			-2.644
232702.000			-2.644			-2.644
232800.000			-2.644			-2.644
232900.000			-2.645			-2.645
233001.000			-2.644			-2.644
233100.000			-2.644			-2.644
233200.000			-2.643			-2.643
233301.000			-2.643			-2.643
233400.000			-2.644			-2.644
233501.000			-2.643			-2.643
233602.000			-2.645			-2.645
233700.000			-2.645			-2.645
233800.000			-2.644			-2.644
233901.000			-2.644			-2.644
234000.000			-2.644			-2.644
234100.000			-2.644			-2.644
234201.000			-2.644			-2.644
234300.000			-2.643			-2.643
234402.000			-2.643			-2.643
234501.000			-2.643			-2.643
234601.000			-2.644			-2.644
234701.000			-2.643			-2.643
234800.000			-2.643			-2.643
234900.000			-2.644			-2.644
235001.000			-2.645			-2.645
235100.000			-2.644			-2.644
235200.000			-2.644			-2.644
235302.000			-2.644			-2.644
235401.000			-2.643			-2.643
235501.000			-2.644			-2.644
235601.000			-2.644			-2.644
235700.000			-2.643			-2.643
235800.000			-2.644			-2.644
235901.000			-2.645			-2.645
236000.000			-2.644			-2.644
236100.000			-2.644			-2.644
236202.000			-2.644			-2.644
236301.000			-2.644			-2.644
236401.000			-2.643			-2.643
236501.000			-2.643			-2.643
236600.000			-2.643			-2.643
236700.000			-2.644			-2.644
236801.000			-2.643			-2.643
236900.000			-2.644			-2.644
237000.000			-2.644			-2.644
237101.000			-2.643			-2.643
237201.000			-2.643			-2.643
237301.000			-2.643			-2.643
237401.000			-2.643			-2.643
237500.000			-2.642			-2.642
237601.000			-2.642			-2.642
237700.000			-2.643			-2.643
237800.000			-2.643			-2.643
237901.000			-2.643			-2.643
238000.000			-2.642			-2.642
238101.000			-2.643			-2.643
238202.000			-2.643			-2.643
238300.000			-2.643			-2.643
238400.000			-2.643			-2.643
238501.000			-2.643			-2.643
238600.000			-2.642			-2.642
238700.000			-2.642			-2.642
238801.000			-2.642			-2.642
238900.000			-2.642			-2.642
239001.000			-2.642			-2.642
239102.000			-2.642			-2.642
239201.000			-2.641			-2.641
239300.000			-2.641			-2.641
239401.000			-2.642			-2.642
239500.000			-2.642			-2.642
239600.000			-2.642			-2.642
239701.000			-2.643			-2.643
239800.000			-2.643			-2.643
239901.000			-2.642			-2.642
240002.000			-2.642			-2.642
240101.000			-2.643			-2.643
240200.000			-2.642			-2.642
240301.000			-2.642			-2.642
240400.000			-2.642			-2.642
240500.000			-2.642			-2.642
240601.000			-2.642			-2.642
240700.000			-2.641			-2.641
240802.000			-2.642			-2.642
240901.000			-2.641			-2.641
241000.000			-2.641			-2.641
241101.000			-2.642			-2.642
241200.000			-2.642			-2.642
241300.000			-2.641			-2.641
241401.000			-2.641			-2.641
241500.000			-2.642			-2.642
241600.000			-2.642			-2.642
241702.000			-2.642			-2.642
241801.000			-2.642			-2.642
241900.000			-2.642			-2.642
242001.000			-2.643			-2.643
242100.000			-2.642			-2.642
242200.000			-2.642			-2.642
242301.000			-2.642			-2.642
242400.000			-2.641			-2.641
242500.000			-2.642			-2.642
242602.000			-2.642			-2.642
242701.000			-2.642			-2.642
242800.000			-2.642			-2.642
242901.000			-2.641			-2.641
243000.000			-2.642			-2.642
243100.000			-2.642			-2.642
243201.000			-2.642			-2.642
243300.000			-2.642			-2.642
243400.000			-2.642			-2.642
243502.000			-2.642			-2.642
243601.000			-2.642			-2.642
243700.000			-2.641			-2.641
243801.000			-2.640			-2.640
243900.000			-2.640			-2.640
244001.000			-2.642			-2.642
244100.000			-2.641			-2.641
244200.000			-2.641			-2.641
244301.000			-2.642			-2.642
244401.000			-2.641			-2.641
244501.000			-2.641			-2.641
244601.000			-2.640			-2.640
244700.000			-2.641			-2.641
244800.000			-2.641			-2.641
244901.000			-2.640			-2.640
245000.000			-2.641			-2.641
245100.000			-2.640			-2.640
245201.000			-2.641			-2.641
245301.000			-2.641			-2.641
245401.000			-2.640			-2.640
245501.000			-2.641			-2.641
245600.000			-2.641			-2.641
245700.000			-2.641			-2.641
245801.000			-2.641			-2.641
245900.000			-2.641			-2.641
246000.000			-2.640			-2.640
246101.000			-2.640			-2.640
246201.000			-2.640			-2.640
246301.000			-2.639			-2.639
246401.000			-2.640			-2.640
246500.000			-2.641			-2.641
246600.000			-2.640			-2.640
246701.000			-2.640			-2.640
246800.000			-2.640			-2.640
246900.000			-2.640			-2.640
247001.000			-2.641			-2.641
247101.000			-2.640			-2.640
247202.000			-2.640			-2.640
247301.000			-2.639			-2.639
247400.000			-2.640			-2.640
247501.000			-2.640			-2.640
247600.000			-2.641			-2.641
247700.000			-2.641			-2.641
247801.000			-2.640			-2.640
247900.000			-2.640			-2.640
248000.000			-2.640			-2.640
248102.000			-2.641			-2.641
248201.000			-2.639			-2.639
248300.000			-2.640			-2.640
248401.000			-2.640			-2.640
248500.000			-2.640			-2.640
248600.000			-2.641			-2.641
248701.000			-2.640			-2.640
248800.000			-2.640			-2.640
248900.000			-2.640			-2.640
249002.000			-2.639			-2.639
249101.000			-2.639			-2.639
249201.000			-2.640			-2.640
249301.000			-2.639			-2.639
249400.000			-2.640			-2.640
249500.000			-2.640			-2.640
249601.000			-2.639			-2.639
249700.000			-2.638			-2.638
249800.000			-2.639			-2.639
249901.000			-2.639			-2.639
250001.000			-2.639			-2.639
250101.000			-2.639			-2.639
250201.000			-2.639			-2.639
250300.000			-2.638			-2.638
250401.000			-2.639			-2.639
250500.000			-2.638			-2.638
250600.000			-2.638			-2.638
250701.000			-2.638			-2.638
250800.000			-2.638			-2.638
250901.000			-2.638			-2.638
251002.000			-2.638			-2.638
251100.000			-2.638			-2.638
251200.000			-2.639			-2.639
251301.000			-2.639			-2.639
251400.000			-2.638			-2.638
251500.000			-2.638			-2.638
251601.000			-2.638			-2.638
251700.000			-2.638			-2.638
251801.000			-2.638			-2.638
251902.000			-2.639			-2.639
252001.000			-2.638			-2.638
252100.000			-2.638			-2.638
252201.000			-2.638			-2.638
252300.000			-2.638			-2.638
252400.000			-2.638			-2.638
252501.000			-2.637			-2.637
252600.000			-2.639			-2.639
252700.000			-2.639			-2.639
252802.000			-2.638			-2.638
252901.000			-2.637			-2.637
253000.000			-2.638			-2.638
253101.000			-2.638			-2.638
253200.000			-2.638			-2.638
253300.000			-2.638			-2.638
253401.000			-2.638			-2.638
253500.000			-2.637			-2.637
253601.000			-2.637			-2.637
253701.000			-2.638			-2.638
253801.000			-2.638			-2.638
253902.000			-2.638			-2.638
254000.000			-2.637			-2.637
254100.000			-2.637			-2.637
254201.000			-2.638			-2.638
254300.000			-2.638			-2.638
254400.000			-2.637			-2.637
254501.000			-2.636			-2.636
254601.000			-2.636			-2.636
254701.000			-2.637			-2.637
254802.000			-2.637			-2.637
254900.000			-2.637			-2.637
255000.000			-2.637			-2.637
255101.000			-2.636			-2.636
255200.000			-2.636			-2.636
255300.000			-2.638			-2.638
255401.000			-2.638			-2.638
255500.000			-2.638			-2.638
255601.000			-2.637			-2.637
255702.000			-2.637			-2.637
255800.000			-2.637			-2.637
255900.000			-2.638			-2.638
256001.000			-2.639			-2.639
256100.000			-2.638			-2.638
256200.000			-2.636			-2.636
256301.000			-2.637			-2.637
256400.000			-2.637			-2.637
256501.000			-2.637			-2.637
256602.000			-2.636			-2.636
256701.000			-2.636			-2.636
256801.000			-2.636			-2.636
256900.000			-2.637			-2.637
257000.000			-2.636			-2.636
257101.000			-2.637			-2.637
257200.000			-2.637			-2.637
257300.000			-2.636			-2.636
257402.000			-2.636			-2.636
257501.000			-2.637			-2.637
257601.000			-2.637			-2.637
257701.000			-2.636			-2.636
257800.000			-2.636			-2.636
257900.000			-2.636			-2.636
258001.000			-2.637			-2.637
258100.000			-2.636			-2.636
258200.000			-2.636			-2.636
258301.000			-2.636			-2.636
258401.000			-2.635			-2.635
258501.000			-2.637			-2.637
258601.000			-2.636			-2.636
258700.000			-2.636			-2.636
258800.000			-2.636			-2.636
258901.000			-2.635			-2.635
259000.000			-2.636			-2.636
259100.000			-2.636			-2.636
259201.000			-2.635			-2.635
259301.000			-2.636			-2.636
259401.000			-2.636			-2.636
259502.000			-2.635			-2.635
259600.000			-2.635			-2.635
259700.000			-2.636			-2.636
259801.000			-2.636			-2.636
259900.000			-2.635			-2.635
260001.000			-2.635			-2.635
260100.000			-2.636			-2.636
260200.000			-2.636			-2.636
260302.000			-2.636			-2.636
260401.000			-2.635			-2.635
260500.000			-2.635			-2.635
260601.000			-2.635			-2.635
260700.000			-2.636			-2.636
260800.000			-2.635			-2.635
260901.000			-2.635			-2.635
261000.000			-2.635			-2.635
261100.000			-2.636			-2.636
261202.000			-2.636			-2.636
261301.000			-2.635			-2.635
261400.000			-2.635			-2.635
261501.000			-2.635			-2.635
261600.000			-2.634			-2.634
261700.000			-2.635			-2.635
261801.000			-2.634			-2.634
261900.000			-2.635			-2.635
262000.000			-2.635			-2.635
262102.000			-2.635			-2.635
262201.000			-2.634			-2.634
262300.000			-2.635			-2.635
262401.000			-2.635			-2.635
262500.000			-2.635			-2.635
262600.000			-2.635			-2.635
262701.000			-2.635			-2.635
262800.000			-2.635			-2.635
262900.000			-2.634			-2.634
263002.000			-2.634			-2.634
263101.000			-2.635			-2.635
263201.000			-2.635			-2.635
263300.000			-2.634			-2.634
263400.000			-2.634			-2.634
263501.000			-2.634			-2.634
263600.000			-2.633			-2.633
263700.000			-2.634			-2.634
263801.000			-2.635			-2.635
263901.000			-2.633			-2.633
264001.000			-2.634			-2.634
264101.000			-2.634			-2.634
264200.000			-2.635			-2.635
264300.000			-2.634			-2.634
264401.000			-2.634			-2.634
264500.000			-2.634			-2.634
264600.000			-2.634			-2.634
264701.000			-2.634			-2.634
264801.000			-2.634			-2.634
264901.000			-2.634			-2.634
265001.000			-2.634			-2.634
265100.000			-2.634			-2.634
265200.000			-2.634			-2.634
265301.000			-2.634			-2.634
265400.000			-2.634			-2.634
265500.000			-2.633			-2.633
265601.000			-2.634			-2.634
265701.000			-2.634			-2.634
265801.000			-2.634			-2.634
265902.000			-2.633			-2.633
266000.000			-2.633			-2.633
266100.000			-2.634			-2.634
266201.000			-2.634			-2.634
266300.000			-2.634			-2.634
266401.000			-2.634			-2.634
266500.000			-2.633			-2.633
266600.000			-2.633			-2.633
266702.000			-2.632			-2.632
266801.000			-2.632			-2.632
266900.000			-2.634			-2.634
267001.000			-2.634			-2.634
267100.000			-2.633			-2.633
267200.000			-2.634			-2.634
267301.000			-2.633			-2.633
267400.000			-2.634			-2.634
267500.000			-2.634			-2.634
267602.000			-2.633			-2.633
267701.000			-2.633			-2.633
267800.000			-2.633			-2.633
267901.000			-2.633			-2.633
268000.000			-2.634			-2.634
268100.000			-2.632			-2.632
268201.000			-2.633			-2.633
268300.000			-2.634			-2.634
268400.000			-2.633			-2.633
268502.000			-2.633			-2.633
268601.000			-2.634			-2.634
268701.000			-2.634			-2.634
268801.000			-2.633			-2.633
268900.000			-2.633			-2.633
269000.000			-2.633			-2.633
269101.000			-2.633			-2.633
269200.000			-2.633			-2.633
269300.000			-2.633			-2.633
269402.000			-2.634			-2.634
269501.000			-2.633			-2.633
269602.000			-2.634			-2.634
269700.000			-2.634			-2.634
269800.000			-2.633			-2.633
269901.000			-2.633			-2.633
270000.000			-2.634			-2.634
270100.000			-2.634			-2.634
270201.000			-2.634			-2.634
270300.000			-2.634			-2.634
270401.000			-2.633			-2.633
270502.000			-2.633			-2.633
270600.000			-2.633			-2.633
270700.000			-2.634			-2.634
270801.000			-2.634			-2.634
270900.000			-2.634			-2.634
271000.000			-2.634			-2.634
271101.000			-2.634			-2.634
271200.000			-2.635			-2.635
271301.000			-2.635			-2.635
271402.000			-2.634			-2.634
271500.000			-2.633			-2.633
271600.000			-2.634			-2.634
271701.000			-2.635			-2.635
271800.000			-2.634			-2.634
271900.000			-2.633			-2.633
272001.000			-2.634			-2.634
272100.000			-2.634			-2.634
272201.000			-2.634			-2.634
272302.000			-2.635			-2.635
272400.000			-2.634			-2.634
272500.000			-2.634			-2.634
272601.000			-2.634			-2.634
272700.000			-2.633			-2.633
272801.000			-2.634			-2.634
272900.000			-2.634			-2.634
273000.000			-2.633			-2.633
273102.000			-2.633			-2.633
273201.000			-2.633			-2.633
273300.000			-2.633			-2.633
273401.000			-2.633			-2.633
273500.000			-2.633			-2.633
273600.000			-2.633			-2.633
273701.000			-2.634			-2.634
273800.000			-2.634			-2.634
273900.000			-2.635			-2.635
274002.000			-2.634			-2.634
274101.000			-2.634			-2.634
274201.000			-2.634			-2.634
274301.000			-2.634			-2.634
274400.000			-2.633			-2.633
274500.000			-2.633			-2.633
274601.000			-2.634			-2.634
274700.000			-2.633			-2.633
274800.000			-2.634			-2.634
274901.000			-2.634			-2.634
275001.000			-2.634			-2.634
275101.000			-2.634			-2.634
275201.000			-2.634			-2.634
275300.000			-2.634			-2.634
275400.000			-2.633			-2.633
275501.000			-2.633			-2.633
275600.000			-2.633			-2.633
275700.000			-2.635			-2.635
275802.000			-2.635			-2.635
275901.000			-2.634			-2.634
276002.000			-2.634			-2.634
276100.000			-2.633			-2.633
276200.000			-2.634			-2.634
276301.000			-2.633			-2.633
276400.000			-2.633			-2.633
276500.000			-2.632			-2.632
276601.000			-2.632			-2.632
276700.000			-2.632			-2.632
276801.000			-2.632			-2.632
276902.000			-2.634			-2.634
277001.000			-2.634			-2.634
277100.000			-2.633			-2.633
277201.000			-2.632			-2.632
277300.000			-2.633			-2.633
277400.000			-2.633			-2.633
277501.000			-2.632			-2.632
277600.000			-2.633			-2.633
277701.000			-2.633			-2.633
277802.000			-2.633			-2.633
277901.000			-2.633			-2.633
278000.000			-2.632			-2.632
278101.000			-2.632			-2.632
278200.000			-2.632			-2.632
278300.000			-2.632			-2.632
278401.000			-2.632			-2.632
278500.000			-2.632			-2.632
278600.000			-2.631			-2.631
278702.000			-2.631			-2.631
278801.000			-2.632			-2.632
278900.000			-2.632			-2.632
279001.000			-2.632			-2.632
279100.000			-2.631			-2.631
279201.000			-2.632			-2.632
279300.000			-2.631			-2.631
279400.000			-2.631			-2.631
279501.000			-2.631			-2.631
279601.000			-2.631			-2.631
279701.000			-2.631			-2.631
279802.000			-2.631			-2.631
279900.000			-2.631			-2.631
280000.000			-2.632			-2.632
280101.000			-2.632			-2.632
280200.000			-2.631			-2.631
280300.000			-2.631			-2.631
280401.000			-2.631			-2.631
280501.000			-2.631			-2.631
280601.000			-2.631			-2.631
280702.000			-2.631			-2.631
280800.000			-2.630			-2.630
280900.000			-2.631			-2.631
281001.000			-2.631			-2.631
281100.000			-2.631			-2.631
281200.000			-2.631			-2.631
281301.000			-2.631			-2.631
281401.000			-2.631			-2.631
281501.000			-2.631			-2.631
281601.000			-2.631			-2.631
281700.000			-2.631			-2.631
281800.000			-2.632			-2.632
281901.000			-2.633			-2.633
282000.000			-2.631			-2.631
282100.000			-2.631			-2.631
282201.000			-2.630			-2.630
282301.000			-2.630			-2.630
282402.000			-2.631			-2.631
282500.000			-2.631			-2.631
282600.000			-2.631			-2.631
282701.000			-2.631			-2.631
282800.000			-2.631			-2.631
282900.000			-2.631			-2.631
283001.000			-2.631			-2.631
283100.000			-2.631			-2.631
283201.000			-2.632			-2.632
283302.000			-2.632			-2.632
283400.000			-2.631			-2.631
283500.000			-2.631			-2.631
283601.000			-2.630			-2.630
283700.000			-2.630			-2.630
283800.000			-2.629			-2.629
283901.000			-2.630			-2.630
284000.000			-2.630			-2.630
284101.000			-2.629			-2.629
284202.000			-2.629			-2.629
284301.000			-2.629			-2.629
284400.000			-2.631			-2.631
284501.000			-2.631			-2.631
284600.000			-2.630			-2.630
284700.000			-2.629			-2.629
284801.000			-2.630			-2.630
284900.000			-2.631			-2.631
285001.000			-2.629			-2.629
285102.000			-2.630			-2.630
285201.000			-2.630			-2.630
285300.000			-2.629			-2.629
285401.000			-2.630			-2.630
285500.000			-2.630			-2.630
285601.000			-2.630			-2.630
285700.000			-2.631			-2.631
285800.000			-2.631			-2.631
285902.000			-2.631			-2.631
286001.000			-2.631			-2.631
286101.000			-2.629			-2.629
286201.000			-2.629			-2.629
286300.000			-2.629			-2.629
286400.000			-2.629			-2.629
286501.000			-2.629			-2.629
286600.000			-2.629			-2.629
286700.000			-2.629			-2.629
286801.000			-2.628			-2.628
286901.000			-2.630			-2.630
287001.000			-2.630			-2.630
287101.000			-2.630			-2.630
287200.000			-2.629			-2.629
287300.000			-2.629			-2.629
287401.000			-2.629			-2.629
287500.000			-2.629			-2.629
287600.000			-2.629			-2.629
287701.000			-2.630			-2.630
287801.000			-2.631			-2.631
287901.000			-2.629			-2.629
288002.000			-2.629			-2.629
288100.000			-2.629			-2.629
288200.000			-2.629			-2.629
288301.000			-2.629			-2.629
288400.000			-2.628			-2.628
288500.000			-2.629			-2.629
288601.000			-2.628			-2.628
288700.000			-2.629			-2.629
288802.000			-2.629			-2.629
288901.000			-2.630			-2.630
289001.000			-2.630			-2.630
289101.000			-2.629			-2.629
289200.000			-2.629			-2.629
289300.000			-2.628			-2.628
289401.000			-2.629			-2.629
289500.000			-2.629			-2.629
289600.000			-2.630			-2.630
289701.000			-2.629			-2.629
289801.000			-2.629			-2.629
289901.000			-2.628			-2.628
290002.000			-2.629			-2.629
290100.000			-2.628			-2.628
290200.000			-2.628			-2.628
290301.000			-2.629			-2.629
290400.000			-2.629			-2.629
290500.000			-2.629			-2.629
290601.000			-2.629			-2.629
290701.000			-2.629			-2.629
290801.000			-2.627			-2.627
290902.000			-2.628			-2.628
291000.000			-2.628			-2.628
291100.000			-2.628			-2.628
291201.000			-2.629			-2.629
291300.000			-2.628			-2.628
291400.000			-2.629			-2.629
291501.000			-2.630			-2.630
291600.000			-2.628			-2.628
291701.000			-2.627			-2.627
291802.000			-2.628			-2.628
291901.000			-2.628			-2.628
292001.000			-2.628			-2.628
292100.000			-2.629			-2.629
292200.000			-2.628			-2.628
292301.000			-2.628			-2.628
292400.000			-2.628			-2.628
292500.000			-2.629			-2.629
292602.000			-2.629			-2.629
292701.000			-2.629			-2.629
292801.000			-2.629			-2.629
292901.000			-2.628			-2.628
293000.000			-2.629			-2.629
293100.000			-2.627			-2.627
293201.000			-2.628			-2.628
293300.000			-2.628			-2.628
293400.000			-2.628			-2.628
293501.000			-2.628			-2.628
293601.000			-2.628			-2.628
293701.000			-2.627			-2.627
293801.000			-2.627			-2.627
293900.000			-2.627			-2.627
294000.000			-2.627			-2.627
294101.000			-2.628			-2.628
294200.000			-2.628			-2.628
294300.000			-2.629			-2.629
294401.000			-2.629			-2.629
294501.000			-2.627			-2.627
294601.000			-2.627			-2.627
294702.000			-2.627			-2.627
294800.000			-2.627			-2.627
294900.000			-2.627			-2.627
295001.000			-2.628			-2.628
295100.000			-2.628			-2.628
295201.000			-2.628			-2.628
295300.000			-2.627			-2.627
295400.000			-2.627			-2.627
295502.000			-2.627			-2.627
295601.000			-2.629			-2.629
295700.000			-2.628			-2.628
295801.000			-2.627			-2.627
295900.000			-2.628			-2.628
296000.000			-2.627			-2.627
296101.000			-2.627			-2.627
296200.000			-2.627			-2.627
296300.000			-2.627			-2.627
296402.000			-2.626			-2.626
296501.000			-2.627			-2.627
296601.000			-2.627			-2.627
296701.000			-2.626			-2.626
296800.000			-2.627			-2.627
296900.000			-2.628			-2.628
297001.000			-2.628			-2.628
297100.000			-2.628			-2.628
297200.000			-2.627			-2.627
297301.000			-2.626			-2.626
297401.000			-2.627			-2.627
297501.000			-2.627			-2.627
297601.000			-2.627			-2.627
297700.000			-2.627			-2.627
297800.000			-2.627			-2.627
297901.000			-2.626			-2.626
298000.000			-2.627			-2.627
298100.000			-2.628			-2.628
298201.000			-2.626			-2.626
298301.000			-2.627			-2.627
298402.000			-2.627			-2.627
298501.000			-2.627			-2.627
298600.000			-2.627			-2.627
298701.000			-2.627			-2.627
298800.000			-2.626			-2.626
298900.000			-2.627			-2.627
299001.000			-2.627			-2.627
299100.000			-2.627			-2.627
299200.000			-2.628			-2.628
299302.000			-2.627			-2.627
299401.000			-2.626			-2.626
299501.000			-2.627			-2.627
299601.000			-2.627			-2.627
299700.000			-2.627			-2.627
299800.000			-2.626			-2.626
299901.000			-2.626			-2.626
