# Acquired on 26/01/2024 12:22:23 
# SPIDER: Creep_-4mm_HM077x145x38AB-1
# CREEP MEASUREMENT

# time [ms]		force [N]		stiffness [N/mm]
1.000			13.464			-3.366
104.000			14.105			-3.526
205.000			14.311			-3.578
304.000			14.267			-3.567
403.000			14.239			-3.560
505.000			14.215			-3.554
604.000			14.194			-3.549
704.000			14.175			-3.544
805.000			14.159			-3.540
903.000			14.143			-3.536
1004.000			14.128			-3.532
1105.000			14.102			-3.526
1204.000			14.091			-3.523
1304.000			14.079			-3.520
1404.000			14.069			-3.517
1504.000			14.059			-3.515
1604.000			14.050			-3.512
1705.000			14.041			-3.510
1804.000			14.024			-3.506
1904.000			14.016			-3.504
2005.000			14.008			-3.502
2103.000			14.000			-3.500
2204.000			13.993			-3.498
2305.000			13.987			-3.497
2404.000			13.982			-3.495
2504.000			13.968			-3.492
2604.000			13.961			-3.490
2704.000			13.955			-3.489
2805.000			13.949			-3.487
2904.000			13.944			-3.486
3004.000			13.939			-3.485
3105.000			13.933			-3.483
3204.000			13.922			-3.480
3303.000			13.917			-3.479
3405.000			13.912			-3.478
3504.000			13.906			-3.477
3604.000			13.902			-3.476
3705.000			13.897			-3.474
3804.000			13.893			-3.473
3904.000			13.888			-3.472
4004.000			13.881			-3.470
4104.000			13.875			-3.469
4204.000			13.872			-3.468
4305.000			13.868			-3.467
4404.000			13.864			-3.466
4503.000			13.860			-3.465
4605.000			13.856			-3.464
4704.000			13.849			-3.462
4804.000			13.846			-3.461
4905.000			13.842			-3.460
5004.000			13.837			-3.459
5104.000			13.834			-3.458
5204.000			13.831			-3.458
5304.000			13.828			-3.457
5404.000			13.822			-3.455
5505.000			13.818			-3.454
5604.000			13.815			-3.454
5704.000			13.812			-3.453
5805.000			13.808			-3.452
5904.000			13.805			-3.451
6005.000			13.802			-3.451
6104.000			13.799			-3.450
6204.000			13.794			-3.448
6305.000			13.791			-3.448
6403.000			13.788			-3.447
6504.000			13.785			-3.446
6605.000			13.782			-3.445
6704.000			13.779			-3.445
6804.000			13.777			-3.444
6905.000			13.772			-3.443
7004.000			13.769			-3.442
7103.000			13.766			-3.441
7205.000			13.763			-3.441
7304.000			13.760			-3.440
7404.000			13.758			-3.439
7505.000			13.755			-3.439
7604.000			13.750			-3.438
7704.000			13.748			-3.437
7804.000			13.746			-3.436
7904.000			13.743			-3.436
8004.000			13.741			-3.435
8105.000			13.738			-3.435
8204.000			13.737			-3.434
8304.000			13.734			-3.434
8405.000			13.730			-3.432
8503.000			13.727			-3.432
8604.000			13.725			-3.431
8705.000			13.723			-3.431
8804.000			13.721			-3.430
8904.000			13.718			-3.430
9004.000			13.717			-3.429
9104.000			13.714			-3.428
9205.000			13.711			-3.428
9304.000			13.708			-3.427
9404.000			13.706			-3.426
9505.000			13.703			-3.426
9604.000			13.703			-3.426
9703.000			13.701			-3.425
9805.000			13.697			-3.424
9904.000			13.694			-3.424
10004.000			13.692			-3.423
10105.000			13.690			-3.423
10204.000			13.689			-3.422
10304.000			13.687			-3.422
10404.000			13.685			-3.421
10504.000			13.682			-3.420
10604.000			13.679			-3.420
10705.000			13.677			-3.419
10804.000			13.676			-3.419
10903.000			13.674			-3.418
11005.000			13.671			-3.418
11104.000			13.670			-3.417
11204.000			13.669			-3.417
11305.000			13.665			-3.416
11404.000			13.664			-3.416
11504.000			13.661			-3.415
11604.000			13.659			-3.415
11704.000			13.658			-3.414
11804.000			13.657			-3.414
11905.000			13.656			-3.414
12004.000			13.651			-3.413
12104.000			13.651			-3.413
12205.000			13.649			-3.412
12303.000			13.646			-3.412
12405.000			13.644			-3.411
12504.000			13.643			-3.411
12604.000			13.641			-3.410
12705.000			13.637			-3.409
12804.000			13.637			-3.409
12904.000			13.636			-3.409
13004.000			13.634			-3.408
13104.000			13.632			-3.408
13204.000			13.630			-3.408
13305.000			13.629			-3.407
13404.000			13.627			-3.407
13503.000			13.625			-3.406
13605.000			13.623			-3.406
13704.000			13.621			-3.405
13804.000			13.620			-3.405
13905.000			13.619			-3.405
14004.000			13.618			-3.405
14104.000			13.617			-3.404
14204.000			13.613			-3.403
14304.000			13.611			-3.403
14404.000			13.610			-3.403
14505.000			13.609			-3.402
14604.000			13.607			-3.402
14704.000			13.606			-3.402
14805.000			13.606			-3.401
14903.000			13.603			-3.401
15004.000			13.602			-3.401
15105.000			13.601			-3.400
15204.000			13.599			-3.400
15304.000			13.597			-3.399
15405.000			13.596			-3.399
15504.000			13.594			-3.399
15603.000			13.593			-3.398
15704.000			13.591			-3.398
15804.000			13.589			-3.397
15905.000			13.587			-3.397
16004.000			13.585			-3.396
16104.000			13.584			-3.396
16205.000			13.584			-3.396
16303.000			13.583			-3.396
16404.000			13.580			-3.395
16505.000			13.579			-3.395
16604.000			13.578			-3.394
16704.000			13.577			-3.394
16804.000			13.576			-3.394
16904.000			13.574			-3.394
17003.000			13.573			-3.393
17105.000			13.571			-3.393
17204.000			13.570			-3.393
17304.000			13.569			-3.392
17405.000			13.567			-3.392
17503.000			13.566			-3.392
17604.000			13.566			-3.391
17705.000			13.564			-3.391
17804.000			13.561			-3.390
17904.000			13.561			-3.390
18005.000			13.559			-3.390
18104.000			13.559			-3.390
18203.000			13.557			-3.389
18305.000			13.557			-3.389
18404.000			13.556			-3.389
18504.000			13.554			-3.388
18605.000			13.551			-3.388
18704.000			13.551			-3.388
18805.000			13.550			-3.387
18903.000			13.549			-3.387
19004.000			13.547			-3.387
19105.000			13.546			-3.387
19204.000			13.545			-3.386
19304.000			13.544			-3.386
19405.000			13.542			-3.385
19504.000			13.541			-3.385
19603.000			13.541			-3.385
19705.000			13.540			-3.385
19804.000			13.538			-3.385
19904.000			13.536			-3.384
20005.000			13.535			-3.384
20104.000			13.535			-3.384
20204.000			13.533			-3.383
20304.000			13.531			-3.383
20404.000			13.530			-3.383
20504.000			13.530			-3.382
20605.000			13.528			-3.382
20704.000			13.527			-3.382
20803.000			13.526			-3.382
20905.000			13.526			-3.381
21004.000			13.525			-3.381
21104.000			13.522			-3.381
21205.000			13.521			-3.380
21304.000			13.520			-3.380
21404.000			13.520			-3.380
21504.000			13.518			-3.379
21604.000			13.518			-3.379
21704.000			13.517			-3.379
21805.000			13.515			-3.379
21904.000			13.514			-3.379
22005.000			13.513			-3.378
22104.000			13.513			-3.378
22203.000			13.511			-3.378
22305.000			13.510			-3.377
22404.000			13.508			-3.377
22504.000			13.507			-3.377
22605.000			13.507			-3.377
22703.000			13.506			-3.377
22804.000			13.505			-3.376
22905.000			13.503			-3.376
23004.000			13.503			-3.376
23104.000			13.502			-3.376
23205.000			13.502			-3.375
23304.000			13.500			-3.375
23403.000			13.499			-3.375
23505.000			13.498			-3.374
23604.000			13.497			-3.374
23704.000			13.496			-3.374
23805.000			13.495			-3.374
23904.000			13.494			-3.373
24004.000			13.492			-3.373
24104.000			13.491			-3.373
24204.000			13.491			-3.373
24304.000			13.491			-3.373
24405.000			13.489			-3.372
24504.000			13.489			-3.372
24603.000			13.487			-3.372
24705.000			13.486			-3.371
24804.000			13.485			-3.371
24904.000			13.484			-3.371
25005.000			13.483			-3.371
25104.000			13.482			-3.370
25205.000			13.481			-3.370
25303.000			13.481			-3.370
25404.000			13.480			-3.370
25505.000			13.478			-3.370
25604.000			13.477			-3.369
25704.000			13.477			-3.369
25805.000			13.476			-3.369
25904.000			13.475			-3.369
26003.000			13.474			-3.368
26105.000			13.473			-3.368
26204.000			13.471			-3.368
26304.000			13.471			-3.368
26405.000			13.470			-3.368
26504.000			13.469			-3.367
26604.000			13.468			-3.367
26704.000			13.466			-3.367
26804.000			13.467			-3.367
26904.000			13.467			-3.367
27005.000			13.465			-3.366
27104.000			13.464			-3.366
27204.000			13.463			-3.366
27305.000			13.462			-3.366
27403.000			13.462			-3.365
27504.000			13.460			-3.365
27605.000			13.459			-3.365
27704.000			13.459			-3.365
27804.000			13.459			-3.365
27905.000			13.458			-3.365
28004.000			13.456			-3.364
28103.000			13.455			-3.364
28205.000			13.454			-3.364
28304.000			13.455			-3.364
28405.000			13.454			-3.364
28504.000			13.453			-3.363
28604.000			13.451			-3.363
28705.000			13.449			-3.362
28803.000			13.449			-3.362
28904.000			13.448			-3.362
29005.000			13.447			-3.362
29104.000			13.447			-3.362
29204.000			13.446			-3.362
29305.000			13.445			-3.361
29404.000			13.444			-3.361
29503.000			13.444			-3.361
29605.000			13.443			-3.361
29704.000			13.442			-3.360
29804.000			13.440			-3.360
29905.000			13.440			-3.360
30004.000			13.439			-3.360
30104.000			13.439			-3.360
30204.000			13.437			-3.359
30304.000			13.436			-3.359
30404.000			13.436			-3.359
30505.000			13.435			-3.359
30604.000			13.435			-3.359
30703.000			13.435			-3.359
30805.000			13.433			-3.358
30904.000			13.432			-3.358
31004.000			13.431			-3.358
31105.000			13.430			-3.358
31204.000			13.429			-3.357
31304.000			13.429			-3.357
31404.000			13.428			-3.357
31504.000			13.428			-3.357
31605.000			13.426			-3.356
31704.000			13.425			-3.356
31804.000			13.425			-3.356
31905.000			13.424			-3.356
32004.000			13.424			-3.356
32103.000			13.423			-3.356
32205.000			13.423			-3.356
32304.000			13.422			-3.356
32404.000			13.421			-3.355
32505.000			13.419			-3.355
32603.000			13.419			-3.355
32704.000			13.419			-3.355
32805.000			13.417			-3.354
32904.000			13.416			-3.354
33004.000			13.416			-3.354
33105.000			13.415			-3.354
33204.000			13.414			-3.353
33303.000			13.413			-3.353
33405.000			13.413			-3.353
33504.000			13.412			-3.353
33604.000			13.412			-3.353
33705.000			13.411			-3.353
33803.000			13.411			-3.353
33904.000			13.410			-3.353
34005.000			13.408			-3.352
34104.000			13.408			-3.352
34204.000			13.408			-3.352
34305.000			13.407			-3.352
34404.000			13.406			-3.352
34503.000			13.405			-3.351
34605.000			13.404			-3.351
34704.000			13.404			-3.351
34805.000			13.404			-3.351
34904.000			13.403			-3.351
35004.000			13.402			-3.350
35105.000			13.402			-3.351
35203.000			13.402			-3.351
35304.000			13.399			-3.350
35405.000			13.398			-3.350
35504.000			13.397			-3.349
35604.000			13.397			-3.349
35704.000			13.397			-3.349
35804.000			13.396			-3.349
35903.000			13.395			-3.349
36005.000			13.394			-3.349
36104.000			13.393			-3.348
36204.000			13.393			-3.348
36305.000			13.392			-3.348
36403.000			13.392			-3.348
36504.000			13.390			-3.348
36605.000			13.391			-3.348
36704.000			13.390			-3.347
36804.000			13.389			-3.347
36905.000			13.388			-3.347
37004.000			13.387			-3.347
37103.000			13.386			-3.347
37205.000			13.386			-3.346
37304.000			13.385			-3.346
37404.000			13.385			-3.346
37505.000			13.383			-3.346
37604.000			13.383			-3.346
37704.000			13.382			-3.345
37804.000			13.381			-3.345
37904.000			13.380			-3.345
38005.000			13.381			-3.345
38104.000			13.380			-3.345
38204.000			13.379			-3.345
38305.000			13.379			-3.345
38404.000			13.378			-3.344
38503.000			13.377			-3.344
38605.000			13.376			-3.344
38704.000			13.377			-3.344
38804.000			13.376			-3.344
38905.000			13.374			-3.343
39004.000			13.373			-3.343
39104.000			13.373			-3.343
39204.000			13.373			-3.343
39304.000			13.372			-3.343
39404.000			13.371			-3.343
39505.000			13.370			-3.343
39604.000			13.370			-3.343
39704.000			13.368			-3.342
39805.000			13.368			-3.342
39903.000			13.369			-3.342
40004.000			13.368			-3.342
40105.000			13.366			-3.341
40204.000			13.366			-3.341
40304.000			13.365			-3.341
40405.000			13.365			-3.341
40504.000			13.364			-3.341
40603.000			13.364			-3.341
40705.000			13.363			-3.341
40804.000			13.363			-3.341
40904.000			13.362			-3.341
41005.000			13.361			-3.340
41103.000			13.362			-3.340
41205.000			13.360			-3.340
41304.000			13.359			-3.340
41404.000			13.358			-3.340
41505.000			13.358			-3.339
41604.000			13.358			-3.339
41704.000			13.357			-3.339
41804.000			13.356			-3.339
41904.000			13.355			-3.339
42004.000			13.354			-3.339
42105.000			13.354			-3.339
42204.000			13.353			-3.338
42304.000			13.354			-3.338
42405.000			13.353			-3.338
42503.000			13.352			-3.338
42604.000			13.351			-3.338
42705.000			13.351			-3.338
42804.000			13.352			-3.338
42904.000			13.350			-3.338
43005.000			13.349			-3.337
43104.000			13.348			-3.337
43203.000			13.348			-3.337
43305.000			13.347			-3.337
43404.000			13.347			-3.337
43504.000			13.346			-3.336
43605.000			13.345			-3.336
43703.000			13.345			-3.336
43804.000			13.345			-3.336
43905.000			13.345			-3.336
44004.000			13.343			-3.336
44104.000			13.343			-3.336
44205.000			13.342			-3.336
44304.000			13.342			-3.335
44403.000			13.340			-3.335
44504.000			13.340			-3.335
44604.000			13.340			-3.335
44705.000			13.340			-3.335
44804.000			13.339			-3.335
44904.000			13.338			-3.334
45005.000			13.337			-3.334
45103.000			13.338			-3.334
45204.000			13.337			-3.334
45305.000			13.335			-3.334
45404.000			13.336			-3.334
45504.000			13.335			-3.334
45604.000			13.335			-3.334
45704.000			13.333			-3.333
45804.000			13.333			-3.333
45905.000			13.333			-3.333
46004.000			13.333			-3.333
46104.000			13.332			-3.333
46205.000			13.331			-3.333
46303.000			13.331			-3.333
46404.000			13.330			-3.333
46505.000			13.330			-3.333
46604.000			13.329			-3.332
46704.000			13.328			-3.332
46805.000			13.328			-3.332
46904.000			13.327			-3.332
47003.000			13.326			-3.331
47105.000			13.325			-3.331
47204.000			13.325			-3.331
47304.000			13.325			-3.331
47405.000			13.325			-3.331
47504.000			13.325			-3.331
47605.000			13.325			-3.331
47703.000			13.322			-3.331
47804.000			13.322			-3.330
47905.000			13.322			-3.330
48004.000			13.321			-3.330
48104.000			13.320			-3.330
48205.000			13.320			-3.330
48304.000			13.320			-3.330
48403.000			13.319			-3.330
48505.000			13.318			-3.330
48604.000			13.317			-3.329
48704.000			13.317			-3.329
48805.000			13.317			-3.329
48903.000			13.316			-3.329
49004.000			13.316			-3.329
49105.000			13.316			-3.329
49204.000			13.316			-3.329
49304.000			13.314			-3.329
49405.000			13.313			-3.328
49504.000			13.313			-3.328
49603.000			13.312			-3.328
49705.000			13.313			-3.328
49804.000			13.311			-3.328
49904.000			13.310			-3.328
50005.000			13.311			-3.328
50104.000			13.311			-3.328
50204.000			13.310			-3.327
50304.000			13.309			-3.327
50404.000			13.309			-3.327
50504.000			13.308			-3.327
50605.000			13.308			-3.327
50704.000			13.307			-3.327
50805.000			13.306			-3.327
50904.000			13.305			-3.326
51003.000			13.305			-3.326
51105.000			13.305			-3.326
51204.000			13.305			-3.326
51304.000			13.304			-3.326
51405.000			13.303			-3.326
51503.000			13.302			-3.326
51604.000			13.302			-3.326
51705.000			13.302			-3.325
51804.000			13.302			-3.325
51904.000			13.301			-3.325
52005.000			13.301			-3.325
52104.000			13.300			-3.325
52203.000			13.300			-3.325
52305.000			13.300			-3.325
52404.000			13.298			-3.324
52504.000			13.298			-3.324
52605.000			13.298			-3.324
52703.000			13.297			-3.324
52804.000			13.297			-3.324
52905.000			13.297			-3.324
53004.000			13.296			-3.324
53104.000			13.295			-3.324
53205.000			13.295			-3.324
53304.000			13.294			-3.323
53403.000			13.295			-3.324
53505.000			13.293			-3.323
53604.000			13.294			-3.323
53704.000			13.293			-3.323
53805.000			13.292			-3.323
53904.000			13.292			-3.323
54005.000			13.291			-3.323
54103.000			13.291			-3.323
54204.000			13.290			-3.323
54305.000			13.290			-3.322
54404.000			13.289			-3.322
54504.000			13.289			-3.322
54605.000			13.289			-3.322
54704.000			13.288			-3.322
54803.000			13.288			-3.322
54905.000			13.286			-3.322
55004.000			13.286			-3.322
55104.000			13.287			-3.322
55205.000			13.286			-3.322
55304.000			13.285			-3.321
55404.000			13.285			-3.321
55504.000			13.285			-3.321
55604.000			13.284			-3.321
55704.000			13.283			-3.321
55805.000			13.283			-3.321
55904.000			13.282			-3.321
56003.000			13.282			-3.321
56105.000			13.282			-3.321
56204.000			13.282			-3.320
56304.000			13.280			-3.320
56405.000			13.280			-3.320
56504.000			13.280			-3.320
56604.000			13.279			-3.320
56704.000			13.279			-3.320
56804.000			13.278			-3.320
56904.000			13.278			-3.319
57005.000			13.276			-3.319
57104.000			13.278			-3.319
57205.000			13.277			-3.319
57304.000			13.276			-3.319
57403.000			13.277			-3.319
57505.000			13.276			-3.319
57604.000			13.275			-3.319
57704.000			13.275			-3.319
57805.000			13.275			-3.319
57904.000			13.274			-3.318
58004.000			13.273			-3.318
58104.000			13.274			-3.318
58204.000			13.273			-3.318
58304.000			13.272			-3.318
58405.000			13.272			-3.318
58504.000			13.272			-3.318
58604.000			13.271			-3.318
58705.000			13.270			-3.318
58803.000			13.271			-3.318
58904.000			13.270			-3.317
59005.000			13.270			-3.317
59104.000			13.270			-3.317
59204.000			13.269			-3.317
59305.000			13.267			-3.317
59404.000			13.267			-3.317
59503.000			13.266			-3.316
59605.000			13.266			-3.317
59704.000			13.267			-3.317
59804.000			13.267			-3.317
59905.000			13.266			-3.316
60004.000			13.265			-3.316
60104.000			13.265			-3.316
60204.000			13.265			-3.316
60304.000			13.264			-3.316
60405.000			13.264			-3.316
60504.000			13.263			-3.316
60604.000			13.263			-3.316
60704.000			13.263			-3.316
60804.000			13.262			-3.315
60904.000			13.261			-3.315
61005.000			13.261			-3.315
61104.000			13.260			-3.315
61204.000			13.259			-3.315
61305.000			13.259			-3.315
61403.000			13.258			-3.315
61504.000			13.259			-3.315
61605.000			13.258			-3.314
61704.000			13.258			-3.314
61804.000			13.258			-3.314
61905.000			13.257			-3.314
62004.000			13.256			-3.314
62103.000			13.256			-3.314
62205.000			13.256			-3.314
62304.000			13.255			-3.314
62404.000			13.255			-3.314
62505.000			13.255			-3.314
62603.000			13.256			-3.314
62704.000			13.254			-3.313
62805.000			13.253			-3.313
62904.000			13.254			-3.313
63004.000			13.253			-3.313
63105.000			13.252			-3.313
63204.000			13.251			-3.313
63303.000			13.252			-3.313
63405.000			13.251			-3.313
63504.000			13.250			-3.313
63605.000			13.250			-3.312
63704.000			13.250			-3.313
63804.000			13.249			-3.312
63905.000			13.248			-3.312
64003.000			13.249			-3.312
64104.000			13.249			-3.312
64205.000			13.249			-3.312
64304.000			13.247			-3.312
64404.000			13.247			-3.312
64505.000			13.247			-3.312
64604.000			13.246			-3.311
64703.000			13.245			-3.311
64805.000			13.245			-3.311
64904.000			13.246			-3.311
65004.000			13.244			-3.311
65105.000			13.244			-3.311
65204.000			13.243			-3.311
65304.000			13.242			-3.310
65404.000			13.242			-3.310
65504.000			13.241			-3.310
65604.000			13.241			-3.310
65705.000			13.241			-3.310
65804.000			13.241			-3.310
65903.000			13.241			-3.310
66005.000			13.240			-3.310
66104.000			13.239			-3.310
66204.000			13.238			-3.310
66305.000			13.238			-3.310
66404.000			13.238			-3.310
66504.000			13.238			-3.310
66604.000			13.237			-3.309
66704.000			13.236			-3.309
66805.000			13.237			-3.309
66904.000			13.237			-3.309
67004.000			13.236			-3.309
67105.000			13.237			-3.309
67204.000			13.235			-3.309
67303.000			13.235			-3.309
67405.000			13.235			-3.309
67504.000			13.234			-3.309
67604.000			13.234			-3.308
67705.000			13.234			-3.308
67804.000			13.233			-3.308
67904.000			13.233			-3.308
68004.000			13.232			-3.308
68104.000			13.232			-3.308
68204.000			13.232			-3.308
68305.000			13.232			-3.308
68404.000			13.231			-3.308
68504.000			13.230			-3.307
68605.000			13.229			-3.307
68703.000			13.229			-3.307
68804.000			13.228			-3.307
68905.000			13.228			-3.307
69004.000			13.229			-3.307
69104.000			13.228			-3.307
69205.000			13.228			-3.307
69304.000			13.228			-3.307
69403.000			13.228			-3.307
69505.000			13.227			-3.307
69604.000			13.227			-3.307
69704.000			13.227			-3.307
69805.000			13.226			-3.307
69904.000			13.226			-3.307
70005.000			13.227			-3.307
70103.000			13.227			-3.307
70204.000			13.226			-3.307
70305.000			13.226			-3.306
70404.000			13.227			-3.307
70504.000			13.225			-3.306
70604.000			13.226			-3.306
70704.000			13.226			-3.306
70804.000			13.226			-3.307
70905.000			13.225			-3.306
71004.000			13.224			-3.306
71104.000			13.223			-3.306
71205.000			13.223			-3.306
71303.000			13.224			-3.306
71404.000			13.223			-3.306
71505.000			13.222			-3.306
71604.000			13.221			-3.305
71704.000			13.221			-3.305
71805.000			13.221			-3.305
71904.000			13.220			-3.305
72003.000			13.219			-3.305
72105.000			13.219			-3.305
72204.000			13.219			-3.305
72304.000			13.218			-3.304
72405.000			13.217			-3.304
72504.000			13.218			-3.304
72604.000			13.216			-3.304
72704.000			13.217			-3.304
72804.000			13.216			-3.304
72904.000			13.216			-3.304
73005.000			13.215			-3.304
73104.000			13.214			-3.304
73203.000			13.214			-3.303
73304.000			13.213			-3.303
73403.000			13.214			-3.303
73505.000			13.214			-3.303
73604.000			13.212			-3.303
73704.000			13.211			-3.303
73805.000			13.211			-3.303
73903.000			13.210			-3.303
74004.000			13.209			-3.302
74105.000			13.210			-3.302
74204.000			13.211			-3.303
74304.000			13.211			-3.303
74405.000			13.210			-3.302
74504.000			13.208			-3.302
74603.000			13.209			-3.302
74705.000			13.208			-3.302
74804.000			13.206			-3.302
74904.000			13.207			-3.302
75005.000			13.208			-3.302
75104.000			13.207			-3.302
75204.000			13.207			-3.302
75304.000			13.206			-3.302
75404.000			13.207			-3.302
75504.000			13.206			-3.302
75605.000			13.205			-3.301
75704.000			13.205			-3.301
75804.000			13.204			-3.301
75905.000			13.204			-3.301
76003.000			13.204			-3.301
76104.000			13.203			-3.301
76205.000			13.203			-3.301
76304.000			13.202			-3.301
76405.000			13.203			-3.301
76504.000			13.202			-3.301
76604.000			13.202			-3.301
76704.000			13.202			-3.300
76804.000			13.201			-3.300
76904.000			13.201			-3.300
77005.000			13.202			-3.300
77104.000			13.201			-3.300
77203.000			13.200			-3.300
77305.000			13.201			-3.300
77404.000			13.202			-3.300
77504.000			13.200			-3.300
77605.000			13.201			-3.300
77704.000			13.200			-3.300
77804.000			13.199			-3.300
77904.000			13.200			-3.300
78004.000			13.201			-3.300
78104.000			13.200			-3.300
78205.000			13.199			-3.300
78304.000			13.199			-3.300
78404.000			13.199			-3.300
78505.000			13.199			-3.300
78603.000			13.199			-3.300
78704.000			13.198			-3.300
78805.000			13.197			-3.299
78904.000			13.196			-3.299
79004.000			13.198			-3.299
79105.000			13.197			-3.299
79204.000			13.197			-3.299
79303.000			13.196			-3.299
79405.000			13.195			-3.299
79504.000			13.195			-3.299
79605.000			13.195			-3.299
79704.000			13.195			-3.299
79804.000			13.194			-3.298
79905.000			13.194			-3.298
80004.000			13.193			-3.298
80104.000			13.194			-3.298
80204.000			13.194			-3.299
80304.000			13.193			-3.298
80404.000			13.193			-3.298
80505.000			13.193			-3.298
80604.000			13.193			-3.298
80704.000			13.193			-3.298
80805.000			13.192			-3.298
80903.000			13.191			-3.298
81004.000			13.191			-3.298
81105.000			13.191			-3.298
81204.000			13.190			-3.297
81304.000			13.188			-3.297
81404.000			13.189			-3.297
81504.000			13.189			-3.297
81603.000			13.189			-3.297
81705.000			13.188			-3.297
81804.000			13.187			-3.297
81904.000			13.186			-3.297
82005.000			13.186			-3.296
82103.000			13.186			-3.297
82204.000			13.186			-3.296
82305.000			13.186			-3.296
82404.000			13.186			-3.297
82504.000			13.185			-3.296
82605.000			13.186			-3.296
82704.000			13.185			-3.296
82803.000			13.185			-3.296
82904.000			13.185			-3.296
83003.000			13.184			-3.296
83105.000			13.185			-3.296
83204.000			13.186			-3.296
83304.000			13.185			-3.296
83405.000			13.184			-3.296
83503.000			13.184			-3.296
83604.000			13.184			-3.296
83705.000			13.183			-3.296
83804.000			13.183			-3.296
83904.000			13.182			-3.296
84005.000			13.183			-3.296
84104.000			13.181			-3.295
84203.000			13.182			-3.295
84305.000			13.182			-3.296
84404.000			13.181			-3.295
84504.000			13.181			-3.295
84605.000			13.181			-3.295
84704.000			13.181			-3.295
84804.000			13.181			-3.295
84904.000			13.181			-3.295
85004.000			13.181			-3.295
85104.000			13.181			-3.295
85205.000			13.180			-3.295
85304.000			13.179			-3.295
85404.000			13.178			-3.295
85505.000			13.178			-3.295
85603.000			13.179			-3.295
85704.000			13.178			-3.295
85805.000			13.179			-3.295
85904.000			13.178			-3.295
86005.000			13.178			-3.294
86104.000			13.178			-3.294
86204.000			13.178			-3.294
86304.000			13.176			-3.294
86404.000			13.177			-3.294
86504.000			13.177			-3.294
86605.000			13.176			-3.294
86704.000			13.175			-3.294
86804.000			13.175			-3.294
86905.000			13.176			-3.294
87003.000			13.175			-3.294
87104.000			13.175			-3.294
87205.000			13.174			-3.294
87304.000			13.174			-3.293
87404.000			13.173			-3.293
87505.000			13.174			-3.293
87604.000			13.173			-3.293
87703.000			13.173			-3.293
87805.000			13.172			-3.293
87904.000			13.173			-3.293
88004.000			13.171			-3.293
88105.000			13.171			-3.293
88204.000			13.171			-3.293
88304.000			13.170			-3.293
88404.000			13.170			-3.293
88504.000			13.171			-3.293
88604.000			13.170			-3.292
88705.000			13.169			-3.292
88804.000			13.169			-3.292
88904.000			13.169			-3.292
89005.000			13.168			-3.292
89103.000			13.168			-3.292
89205.000			13.169			-3.292
89304.000			13.168			-3.292
89404.000			13.168			-3.292
89505.000			13.167			-3.292
89604.000			13.167			-3.292
89704.000			13.168			-3.292
89804.000			13.167			-3.292
89904.000			13.167			-3.292
90004.000			13.166			-3.292
90105.000			13.165			-3.291
90204.000			13.165			-3.291
90304.000			13.165			-3.291
90405.000			13.165			-3.291
90503.000			13.165			-3.291
90604.000			13.165			-3.291
90705.000			13.165			-3.291
90804.000			13.164			-3.291
90904.000			13.163			-3.291
91005.000			13.163			-3.291
91104.000			13.164			-3.291
91203.000			13.164			-3.291
91305.000			13.163			-3.291
91404.000			13.162			-3.290
91504.000			13.162			-3.290
91605.000			13.161			-3.290
91704.000			13.161			-3.290
91804.000			13.161			-3.290
91904.000			13.161			-3.290
92004.000			13.162			-3.290
92104.000			13.160			-3.290
92205.000			13.159			-3.290
92304.000			13.159			-3.290
92403.000			13.159			-3.290
92504.000			13.158			-3.290
92604.000			13.158			-3.290
92705.000			13.158			-3.289
92804.000			13.156			-3.289
92904.000			13.156			-3.289
93005.000			13.157			-3.289
93103.000			13.156			-3.289
93204.000			13.155			-3.289
93305.000			13.155			-3.289
93404.000			13.156			-3.289
93504.000			13.153			-3.288
93605.000			13.153			-3.288
93704.000			13.152			-3.288
93803.000			13.152			-3.288
93905.000			13.153			-3.288
94004.000			13.153			-3.288
94104.000			13.153			-3.288
94205.000			13.152			-3.288
94304.000			13.150			-3.288
94404.000			13.151			-3.288
94504.000			13.151			-3.288
94604.000			13.151			-3.288
94704.000			13.149			-3.287
94805.000			13.149			-3.287
94904.000			13.148			-3.287
95004.000			13.148			-3.287
95105.000			13.148			-3.287
95203.000			13.147			-3.287
95304.000			13.147			-3.287
95405.000			13.146			-3.287
95504.000			13.146			-3.286
95605.000			13.146			-3.286
95704.000			13.145			-3.286
95804.000			13.144			-3.286
95904.000			13.143			-3.286
96004.000			13.143			-3.286
96104.000			13.144			-3.286
96205.000			13.143			-3.286
96304.000			13.142			-3.286
96404.000			13.142			-3.285
96505.000			13.141			-3.285
96603.000			13.140			-3.285
96704.000			13.141			-3.285
96805.000			13.141			-3.285
96904.000			13.140			-3.285
97004.000			13.140			-3.285
97105.000			13.140			-3.285
97204.000			13.139			-3.285
97303.000			13.139			-3.285
97405.000			13.138			-3.284
97504.000			13.137			-3.284
97604.000			13.138			-3.285
97705.000			13.138			-3.285
97804.000			13.138			-3.284
97904.000			13.137			-3.284
98004.000			13.136			-3.284
98104.000			13.137			-3.284
98204.000			13.138			-3.284
98305.000			13.137			-3.284
98404.000			13.136			-3.284
98504.000			13.136			-3.284
98605.000			13.137			-3.284
98703.000			13.137			-3.284
98805.000			13.136			-3.284
98904.000			13.135			-3.284
99004.000			13.135			-3.284
99105.000			13.136			-3.284
99204.000			13.136			-3.284
99304.000			13.136			-3.284
99404.000			13.136			-3.284
99504.000			13.136			-3.284
99604.000			13.135			-3.284
99705.000			13.135			-3.284
99804.000			13.136			-3.284
99904.000			13.135			-3.284
100005.000			13.135			-3.284
100103.000			13.134			-3.284
100204.000			13.134			-3.284
100305.000			13.134			-3.284
100404.000			13.135			-3.284
100504.000			13.135			-3.284
100604.000			13.135			-3.284
100704.000			13.135			-3.284
100803.000			13.135			-3.284
100905.000			13.134			-3.284
101004.000			13.133			-3.283
101104.000			13.134			-3.283
101205.000			13.134			-3.284
101303.000			13.134			-3.284
101404.000			13.133			-3.283
101505.000			13.131			-3.283
101604.000			13.131			-3.283
101704.000			13.131			-3.283
101805.000			13.132			-3.283
101904.000			13.132			-3.283
102003.000			13.131			-3.283
102104.000			13.131			-3.283
102204.000			13.130			-3.282
102305.000			13.130			-3.282
102404.000			13.129			-3.282
102504.000			13.129			-3.282
102605.000			13.129			-3.282
102703.000			13.130			-3.282
102804.000			13.129			-3.282
102905.000			13.128			-3.282
103004.000			13.129			-3.282
103104.000			13.128			-3.282
103205.000			13.129			-3.282
103304.000			13.129			-3.282
103403.000			13.129			-3.282
103505.000			13.128			-3.282
103604.000			13.128			-3.282
103704.000			13.128			-3.282
103805.000			13.128			-3.282
103904.000			13.127			-3.282
104004.000			13.127			-3.282
104104.000			13.126			-3.282
104204.000			13.126			-3.282
104304.000			13.126			-3.281
104405.000			13.125			-3.281
104504.000			13.125			-3.281
104604.000			13.125			-3.281
104705.000			13.125			-3.281
104803.000			13.124			-3.281
104904.000			13.123			-3.281
105005.000			13.123			-3.281
105104.000			13.123			-3.281
105205.000			13.123			-3.281
105304.000			13.122			-3.281
105404.000			13.122			-3.281
105504.000			13.121			-3.280
105604.000			13.122			-3.281
105704.000			13.121			-3.280
105805.000			13.121			-3.280
105904.000			13.121			-3.280
106004.000			13.121			-3.280
106105.000			13.121			-3.280
106203.000			13.120			-3.280
106304.000			13.120			-3.280
106405.000			13.120			-3.280
106504.000			13.119			-3.280
106604.000			13.118			-3.279
106705.000			13.118			-3.279
106804.000			13.119			-3.280
106903.000			13.119			-3.280
107005.000			13.119			-3.280
107104.000			13.118			-3.280
107204.000			13.118			-3.279
107305.000			13.119			-3.280
107404.000			13.117			-3.279
107504.000			13.117			-3.279
107604.000			13.117			-3.279
107704.000			13.116			-3.279
107804.000			13.115			-3.279
107905.000			13.113			-3.278
108004.000			13.112			-3.278
108104.000			13.114			-3.279
108205.000			13.113			-3.278
108303.000			13.113			-3.278
108405.000			13.113			-3.278
108504.000			13.112			-3.278
108604.000			13.112			-3.278
108705.000			13.111			-3.278
108804.000			13.109			-3.277
108904.000			13.109			-3.277
109004.000			13.109			-3.277
109104.000			13.109			-3.277
109204.000			13.109			-3.277
109305.000			13.109			-3.277
109404.000			13.108			-3.277
109504.000			13.107			-3.277
109605.000			13.106			-3.276
109703.000			13.106			-3.277
109804.000			13.106			-3.277
109905.000			13.106			-3.277
110004.000			13.105			-3.276
110104.000			13.105			-3.276
110205.000			13.104			-3.276
110304.000			13.105			-3.276
110403.000			13.104			-3.276
110505.000			13.104			-3.276
110604.000			13.104			-3.276
110704.000			13.104			-3.276
110805.000			13.103			-3.276
110903.000			13.101			-3.275
111004.000			13.102			-3.276
111105.000			13.103			-3.276
111204.000			13.102			-3.275
111304.000			13.101			-3.275
111405.000			13.101			-3.275
111504.000			13.102			-3.275
111603.000			13.100			-3.275
111704.000			13.100			-3.275
111804.000			13.101			-3.275
111905.000			13.101			-3.275
112004.000			13.101			-3.275
112104.000			13.100			-3.275
112205.000			13.100			-3.275
112303.000			13.100			-3.275
112404.000			13.099			-3.275
112505.000			13.099			-3.275
112604.000			13.099			-3.275
112704.000			13.099			-3.275
112805.000			13.099			-3.275
112904.000			13.099			-3.275
113003.000			13.100			-3.275
113105.000			13.099			-3.275
113204.000			13.098			-3.275
113304.000			13.098			-3.274
113405.000			13.098			-3.275
113504.000			13.098			-3.274
113604.000			13.098			-3.274
113704.000			13.097			-3.274
113804.000			13.097			-3.274
113904.000			13.098			-3.275
114005.000			13.099			-3.275
114104.000			13.099			-3.275
114204.000			13.098			-3.275
114305.000			13.097			-3.274
114404.000			13.097			-3.274
114504.000			13.097			-3.274
114604.000			13.097			-3.274
114704.000			13.096			-3.274
114805.000			13.096			-3.274
114904.000			13.096			-3.274
115004.000			13.096			-3.274
115105.000			13.095			-3.274
115204.000			13.096			-3.274
115303.000			13.096			-3.274
115405.000			13.096			-3.274
115504.000			13.095			-3.274
115604.000			13.094			-3.274
115705.000			13.094			-3.274
115804.000			13.094			-3.273
115904.000			13.093			-3.273
116004.000			13.092			-3.273
116104.000			13.093			-3.273
116204.000			13.092			-3.273
116305.000			13.092			-3.273
116404.000			13.092			-3.273
116504.000			13.092			-3.273
116605.000			13.090			-3.273
116703.000			13.089			-3.272
116804.000			13.089			-3.272
116905.000			13.090			-3.272
117004.000			13.089			-3.272
117104.000			13.088			-3.272
117205.000			13.088			-3.272
117304.000			13.088			-3.272
117403.000			13.087			-3.272
117505.000			13.088			-3.272
117604.000			13.086			-3.271
117704.000			13.086			-3.271
117805.000			13.086			-3.271
117904.000			13.085			-3.271
118005.000			13.086			-3.272
118104.000			13.086			-3.272
118204.000			13.085			-3.271
118304.000			13.085			-3.271
118404.000			13.084			-3.271
118504.000			13.084			-3.271
118605.000			13.083			-3.271
118704.000			13.083			-3.271
118804.000			13.082			-3.271
118905.000			13.082			-3.271
119003.000			13.083			-3.271
119104.000			13.083			-3.271
119205.000			13.082			-3.271
119304.000			13.081			-3.270
119404.000			13.081			-3.270
119505.000			13.082			-3.270
119604.000			13.082			-3.270
119703.000			13.081			-3.270
119805.000			13.080			-3.270
119904.000			13.080			-3.270
120004.000			13.080			-3.270
120105.000			13.080			-3.270
120204.000			13.079			-3.270
120304.000			13.079			-3.270
120404.000			13.079			-3.270
120504.000			13.078			-3.269
120604.000			13.078			-3.269
120705.000			13.078			-3.269
120804.000			13.078			-3.269
120904.000			13.078			-3.270
121005.000			13.079			-3.270
121103.000			13.079			-3.270
121205.000			13.078			-3.269
121304.000			13.077			-3.269
121404.000			13.077			-3.269
121505.000			13.079			-3.270
121604.000			13.078			-3.269
121704.000			13.077			-3.269
121804.000			13.077			-3.269
121904.000			13.077			-3.269
122004.000			13.078			-3.269
122105.000			13.078			-3.270
122204.000			13.078			-3.270
122304.000			13.078			-3.270
122405.000			13.078			-3.270
122503.000			13.078			-3.270
122604.000			13.078			-3.269
122705.000			13.077			-3.269
122804.000			13.077			-3.269
122904.000			13.077			-3.269
123005.000			13.077			-3.269
123104.000			13.077			-3.269
123203.000			13.076			-3.269
123305.000			13.077			-3.269
123404.000			13.077			-3.269
123504.000			13.077			-3.269
123605.000			13.076			-3.269
123704.000			13.076			-3.269
123804.000			13.076			-3.269
123904.000			13.076			-3.269
124004.000			13.075			-3.269
124103.000			13.075			-3.269
124205.000			13.075			-3.269
124304.000			13.076			-3.269
124405.000			13.074			-3.268
124504.000			13.074			-3.269
124604.000			13.075			-3.269
124705.000			13.074			-3.269
124803.000			13.073			-3.268
124904.000			13.074			-3.268
125005.000			13.073			-3.268
125104.000			13.073			-3.268
125204.000			13.072			-3.268
125305.000			13.072			-3.268
125404.000			13.072			-3.268
125503.000			13.071			-3.268
125605.000			13.072			-3.268
125704.000			13.072			-3.268
125804.000			13.072			-3.268
125905.000			13.072			-3.268
126004.000			13.070			-3.268
126104.000			13.070			-3.267
126204.000			13.070			-3.268
126304.000			13.069			-3.267
126404.000			13.068			-3.267
126505.000			13.068			-3.267
126604.000			13.068			-3.267
126704.000			13.068			-3.267
126805.000			13.068			-3.267
126903.000			13.068			-3.267
127004.000			13.067			-3.267
127105.000			13.067			-3.267
127204.000			13.066			-3.267
127304.000			13.066			-3.266
127405.000			13.066			-3.266
127504.000			13.066			-3.267
127603.000			13.066			-3.266
127704.000			13.066			-3.266
127803.000			13.064			-3.266
127905.000			13.064			-3.266
128004.000			13.064			-3.266
128104.000			13.064			-3.266
128205.000			13.064			-3.266
128304.000			13.063			-3.266
128404.000			13.062			-3.266
128504.000			13.061			-3.265
128604.000			13.061			-3.265
128704.000			13.061			-3.265
128805.000			13.060			-3.265
128904.000			13.060			-3.265
129004.000			13.061			-3.265
129105.000			13.061			-3.265
129203.000			13.060			-3.265
129304.000			13.060			-3.265
129405.000			13.060			-3.265
129504.000			13.060			-3.265
129604.000			13.059			-3.265
129705.000			13.059			-3.265
129804.000			13.059			-3.265
129903.000			13.060			-3.265
130005.000			13.060			-3.265
130104.000			13.061			-3.265
130204.000			13.061			-3.265
130305.000			13.061			-3.265
130404.000			13.061			-3.265
130504.000			13.060			-3.265
130604.000			13.060			-3.265
130704.000			13.060			-3.265
130805.000			13.060			-3.265
130904.000			13.060			-3.265
131004.000			13.060			-3.265
131105.000			13.060			-3.265
131204.000			13.061			-3.265
131303.000			13.061			-3.265
131405.000			13.060			-3.265
131504.000			13.059			-3.265
131604.000			13.060			-3.265
131705.000			13.061			-3.265
131804.000			13.059			-3.265
131904.000			13.059			-3.265
132004.000			13.059			-3.265
132104.000			13.059			-3.265
132203.000			13.058			-3.265
132305.000			13.057			-3.264
132404.000			13.057			-3.264
132504.000			13.057			-3.264
132605.000			13.057			-3.264
132704.000			13.056			-3.264
132804.000			13.055			-3.264
132904.000			13.055			-3.264
133004.000			13.055			-3.264
133104.000			13.054			-3.264
133205.000			13.054			-3.263
133304.000			13.054			-3.264
133404.000			13.054			-3.264
133505.000			13.055			-3.264
133603.000			13.053			-3.263
133704.000			13.053			-3.263
133804.000			13.053			-3.263
133904.000			13.053			-3.263
134005.000			13.053			-3.263
134104.000			13.052			-3.263
134204.000			13.053			-3.263
134305.000			13.053			-3.263
134404.000			13.053			-3.263
134503.000			13.052			-3.263
134605.000			13.052			-3.263
134704.000			13.053			-3.263
134804.000			13.052			-3.263
134905.000			13.052			-3.263
135004.000			13.052			-3.263
135104.000			13.051			-3.263
135205.000			13.052			-3.263
135304.000			13.052			-3.263
135403.000			13.052			-3.263
135505.000			13.052			-3.263
135604.000			13.052			-3.263
135704.000			13.052			-3.263
135805.000			13.052			-3.263
135904.000			13.052			-3.263
136004.000			13.052			-3.263
136104.000			13.052			-3.263
136204.000			13.052			-3.263
136303.000			13.052			-3.263
136405.000			13.051			-3.263
136504.000			13.052			-3.263
136604.000			13.050			-3.263
136705.000			13.050			-3.262
136804.000			13.051			-3.263
136904.000			13.051			-3.263
137004.000			13.050			-3.262
137104.000			13.051			-3.263
137205.000			13.050			-3.263
137304.000			13.049			-3.262
137404.000			13.050			-3.262
137505.000			13.048			-3.262
137604.000			13.048			-3.262
137704.000			13.049			-3.262
137805.000			13.049			-3.262
137903.000			13.048			-3.262
138004.000			13.049			-3.262
138105.000			13.050			-3.262
138204.000			13.048			-3.262
138304.000			13.048			-3.262
138405.000			13.047			-3.262
138504.000			13.048			-3.262
138604.000			13.049			-3.262
138705.000			13.048			-3.262
138803.000			13.048			-3.262
138904.000			13.047			-3.262
139005.000			13.047			-3.262
139104.000			13.047			-3.262
139204.000			13.046			-3.261
139305.000			13.046			-3.262
139404.000			13.045			-3.261
139504.000			13.045			-3.261
139605.000			13.045			-3.261
139703.000			13.045			-3.261
139804.000			13.045			-3.261
139905.000			13.043			-3.261
140004.000			13.043			-3.261
140104.000			13.043			-3.261
140205.000			13.042			-3.261
140304.000			13.042			-3.261
140403.000			13.042			-3.260
140504.000			13.041			-3.260
140603.000			13.041			-3.260
140705.000			13.041			-3.260
140804.000			13.040			-3.260
140904.000			13.041			-3.260
141005.000			13.040			-3.260
141104.000			13.039			-3.260
141204.000			13.039			-3.260
141304.000			13.038			-3.259
141404.000			13.037			-3.259
141504.000			13.038			-3.259
141605.000			13.037			-3.259
141704.000			13.037			-3.259
141804.000			13.037			-3.259
141905.000			13.038			-3.260
142003.000			13.037			-3.259
142104.000			13.036			-3.259
142205.000			13.036			-3.259
142304.000			13.036			-3.259
142404.000			13.035			-3.259
142505.000			13.035			-3.259
142604.000			13.035			-3.259
142704.000			13.034			-3.259
142805.000			13.035			-3.259
142903.000			13.034			-3.259
143004.000			13.034			-3.258
143105.000			13.034			-3.258
143204.000			13.033			-3.258
143304.000			13.033			-3.258
143405.000			13.033			-3.258
143504.000			13.032			-3.258
143603.000			13.032			-3.258
143704.000			13.032			-3.258
143804.000			13.031			-3.258
143905.000			13.033			-3.258
144004.000			13.032			-3.258
144104.000			13.031			-3.258
144205.000			13.030			-3.258
144304.000			13.030			-3.257
144404.000			13.030			-3.258
144504.000			13.031			-3.258
144604.000			13.030			-3.258
144704.000			13.029			-3.257
144805.000			13.030			-3.257
144904.000			13.030			-3.258
145004.000			13.029			-3.257
145105.000			13.029			-3.257
145203.000			13.029			-3.257
145304.000			13.029			-3.257
145405.000			13.029			-3.257
145504.000			13.029			-3.257
145604.000			13.030			-3.257
145705.000			13.028			-3.257
145804.000			13.028			-3.257
145904.000			13.028			-3.257
146005.000			13.028			-3.257
146103.000			13.027			-3.257
146204.000			13.027			-3.257
146305.000			13.027			-3.257
146404.000			13.027			-3.257
146504.000			13.027			-3.257
146605.000			13.027			-3.257
146704.000			13.027			-3.257
146805.000			13.028			-3.257
146904.000			13.028			-3.257
147003.000			13.027			-3.257
147105.000			13.026			-3.257
147204.000			13.026			-3.257
147304.000			13.025			-3.256
147405.000			13.024			-3.256
147504.000			13.025			-3.256
147604.000			13.026			-3.256
147704.000			13.025			-3.256
147804.000			13.025			-3.256
147903.000			13.023			-3.256
148005.000			13.023			-3.256
148104.000			13.023			-3.256
148204.000			13.024			-3.256
148305.000			13.024			-3.256
148404.000			13.023			-3.256
148504.000			13.023			-3.256
148604.000			13.022			-3.256
148704.000			13.022			-3.256
148804.000			13.022			-3.255
148905.000			13.021			-3.255
149004.000			13.021			-3.255
149104.000			13.022			-3.255
149205.000			13.022			-3.256
149303.000			13.020			-3.255
149404.000			13.020			-3.255
149504.000			13.021			-3.255
149604.000			13.020			-3.255
149704.000			13.020			-3.255
149805.000			13.020			-3.255
149904.000			13.019			-3.255
150005.000			13.018			-3.255
150104.000			13.018			-3.254
150203.000			13.018			-3.255
150305.000			13.018			-3.255
150404.000			13.019			-3.255
150504.000			13.019			-3.255
150605.000			13.018			-3.255
150704.000			13.019			-3.255
150804.000			13.019			-3.255
150905.000			13.019			-3.255
151004.000			13.019			-3.255
151103.000			13.019			-3.255
151205.000			13.019			-3.255
151304.000			13.019			-3.255
151404.000			13.019			-3.255
151505.000			13.019			-3.255
151604.000			13.019			-3.255
151704.000			13.020			-3.255
151804.000			13.019			-3.255
151904.000			13.020			-3.255
152004.000			13.020			-3.255
152105.000			13.019			-3.255
152204.000			13.020			-3.255
152304.000			13.019			-3.255
152405.000			13.019			-3.255
152504.000			13.020			-3.255
152604.000			13.020			-3.255
152704.000			13.019			-3.255
152804.000			13.019			-3.255
152904.000			13.019			-3.255
153005.000			13.019			-3.255
153104.000			13.019			-3.255
153205.000			13.020			-3.255
153304.000			13.019			-3.255
153404.000			13.018			-3.255
153505.000			13.018			-3.254
153603.000			13.017			-3.254
153704.000			13.017			-3.254
153805.000			13.018			-3.254
153904.000			13.017			-3.254
154004.000			13.018			-3.254
154105.000			13.018			-3.255
154204.000			13.018			-3.254
154303.000			13.018			-3.255
154405.000			13.019			-3.255
154504.000			13.017			-3.254
154604.000			13.017			-3.254
154705.000			13.016			-3.254
154804.000			13.017			-3.254
154904.000			13.017			-3.254
155005.000			13.017			-3.254
155104.000			13.017			-3.254
155203.000			13.016			-3.254
155305.000			13.015			-3.254
155404.000			13.016			-3.254
155504.000			13.016			-3.254
155605.000			13.016			-3.254
155704.000			13.016			-3.254
155804.000			13.015			-3.254
155904.000			13.015			-3.254
156004.000			13.013			-3.253
156103.000			13.013			-3.253
156205.000			13.013			-3.253
156304.000			13.013			-3.253
156405.000			13.013			-3.253
156504.000			13.012			-3.253
156604.000			13.011			-3.253
156705.000			13.011			-3.253
156803.000			13.011			-3.253
156904.000			13.010			-3.253
157005.000			13.010			-3.252
157104.000			13.010			-3.252
157204.000			13.010			-3.252
157305.000			13.010			-3.252
157404.000			13.009			-3.252
157504.000			13.008			-3.252
157605.000			13.007			-3.252
157703.000			13.007			-3.252
157804.000			13.006			-3.251
157905.000			13.007			-3.252
158004.000			13.007			-3.252
158104.000			13.007			-3.252
158205.000			13.006			-3.252
158304.000			13.006			-3.251
158404.000			13.005			-3.251
158505.000			13.004			-3.251
158603.000			13.004			-3.251
158704.000			13.004			-3.251
158805.000			13.005			-3.251
158904.000			13.004			-3.251
159004.000			13.004			-3.251
159105.000			13.004			-3.251
159204.000			13.004			-3.251
159303.000			13.003			-3.251
159405.000			13.004			-3.251
159504.000			13.003			-3.251
159605.000			13.002			-3.251
159704.000			13.001			-3.250
159804.000			13.002			-3.250
159905.000			13.001			-3.250
160004.000			13.000			-3.250
160104.000			13.000			-3.250
160204.000			12.999			-3.250
160304.000			13.000			-3.250
160404.000			13.002			-3.250
160505.000			13.001			-3.250
160604.000			13.001			-3.250
160704.000			12.999			-3.250
160805.000			12.999			-3.250
160904.000			12.999			-3.250
161004.000			12.998			-3.249
161104.000			13.000			-3.250
161204.000			12.999			-3.250
161304.000			12.998			-3.250
161405.000			12.998			-3.249
161504.000			12.998			-3.249
161604.000			12.998			-3.250
161705.000			12.998			-3.250
161804.000			12.997			-3.249
161904.000			12.998			-3.249
162004.000			12.998			-3.249
162104.000			12.996			-3.249
162203.000			12.998			-3.249
162305.000			12.998			-3.249
162404.000			12.996			-3.249
162504.000			12.996			-3.249
162605.000			12.997			-3.249
162704.000			12.998			-3.249
162805.000			12.997			-3.249
162903.000			12.996			-3.249
163004.000			12.997			-3.249
163104.000			12.996			-3.249
163204.000			12.997			-3.249
163304.000			12.996			-3.249
163405.000			12.995			-3.249
163504.000			12.995			-3.249
163604.000			12.996			-3.249
163705.000			12.995			-3.249
163804.000			12.995			-3.249
163904.000			12.995			-3.249
164004.000			12.996			-3.249
164104.000			12.995			-3.249
164204.000			12.993			-3.248
164305.000			12.994			-3.248
164404.000			12.994			-3.248
164504.000			12.993			-3.248
164605.000			12.994			-3.248
164704.000			12.993			-3.248
164804.000			12.992			-3.248
164904.000			12.993			-3.248
165004.000			12.994			-3.248
165104.000			12.994			-3.248
165205.000			12.993			-3.248
165304.000			12.993			-3.248
165404.000			12.992			-3.248
165505.000			12.992			-3.248
165604.000			12.993			-3.248
165704.000			12.994			-3.248
165804.000			12.993			-3.248
165904.000			12.993			-3.248
166003.000			12.994			-3.248
166104.000			12.993			-3.248
166204.000			12.992			-3.248
166305.000			12.994			-3.248
166404.000			12.993			-3.248
166504.000			12.992			-3.248
166605.000			12.992			-3.248
166703.000			12.991			-3.248
166804.000			12.992			-3.248
166904.000			12.992			-3.248
167004.000			12.990			-3.248
167104.000			12.990			-3.248
167205.000			12.990			-3.248
167304.000			12.990			-3.247
167404.000			12.989			-3.247
167505.000			12.990			-3.248
167603.000			12.991			-3.248
167704.000			12.991			-3.248
167804.000			12.990			-3.248
167904.000			12.990			-3.248
168004.000			12.991			-3.248
168105.000			12.990			-3.248
168204.000			12.990			-3.247
168304.000			12.989			-3.247
168405.000			12.989			-3.247
168504.000			12.988			-3.247
168604.000			12.989			-3.247
168704.000			12.988			-3.247
168804.000			12.988			-3.247
168904.000			12.987			-3.247
169005.000			12.986			-3.246
169104.000			12.987			-3.247
169205.000			12.986			-3.247
169304.000			12.985			-3.246
169404.000			12.985			-3.246
169505.000			12.984			-3.246
169603.000			12.984			-3.246
169704.000			12.985			-3.246
169804.000			12.986			-3.246
169904.000			12.984			-3.246
170004.000			12.983			-3.246
170105.000			12.983			-3.246
170204.000			12.983			-3.246
170304.000			12.984			-3.246
170405.000			12.983			-3.246
170504.000			12.983			-3.246
170604.000			12.983			-3.246
170704.000			12.983			-3.246
170804.000			12.983			-3.246
170904.000			12.982			-3.246
171005.000			12.982			-3.245
171104.000			12.981			-3.245
171204.000			12.981			-3.245
171305.000			12.980			-3.245
171403.000			12.980			-3.245
171504.000			12.980			-3.245
171604.000			12.981			-3.245
171704.000			12.981			-3.245
171804.000			12.981			-3.245
171905.000			12.980			-3.245
172004.000			12.980			-3.245
172104.000			12.979			-3.245
172205.000			12.979			-3.245
172304.000			12.979			-3.245
172405.000			12.980			-3.245
172503.000			12.980			-3.245
172604.000			12.979			-3.245
172705.000			12.978			-3.245
172804.000			12.980			-3.245
172904.000			12.980			-3.245
173005.000			12.980			-3.245
173104.000			12.979			-3.245
173204.000			12.979			-3.245
173305.000			12.978			-3.245
173403.000			12.978			-3.245
173504.000			12.977			-3.244
173605.000			12.977			-3.244
173704.000			12.978			-3.244
173804.000			12.978			-3.244
173905.000			12.978			-3.244
174004.000			12.977			-3.244
174104.000			12.976			-3.244
174205.000			12.976			-3.244
174303.000			12.976			-3.244
174404.000			12.976			-3.244
174505.000			12.975			-3.244
174604.000			12.976			-3.244
174704.000			12.976			-3.244
174805.000			12.976			-3.244
174904.000			12.977			-3.244
175004.000			12.976			-3.244
175105.000			12.975			-3.244
175203.000			12.975			-3.244
175304.000			12.974			-3.244
175405.000			12.975			-3.244
175504.000			12.976			-3.244
175605.000			12.975			-3.244
175704.000			12.974			-3.244
175804.000			12.974			-3.244
175905.000			12.973			-3.243
176004.000			12.974			-3.243
176103.000			12.974			-3.244
176205.000			12.974			-3.243
176303.000			12.974			-3.244
176404.000			12.973			-3.243
176505.000			12.972			-3.243
176604.000			12.973			-3.243
176704.000			12.972			-3.243
176805.000			12.971			-3.243
176904.000			12.971			-3.243
177003.000			12.971			-3.243
177105.000			12.972			-3.243
177203.000			12.972			-3.243
177304.000			12.971			-3.243
177405.000			12.972			-3.243
177504.000			12.972			-3.243
177604.000			12.972			-3.243
177705.000			12.972			-3.243
177804.000			12.971			-3.243
177903.000			12.970			-3.243
178005.000			12.970			-3.242
178103.000			12.970			-3.243
178204.000			12.970			-3.243
178305.000			12.971			-3.243
178404.000			12.971			-3.243
178504.000			12.971			-3.243
178605.000			12.972			-3.243
178704.000			12.971			-3.243
178805.000			12.971			-3.243
178904.000			12.971			-3.243
179003.000			12.971			-3.243
179105.000			12.971			-3.243
179204.000			12.972			-3.243
179304.000			12.971			-3.243
179405.000			12.972			-3.243
179504.000			12.972			-3.243
179604.000			12.973			-3.243
179705.000			12.972			-3.243
179804.000			12.972			-3.243
179903.000			12.972			-3.243
180005.000			12.972			-3.243
180104.000			12.973			-3.243
180204.000			12.973			-3.243
180305.000			12.973			-3.243
180404.000			12.973			-3.243
180504.000			12.972			-3.243
180605.000			12.973			-3.243
180704.000			12.973			-3.243
180803.000			12.972			-3.243
180905.000			12.973			-3.243
181004.000			12.972			-3.243
181104.000			12.972			-3.243
181205.000			12.972			-3.243
181304.000			12.973			-3.243
181404.000			12.972			-3.243
181505.000			12.972			-3.243
181604.000			12.971			-3.243
181703.000			12.971			-3.243
181805.000			12.971			-3.243
181904.000			12.971			-3.243
182005.000			12.971			-3.243
182104.000			12.971			-3.243
182204.000			12.972			-3.243
182305.000			12.972			-3.243
182404.000			12.971			-3.243
182504.000			12.971			-3.243
182604.000			12.971			-3.243
182704.000			12.971			-3.243
182804.000			12.971			-3.243
182905.000			12.972			-3.243
183004.000			12.971			-3.243
183104.000			12.971			-3.243
183205.000			12.971			-3.243
183304.000			12.971			-3.243
183404.000			12.970			-3.243
183504.000			12.969			-3.242
183604.000			12.969			-3.242
183704.000			12.969			-3.242
183805.000			12.968			-3.242
183904.000			12.968			-3.242
184004.000			12.968			-3.242
184105.000			12.968			-3.242
184204.000			12.968			-3.242
184304.000			12.967			-3.242
184404.000			12.967			-3.242
184504.000			12.967			-3.242
184603.000			12.967			-3.242
184705.000			12.967			-3.242
184804.000			12.966			-3.242
184904.000			12.966			-3.241
185005.000			12.966			-3.242
185104.000			12.965			-3.241
185205.000			12.965			-3.241
185304.000			12.965			-3.241
185404.000			12.966			-3.242
185504.000			12.967			-3.242
185604.000			12.966			-3.242
185704.000			12.966			-3.241
185805.000			12.965			-3.241
185904.000			12.964			-3.241
186004.000			12.964			-3.241
186105.000			12.965			-3.241
186204.000			12.964			-3.241
186304.000			12.964			-3.241
186404.000			12.963			-3.241
186504.000			12.964			-3.241
186604.000			12.964			-3.241
186705.000			12.964			-3.241
186804.000			12.963			-3.241
186904.000			12.963			-3.241
187005.000			12.963			-3.241
187104.000			12.964			-3.241
187204.000			12.964			-3.241
187304.000			12.963			-3.241
187404.000			12.964			-3.241
187503.000			12.963			-3.241
187605.000			12.962			-3.241
187704.000			12.962			-3.240
187804.000			12.962			-3.241
187905.000			12.962			-3.241
188004.000			12.961			-3.240
188104.000			12.961			-3.240
188204.000			12.961			-3.240
188304.000			12.961			-3.240
188403.000			12.961			-3.240
188504.000			12.960			-3.240
188604.000			12.960			-3.240
188705.000			12.960			-3.240
188804.000			12.959			-3.240
188904.000			12.959			-3.240
189005.000			12.960			-3.240
189104.000			12.959			-3.240
189204.000			12.960			-3.240
189304.000			12.960			-3.240
189404.000			12.959			-3.240
189503.000			12.959			-3.240
189605.000			12.958			-3.240
189704.000			12.958			-3.239
189804.000			12.958			-3.240
189905.000			12.958			-3.239
190004.000			12.958			-3.239
190104.000			12.959			-3.240
190204.000			12.958			-3.240
190304.000			12.958			-3.239
190403.000			12.958			-3.239
190505.000			12.957			-3.239
190604.000			12.956			-3.239
190704.000			12.958			-3.239
190805.000			12.958			-3.239
190904.000			12.956			-3.239
191004.000			12.956			-3.239
191105.000			12.957			-3.239
191204.000			12.957			-3.239
191303.000			12.957			-3.239
191405.000			12.956			-3.239
191504.000			12.955			-3.239
191605.000			12.956			-3.239
191704.000			12.955			-3.239
191804.000			12.955			-3.239
191905.000			12.955			-3.239
192004.000			12.955			-3.239
192104.000			12.955			-3.239
192204.000			12.955			-3.239
192304.000			12.955			-3.239
192404.000			12.955			-3.239
192505.000			12.954			-3.239
192604.000			12.954			-3.238
192704.000			12.954			-3.239
192805.000			12.954			-3.238
192904.000			12.953			-3.238
193004.000			12.953			-3.238
193104.000			12.953			-3.238
193204.000			12.954			-3.238
193303.000			12.953			-3.238
193405.000			12.953			-3.238
193504.000			12.953			-3.238
193604.000			12.953			-3.238
193705.000			12.953			-3.238
193804.000			12.953			-3.238
193904.000			12.953			-3.238
194004.000			12.953			-3.238
194104.000			12.953			-3.238
194203.000			12.952			-3.238
194305.000			12.952			-3.238
194404.000			12.952			-3.238
194504.000			12.953			-3.238
194605.000			12.952			-3.238
194704.000			12.951			-3.238
194805.000			12.950			-3.238
194903.000			12.952			-3.238
195004.000			12.952			-3.238
195104.000			12.951			-3.238
195204.000			12.950			-3.238
195304.000			12.951			-3.238
195405.000			12.951			-3.238
195504.000			12.950			-3.238
195604.000			12.951			-3.238
195705.000			12.951			-3.238
195803.000			12.951			-3.238
195904.000			12.950			-3.237
196004.000			12.950			-3.238
196104.000			12.949			-3.237
196204.000			12.950			-3.237
196305.000			12.950			-3.237
196404.000			12.949			-3.237
196504.000			12.949			-3.237
196605.000			12.948			-3.237
196704.000			12.948			-3.237
196804.000			12.948			-3.237
196904.000			12.948			-3.237
197004.000			12.948			-3.237
197104.000			12.948			-3.237
197205.000			12.948			-3.237
197304.000			12.948			-3.237
197404.000			12.947			-3.237
197505.000			12.946			-3.237
197604.000			12.946			-3.237
197704.000			12.947			-3.237
197804.000			12.945			-3.236
197904.000			12.946			-3.237
198003.000			12.946			-3.236
198104.000			12.945			-3.236
198204.000			12.944			-3.236
198305.000			12.945			-3.236
198404.000			12.945			-3.236
198504.000			12.944			-3.236
198605.000			12.943			-3.236
198704.000			12.943			-3.236
198804.000			12.943			-3.236
198904.000			12.943			-3.236
199004.000			12.942			-3.235
199104.000			12.941			-3.235
199205.000			12.941			-3.235
199304.000			12.942			-3.236
199404.000			12.942			-3.236
199505.000			12.941			-3.235
199604.000			12.940			-3.235
199704.000			12.940			-3.235
199804.000			12.939			-3.235
199904.000			12.939			-3.235
200004.000			12.940			-3.235
200105.000			12.939			-3.235
200204.000			12.938			-3.235
200304.000			12.938			-3.234
200405.000			12.939			-3.235
200504.000			12.939			-3.235
200604.000			12.939			-3.235
200704.000			12.939			-3.235
200804.000			12.938			-3.235
200904.000			12.939			-3.235
201005.000			12.939			-3.235
201104.000			12.938			-3.235
201205.000			12.939			-3.235
201304.000			12.941			-3.235
201404.000			12.941			-3.235
201505.000			12.940			-3.235
201603.000			12.940			-3.235
201704.000			12.940			-3.235
201805.000			12.939			-3.235
201904.000			12.939			-3.235
202004.000			12.940			-3.235
202105.000			12.940			-3.235
202204.000			12.940			-3.235
202303.000			12.940			-3.235
202405.000			12.939			-3.235
202503.000			12.939			-3.235
202604.000			12.938			-3.235
202705.000			12.939			-3.235
202804.000			12.940			-3.235
202904.000			12.940			-3.235
203005.000			12.939			-3.235
203104.000			12.939			-3.235
203203.000			12.940			-3.235
203305.000			12.940			-3.235
203404.000			12.939			-3.235
203504.000			12.938			-3.234
203605.000			12.938			-3.235
203704.000			12.938			-3.235
203804.000			12.938			-3.234
203905.000			12.938			-3.235
204004.000			12.937			-3.234
204103.000			12.937			-3.234
204205.000			12.939			-3.235
204304.000			12.939			-3.235
204405.000			12.938			-3.235
204504.000			12.937			-3.234
204604.000			12.937			-3.234
204705.000			12.937			-3.234
204804.000			12.937			-3.234
204904.000			12.937			-3.234
205004.000			12.937			-3.234
205104.000			12.937			-3.234
205204.000			12.936			-3.234
205305.000			12.935			-3.234
205404.000			12.935			-3.234
205504.000			12.935			-3.234
205605.000			12.936			-3.234
205703.000			12.936			-3.234
205804.000			12.936			-3.234
205904.000			12.936			-3.234
206004.000			12.935			-3.234
206104.000			12.935			-3.234
206205.000			12.936			-3.234
206304.000			12.935			-3.234
206404.000			12.934			-3.233
206505.000			12.934			-3.233
206603.000			12.935			-3.234
206704.000			12.935			-3.234
206805.000			12.935			-3.234
206904.000			12.933			-3.233
207004.000			12.933			-3.233
207105.000			12.934			-3.233
207204.000			12.932			-3.233
207304.000			12.932			-3.233
207405.000			12.932			-3.233
207503.000			12.932			-3.233
207605.000			12.932			-3.233
207704.000			12.932			-3.233
207804.000			12.931			-3.233
207905.000			12.931			-3.233
208004.000			12.931			-3.233
208104.000			12.930			-3.233
208205.000			12.930			-3.232
208304.000			12.930			-3.233
208403.000			12.931			-3.233
208505.000			12.931			-3.233
208604.000			12.930			-3.233
208704.000			12.929			-3.232
208805.000			12.928			-3.232
208904.000			12.929			-3.232
209004.000			12.929			-3.232
209104.000			12.929			-3.232
209204.000			12.928			-3.232
209303.000			12.929			-3.232
209405.000			12.928			-3.232
209504.000			12.928			-3.232
209604.000			12.928			-3.232
209705.000			12.928			-3.232
209804.000			12.927			-3.232
209904.000			12.927			-3.232
210004.000			12.927			-3.232
210104.000			12.928			-3.232
210203.000			12.929			-3.232
210305.000			12.929			-3.232
210404.000			12.928			-3.232
210504.000			12.927			-3.232
210605.000			12.927			-3.232
210704.000			12.927			-3.232
210805.000			12.928			-3.232
210903.000			12.927			-3.232
211004.000			12.926			-3.232
211105.000			12.926			-3.232
211204.000			12.927			-3.232
211304.000			12.927			-3.232
211405.000			12.926			-3.232
211504.000			12.926			-3.232
211604.000			12.926			-3.232
211705.000			12.927			-3.232
211803.000			12.926			-3.232
211904.000			12.925			-3.231
212005.000			12.926			-3.232
212104.000			12.926			-3.232
212204.000			12.926			-3.232
212305.000			12.926			-3.231
212404.000			12.925			-3.231
212503.000			12.925			-3.231
212605.000			12.925			-3.231
212703.000			12.925			-3.231
212804.000			12.925			-3.231
212905.000			12.926			-3.231
213004.000			12.926			-3.231
213104.000			12.925			-3.231
213205.000			12.925			-3.231
213304.000			12.925			-3.231
213403.000			12.925			-3.231
213505.000			12.925			-3.231
213604.000			12.925			-3.231
213704.000			12.925			-3.231
213805.000			12.925			-3.231
213904.000			12.924			-3.231
214005.000			12.925			-3.231
214104.000			12.925			-3.231
214204.000			12.924			-3.231
214304.000			12.924			-3.231
214404.000			12.923			-3.231
214504.000			12.923			-3.231
214605.000			12.922			-3.231
214704.000			12.923			-3.231
214804.000			12.924			-3.231
214905.000			12.921			-3.230
215004.000			12.921			-3.230
215104.000			12.921			-3.230
215204.000			12.921			-3.230
215304.000			12.920			-3.230
215404.000			12.921			-3.230
215505.000			12.921			-3.230
215604.000			12.920			-3.230
215704.000			12.920			-3.230
215805.000			12.920			-3.230
215903.000			12.920			-3.230
216004.000			12.919			-3.230
216105.000			12.919			-3.230
216204.000			12.920			-3.230
216304.000			12.919			-3.230
216405.000			12.919			-3.230
216504.000			12.918			-3.229
216604.000			12.918			-3.230
216705.000			12.918			-3.230
216803.000			12.918			-3.229
216904.000			12.917			-3.229
217005.000			12.917			-3.229
217104.000			12.917			-3.229
217205.000			12.916			-3.229
217304.000			12.916			-3.229
217404.000			12.916			-3.229
217505.000			12.917			-3.229
217604.000			12.917			-3.229
217703.000			12.916			-3.229
217805.000			12.915			-3.229
217904.000			12.915			-3.229
218004.000			12.914			-3.229
218105.000			12.914			-3.228
218204.000			12.913			-3.228
218304.000			12.914			-3.229
218405.000			12.915			-3.229
218504.000			12.913			-3.228
218603.000			12.913			-3.228
218705.000			12.912			-3.228
218804.000			12.912			-3.228
218904.000			12.912			-3.228
219005.000			12.912			-3.228
219104.000			12.912			-3.228
219204.000			12.911			-3.228
219305.000			12.911			-3.228
219404.000			12.911			-3.228
219503.000			12.911			-3.228
219605.000			12.911			-3.228
219704.000			12.911			-3.228
219804.000			12.911			-3.228
219905.000			12.910			-3.227
220004.000			12.909			-3.227
220104.000			12.909			-3.227
220204.000			12.909			-3.227
220304.000			12.909			-3.227
220403.000			12.909			-3.227
220504.000			12.909			-3.227
220604.000			12.909			-3.227
220705.000			12.909			-3.227
220804.000			12.910			-3.227
220904.000			12.908			-3.227
221005.000			12.907			-3.227
221103.000			12.907			-3.227
221204.000			12.908			-3.227
221305.000			12.908			-3.227
221404.000			12.908			-3.227
221504.000			12.908			-3.227
221605.000			12.908			-3.227
221704.000			12.907			-3.227
221804.000			12.908			-3.227
221905.000			12.907			-3.227
222003.000			12.906			-3.227
222104.000			12.907			-3.227
222205.000			12.906			-3.227
222304.000			12.907			-3.227
222404.000			12.907			-3.227
222505.000			12.906			-3.227
222604.000			12.907			-3.227
222704.000			12.908			-3.227
222805.000			12.907			-3.227
222903.000			12.906			-3.226
223004.000			12.907			-3.227
223105.000			12.907			-3.227
223204.000			12.906			-3.226
223304.000			12.906			-3.226
223405.000			12.906			-3.226
223504.000			12.906			-3.226
223603.000			12.906			-3.226
223704.000			12.905			-3.226
223803.000			12.906			-3.226
223905.000			12.905			-3.226
224004.000			12.905			-3.226
224104.000			12.905			-3.226
224205.000			12.906			-3.226
224304.000			12.905			-3.226
224404.000			12.904			-3.226
224504.000			12.904			-3.226
224604.000			12.904			-3.226
224704.000			12.905			-3.226
224805.000			12.904			-3.226
224904.000			12.904			-3.226
225004.000			12.905			-3.226
225105.000			12.904			-3.226
225204.000			12.904			-3.226
225304.000			12.905			-3.226
225404.000			12.905			-3.226
225504.000			12.904			-3.226
225604.000			12.905			-3.226
225705.000			12.905			-3.226
225804.000			12.905			-3.226
225904.000			12.906			-3.227
226005.000			12.906			-3.226
226104.000			12.906			-3.227
226204.000			12.906			-3.227
226304.000			12.906			-3.226
226404.000			12.906			-3.226
226504.000			12.905			-3.226
226605.000			12.905			-3.226
226704.000			12.905			-3.226
226805.000			12.905			-3.226
226904.000			12.905			-3.226
227004.000			12.906			-3.226
227105.000			12.904			-3.226
227203.000			12.905			-3.226
227304.000			12.904			-3.226
227405.000			12.904			-3.226
227504.000			12.904			-3.226
227604.000			12.904			-3.226
227705.000			12.904			-3.226
227804.000			12.905			-3.226
227903.000			12.904			-3.226
228005.000			12.903			-3.226
228103.000			12.903			-3.226
228204.000			12.903			-3.226
228305.000			12.903			-3.226
228404.000			12.903			-3.226
228504.000			12.902			-3.225
228605.000			12.902			-3.225
228704.000			12.901			-3.225
228803.000			12.901			-3.225
228905.000			12.901			-3.225
229004.000			12.900			-3.225
229104.000			12.900			-3.225
229205.000			12.900			-3.225
229304.000			12.901			-3.225
229404.000			12.900			-3.225
229505.000			12.900			-3.225
229604.000			12.900			-3.225
229703.000			12.900			-3.225
229805.000			12.899			-3.225
229904.000			12.898			-3.225
230005.000			12.899			-3.225
230104.000			12.897			-3.224
230204.000			12.898			-3.224
230305.000			12.898			-3.224
230404.000			12.898			-3.225
230504.000			12.898			-3.224
230604.000			12.897			-3.224
230704.000			12.898			-3.224
230803.000			12.899			-3.225
230905.000			12.897			-3.224
231004.000			12.897			-3.224
231104.000			12.897			-3.224
231205.000			12.897			-3.224
231304.000			12.896			-3.224
231404.000			12.895			-3.224
231504.000			12.895			-3.224
231604.000			12.896			-3.224
231703.000			12.896			-3.224
231805.000			12.896			-3.224
231904.000			12.895			-3.224
232004.000			12.895			-3.224
232105.000			12.895			-3.224
232204.000			12.896			-3.224
232304.000			12.894			-3.223
232404.000			12.895			-3.224
232504.000			12.895			-3.224
232603.000			12.894			-3.223
232705.000			12.894			-3.224
232804.000			12.894			-3.224
232904.000			12.894			-3.224
233005.000			12.894			-3.223
233104.000			12.893			-3.223
233205.000			12.894			-3.223
233303.000			12.894			-3.223
233404.000			12.893			-3.223
233504.000			12.893			-3.223
233604.000			12.893			-3.223
233704.000			12.892			-3.223
233805.000			12.894			-3.223
233904.000			12.894			-3.223
234004.000			12.893			-3.223
234105.000			12.893			-3.223
234203.000			12.892			-3.223
234304.000			12.892			-3.223
234404.000			12.892			-3.223
234504.000			12.892			-3.223
234604.000			12.892			-3.223
234705.000			12.892			-3.223
234804.000			12.892			-3.223
234904.000			12.893			-3.223
235005.000			12.892			-3.223
235103.000			12.891			-3.223
235204.000			12.891			-3.223
235304.000			12.891			-3.223
235404.000			12.891			-3.223
235504.000			12.891			-3.223
235605.000			12.891			-3.223
235704.000			12.891			-3.223
235804.000			12.891			-3.223
235905.000			12.891			-3.223
236003.000			12.891			-3.223
236104.000			12.890			-3.223
236205.000			12.890			-3.223
236304.000			12.891			-3.223
236405.000			12.891			-3.223
236504.000			12.891			-3.223
236604.000			12.890			-3.222
236705.000			12.890			-3.222
236804.000			12.890			-3.223
236903.000			12.890			-3.222
237005.000			12.888			-3.222
237103.000			12.888			-3.222
237204.000			12.889			-3.222
237305.000			12.889			-3.222
237404.000			12.889			-3.222
237504.000			12.888			-3.222
237605.000			12.888			-3.222
237704.000			12.889			-3.222
237803.000			12.889			-3.222
237905.000			12.888			-3.222
238003.000			12.889			-3.222
238104.000			12.888			-3.222
238205.000			12.887			-3.222
238304.000			12.887			-3.222
238404.000			12.888			-3.222
238505.000			12.888			-3.222
238604.000			12.887			-3.222
238704.000			12.888			-3.222
238805.000			12.888			-3.222
238903.000			12.887			-3.222
239004.000			12.886			-3.222
239105.000			12.887			-3.222
239204.000			12.888			-3.222
239304.000			12.887			-3.222
239405.000			12.886			-3.222
239504.000			12.886			-3.222
239605.000			12.886			-3.222
239704.000			12.886			-3.221
239803.000			12.886			-3.222
239905.000			12.887			-3.222
240003.000			12.885			-3.221
240104.000			12.885			-3.221
240205.000			12.885			-3.221
240304.000			12.886			-3.221
240404.000			12.886			-3.221
240505.000			12.885			-3.221
240604.000			12.886			-3.221
240703.000			12.887			-3.222
240805.000			12.887			-3.222
240903.000			12.886			-3.221
241004.000			12.886			-3.222
241105.000			12.886			-3.221
241204.000			12.885			-3.221
241304.000			12.884			-3.221
241405.000			12.884			-3.221
241504.000			12.883			-3.221
241603.000			12.883			-3.221
241705.000			12.885			-3.221
241803.000			12.884			-3.221
241904.000			12.883			-3.221
242005.000			12.884			-3.221
242104.000			12.883			-3.221
242204.000			12.885			-3.221
242305.000			12.885			-3.221
242404.000			12.884			-3.221
242503.000			12.883			-3.221
242605.000			12.884			-3.221
242703.000			12.883			-3.221
242805.000			12.882			-3.221
242904.000			12.883			-3.221
243004.000			12.883			-3.221
243105.000			12.883			-3.221
243204.000			12.882			-3.220
243304.000			12.882			-3.221
243404.000			12.882			-3.220
243504.000			12.882			-3.221
243603.000			12.881			-3.220
243705.000			12.881			-3.220
243804.000			12.881			-3.220
243904.000			12.881			-3.220
244005.000			12.881			-3.220
244104.000			12.880			-3.220
244204.000			12.880			-3.220
244304.000			12.880			-3.220
244404.000			12.880			-3.220
244503.000			12.880			-3.220
244605.000			12.879			-3.220
244704.000			12.879			-3.220
244804.000			12.879			-3.220
244905.000			12.880			-3.220
245004.000			12.881			-3.220
245104.000			12.881			-3.220
245204.000			12.880			-3.220
245304.000			12.879			-3.220
245403.000			12.878			-3.220
245505.000			12.878			-3.219
245604.000			12.878			-3.219
245704.000			12.878			-3.220
245805.000			12.878			-3.219
245904.000			12.879			-3.220
246005.000			12.879			-3.220
246104.000			12.878			-3.219
246204.000			12.878			-3.220
246304.000			12.878			-3.219
246404.000			12.877			-3.219
246504.000			12.879			-3.220
246605.000			12.879			-3.220
246704.000			12.878			-3.220
246804.000			12.877			-3.219
246905.000			12.878			-3.220
247004.000			12.877			-3.219
247104.000			12.877			-3.219
247204.000			12.877			-3.219
247304.000			12.877			-3.219
247403.000			12.877			-3.219
247505.000			12.877			-3.219
247604.000			12.877			-3.219
247704.000			12.878			-3.219
247805.000			12.877			-3.219
247904.000			12.876			-3.219
248004.000			12.876			-3.219
248105.000			12.876			-3.219
248204.000			12.876			-3.219
248303.000			12.876			-3.219
248405.000			12.876			-3.219
248504.000			12.876			-3.219
248604.000			12.875			-3.219
248705.000			12.875			-3.219
248804.000			12.874			-3.219
248904.000			12.874			-3.219
249005.000			12.874			-3.219
249104.000			12.874			-3.219
249203.000			12.875			-3.219
249304.000			12.875			-3.219
249403.000			12.874			-3.219
249505.000			12.874			-3.219
249604.000			12.874			-3.218
249704.000			12.873			-3.218
249805.000			12.873			-3.218
249904.000			12.873			-3.218
250004.000			12.873			-3.218
250104.000			12.873			-3.218
250204.000			12.873			-3.218
250303.000			12.873			-3.218
250405.000			12.873			-3.218
250504.000			12.873			-3.218
250604.000			12.873			-3.218
250705.000			12.872			-3.218
250804.000			12.872			-3.218
250904.000			12.873			-3.218
251004.000			12.873			-3.218
251104.000			12.872			-3.218
251204.000			12.872			-3.218
251305.000			12.872			-3.218
251404.000			12.873			-3.218
251504.000			12.872			-3.218
251605.000			12.872			-3.218
251704.000			12.872			-3.218
251804.000			12.871			-3.218
251904.000			12.871			-3.218
252004.000			12.870			-3.217
252104.000			12.870			-3.218
252205.000			12.871			-3.218
252304.000			12.871			-3.218
252405.000			12.871			-3.218
252504.000			12.871			-3.218
252604.000			12.870			-3.218
252705.000			12.870			-3.218
252803.000			12.870			-3.218
252904.000			12.871			-3.218
253005.000			12.871			-3.218
253104.000			12.871			-3.218
253204.000			12.870			-3.218
253305.000			12.870			-3.218
253404.000			12.870			-3.217
253504.000			12.869			-3.217
253605.000			12.869			-3.217
253703.000			12.869			-3.217
253804.000			12.869			-3.217
253905.000			12.869			-3.217
254004.000			12.868			-3.217
254104.000			12.868			-3.217
254205.000			12.868			-3.217
254304.000			12.868			-3.217
254404.000			12.869			-3.217
254505.000			12.869			-3.217
254603.000			12.868			-3.217
254704.000			12.868			-3.217
254804.000			12.868			-3.217
254904.000			12.868			-3.217
255004.000			12.868			-3.217
255105.000			12.868			-3.217
255204.000			12.867			-3.217
255304.000			12.867			-3.217
255405.000			12.867			-3.217
255504.000			12.867			-3.217
255605.000			12.867			-3.217
255703.000			12.866			-3.217
255804.000			12.867			-3.217
255905.000			12.867			-3.217
256004.000			12.866			-3.217
256104.000			12.866			-3.216
256205.000			12.866			-3.216
256304.000			12.866			-3.216
256404.000			12.866			-3.216
256505.000			12.866			-3.216
256603.000			12.865			-3.216
256704.000			12.865			-3.216
256805.000			12.865			-3.216
256904.000			12.865			-3.216
257004.000			12.866			-3.216
257105.000			12.865			-3.216
257204.000			12.865			-3.216
257304.000			12.865			-3.216
257405.000			12.864			-3.216
257503.000			12.865			-3.216
257604.000			12.865			-3.216
257704.000			12.864			-3.216
257804.000			12.864			-3.216
257904.000			12.864			-3.216
258005.000			12.864			-3.216
258104.000			12.864			-3.216
258204.000			12.864			-3.216
258305.000			12.864			-3.216
258403.000			12.863			-3.216
258504.000			12.864			-3.216
258604.000			12.863			-3.216
258704.000			12.864			-3.216
258805.000			12.864			-3.216
258904.000			12.862			-3.216
259004.000			12.862			-3.216
259105.000			12.862			-3.215
259204.000			12.861			-3.215
259303.000			12.862			-3.215
259405.000			12.862			-3.215
259503.000			12.861			-3.215
259604.000			12.863			-3.216
259705.000			12.862			-3.215
259804.000			12.861			-3.215
259904.000			12.862			-3.216
260005.000			12.862			-3.216
260104.000			12.862			-3.215
260204.000			12.862			-3.215
260305.000			12.862			-3.215
260403.000			12.862			-3.215
260504.000			12.862			-3.216
260605.000			12.861			-3.215
260704.000			12.861			-3.215
260804.000			12.861			-3.215
260905.000			12.861			-3.215
261004.000			12.861			-3.215
261103.000			12.861			-3.215
261205.000			12.861			-3.215
261303.000			12.861			-3.215
261404.000			12.860			-3.215
261505.000			12.860			-3.215
261604.000			12.860			-3.215
261704.000			12.860			-3.215
261805.000			12.860			-3.215
261904.000			12.860			-3.215
262003.000			12.859			-3.215
262104.000			12.859			-3.215
262203.000			12.859			-3.215
262305.000			12.860			-3.215
262404.000			12.860			-3.215
262504.000			12.860			-3.215
262605.000			12.859			-3.215
262704.000			12.860			-3.215
262804.000			12.860			-3.215
262904.000			12.859			-3.215
263004.000			12.859			-3.215
263103.000			12.858			-3.215
263205.000			12.858			-3.215
263304.000			12.859			-3.215
263404.000			12.859			-3.215
263505.000			12.858			-3.214
263604.000			12.858			-3.214
263704.000			12.858			-3.214
263804.000			12.857			-3.214
263904.000			12.857			-3.214
264003.000			12.857			-3.214
264105.000			12.858			-3.214
264204.000			12.857			-3.214
264304.000			12.858			-3.214
264405.000			12.858			-3.214
264504.000			12.857			-3.214
264604.000			12.857			-3.214
264704.000			12.856			-3.214
264804.000			12.856			-3.214
264903.000			12.856			-3.214
265005.000			12.855			-3.214
265104.000			12.856			-3.214
265205.000			12.856			-3.214
265304.000			12.857			-3.214
265404.000			12.856			-3.214
265505.000			12.856			-3.214
265604.000			12.856			-3.214
265704.000			12.856			-3.214
265804.000			12.856			-3.214
265904.000			12.856			-3.214
266004.000			12.855			-3.214
266105.000			12.856			-3.214
266204.000			12.856			-3.214
266304.000			12.856			-3.214
266405.000			12.855			-3.214
266504.000			12.854			-3.214
266604.000			12.854			-3.214
266704.000			12.854			-3.214
266804.000			12.854			-3.213
266904.000			12.854			-3.214
267005.000			12.855			-3.214
267104.000			12.855			-3.214
267204.000			12.855			-3.214
267305.000			12.854			-3.214
267404.000			12.854			-3.213
267504.000			12.854			-3.213
267604.000			12.854			-3.214
267704.000			12.854			-3.214
267804.000			12.854			-3.213
267905.000			12.853			-3.213
268004.000			12.853			-3.213
268104.000			12.853			-3.213
268205.000			12.854			-3.213
268304.000			12.854			-3.214
268405.000			12.853			-3.213
268503.000			12.853			-3.213
268604.000			12.854			-3.213
268704.000			12.853			-3.213
268804.000			12.852			-3.213
268904.000			12.852			-3.213
269005.000			12.852			-3.213
269104.000			12.852			-3.213
269204.000			12.853			-3.213
269305.000			12.853			-3.213
269403.000			12.852			-3.213
269504.000			12.852			-3.213
269604.000			12.852			-3.213
269704.000			12.851			-3.213
269804.000			12.851			-3.213
269905.000			12.850			-3.213
270004.000			12.851			-3.213
270104.000			12.850			-3.212
270205.000			12.850			-3.213
270303.000			12.850			-3.213
270404.000			12.850			-3.212
270505.000			12.850			-3.212
270604.000			12.850			-3.212
270704.000			12.850			-3.213
270805.000			12.851			-3.213
270904.000			12.851			-3.213
271004.000			12.851			-3.213
271105.000			12.850			-3.212
271203.000			12.850			-3.213
271304.000			12.851			-3.213
271405.000			12.850			-3.213
271504.000			12.850			-3.212
271605.000			12.849			-3.212
271704.000			12.850			-3.213
271804.000			12.849			-3.212
271905.000			12.849			-3.212
272004.000			12.851			-3.213
272103.000			12.850			-3.212
272205.000			12.849			-3.212
272304.000			12.849			-3.212
272404.000			12.849			-3.212
272505.000			12.848			-3.212
272604.000			12.848			-3.212
272704.000			12.849			-3.212
272805.000			12.849			-3.212
272904.000			12.847			-3.212
273003.000			12.848			-3.212
273105.000			12.848			-3.212
273204.000			12.848			-3.212
273304.000			12.848			-3.212
273405.000			12.847			-3.212
273504.000			12.847			-3.212
273604.000			12.847			-3.212
273705.000			12.849			-3.212
273804.000			12.847			-3.212
273903.000			12.847			-3.212
274005.000			12.848			-3.212
274104.000			12.848			-3.212
274204.000			12.849			-3.212
274305.000			12.848			-3.212
274404.000			12.847			-3.212
274504.000			12.846			-3.212
274605.000			12.846			-3.211
274704.000			12.846			-3.212
274803.000			12.847			-3.212
274904.000			12.846			-3.211
275003.000			12.846			-3.212
275105.000			12.847			-3.212
275204.000			12.846			-3.212
275304.000			12.846			-3.212
275405.000			12.846			-3.212
275504.000			12.845			-3.211
275604.000			12.845			-3.211
275704.000			12.846			-3.211
275804.000			12.846			-3.211
275903.000			12.846			-3.211
276005.000			12.845			-3.211
276104.000			12.845			-3.211
276204.000			12.845			-3.211
276305.000			12.845			-3.211
276404.000			12.844			-3.211
276504.000			12.844			-3.211
276604.000			12.843			-3.211
276704.000			12.844			-3.211
276803.000			12.844			-3.211
276905.000			12.844			-3.211
277004.000			12.844			-3.211
277104.000			12.843			-3.211
277205.000			12.844			-3.211
277304.000			12.843			-3.211
277404.000			12.843			-3.211
277504.000			12.843			-3.211
277604.000			12.843			-3.211
277703.000			12.844			-3.211
277805.000			12.844			-3.211
277904.000			12.843			-3.211
278005.000			12.843			-3.211
278104.000			12.843			-3.211
278204.000			12.842			-3.211
278305.000			12.843			-3.211
278403.000			12.842			-3.211
278504.000			12.841			-3.210
278604.000			12.841			-3.210
278704.000			12.842			-3.210
278804.000			12.842			-3.210
278905.000			12.842			-3.210
279004.000			12.843			-3.211
279104.000			12.842			-3.211
279205.000			12.841			-3.210
279303.000			12.841			-3.210
279404.000			12.840			-3.210
279504.000			12.840			-3.210
279604.000			12.841			-3.210
279704.000			12.841			-3.210
279805.000			12.841			-3.210
279904.000			12.841			-3.210
280004.000			12.840			-3.210
280105.000			12.840			-3.210
280203.000			12.841			-3.210
280304.000			12.841			-3.210
280405.000			12.841			-3.210
280504.000			12.840			-3.210
280604.000			12.840			-3.210
280705.000			12.840			-3.210
280804.000			12.840			-3.210
280904.000			12.841			-3.210
281005.000			12.841			-3.210
281103.000			12.841			-3.210
281205.000			12.840			-3.210
281304.000			12.841			-3.210
281404.000			12.839			-3.210
281505.000			12.839			-3.210
281604.000			12.839			-3.210
281704.000			12.838			-3.210
281805.000			12.839			-3.210
281904.000			12.840			-3.210
282003.000			12.839			-3.210
282105.000			12.840			-3.210
282204.000			12.839			-3.210
282304.000			12.838			-3.210
282405.000			12.839			-3.210
282504.000			12.839			-3.210
282604.000			12.839			-3.210
282705.000			12.839			-3.210
282804.000			12.838			-3.210
282903.000			12.838			-3.210
283005.000			12.839			-3.210
283104.000			12.838			-3.209
283204.000			12.837			-3.209
283305.000			12.839			-3.210
283404.000			12.838			-3.210
283504.000			12.837			-3.209
283605.000			12.837			-3.209
283704.000			12.838			-3.209
283803.000			12.837			-3.209
283905.000			12.837			-3.209
284003.000			12.838			-3.209
284104.000			12.837			-3.209
284205.000			12.837			-3.209
284304.000			12.837			-3.209
284405.000			12.836			-3.209
284504.000			12.837			-3.209
284604.000			12.837			-3.209
284705.000			12.836			-3.209
284804.000			12.836			-3.209
284903.000			12.835			-3.209
285005.000			12.836			-3.209
285104.000			12.837			-3.209
285204.000			12.836			-3.209
285305.000			12.835			-3.209
285404.000			12.835			-3.209
285504.000			12.835			-3.209
285605.000			12.835			-3.209
285704.000			12.835			-3.209
285803.000			12.834			-3.209
285905.000			12.834			-3.209
286004.000			12.835			-3.209
286104.000			12.835			-3.209
286205.000			12.834			-3.209
286304.000			12.834			-3.209
286404.000			12.834			-3.209
286504.000			12.835			-3.209
286604.000			12.835			-3.209
286703.000			12.834			-3.209
286805.000			12.834			-3.208
286904.000			12.834			-3.209
287004.000			12.834			-3.209
287105.000			12.834			-3.209
287204.000			12.834			-3.208
287304.000			12.834			-3.208
287404.000			12.833			-3.208
287504.000			12.834			-3.208
287603.000			12.833			-3.208
287704.000			12.832			-3.208
287804.000			12.833			-3.208
287905.000			12.833			-3.208
288004.000			12.833			-3.208
288104.000			12.832			-3.208
288205.000			12.833			-3.208
288304.000			12.833			-3.208
288404.000			12.831			-3.208
288504.000			12.831			-3.208
288604.000			12.830			-3.208
288704.000			12.832			-3.208
288805.000			12.833			-3.208
288904.000			12.831			-3.208
289004.000			12.831			-3.208
289105.000			12.831			-3.208
289204.000			12.831			-3.208
289304.000			12.831			-3.208
289404.000			12.832			-3.208
289504.000			12.831			-3.208
289604.000			12.831			-3.208
289705.000			12.831			-3.208
289804.000			12.831			-3.208
289904.000			12.831			-3.208
290005.000			12.831			-3.208
290104.000			12.831			-3.208
290204.000			12.830			-3.207
290304.000			12.831			-3.208
290404.000			12.829			-3.207
290504.000			12.830			-3.207
290605.000			12.829			-3.207
290704.000			12.830			-3.207
290805.000			12.829			-3.207
290904.000			12.829			-3.207
291004.000			12.828			-3.207
291105.000			12.829			-3.207
291203.000			12.828			-3.207
291304.000			12.829			-3.207
291405.000			12.829			-3.207
291504.000			12.829			-3.207
291604.000			12.829			-3.207
291705.000			12.828			-3.207
291804.000			12.828			-3.207
291904.000			12.828			-3.207
292005.000			12.828			-3.207
292103.000			12.828			-3.207
292204.000			12.828			-3.207
292305.000			12.827			-3.207
292404.000			12.827			-3.207
292504.000			12.827			-3.207
292605.000			12.827			-3.207
292704.000			12.827			-3.207
292804.000			12.827			-3.207
292905.000			12.827			-3.207
293003.000			12.827			-3.207
293104.000			12.827			-3.207
293205.000			12.827			-3.207
293304.000			12.827			-3.207
293404.000			12.828			-3.207
293505.000			12.828			-3.207
293604.000			12.827			-3.207
293704.000			12.827			-3.207
293805.000			12.828			-3.207
293903.000			12.828			-3.207
294005.000			12.826			-3.207
294104.000			12.827			-3.207
294204.000			12.827			-3.207
294305.000			12.825			-3.206
294404.000			12.826			-3.206
294504.000			12.825			-3.206
294605.000			12.826			-3.207
294704.000			12.826			-3.207
294803.000			12.826			-3.206
294905.000			12.825			-3.206
295004.000			12.826			-3.206
295104.000			12.825			-3.206
295205.000			12.825			-3.206
295304.000			12.825			-3.206
295404.000			12.824			-3.206
295505.000			12.824			-3.206
295604.000			12.824			-3.206
295703.000			12.824			-3.206
295805.000			12.825			-3.206
295904.000			12.824			-3.206
296004.000			12.824			-3.206
296105.000			12.824			-3.206
296204.000			12.825			-3.206
296304.000			12.825			-3.206
296405.000			12.825			-3.206
296504.000			12.824			-3.206
296603.000			12.823			-3.206
296705.000			12.824			-3.206
296804.000			12.825			-3.206
296904.000			12.822			-3.206
297005.000			12.823			-3.206
297104.000			12.824			-3.206
297205.000			12.823			-3.206
297304.000			12.823			-3.206
297404.000			12.824			-3.206
297504.000			12.824			-3.206
297604.000			12.823			-3.206
297703.000			12.823			-3.206
297805.000			12.823			-3.206
297904.000			12.823			-3.206
298004.000			12.822			-3.206
298105.000			12.822			-3.206
298204.000			12.822			-3.206
298304.000			12.822			-3.205
298404.000			12.822			-3.205
298504.000			12.821			-3.205
298603.000			12.822			-3.205
298705.000			12.822			-3.206
298804.000			12.822			-3.205
298904.000			12.821			-3.205
299005.000			12.821			-3.205
299104.000			12.820			-3.205
299204.000			12.820			-3.205
299304.000			12.820			-3.205
299404.000			12.821			-3.205
299503.000			12.820			-3.205
299605.000			12.821			-3.205
299704.000			12.820			-3.205
299804.000			12.821			-3.205
299905.000			12.819			-3.205
