# Acquired on 20/12/2023 10:52:39 
# SPIDER: Creep_3mm_07714532C-1
# CREEP MEASUREMENT

# time [ms]		force [N]		stiffness [N/mm]
1.000			-3.044			-1.015
101.000			-3.398			-1.133
202.000			-3.537			-1.179
300.000			-3.544			-1.181
400.000			-3.525			-1.175
501.000			-3.509			-1.170
600.000			-3.487			-1.162
700.000			-3.478			-1.159
802.000			-3.470			-1.157
901.000			-3.463			-1.154
1000.000			-3.458			-1.153
1101.000			-3.453			-1.151
1200.000			-3.447			-1.149
1300.000			-3.441			-1.147
1400.000			-3.433			-1.144
1501.000			-3.429			-1.143
1602.000			-3.425			-1.142
1700.000			-3.421			-1.140
1800.000			-3.418			-1.139
1901.000			-3.415			-1.138
2000.000			-3.412			-1.137
2100.000			-3.407			-1.136
2201.000			-3.404			-1.135
2301.000			-3.400			-1.133
2400.000			-3.398			-1.133
2501.000			-3.396			-1.132
2600.000			-3.393			-1.131
2700.000			-3.390			-1.130
2801.000			-3.385			-1.128
2900.000			-3.384			-1.128
3001.000			-3.382			-1.127
3102.000			-3.379			-1.126
3200.000			-3.377			-1.126
3300.000			-3.376			-1.125
3401.000			-3.374			-1.125
3500.000			-3.372			-1.124
3600.000			-3.369			-1.123
3701.000			-3.367			-1.122
3801.000			-3.366			-1.122
3901.000			-3.365			-1.122
4001.000			-3.363			-1.121
4100.000			-3.361			-1.120
4200.000			-3.360			-1.120
4301.000			-3.357			-1.119
4400.000			-3.355			-1.118
4502.000			-3.354			-1.118
4601.000			-3.353			-1.118
4700.000			-3.351			-1.117
4801.000			-3.349			-1.116
4900.000			-3.348			-1.116
5000.000			-3.348			-1.116
5101.000			-3.345			-1.115
5200.000			-3.345			-1.115
5301.000			-3.344			-1.115
5402.000			-3.342			-1.114
5500.000			-3.340			-1.113
5600.000			-3.339			-1.113
5701.000			-3.339			-1.113
5800.000			-3.337			-1.112
5900.000			-3.334			-1.111
6002.000			-3.335			-1.112
6101.000			-3.336			-1.112
6200.000			-3.334			-1.111
6301.000			-3.332			-1.111
6400.000			-3.330			-1.110
6500.000			-3.328			-1.109
6601.000			-3.328			-1.109
6700.000			-3.327			-1.109
6801.000			-3.325			-1.108
6902.000			-3.324			-1.108
7000.000			-3.323			-1.108
7100.000			-3.323			-1.108
7201.000			-3.322			-1.107
7300.000			-3.320			-1.107
7400.000			-3.320			-1.107
7502.000			-3.319			-1.106
7601.000			-3.317			-1.106
7700.000			-3.316			-1.105
7800.000			-3.316			-1.105
7900.000			-3.315			-1.105
8001.000			-3.315			-1.105
8100.000			-3.313			-1.104
8200.000			-3.311			-1.104
8302.000			-3.311			-1.104
8401.000			-3.311			-1.104
8500.000			-3.310			-1.103
8601.000			-3.309			-1.103
8700.000			-3.307			-1.102
8800.000			-3.307			-1.102
8901.000			-3.306			-1.102
9001.000			-3.306			-1.102
9101.000			-3.305			-1.102
9201.000			-3.305			-1.102
9300.000			-3.303			-1.101
9400.000			-3.302			-1.101
9501.000			-3.301			-1.100
9600.000			-3.301			-1.100
9701.000			-3.300			-1.100
9802.000			-3.299			-1.100
9900.000			-3.299			-1.100
10000.000			-3.298			-1.099
10101.000			-3.297			-1.099
10200.000			-3.297			-1.099
10300.000			-3.297			-1.099
10401.000			-3.295			-1.098
10501.000			-3.295			-1.098
10601.000			-3.294			-1.098
10701.000			-3.293			-1.098
10800.000			-3.293			-1.098
10900.000			-3.292			-1.097
11000.000			-3.292			-1.097
11100.000			-3.291			-1.097
11201.000			-3.290			-1.097
11301.000			-3.289			-1.096
11401.000			-3.289			-1.096
11501.000			-3.289			-1.096
11600.000			-3.288			-1.096
11700.000			-3.287			-1.096
11801.000			-3.286			-1.095
11900.000			-3.285			-1.095
12000.000			-3.285			-1.095
12102.000			-3.285			-1.095
12201.000			-3.284			-1.095
12300.000			-3.284			-1.095
12401.000			-3.283			-1.094
12500.000			-3.282			-1.094
12600.000			-3.282			-1.094
12701.000			-3.281			-1.094
12801.000			-3.281			-1.094
12901.000			-3.281			-1.094
13001.000			-3.280			-1.093
13100.000			-3.279			-1.093
13200.000			-3.278			-1.093
13301.000			-3.277			-1.092
13400.000			-3.277			-1.092
13500.000			-3.276			-1.092
13602.000			-3.276			-1.092
13701.000			-3.276			-1.092
13800.000			-3.275			-1.092
13901.000			-3.274			-1.091
14000.000			-3.274			-1.091
14100.000			-3.274			-1.091
14200.000			-3.272			-1.091
14300.000			-3.272			-1.091
14402.000			-3.272			-1.091
14501.000			-3.272			-1.091
14600.000			-3.271			-1.090
14701.000			-3.271			-1.090
14800.000			-3.270			-1.090
14900.000			-3.269			-1.090
15001.000			-3.270			-1.090
15100.000			-3.269			-1.090
15201.000			-3.268			-1.089
15302.000			-3.268			-1.089
15400.000			-3.267			-1.089
15500.000			-3.266			-1.089
15601.000			-3.265			-1.088
15700.000			-3.265			-1.088
15800.000			-3.265			-1.088
15901.000			-3.265			-1.088
16001.000			-3.264			-1.088
16101.000			-3.263			-1.088
16201.000			-3.263			-1.088
16300.000			-3.263			-1.088
16400.000			-3.262			-1.087
16501.000			-3.262			-1.087
16600.000			-3.261			-1.087
16700.000			-3.260			-1.087
16802.000			-3.261			-1.087
16901.000			-3.260			-1.087
17000.000			-3.259			-1.086
17101.000			-3.259			-1.086
17200.000			-3.259			-1.086
17300.000			-3.258			-1.086
17400.000			-3.257			-1.086
17501.000			-3.257			-1.086
17602.000			-3.258			-1.086
17701.000			-3.256			-1.085
17800.000			-3.256			-1.085
17901.000			-3.256			-1.085
18000.000			-3.255			-1.085
18100.000			-3.255			-1.085
18201.000			-3.255			-1.085
18301.000			-3.254			-1.085
18401.000			-3.254			-1.085
18501.000			-3.253			-1.084
18600.000			-3.252			-1.084
18700.000			-3.252			-1.084
18801.000			-3.251			-1.084
18900.000			-3.251			-1.084
19000.000			-3.251			-1.084
19102.000			-3.250			-1.083
19201.000			-3.250			-1.083
19300.000			-3.250			-1.083
19401.000			-3.250			-1.083
19500.000			-3.249			-1.083
19600.000			-3.249			-1.083
19701.000			-3.249			-1.083
19800.000			-3.248			-1.083
19901.000			-3.247			-1.082
20002.000			-3.247			-1.082
20100.000			-3.246			-1.082
20200.000			-3.247			-1.082
20301.000			-3.246			-1.082
20400.000			-3.246			-1.082
20500.000			-3.246			-1.082
20600.000			-3.246			-1.082
20701.000			-3.246			-1.082
20802.000			-3.245			-1.082
20900.000			-3.245			-1.082
21000.000			-3.244			-1.081
21101.000			-3.244			-1.081
21200.000			-3.243			-1.081
21300.000			-3.243			-1.081
21401.000			-3.243			-1.081
21501.000			-3.243			-1.081
21601.000			-3.243			-1.081
21701.000			-3.242			-1.081
21800.000			-3.242			-1.081
21900.000			-3.241			-1.080
22001.000			-3.240			-1.080
22100.000			-3.240			-1.080
22201.000			-3.239			-1.080
22302.000			-3.239			-1.080
22400.000			-3.239			-1.080
22500.000			-3.239			-1.080
22601.000			-3.238			-1.079
22700.000			-3.238			-1.079
22800.000			-3.238			-1.079
22901.000			-3.238			-1.079
23001.000			-3.237			-1.079
23101.000			-3.237			-1.079
23201.000			-3.236			-1.079
23300.000			-3.236			-1.079
23400.000			-3.235			-1.078
23501.000			-3.236			-1.079
23600.000			-3.236			-1.079
23700.000			-3.235			-1.078
23802.000			-3.235			-1.078
23901.000			-3.235			-1.078
24001.000			-3.234			-1.078
24100.000			-3.234			-1.078
24200.000			-3.234			-1.078
24301.000			-3.233			-1.078
24400.000			-3.232			-1.077
24500.000			-3.232			-1.077
24602.000			-3.233			-1.078
24701.000			-3.233			-1.078
24800.000			-3.233			-1.078
24901.000			-3.232			-1.077
25000.000			-3.230			-1.077
25100.000			-3.231			-1.077
25201.000			-3.231			-1.077
25301.000			-3.229			-1.076
25401.000			-3.229			-1.076
25501.000			-3.230			-1.077
25600.000			-3.230			-1.077
25700.000			-3.228			-1.076
25801.000			-3.228			-1.076
25900.000			-3.227			-1.076
26000.000			-3.228			-1.076
26102.000			-3.228			-1.076
26201.000			-3.228			-1.076
26300.000			-3.228			-1.076
26401.000			-3.227			-1.076
26500.000			-3.227			-1.076
26600.000			-3.227			-1.076
26701.000			-3.227			-1.076
26800.000			-3.227			-1.076
26902.000			-3.227			-1.076
27001.000			-3.226			-1.075
27100.000			-3.224			-1.075
27201.000			-3.225			-1.075
27300.000			-3.225			-1.075
27400.000			-3.224			-1.075
27501.000			-3.224			-1.075
27601.000			-3.224			-1.075
27701.000			-3.223			-1.074
27802.000			-3.223			-1.074
27900.000			-3.222			-1.074
28000.000			-3.222			-1.074
28101.000			-3.223			-1.074
28200.000			-3.222			-1.074
28300.000			-3.222			-1.074
28402.000			-3.222			-1.074
28501.000			-3.222			-1.074
28600.000			-3.221			-1.074
28701.000			-3.220			-1.073
28800.000			-3.220			-1.073
28900.000			-3.220			-1.073
29001.000			-3.221			-1.074
29100.000			-3.220			-1.073
29201.000			-3.220			-1.073
29302.000			-3.220			-1.073
29400.000			-3.219			-1.073
29500.000			-3.219			-1.073
29601.000			-3.218			-1.073
29700.000			-3.218			-1.073
29800.000			-3.218			-1.073
29901.000			-3.217			-1.072
30001.000			-3.216			-1.072
30102.000			-3.217			-1.072
30200.000			-3.217			-1.072
30300.000			-3.217			-1.072
30401.000			-3.216			-1.072
30500.000			-3.215			-1.072
30600.000			-3.215			-1.072
30701.000			-3.216			-1.072
30801.000			-3.216			-1.072
30900.000			-3.216			-1.072
31001.000			-3.215			-1.072
31100.000			-3.214			-1.071
31200.000			-3.214			-1.071
31301.000			-3.214			-1.071
31400.000			-3.214			-1.071
31501.000			-3.212			-1.071
31602.000			-3.214			-1.071
31700.000			-3.214			-1.071
31800.000			-3.214			-1.071
31901.000			-3.213			-1.071
32000.000			-3.212			-1.071
32100.000			-3.212			-1.071
32202.000			-3.212			-1.071
32301.000			-3.212			-1.071
32400.000			-3.210			-1.070
32501.000			-3.210			-1.070
32600.000			-3.210			-1.070
32700.000			-3.211			-1.070
32801.000			-3.209			-1.070
32900.000			-3.210			-1.070
33001.000			-3.210			-1.070
33102.000			-3.209			-1.070
33200.000			-3.210			-1.070
33300.000			-3.209			-1.070
33400.000			-3.208			-1.069
33500.000			-3.209			-1.070
33601.000			-3.209			-1.070
33700.000			-3.208			-1.069
33801.000			-3.208			-1.069
33902.000			-3.208			-1.069
34000.000			-3.208			-1.069
34100.000			-3.207			-1.069
34201.000			-3.207			-1.069
34300.000			-3.208			-1.069
34400.000			-3.207			-1.069
34502.000			-3.207			-1.069
34601.000			-3.206			-1.069
34700.000			-3.206			-1.069
34801.000			-3.206			-1.069
34900.000			-3.206			-1.069
35000.000			-3.205			-1.068
35101.000			-3.205			-1.068
35200.000			-3.205			-1.068
35301.000			-3.206			-1.069
35402.000			-3.205			-1.068
35500.000			-3.205			-1.068
35600.000			-3.205			-1.068
35701.000			-3.205			-1.068
35800.000			-3.205			-1.068
35900.000			-3.204			-1.068
36001.000			-3.204			-1.068
36101.000			-3.203			-1.068
36201.000			-3.203			-1.068
36301.000			-3.203			-1.068
36400.000			-3.202			-1.067
36500.000			-3.203			-1.068
36600.000			-3.201			-1.067
36700.000			-3.202			-1.067
36802.000			-3.202			-1.067
36901.000			-3.202			-1.067
37000.000			-3.202			-1.067
37101.000			-3.202			-1.067
37200.000			-3.200			-1.067
37300.000			-3.201			-1.067
37401.000			-3.201			-1.067
37500.000			-3.200			-1.067
37601.000			-3.200			-1.067
37702.000			-3.200			-1.067
37800.000			-3.200			-1.067
37900.000			-3.200			-1.067
38001.000			-3.200			-1.067
38100.000			-3.200			-1.067
38200.000			-3.199			-1.066
38301.000			-3.199			-1.066
38401.000			-3.198			-1.066
38501.000			-3.198			-1.066
38601.000			-3.199			-1.066
38700.000			-3.199			-1.066
38800.000			-3.198			-1.066
38901.000			-3.197			-1.066
39000.000			-3.197			-1.066
39100.000			-3.196			-1.065
39202.000			-3.197			-1.066
39301.000			-3.197			-1.066
39400.000			-3.196			-1.065
39501.000			-3.197			-1.066
39600.000			-3.197			-1.066
39700.000			-3.197			-1.066
39800.000			-3.196			-1.065
39900.000			-3.195			-1.065
40002.000			-3.195			-1.065
40101.000			-3.195			-1.065
40200.000			-3.194			-1.065
40301.000			-3.196			-1.065
40400.000			-3.195			-1.065
40500.000			-3.194			-1.065
40601.000			-3.195			-1.065
40700.000			-3.193			-1.064
40801.000			-3.193			-1.064
40902.000			-3.193			-1.064
41000.000			-3.193			-1.064
41100.000			-3.194			-1.065
41201.000			-3.193			-1.064
41300.000			-3.193			-1.064
41400.000			-3.193			-1.064
41502.000			-3.193			-1.064
41601.000			-3.192			-1.064
41701.000			-3.192			-1.064
41801.000			-3.192			-1.064
41900.000			-3.191			-1.064
42000.000			-3.191			-1.064
42101.000			-3.192			-1.064
42200.000			-3.191			-1.064
42301.000			-3.191			-1.064
42402.000			-3.191			-1.064
42500.000			-3.191			-1.064
42600.000			-3.191			-1.064
42701.000			-3.190			-1.063
42800.000			-3.190			-1.063
42900.000			-3.192			-1.064
43000.000			-3.190			-1.063
43101.000			-3.190			-1.063
43202.000			-3.190			-1.063
43300.000			-3.190			-1.063
43400.000			-3.188			-1.063
43501.000			-3.188			-1.063
43600.000			-3.188			-1.063
43700.000			-3.188			-1.063
43801.000			-3.188			-1.063
43901.000			-3.189			-1.063
44001.000			-3.188			-1.063
44101.000			-3.188			-1.063
44200.000			-3.188			-1.063
44300.000			-3.188			-1.063
44401.000			-3.187			-1.062
44500.000			-3.187			-1.062
44600.000			-3.186			-1.062
44702.000			-3.187			-1.062
44801.000			-3.187			-1.062
44900.000			-3.187			-1.062
45001.000			-3.187			-1.062
45100.000			-3.187			-1.062
45200.000			-3.186			-1.062
45301.000			-3.186			-1.062
45400.000			-3.187			-1.062
45501.000			-3.187			-1.062
45602.000			-3.186			-1.062
45700.000			-3.186			-1.062
45800.000			-3.185			-1.062
45901.000			-3.185			-1.062
46000.000			-3.186			-1.062
46100.000			-3.186			-1.062
46200.000			-3.185			-1.062
46301.000			-3.184			-1.061
46402.000			-3.184			-1.061
46500.000			-3.184			-1.061
46600.000			-3.184			-1.061
46701.000			-3.184			-1.061
46800.000			-3.183			-1.061
46900.000			-3.183			-1.061
47001.000			-3.183			-1.061
47101.000			-3.183			-1.061
47201.000			-3.183			-1.061
47301.000			-3.182			-1.061
47400.000			-3.183			-1.061
47500.000			-3.183			-1.061
47601.000			-3.183			-1.061
47700.000			-3.183			-1.061
47800.000			-3.182			-1.061
47902.000			-3.182			-1.061
48001.000			-3.182			-1.061
48100.000			-3.181			-1.060
48201.000			-3.182			-1.061
48300.000			-3.182			-1.061
48400.000			-3.182			-1.061
48501.000			-3.180			-1.060
48600.000			-3.181			-1.060
48701.000			-3.180			-1.060
48802.000			-3.180			-1.060
48900.000			-3.180			-1.060
49000.000			-3.179			-1.060
49101.000			-3.179			-1.060
49200.000			-3.179			-1.060
49300.000			-3.179			-1.060
49400.000			-3.178			-1.059
49501.000			-3.179			-1.060
49602.000			-3.179			-1.060
49700.000			-3.179			-1.060
49800.000			-3.178			-1.059
49901.000			-3.178			-1.059
50000.000			-3.177			-1.059
50100.000			-3.178			-1.059
50201.000			-3.178			-1.059
50301.000			-3.177			-1.059
50401.000			-3.177			-1.059
50501.000			-3.177			-1.059
50600.000			-3.178			-1.059
50700.000			-3.178			-1.059
50801.000			-3.176			-1.059
50900.000			-3.177			-1.059
51000.000			-3.178			-1.059
51102.000			-3.177			-1.059
51201.000			-3.177			-1.059
51300.000			-3.177			-1.059
51401.000			-3.176			-1.059
51500.000			-3.175			-1.058
51600.000			-3.175			-1.058
51701.000			-3.176			-1.059
51801.000			-3.176			-1.059
51901.000			-3.175			-1.058
52002.000			-3.176			-1.059
52100.000			-3.175			-1.058
52200.000			-3.176			-1.059
52301.000			-3.175			-1.058
52400.000			-3.175			-1.058
52500.000			-3.175			-1.058
52602.000			-3.174			-1.058
52701.000			-3.174			-1.058
52801.000			-3.175			-1.058
52900.000			-3.174			-1.058
53000.000			-3.174			-1.058
53101.000			-3.173			-1.058
53200.000			-3.174			-1.058
53300.000			-3.174			-1.058
53402.000			-3.174			-1.058
53501.000			-3.173			-1.058
53600.000			-3.174			-1.058
53701.000			-3.173			-1.058
53800.000			-3.173			-1.058
53900.000			-3.173			-1.058
54001.000			-3.172			-1.057
54100.000			-3.173			-1.058
54201.000			-3.173			-1.058
54302.000			-3.173			-1.058
54400.000			-3.172			-1.057
54500.000			-3.172			-1.057
54601.000			-3.171			-1.057
54700.000			-3.172			-1.057
54800.000			-3.171			-1.057
54901.000			-3.172			-1.057
55001.000			-3.171			-1.057
55101.000			-3.171			-1.057
55201.000			-3.171			-1.057
55300.000			-3.171			-1.057
55400.000			-3.171			-1.057
55501.000			-3.171			-1.057
55600.000			-3.171			-1.057
55700.000			-3.171			-1.057
55802.000			-3.171			-1.057
55901.000			-3.171			-1.057
56001.000			-3.170			-1.057
56100.000			-3.170			-1.057
56200.000			-3.169			-1.056
56301.000			-3.169			-1.056
56400.000			-3.169			-1.056
56500.000			-3.169			-1.056
56602.000			-3.169			-1.056
56701.000			-3.169			-1.056
56800.000			-3.169			-1.056
56901.000			-3.170			-1.056
57000.000			-3.169			-1.056
57100.000			-3.169			-1.056
57201.000			-3.169			-1.056
57300.000			-3.170			-1.057
57401.000			-3.167			-1.056
57502.000			-3.168			-1.056
57600.000			-3.167			-1.056
57700.000			-3.167			-1.056
57801.000			-3.167			-1.056
57900.000			-3.166			-1.055
58000.000			-3.167			-1.056
58101.000			-3.167			-1.056
58201.000			-3.166			-1.055
58301.000			-3.167			-1.056
58401.000			-3.167			-1.056
58500.000			-3.166			-1.055
58600.000			-3.166			-1.055
58701.000			-3.167			-1.056
58800.000			-3.167			-1.056
58900.000			-3.166			-1.055
59002.000			-3.166			-1.055
59101.000			-3.165			-1.055
59201.000			-3.165			-1.055
59300.000			-3.166			-1.055
59400.000			-3.167			-1.056
59501.000			-3.166			-1.055
59600.000			-3.163			-1.054
59700.000			-3.163			-1.054
59802.000			-3.165			-1.055
59901.000			-3.165			-1.055
60000.000			-3.164			-1.055
60101.000			-3.164			-1.055
60200.000			-3.163			-1.054
60300.000			-3.163			-1.054
60401.000			-3.163			-1.054
60501.000			-3.163			-1.054
60601.000			-3.163			-1.054
60701.000			-3.162			-1.054
60800.000			-3.163			-1.054
60900.000			-3.163			-1.054
61001.000			-3.164			-1.055
61100.000			-3.163			-1.054
61200.000			-3.163			-1.054
61302.000			-3.162			-1.054
61401.000			-3.162			-1.054
61500.000			-3.162			-1.054
61601.000			-3.162			-1.054
61700.000			-3.161			-1.054
61800.000			-3.162			-1.054
61901.000			-3.162			-1.054
62000.000			-3.162			-1.054
62102.000			-3.161			-1.054
62201.000			-3.161			-1.054
62300.000			-3.161			-1.054
62401.000			-3.160			-1.053
62500.000			-3.161			-1.054
62600.000			-3.161			-1.054
62701.000			-3.160			-1.053
62801.000			-3.161			-1.054
62901.000			-3.161			-1.054
63001.000			-3.160			-1.053
63100.000			-3.160			-1.053
63200.000			-3.161			-1.054
63301.000			-3.161			-1.054
63400.000			-3.161			-1.054
63500.000			-3.161			-1.054
63602.000			-3.161			-1.054
63701.000			-3.161			-1.054
63800.000			-3.159			-1.053
63901.000			-3.159			-1.053
64000.000			-3.159			-1.053
64100.000			-3.159			-1.053
64201.000			-3.158			-1.053
64300.000			-3.159			-1.053
64401.000			-3.158			-1.053
64502.000			-3.159			-1.053
64600.000			-3.159			-1.053
64700.000			-3.157			-1.052
64801.000			-3.158			-1.053
64900.000			-3.157			-1.052
65000.000			-3.157			-1.052
65101.000			-3.158			-1.053
65201.000			-3.157			-1.052
65302.000			-3.157			-1.052
65400.000			-3.158			-1.053
65500.000			-3.157			-1.052
65601.000			-3.157			-1.052
65700.000			-3.157			-1.052
65800.000			-3.157			-1.052
65901.000			-3.158			-1.053
66001.000			-3.158			-1.053
66101.000			-3.157			-1.052
66201.000			-3.157			-1.052
66300.000			-3.157			-1.052
66400.000			-3.156			-1.052
66501.000			-3.155			-1.052
66600.000			-3.156			-1.052
66700.000			-3.157			-1.052
66802.000			-3.156			-1.052
66901.000			-3.156			-1.052
67000.000			-3.156			-1.052
67101.000			-3.156			-1.052
67200.000			-3.156			-1.052
67300.000			-3.155			-1.052
67401.000			-3.154			-1.051
67500.000			-3.155			-1.052
67601.000			-3.155			-1.052
67702.000			-3.155			-1.052
67800.000			-3.156			-1.052
67900.000			-3.155			-1.052
68001.000			-3.155			-1.052
68100.000			-3.155			-1.052
68200.000			-3.155			-1.052
68301.000			-3.154			-1.051
68401.000			-3.153			-1.051
68502.000			-3.154			-1.051
68600.000			-3.154			-1.051
68700.000			-3.154			-1.051
68801.000			-3.154			-1.051
68900.000			-3.153			-1.051
69000.000			-3.154			-1.051
69101.000			-3.152			-1.051
69201.000			-3.153			-1.051
69301.000			-3.153			-1.051
69401.000			-3.152			-1.051
69500.000			-3.153			-1.051
69600.000			-3.153			-1.051
69701.000			-3.153			-1.051
69800.000			-3.153			-1.051
69900.000			-3.152			-1.051
70002.000			-3.152			-1.051
70101.000			-3.153			-1.051
70200.000			-3.152			-1.051
70301.000			-3.152			-1.051
70400.000			-3.152			-1.051
70500.000			-3.151			-1.050
70601.000			-3.152			-1.051
70700.000			-3.151			-1.050
70801.000			-3.151			-1.050
70901.000			-3.150			-1.050
71000.000			-3.150			-1.050
71100.000			-3.150			-1.050
71201.000			-3.151			-1.050
71300.000			-3.150			-1.050
71400.000			-3.149			-1.050
71502.000			-3.150			-1.050
71601.000			-3.150			-1.050
71700.000			-3.150			-1.050
71800.000			-3.150			-1.050
71900.000			-3.150			-1.050
72001.000			-3.150			-1.050
72100.000			-3.150			-1.050
72200.000			-3.149			-1.050
72301.000			-3.150			-1.050
72401.000			-3.149			-1.050
72501.000			-3.149			-1.050
72601.000			-3.150			-1.050
72700.000			-3.150			-1.050
72800.000			-3.148			-1.049
72901.000			-3.148			-1.049
73000.000			-3.149			-1.050
73100.000			-3.148			-1.049
73202.000			-3.149			-1.050
73301.000			-3.149			-1.050
73400.000			-3.148			-1.049
73501.000			-3.147			-1.049
73600.000			-3.148			-1.049
73700.000			-3.148			-1.049
73801.000			-3.148			-1.049
73901.000			-3.147			-1.049
74001.000			-3.147			-1.049
74101.000			-3.147			-1.049
74200.000			-3.146			-1.049
74300.000			-3.146			-1.049
74401.000			-3.146			-1.049
74500.000			-3.146			-1.049
74600.000			-3.146			-1.049
74702.000			-3.146			-1.049
74801.000			-3.146			-1.049
74902.000			-3.146			-1.049
75000.000			-3.147			-1.049
75100.000			-3.146			-1.049
75201.000			-3.146			-1.049
75300.000			-3.146			-1.049
75400.000			-3.145			-1.048
75502.000			-3.145			-1.048
75601.000			-3.145			-1.048
75700.000			-3.144			-1.048
75801.000			-3.146			-1.049
75900.000			-3.144			-1.048
76000.000			-3.144			-1.048
76101.000			-3.145			-1.048
76200.000			-3.144			-1.048
76301.000			-3.145			-1.048
76402.000			-3.145			-1.048
76500.000			-3.144			-1.048
76600.000			-3.144			-1.048
76701.000			-3.144			-1.048
76800.000			-3.144			-1.048
76900.000			-3.144			-1.048
77001.000			-3.144			-1.048
77101.000			-3.144			-1.048
77201.000			-3.143			-1.048
77301.000			-3.143			-1.048
77400.000			-3.142			-1.047
77500.000			-3.143			-1.048
77601.000			-3.143			-1.048
77700.000			-3.143			-1.048
77800.000			-3.143			-1.048
77902.000			-3.143			-1.048
78001.000			-3.143			-1.048
78100.000			-3.144			-1.048
78200.000			-3.144			-1.048
78300.000			-3.143			-1.048
78401.000			-3.143			-1.048
78500.000			-3.142			-1.047
78600.000			-3.141			-1.047
78702.000			-3.142			-1.047
78801.000			-3.143			-1.048
78900.000			-3.143			-1.048
79001.000			-3.142			-1.047
79100.000			-3.141			-1.047
79200.000			-3.141			-1.047
79301.000			-3.142			-1.047
79400.000			-3.143			-1.048
79501.000			-3.142			-1.047
79602.000			-3.142			-1.047
79701.000			-3.141			-1.047
79800.000			-3.141			-1.047
79901.000			-3.141			-1.047
80000.000			-3.141			-1.047
80100.000			-3.142			-1.047
80201.000			-3.141			-1.047
80301.000			-3.142			-1.047
80401.000			-3.140			-1.047
80501.000			-3.140			-1.047
80600.000			-3.141			-1.047
80700.000			-3.141			-1.047
80801.000			-3.140			-1.047
80900.000			-3.140			-1.047
81000.000			-3.140			-1.047
81102.000			-3.140			-1.047
81201.000			-3.140			-1.047
81300.000			-3.140			-1.047
81400.000			-3.139			-1.046
81500.000			-3.139			-1.046
81601.000			-3.140			-1.047
81700.000			-3.140			-1.047
81800.000			-3.140			-1.047
81902.000			-3.140			-1.047
82001.000			-3.141			-1.047
82100.000			-3.140			-1.047
82201.000			-3.139			-1.046
82300.000			-3.140			-1.047
82400.000			-3.139			-1.046
82501.000			-3.139			-1.046
82600.000			-3.138			-1.046
82701.000			-3.138			-1.046
82802.000			-3.138			-1.046
82900.000			-3.138			-1.046
83000.000			-3.139			-1.046
83101.000			-3.138			-1.046
83200.000			-3.139			-1.046
83300.000			-3.138			-1.046
83401.000			-3.137			-1.046
83501.000			-3.138			-1.046
83601.000			-3.139			-1.046
83701.000			-3.139			-1.046
83800.000			-3.138			-1.046
83900.000			-3.138			-1.046
84001.000			-3.138			-1.046
84100.000			-3.138			-1.046
84200.000			-3.137			-1.046
84302.000			-3.136			-1.045
84401.000			-3.136			-1.045
84500.000			-3.136			-1.045
84600.000			-3.135			-1.045
84700.000			-3.135			-1.045
84801.000			-3.136			-1.045
84900.000			-3.136			-1.045
85000.000			-3.136			-1.045
85102.000			-3.135			-1.045
85201.000			-3.136			-1.045
85300.000			-3.136			-1.045
85401.000			-3.137			-1.046
85500.000			-3.136			-1.045
85600.000			-3.135			-1.045
85701.000			-3.135			-1.045
85800.000			-3.136			-1.045
85901.000			-3.136			-1.045
86002.000			-3.135			-1.045
86100.000			-3.135			-1.045
86200.000			-3.135			-1.045
86301.000			-3.135			-1.045
86400.000			-3.134			-1.045
86500.000			-3.134			-1.045
86601.000			-3.134			-1.045
86701.000			-3.134			-1.045
86801.000			-3.134			-1.045
86901.000			-3.134			-1.045
87000.000			-3.134			-1.045
87100.000			-3.133			-1.044
87201.000			-3.134			-1.045
87300.000			-3.134			-1.045
87400.000			-3.134			-1.045
87502.000			-3.133			-1.044
87601.000			-3.133			-1.044
87700.000			-3.134			-1.045
87800.000			-3.134			-1.045
87900.000			-3.134			-1.045
88001.000			-3.133			-1.044
88100.000			-3.133			-1.044
88200.000			-3.134			-1.045
88302.000			-3.132			-1.044
88401.000			-3.133			-1.044
88500.000			-3.132			-1.044
88601.000			-3.132			-1.044
88700.000			-3.132			-1.044
88800.000			-3.132			-1.044
88901.000			-3.133			-1.044
89000.000			-3.131			-1.044
89101.000			-3.131			-1.044
89202.000			-3.132			-1.044
89300.000			-3.132			-1.044
89400.000			-3.133			-1.044
89501.000			-3.133			-1.044
89600.000			-3.132			-1.044
89700.000			-3.133			-1.044
89801.000			-3.131			-1.044
89901.000			-3.132			-1.044
90001.000			-3.132			-1.044
90101.000			-3.131			-1.044
90200.000			-3.131			-1.044
90300.000			-3.132			-1.044
90401.000			-3.132			-1.044
90500.000			-3.131			-1.044
90600.000			-3.131			-1.044
90702.000			-3.132			-1.044
90801.000			-3.131			-1.044
90900.000			-3.130			-1.043
91000.000			-3.130			-1.043
91100.000			-3.130			-1.043
91201.000			-3.131			-1.044
91300.000			-3.130			-1.043
91401.000			-3.130			-1.043
91502.000			-3.131			-1.044
91600.000			-3.130			-1.043
91700.000			-3.129			-1.043
91801.000			-3.129			-1.043
91900.000			-3.130			-1.043
92000.000			-3.130			-1.043
92101.000			-3.130			-1.043
92201.000			-3.130			-1.043
92301.000			-3.130			-1.043
92401.000			-3.129			-1.043
92500.000			-3.129			-1.043
92600.000			-3.129			-1.043
92701.000			-3.128			-1.043
92800.000			-3.129			-1.043
92900.000			-3.129			-1.043
93002.000			-3.130			-1.043
93101.000			-3.129			-1.043
93201.000			-3.129			-1.043
93301.000			-3.128			-1.043
93400.000			-3.128			-1.043
93500.000			-3.128			-1.043
93601.000			-3.128			-1.043
93700.000			-3.129			-1.043
93800.000			-3.129			-1.043
93902.000			-3.129			-1.043
94001.000			-3.128			-1.043
94100.000			-3.129			-1.043
94200.000			-3.128			-1.043
94300.000			-3.127			-1.042
94401.000			-3.127			-1.042
94500.000			-3.128			-1.043
94600.000			-3.127			-1.042
94702.000			-3.127			-1.042
94801.000			-3.128			-1.043
94900.000			-3.126			-1.042
95001.000			-3.127			-1.042
95100.000			-3.127			-1.042
95200.000			-3.127			-1.042
95301.000			-3.127			-1.042
95400.000			-3.127			-1.042
95501.000			-3.127			-1.042
95602.000			-3.126			-1.042
95700.000			-3.127			-1.042
95800.000			-3.127			-1.042
95901.000			-3.126			-1.042
96000.000			-3.125			-1.042
96100.000			-3.125			-1.042
96201.000			-3.126			-1.042
96301.000			-3.126			-1.042
96401.000			-3.125			-1.042
96501.000			-3.126			-1.042
96600.000			-3.126			-1.042
96700.000			-3.126			-1.042
96801.000			-3.126			-1.042
96900.000			-3.126			-1.042
97000.000			-3.126			-1.042
97102.000			-3.125			-1.042
97201.000			-3.125			-1.042
97300.000			-3.125			-1.042
97400.000			-3.126			-1.042
97500.000			-3.126			-1.042
97601.000			-3.125			-1.042
97700.000			-3.125			-1.042
97800.000			-3.126			-1.042
97902.000			-3.125			-1.042
98001.000			-3.124			-1.041
98100.000			-3.124			-1.041
98201.000			-3.125			-1.042
98300.000			-3.126			-1.042
98400.000			-3.126			-1.042
98501.000			-3.124			-1.041
98600.000			-3.124			-1.041
98701.000			-3.125			-1.042
98802.000			-3.124			-1.041
98900.000			-3.123			-1.041
99000.000			-3.124			-1.041
99101.000			-3.124			-1.041
99200.000			-3.125			-1.042
99300.000			-3.124			-1.041
99401.000			-3.123			-1.041
99501.000			-3.123			-1.041
99601.000			-3.124			-1.041
99701.000			-3.124			-1.041
99800.000			-3.124			-1.041
99900.000			-3.123			-1.041
100001.000			-3.123			-1.041
100100.000			-3.123			-1.041
100200.000			-3.123			-1.041
100302.000			-3.123			-1.041
100401.000			-3.122			-1.041
100500.000			-3.123			-1.041
100600.000			-3.123			-1.041
100700.000			-3.123			-1.041
100801.000			-3.124			-1.041
100900.000			-3.125			-1.042
101000.000			-3.123			-1.041
101102.000			-3.123			-1.041
101201.000			-3.122			-1.041
101300.000			-3.122			-1.041
101401.000			-3.122			-1.041
101500.000			-3.123			-1.041
101600.000			-3.122			-1.041
101701.000			-3.121			-1.040
101800.000			-3.122			-1.041
101901.000			-3.122			-1.041
102002.000			-3.122			-1.041
102100.000			-3.122			-1.041
102200.000			-3.121			-1.040
102301.000			-3.121			-1.040
102400.000			-3.120			-1.040
102500.000			-3.120			-1.040
102601.000			-3.120			-1.040
102701.000			-3.121			-1.040
102801.000			-3.120			-1.040
102901.000			-3.120			-1.040
103000.000			-3.121			-1.040
103100.000			-3.121			-1.040
103201.000			-3.121			-1.040
103300.000			-3.121			-1.040
103400.000			-3.121			-1.040
103502.000			-3.120			-1.040
103601.000			-3.120			-1.040
103700.000			-3.120			-1.040
103800.000			-3.120			-1.040
103900.000			-3.120			-1.040
104001.000			-3.120			-1.040
104100.000			-3.119			-1.040
104200.000			-3.119			-1.040
104302.000			-3.121			-1.040
104401.000			-3.120			-1.040
104500.000			-3.119			-1.040
104601.000			-3.119			-1.040
104700.000			-3.120			-1.040
104800.000			-3.120			-1.040
104901.000			-3.119			-1.040
105000.000			-3.118			-1.039
105101.000			-3.118			-1.039
105202.000			-3.118			-1.039
105300.000			-3.119			-1.040
105400.000			-3.119			-1.040
105501.000			-3.118			-1.039
105600.000			-3.119			-1.040
105700.000			-3.117			-1.039
105801.000			-3.118			-1.039
105901.000			-3.118			-1.039
106001.000			-3.119			-1.040
106101.000			-3.119			-1.040
106200.000			-3.118			-1.039
106300.000			-3.118			-1.039
106401.000			-3.118			-1.039
106500.000			-3.118			-1.039
106600.000			-3.117			-1.039
106702.000			-3.117			-1.039
106801.000			-3.118			-1.039
106900.000			-3.118			-1.039
107000.000			-3.117			-1.039
107100.000			-3.117			-1.039
107201.000			-3.117			-1.039
107300.000			-3.117			-1.039
107400.000			-3.116			-1.039
107502.000			-3.117			-1.039
107601.000			-3.116			-1.039
107700.000			-3.116			-1.039
107801.000			-3.116			-1.039
107900.000			-3.116			-1.039
108000.000			-3.117			-1.039
108101.000			-3.117			-1.039
108200.000			-3.117			-1.039
108301.000			-3.116			-1.039
108402.000			-3.116			-1.039
108501.000			-3.116			-1.039
108600.000			-3.116			-1.039
108701.000			-3.116			-1.039
108800.000			-3.116			-1.039
108900.000			-3.115			-1.038
109001.000			-3.116			-1.039
109101.000			-3.116			-1.039
109201.000			-3.116			-1.039
109301.000			-3.116			-1.039
109400.000			-3.115			-1.038
109500.000			-3.115			-1.038
109601.000			-3.115			-1.038
109700.000			-3.116			-1.039
109800.000			-3.115			-1.038
109901.000			-3.115			-1.038
110001.000			-3.115			-1.038
110102.000			-3.114			-1.038
110200.000			-3.114			-1.038
110300.000			-3.114			-1.038
110401.000			-3.114			-1.038
110500.000			-3.114			-1.038
110600.000			-3.114			-1.038
110702.000			-3.115			-1.038
110801.000			-3.114			-1.038
110901.000			-3.114			-1.038
111001.000			-3.115			-1.038
111100.000			-3.114			-1.038
111200.000			-3.115			-1.038
111301.000			-3.114			-1.038
111400.000			-3.114			-1.038
111501.000			-3.113			-1.038
111602.000			-3.114			-1.038
111700.000			-3.114			-1.038
111800.000			-3.113			-1.038
111901.000			-3.113			-1.038
112000.000			-3.113			-1.038
112100.000			-3.114			-1.038
112201.000			-3.114			-1.038
112301.000			-3.114			-1.038
112401.000			-3.113			-1.038
112501.000			-3.113			-1.038
112600.000			-3.113			-1.038
112700.000			-3.114			-1.038
112801.000			-3.114			-1.038
112900.000			-3.113			-1.038
113000.000			-3.113			-1.038
113102.000			-3.114			-1.038
113201.000			-3.112			-1.037
113300.000			-3.112			-1.037
113400.000			-3.112			-1.037
113500.000			-3.112			-1.037
113601.000			-3.112			-1.037
113700.000			-3.112			-1.037
113800.000			-3.112			-1.037
113902.000			-3.112			-1.037
114001.000			-3.112			-1.037
114100.000			-3.112			-1.037
114201.000			-3.112			-1.037
114300.000			-3.112			-1.037
114400.000			-3.112			-1.037
114501.000			-3.112			-1.037
114600.000			-3.112			-1.037
114701.000			-3.111			-1.037
114802.000			-3.111			-1.037
114900.000			-3.111			-1.037
115000.000			-3.111			-1.037
115101.000			-3.111			-1.037
115200.000			-3.112			-1.037
115300.000			-3.112			-1.037
115401.000			-3.111			-1.037
115501.000			-3.111			-1.037
115601.000			-3.111			-1.037
115701.000			-3.110			-1.037
115800.000			-3.110			-1.037
115900.000			-3.110			-1.037
116001.000			-3.111			-1.037
116100.000			-3.110			-1.037
116200.000			-3.110			-1.037
116302.000			-3.110			-1.037
116401.000			-3.110			-1.037
116502.000			-3.109			-1.036
116600.000			-3.110			-1.037
116700.000			-3.109			-1.036
116801.000			-3.109			-1.036
116900.000			-3.111			-1.037
117000.000			-3.111			-1.037
117101.000			-3.110			-1.037
117201.000			-3.110			-1.037
117301.000			-3.110			-1.037
117401.000			-3.110			-1.037
117500.000			-3.110			-1.037
117600.000			-3.110			-1.037
117701.000			-3.110			-1.037
117800.000			-3.109			-1.036
117900.000			-3.109			-1.036
118002.000			-3.109			-1.036
118101.000			-3.110			-1.037
118200.000			-3.110			-1.037
118301.000			-3.109			-1.036
118400.000			-3.108			-1.036
118500.000			-3.109			-1.036
118601.000			-3.110			-1.037
118700.000			-3.109			-1.036
118801.000			-3.110			-1.037
118902.000			-3.109			-1.036
119000.000			-3.109			-1.036
119100.000			-3.108			-1.036
119201.000			-3.108			-1.036
119300.000			-3.108			-1.036
119400.000			-3.108			-1.036
119501.000			-3.108			-1.036
119601.000			-3.109			-1.036
119702.000			-3.108			-1.036
119800.000			-3.107			-1.036
119900.000			-3.108			-1.036
120001.000			-3.108			-1.036
120100.000			-3.108			-1.036
120200.000			-3.108			-1.036
120301.000			-3.107			-1.036
120401.000			-3.107			-1.036
120501.000			-3.107			-1.036
120601.000			-3.108			-1.036
120700.000			-3.106			-1.035
120800.000			-3.107			-1.036
120901.000			-3.107			-1.036
121000.000			-3.106			-1.035
121100.000			-3.107			-1.036
121202.000			-3.108			-1.036
121301.000			-3.106			-1.035
121400.000			-3.107			-1.036
121501.000			-3.107			-1.036
121600.000			-3.107			-1.036
121700.000			-3.107			-1.036
121801.000			-3.106			-1.035
121900.000			-3.106			-1.035
122001.000			-3.106			-1.035
122102.000			-3.106			-1.035
122200.000			-3.106			-1.035
122300.000			-3.106			-1.035
122401.000			-3.105			-1.035
122500.000			-3.106			-1.035
122600.000			-3.107			-1.036
122701.000			-3.106			-1.035
122801.000			-3.105			-1.035
122902.000			-3.105			-1.035
123000.000			-3.105			-1.035
123100.000			-3.107			-1.036
123201.000			-3.106			-1.035
123300.000			-3.106			-1.035
123400.000			-3.106			-1.035
123501.000			-3.105			-1.035
123601.000			-3.105			-1.035
123701.000			-3.105			-1.035
123801.000			-3.104			-1.035
123900.000			-3.105			-1.035
124000.000			-3.105			-1.035
124101.000			-3.105			-1.035
124200.000			-3.104			-1.035
124300.000			-3.105			-1.035
124402.000			-3.105			-1.035
124501.000			-3.105			-1.035
124600.000			-3.104			-1.035
124701.000			-3.104			-1.035
124800.000			-3.104			-1.035
124900.000			-3.104			-1.035
125001.000			-3.104			-1.035
125100.000			-3.105			-1.035
125201.000			-3.105			-1.035
125302.000			-3.104			-1.035
125400.000			-3.104			-1.035
125500.000			-3.104			-1.035
125601.000			-3.104			-1.035
125700.000			-3.103			-1.034
125800.000			-3.104			-1.035
125901.000			-3.103			-1.034
126001.000			-3.102			-1.034
126102.000			-3.103			-1.034
126200.000			-3.103			-1.034
126300.000			-3.103			-1.034
126401.000			-3.103			-1.034
126500.000			-3.102			-1.034
126600.000			-3.103			-1.034
126701.000			-3.104			-1.035
126801.000			-3.104			-1.035
126901.000			-3.103			-1.034
127001.000			-3.102			-1.034
127100.000			-3.103			-1.034
127200.000			-3.103			-1.034
127301.000			-3.102			-1.034
127400.000			-3.103			-1.034
127500.000			-3.103			-1.034
127602.000			-3.102			-1.034
127701.000			-3.102			-1.034
127800.000			-3.102			-1.034
127901.000			-3.102			-1.034
128000.000			-3.102			-1.034
128100.000			-3.101			-1.034
128201.000			-3.101			-1.034
128300.000			-3.102			-1.034
128401.000			-3.101			-1.034
128502.000			-3.102			-1.034
128600.000			-3.102			-1.034
128700.000			-3.102			-1.034
128801.000			-3.102			-1.034
128900.000			-3.102			-1.034
129000.000			-3.101			-1.034
129101.000			-3.101			-1.034
129201.000			-3.101			-1.034
129302.000			-3.101			-1.034
129400.000			-3.101			-1.034
129500.000			-3.101			-1.034
129601.000			-3.101			-1.034
129700.000			-3.101			-1.034
129800.000			-3.102			-1.034
129901.000			-3.101			-1.034
130001.000			-3.101			-1.034
130101.000			-3.101			-1.034
130201.000			-3.101			-1.034
130300.000			-3.102			-1.034
130400.000			-3.101			-1.034
130501.000			-3.100			-1.033
130600.000			-3.100			-1.033
130700.000			-3.100			-1.033
130802.000			-3.101			-1.034
130901.000			-3.101			-1.034
131000.000			-3.100			-1.033
131101.000			-3.100			-1.033
131200.000			-3.099			-1.033
131300.000			-3.100			-1.033
131401.000			-3.100			-1.033
131500.000			-3.101			-1.034
131601.000			-3.100			-1.033
131702.000			-3.099			-1.033
131801.000			-3.100			-1.033
131900.000			-3.100			-1.033
132001.000			-3.101			-1.034
132100.000			-3.100			-1.033
132200.000			-3.100			-1.033
132301.000			-3.099			-1.033
132400.000			-3.099			-1.033
132502.000			-3.100			-1.033
132601.000			-3.100			-1.033
132701.000			-3.100			-1.033
132801.000			-3.100			-1.033
132900.000			-3.099			-1.033
133000.000			-3.099			-1.033
133101.000			-3.099			-1.033
133200.000			-3.100			-1.033
133300.000			-3.100			-1.033
133402.000			-3.099			-1.033
133501.000			-3.100			-1.033
133601.000			-3.100			-1.033
133701.000			-3.099			-1.033
133800.000			-3.099			-1.033
133900.000			-3.100			-1.033
134001.000			-3.100			-1.033
134100.000			-3.099			-1.033
134200.000			-3.098			-1.033
134302.000			-3.099			-1.033
134401.000			-3.100			-1.033
134501.000			-3.100			-1.033
134601.000			-3.099			-1.033
134700.000			-3.098			-1.033
134800.000			-3.098			-1.033
134901.000			-3.098			-1.033
135000.000			-3.098			-1.033
135100.000			-3.098			-1.033
135201.000			-3.098			-1.033
135301.000			-3.097			-1.032
135401.000			-3.097			-1.032
135501.000			-3.099			-1.033
135600.000			-3.099			-1.033
135700.000			-3.099			-1.033
135800.000			-3.098			-1.033
135900.000			-3.098			-1.033
136001.000			-3.097			-1.032
136100.000			-3.097			-1.032
136201.000			-3.097			-1.032
136302.000			-3.097			-1.032
136400.000			-3.096			-1.032
136500.000			-3.097			-1.032
136601.000			-3.098			-1.033
136700.000			-3.098			-1.033
136800.000			-3.096			-1.032
136901.000			-3.097			-1.032
137000.000			-3.097			-1.032
137101.000			-3.097			-1.032
137202.000			-3.097			-1.032
137301.000			-3.097			-1.032
137400.000			-3.096			-1.032
137501.000			-3.097			-1.032
137600.000			-3.097			-1.032
137700.000			-3.097			-1.032
137801.000			-3.097			-1.032
137900.000			-3.096			-1.032
138000.000			-3.096			-1.032
138102.000			-3.097			-1.032
138201.000			-3.096			-1.032
138300.000			-3.097			-1.032
138401.000			-3.096			-1.032
138500.000			-3.097			-1.032
138600.000			-3.097			-1.032
138701.000			-3.097			-1.032
138800.000			-3.096			-1.032
138900.000			-3.096			-1.032
139002.000			-3.096			-1.032
139101.000			-3.097			-1.032
139201.000			-3.096			-1.032
139300.000			-3.095			-1.032
139400.000			-3.095			-1.032
139501.000			-3.096			-1.032
139600.000			-3.096			-1.032
139700.000			-3.095			-1.032
139801.000			-3.095			-1.032
139901.000			-3.095			-1.032
140001.000			-3.095			-1.032
140102.000			-3.095			-1.032
140200.000			-3.095			-1.032
140300.000			-3.096			-1.032
140401.000			-3.095			-1.032
140500.000			-3.094			-1.031
140600.000			-3.094			-1.031
140701.000			-3.095			-1.032
140801.000			-3.095			-1.032
140901.000			-3.096			-1.032
141002.000			-3.095			-1.032
141100.000			-3.094			-1.031
141200.000			-3.094			-1.031
141301.000			-3.095			-1.032
141400.000			-3.095			-1.032
141500.000			-3.095			-1.032
141601.000			-3.094			-1.031
141701.000			-3.094			-1.031
141801.000			-3.094			-1.031
141902.000			-3.094			-1.031
142000.000			-3.095			-1.032
142100.000			-3.095			-1.032
142200.000			-3.095			-1.032
142300.000			-3.094			-1.031
142401.000			-3.093			-1.031
142500.000			-3.094			-1.031
142601.000			-3.095			-1.032
142702.000			-3.094			-1.031
142801.000			-3.095			-1.032
142900.000			-3.094			-1.031
143001.000			-3.094			-1.031
143100.000			-3.094			-1.031
143200.000			-3.093			-1.031
143301.000			-3.092			-1.031
143400.000			-3.093			-1.031
143501.000			-3.094			-1.031
143602.000			-3.093			-1.031
143701.000			-3.092			-1.031
143800.000			-3.092			-1.031
143901.000			-3.092			-1.031
144000.000			-3.093			-1.031
144100.000			-3.093			-1.031
144201.000			-3.092			-1.031
144300.000			-3.092			-1.031
144400.000			-3.094			-1.031
144502.000			-3.094			-1.031
144601.000			-3.093			-1.031
144700.000			-3.093			-1.031
144801.000			-3.093			-1.031
144900.000			-3.093			-1.031
145000.000			-3.092			-1.031
145101.000			-3.092			-1.031
145200.000			-3.092			-1.031
145300.000			-3.093			-1.031
145402.000			-3.093			-1.031
145501.000			-3.093			-1.031
145601.000			-3.092			-1.031
145700.000			-3.092			-1.031
145800.000			-3.093			-1.031
145901.000			-3.092			-1.031
146000.000			-3.092			-1.031
146100.000			-3.091			-1.030
146201.000			-3.092			-1.031
146301.000			-3.091			-1.030
146401.000			-3.091			-1.030
146501.000			-3.091			-1.030
146600.000			-3.091			-1.030
146700.000			-3.091			-1.030
146801.000			-3.091			-1.030
146900.000			-3.090			-1.030
147000.000			-3.090			-1.030
147101.000			-3.091			-1.030
147201.000			-3.090			-1.030
147301.000			-3.090			-1.030
147401.000			-3.091			-1.030
147500.000			-3.092			-1.031
147600.000			-3.092			-1.031
147701.000			-3.091			-1.030
147800.000			-3.090			-1.030
147900.000			-3.091			-1.030
148001.000			-3.091			-1.030
148101.000			-3.091			-1.030
148201.000			-3.091			-1.030
148301.000			-3.090			-1.030
148400.000			-3.090			-1.030
148500.000			-3.091			-1.030
148600.000			-3.091			-1.030
148700.000			-3.090			-1.030
148801.000			-3.090			-1.030
148900.000			-3.090			-1.030
149001.000			-3.090			-1.030
149102.000			-3.089			-1.030
149201.000			-3.090			-1.030
149300.000			-3.090			-1.030
149401.000			-3.089			-1.030
149500.000			-3.090			-1.030
149600.000			-3.090			-1.030
149701.000			-3.090			-1.030
149800.000			-3.089			-1.030
149900.000			-3.089			-1.030
150002.000			-3.089			-1.030
150101.000			-3.089			-1.030
150201.000			-3.089			-1.030
150301.000			-3.089			-1.030
150400.000			-3.089			-1.030
150500.000			-3.089			-1.030
150601.000			-3.089			-1.030
150700.000			-3.089			-1.030
150800.000			-3.089			-1.030
150902.000			-3.089			-1.030
151001.000			-3.089			-1.030
151101.000			-3.089			-1.030
151201.000			-3.089			-1.030
151300.000			-3.089			-1.030
151400.000			-3.089			-1.030
151501.000			-3.089			-1.030
151600.000			-3.089			-1.030
151700.000			-3.088			-1.029
151800.000			-3.089			-1.030
151901.000			-3.089			-1.030
152002.000			-3.088			-1.029
152100.000			-3.087			-1.029
152200.000			-3.087			-1.029
152301.000			-3.089			-1.030
152400.000			-3.089			-1.030
152500.000			-3.088			-1.029
152601.000			-3.087			-1.029
152700.000			-3.087			-1.029
152801.000			-3.088			-1.029
152902.000			-3.088			-1.029
153000.000			-3.087			-1.029
153100.000			-3.087			-1.029
153201.000			-3.088			-1.029
153300.000			-3.087			-1.029
153400.000			-3.087			-1.029
153501.000			-3.088			-1.029
153600.000			-3.088			-1.029
153701.000			-3.087			-1.029
153802.000			-3.087			-1.029
153901.000			-3.087			-1.029
154000.000			-3.087			-1.029
154101.000			-3.087			-1.029
154200.000			-3.088			-1.029
154300.000			-3.088			-1.029
154401.000			-3.088			-1.029
154500.000			-3.087			-1.029
154601.000			-3.088			-1.029
154702.000			-3.088			-1.029
154801.000			-3.087			-1.029
154900.000			-3.086			-1.029
155000.000			-3.086			-1.029
155100.000			-3.086			-1.029
155201.000			-3.086			-1.029
155300.000			-3.087			-1.029
155400.000			-3.086			-1.029
155501.000			-3.086			-1.029
155601.000			-3.087			-1.029
155701.000			-3.086			-1.029
155801.000			-3.087			-1.029
155900.000			-3.086			-1.029
156000.000			-3.086			-1.029
156101.000			-3.086			-1.029
156200.000			-3.086			-1.029
156300.000			-3.085			-1.028
156401.000			-3.085			-1.028
156501.000			-3.085			-1.028
156601.000			-3.086			-1.029
156701.000			-3.085			-1.028
156800.000			-3.086			-1.029
156900.000			-3.085			-1.028
157001.000			-3.086			-1.029
157100.000			-3.085			-1.028
157200.000			-3.085			-1.028
157301.000			-3.085			-1.028
157401.000			-3.085			-1.028
157501.000			-3.083			-1.028
157601.000			-3.084			-1.028
157700.000			-3.085			-1.028
157800.000			-3.085			-1.028
157901.000			-3.084			-1.028
158000.000			-3.084			-1.028
158100.000			-3.085			-1.028
158200.000			-3.084			-1.028
158300.000			-3.085			-1.028
158402.000			-3.085			-1.028
158501.000			-3.085			-1.028
158600.000			-3.084			-1.028
158701.000			-3.084			-1.028
158800.000			-3.084			-1.028
158900.000			-3.084			-1.028
159001.000			-3.084			-1.028
159100.000			-3.085			-1.028
159200.000			-3.085			-1.028
159302.000			-3.085			-1.028
159401.000			-3.084			-1.028
159500.000			-3.084			-1.028
159601.000			-3.083			-1.028
159700.000			-3.084			-1.028
159800.000			-3.084			-1.028
159901.000			-3.083			-1.028
160000.000			-3.083			-1.028
160100.000			-3.084			-1.028
160202.000			-3.082			-1.027
160301.000			-3.082			-1.027
160400.000			-3.084			-1.028
160501.000			-3.084			-1.028
160600.000			-3.084			-1.028
160700.000			-3.083			-1.028
160801.000			-3.084			-1.028
160900.000			-3.084			-1.028
161000.000			-3.083			-1.028
161102.000			-3.083			-1.028
161201.000			-3.083			-1.028
161300.000			-3.083			-1.028
161400.000			-3.083			-1.028
161500.000			-3.084			-1.028
161601.000			-3.083			-1.028
161700.000			-3.082			-1.027
161800.000			-3.082			-1.027
161901.000			-3.083			-1.028
162001.000			-3.082			-1.027
162101.000			-3.083			-1.028
162201.000			-3.082			-1.027
162300.000			-3.083			-1.028
162400.000			-3.083			-1.028
162501.000			-3.082			-1.027
162600.000			-3.083			-1.028
162700.000			-3.082			-1.027
162801.000			-3.082			-1.027
162901.000			-3.082			-1.027
163001.000			-3.081			-1.027
163101.000			-3.081			-1.027
163200.000			-3.083			-1.028
163300.000			-3.081			-1.027
163401.000			-3.082			-1.027
163500.000			-3.082			-1.027
163600.000			-3.082			-1.027
163701.000			-3.082			-1.027
163801.000			-3.081			-1.027
163901.000			-3.081			-1.027
164001.000			-3.081			-1.027
164100.000			-3.082			-1.027
164200.000			-3.081			-1.027
164301.000			-3.080			-1.027
164400.000			-3.079			-1.026
164500.000			-3.080			-1.027
164600.000			-3.081			-1.027
164701.000			-3.082			-1.027
164802.000			-3.082			-1.027
164901.000			-3.081			-1.027
165000.000			-3.080			-1.027
165101.000			-3.080			-1.027
165200.000			-3.081			-1.027
165300.000			-3.081			-1.027
165401.000			-3.081			-1.027
165500.000			-3.081			-1.027
165601.000			-3.080			-1.027
165702.000			-3.080			-1.027
165801.000			-3.081			-1.027
165900.000			-3.080			-1.027
166001.000			-3.080			-1.027
166100.000			-3.081			-1.027
166200.000			-3.081			-1.027
166301.000			-3.081			-1.027
166400.000			-3.079			-1.026
166501.000			-3.079			-1.026
166602.000			-3.080			-1.027
166701.000			-3.080			-1.027
166800.000			-3.080			-1.027
166901.000			-3.080			-1.027
167000.000			-3.079			-1.026
167100.000			-3.079			-1.026
167201.000			-3.079			-1.026
167300.000			-3.080			-1.027
167400.000			-3.079			-1.026
167502.000			-3.079			-1.026
167601.000			-3.080			-1.027
167700.000			-3.080			-1.027
167800.000			-3.080			-1.027
167900.000			-3.079			-1.026
168001.000			-3.080			-1.027
168100.000			-3.080			-1.027
168200.000			-3.080			-1.027
168301.000			-3.079			-1.026
168401.000			-3.080			-1.027
168501.000			-3.080			-1.027
168602.000			-3.079			-1.026
168700.000			-3.079			-1.026
168800.000			-3.079			-1.026
168901.000			-3.079			-1.026
169000.000			-3.079			-1.026
169100.000			-3.078			-1.026
169201.000			-3.079			-1.026
169300.000			-3.079			-1.026
169401.000			-3.079			-1.026
169502.000			-3.078			-1.026
169601.000			-3.078			-1.026
169700.000			-3.079			-1.026
169801.000			-3.078			-1.026
169900.000			-3.079			-1.026
170000.000			-3.078			-1.026
170101.000			-3.079			-1.026
170200.000			-3.079			-1.026
170300.000			-3.078			-1.026
170402.000			-3.078			-1.026
170501.000			-3.079			-1.026
170600.000			-3.079			-1.026
170701.000			-3.078			-1.026
170800.000			-3.078			-1.026
170900.000			-3.078			-1.026
171000.000			-3.078			-1.026
171100.000			-3.078			-1.026
171201.000			-3.078			-1.026
171301.000			-3.077			-1.026
171401.000			-3.078			-1.026
171501.000			-3.077			-1.026
171600.000			-3.077			-1.026
171700.000			-3.077			-1.026
171801.000			-3.077			-1.026
171900.000			-3.078			-1.026
172000.000			-3.077			-1.026
172101.000			-3.078			-1.026
172201.000			-3.077			-1.026
172301.000			-3.077			-1.026
172401.000			-3.077			-1.026
172500.000			-3.077			-1.026
172600.000			-3.077			-1.026
172701.000			-3.078			-1.026
172800.000			-3.078			-1.026
172900.000			-3.077			-1.026
173001.000			-3.077			-1.026
173101.000			-3.077			-1.026
173201.000			-3.076			-1.025
173302.000			-3.076			-1.025
173400.000			-3.075			-1.025
173500.000			-3.076			-1.025
173601.000			-3.077			-1.026
173700.000			-3.076			-1.025
173800.000			-3.077			-1.026
173901.000			-3.076			-1.025
174001.000			-3.075			-1.025
174102.000			-3.077			-1.026
174201.000			-3.077			-1.026
174300.000			-3.076			-1.025
174401.000			-3.077			-1.026
174500.000			-3.076			-1.025
174600.000			-3.076			-1.025
174701.000			-3.076			-1.025
174800.000			-3.076			-1.025
174900.000			-3.076			-1.025
175002.000			-3.077			-1.026
175101.000			-3.076			-1.025
175200.000			-3.077			-1.026
175301.000			-3.076			-1.025
175400.000			-3.076			-1.025
175500.000			-3.076			-1.025
175601.000			-3.077			-1.026
175700.000			-3.076			-1.025
175800.000			-3.076			-1.025
175902.000			-3.076			-1.025
176001.000			-3.075			-1.025
176100.000			-3.075			-1.025
176201.000			-3.076			-1.025
176300.000			-3.076			-1.025
176400.000			-3.076			-1.025
176501.000			-3.075			-1.025
176600.000			-3.075			-1.025
176700.000			-3.075			-1.025
176802.000			-3.076			-1.025
176901.000			-3.076			-1.025
177001.000			-3.076			-1.025
177101.000			-3.074			-1.025
177200.000			-3.075			-1.025
177300.000			-3.076			-1.025
177400.000			-3.075			-1.025
177500.000			-3.075			-1.025
177601.000			-3.075			-1.025
177700.000			-3.074			-1.025
177801.000			-3.074			-1.025
177902.000			-3.075			-1.025
178000.000			-3.075			-1.025
178100.000			-3.075			-1.025
178201.000			-3.075			-1.025
178300.000			-3.074			-1.025
178400.000			-3.073			-1.024
178501.000			-3.073			-1.024
178600.000			-3.074			-1.025
178701.000			-3.074			-1.025
178802.000			-3.076			-1.025
178901.000			-3.075			-1.025
179000.000			-3.074			-1.025
179101.000			-3.075			-1.025
179200.000			-3.075			-1.025
179300.000			-3.074			-1.025
179401.000			-3.073			-1.024
179500.000			-3.073			-1.024
179600.000			-3.073			-1.024
179702.000			-3.074			-1.025
179801.000			-3.075			-1.025
179900.000			-3.075			-1.025
180001.000			-3.074			-1.025
180100.000			-3.073			-1.024
180200.000			-3.074			-1.025
180301.000			-3.074			-1.025
180400.000			-3.074			-1.025
180500.000			-3.074			-1.025
180602.000			-3.074			-1.025
180701.000			-3.074			-1.025
180801.000			-3.074			-1.025
180900.000			-3.073			-1.024
181000.000			-3.072			-1.024
181101.000			-3.074			-1.025
181200.000			-3.073			-1.024
181300.000			-3.073			-1.024
181401.000			-3.073			-1.024
181501.000			-3.073			-1.024
181601.000			-3.073			-1.024
181701.000			-3.074			-1.025
181800.000			-3.074			-1.025
181900.000			-3.073			-1.024
182001.000			-3.072			-1.024
182100.000			-3.071			-1.024
182200.000			-3.072			-1.024
182301.000			-3.072			-1.024
182401.000			-3.073			-1.024
182501.000			-3.072			-1.024
182601.000			-3.072			-1.024
182700.000			-3.073			-1.024
182800.000			-3.074			-1.025
182901.000			-3.074			-1.025
183000.000			-3.073			-1.024
183100.000			-3.073			-1.024
183201.000			-3.071			-1.024
183301.000			-3.072			-1.024
183401.000			-3.072			-1.024
183501.000			-3.072			-1.024
183600.000			-3.071			-1.024
183700.000			-3.072			-1.024
183800.000			-3.071			-1.024
183900.000			-3.071			-1.024
184001.000			-3.071			-1.024
184100.000			-3.072			-1.024
184201.000			-3.071			-1.024
184302.000			-3.072			-1.024
184400.000			-3.072			-1.024
184500.000			-3.071			-1.024
184601.000			-3.071			-1.024
184700.000			-3.071			-1.024
184800.000			-3.071			-1.024
184901.000			-3.071			-1.024
185000.000			-3.071			-1.024
185101.000			-3.070			-1.023
185202.000			-3.071			-1.024
185301.000			-3.072			-1.024
185400.000			-3.071			-1.024
185501.000			-3.071			-1.024
185600.000			-3.070			-1.023
185700.000			-3.070			-1.023
185801.000			-3.070			-1.023
185900.000			-3.071			-1.024
186001.000			-3.070			-1.023
186102.000			-3.071			-1.024
186201.000			-3.071			-1.024
186300.000			-3.071			-1.024
186401.000			-3.071			-1.024
186500.000			-3.070			-1.023
186600.000			-3.070			-1.023
186701.000			-3.070			-1.023
186800.000			-3.070			-1.023
186900.000			-3.070			-1.023
187002.000			-3.070			-1.023
187101.000			-3.070			-1.023
187201.000			-3.070			-1.023
187300.000			-3.070			-1.023
187400.000			-3.070			-1.023
187501.000			-3.070			-1.023
187600.000			-3.070			-1.023
187700.000			-3.070			-1.023
187801.000			-3.070			-1.023
187901.000			-3.070			-1.023
188001.000			-3.070			-1.023
188101.000			-3.069			-1.023
188200.000			-3.070			-1.023
188300.000			-3.069			-1.023
188401.000			-3.069			-1.023
188500.000			-3.070			-1.023
188600.000			-3.070			-1.023
188701.000			-3.069			-1.023
188801.000			-3.069			-1.023
188901.000			-3.070			-1.023
189002.000			-3.071			-1.024
189100.000			-3.070			-1.023
189200.000			-3.070			-1.023
189301.000			-3.070			-1.023
189400.000			-3.071			-1.024
189500.000			-3.070			-1.023
189601.000			-3.070			-1.023
189700.000			-3.070			-1.023
189801.000			-3.070			-1.023
189902.000			-3.070			-1.023
190001.000			-3.069			-1.023
190100.000			-3.069			-1.023
190200.000			-3.069			-1.023
190300.000			-3.070			-1.023
190401.000			-3.070			-1.023
190500.000			-3.069			-1.023
190600.000			-3.069			-1.023
190702.000			-3.068			-1.023
190801.000			-3.068			-1.023
190901.000			-3.068			-1.023
191001.000			-3.067			-1.022
191100.000			-3.068			-1.023
191200.000			-3.069			-1.023
191301.000			-3.068			-1.023
191400.000			-3.067			-1.022
191500.000			-3.068			-1.023
191602.000			-3.069			-1.023
191701.000			-3.070			-1.023
191801.000			-3.069			-1.023
191901.000			-3.068			-1.023
192000.000			-3.069			-1.023
192100.000			-3.069			-1.023
192201.000			-3.069			-1.023
192300.000			-3.068			-1.023
192400.000			-3.068			-1.023
192501.000			-3.068			-1.023
192601.000			-3.069			-1.023
192701.000			-3.069			-1.023
192801.000			-3.068			-1.023
192900.000			-3.068			-1.023
193000.000			-3.068			-1.023
193101.000			-3.069			-1.023
193200.000			-3.068			-1.023
193300.000			-3.068			-1.023
193400.000			-3.068			-1.023
193500.000			-3.068			-1.023
193602.000			-3.067			-1.022
193701.000			-3.067			-1.022
193800.000			-3.068			-1.023
193901.000			-3.069			-1.023
194000.000			-3.069			-1.023
194100.000			-3.068			-1.023
194201.000			-3.068			-1.023
194300.000			-3.067			-1.022
194400.000			-3.067			-1.022
194502.000			-3.069			-1.023
194601.000			-3.068			-1.023
194700.000			-3.068			-1.023
194801.000			-3.067			-1.022
194900.000			-3.067			-1.022
195000.000			-3.067			-1.022
195101.000			-3.067			-1.022
195200.000			-3.067			-1.022
195300.000			-3.068			-1.023
195402.000			-3.067			-1.022
195501.000			-3.067			-1.022
195601.000			-3.066			-1.022
195701.000			-3.067			-1.022
195800.000			-3.067			-1.022
195900.000			-3.067			-1.022
196001.000			-3.066			-1.022
196100.000			-3.066			-1.022
196200.000			-3.066			-1.022
196301.000			-3.067			-1.022
196401.000			-3.066			-1.022
196502.000			-3.067			-1.022
196600.000			-3.067			-1.022
196700.000			-3.067			-1.022
196801.000			-3.066			-1.022
196900.000			-3.065			-1.022
197000.000			-3.065			-1.022
197101.000			-3.067			-1.022
197200.000			-3.067			-1.022
197301.000			-3.066			-1.022
197402.000			-3.065			-1.022
197501.000			-3.064			-1.021
197600.000			-3.065			-1.022
197701.000			-3.066			-1.022
197800.000			-3.066			-1.022
197900.000			-3.065			-1.022
198001.000			-3.066			-1.022
198100.000			-3.067			-1.022
198200.000			-3.067			-1.022
198302.000			-3.067			-1.022
198401.000			-3.066			-1.022
198500.000			-3.066			-1.022
198601.000			-3.065			-1.022
198700.000			-3.065			-1.022
198800.000			-3.065			-1.022
198901.000			-3.065			-1.022
199000.000			-3.065			-1.022
199100.000			-3.065			-1.022
199202.000			-3.065			-1.022
199301.000			-3.066			-1.022
199401.000			-3.066			-1.022
199501.000			-3.066			-1.022
199600.000			-3.066			-1.022
199700.000			-3.066			-1.022
199800.000			-3.065			-1.022
199900.000			-3.064			-1.021
200001.000			-3.064			-1.021
200100.000			-3.065			-1.022
200201.000			-3.065			-1.022
200302.000			-3.066			-1.022
200401.000			-3.065			-1.022
200500.000			-3.065			-1.022
200601.000			-3.065			-1.022
200700.000			-3.065			-1.022
200800.000			-3.064			-1.021
200901.000			-3.064			-1.021
201000.000			-3.065			-1.022
201101.000			-3.065			-1.022
201202.000			-3.065			-1.022
201300.000			-3.065			-1.022
201400.000			-3.065			-1.022
201501.000			-3.064			-1.021
201600.000			-3.064			-1.021
201700.000			-3.064			-1.021
201801.000			-3.065			-1.022
201900.000			-3.064			-1.021
202001.000			-3.064			-1.021
202102.000			-3.064			-1.021
202200.000			-3.064			-1.021
202300.000			-3.065			-1.022
202401.000			-3.065			-1.022
202500.000			-3.064			-1.021
202600.000			-3.063			-1.021
202701.000			-3.062			-1.021
202801.000			-3.063			-1.021
202902.000			-3.064			-1.021
203001.000			-3.064			-1.021
203100.000			-3.064			-1.021
203201.000			-3.064			-1.021
203300.000			-3.064			-1.021
203400.000			-3.064			-1.021
203501.000			-3.064			-1.021
203600.000			-3.064			-1.021
203701.000			-3.064			-1.021
203802.000			-3.064			-1.021
203901.000			-3.064			-1.021
204000.000			-3.064			-1.021
204101.000			-3.063			-1.021
204200.000			-3.063			-1.021
204300.000			-3.063			-1.021
204401.000			-3.063			-1.021
204500.000			-3.063			-1.021
204601.000			-3.063			-1.021
204702.000			-3.063			-1.021
204800.000			-3.063			-1.021
204900.000			-3.063			-1.021
205001.000			-3.063			-1.021
205100.000			-3.063			-1.021
205200.000			-3.062			-1.021
205301.000			-3.062			-1.021
205400.000			-3.062			-1.021
205501.000			-3.062			-1.021
205602.000			-3.063			-1.021
205700.000			-3.062			-1.021
205800.000			-3.062			-1.021
205901.000			-3.061			-1.020
206000.000			-3.061			-1.020
206100.000			-3.061			-1.020
206200.000			-3.061			-1.020
206300.000			-3.062			-1.021
206402.000			-3.062			-1.021
206501.000			-3.063			-1.021
206600.000			-3.063			-1.021
206701.000			-3.061			-1.020
206800.000			-3.062			-1.021
206900.000			-3.062			-1.021
207001.000			-3.062			-1.021
207100.000			-3.062			-1.021
207201.000			-3.063			-1.021
207302.000			-3.062			-1.021
207401.000			-3.061			-1.020
207500.000			-3.061			-1.020
207601.000			-3.061			-1.020
207700.000			-3.061			-1.020
207800.000			-3.060			-1.020
207901.000			-3.061			-1.020
208000.000			-3.062			-1.021
208101.000			-3.061			-1.020
208202.000			-3.061			-1.020
208301.000			-3.061			-1.020
208400.000			-3.062			-1.021
208501.000			-3.061			-1.020
208600.000			-3.061			-1.020
208700.000			-3.061			-1.020
208801.000			-3.061			-1.020
208900.000			-3.060			-1.020
209001.000			-3.060			-1.020
209102.000			-3.061			-1.020
209201.000			-3.060			-1.020
209300.000			-3.061			-1.020
209400.000			-3.061			-1.020
209500.000			-3.060			-1.020
209601.000			-3.060			-1.020
209700.000			-3.062			-1.021
209800.000			-3.062			-1.021
209902.000			-3.061			-1.020
210001.000			-3.060			-1.020
210101.000			-3.060			-1.020
210201.000			-3.061			-1.020
210300.000			-3.061			-1.020
210400.000			-3.059			-1.020
210501.000			-3.059			-1.020
210600.000			-3.060			-1.020
210700.000			-3.061			-1.020
210802.000			-3.061			-1.020
210901.000			-3.060			-1.020
211000.000			-3.059			-1.020
211101.000			-3.059			-1.020
211200.000			-3.060			-1.020
211300.000			-3.060			-1.020
211401.000			-3.060			-1.020
211500.000			-3.060			-1.020
211600.000			-3.060			-1.020
211702.000			-3.059			-1.020
211801.000			-3.059			-1.020
211900.000			-3.060			-1.020
212001.000			-3.060			-1.020
212100.000			-3.060			-1.020
212200.000			-3.059			-1.020
212301.000			-3.059			-1.020
212400.000			-3.060			-1.020
212500.000			-3.061			-1.020
212602.000			-3.059			-1.020
212701.000			-3.059			-1.020
212801.000			-3.060			-1.020
212900.000			-3.060			-1.020
213000.000			-3.060			-1.020
213101.000			-3.060			-1.020
213200.000			-3.061			-1.020
213300.000			-3.060			-1.020
213402.000			-3.059			-1.020
213501.000			-3.060			-1.020
213601.000			-3.059			-1.020
213701.000			-3.059			-1.020
213800.000			-3.059			-1.020
213900.000			-3.059			-1.020
214001.000			-3.058			-1.019
214100.000			-3.058			-1.019
214200.000			-3.058			-1.019
214301.000			-3.058			-1.019
214401.000			-3.059			-1.020
214501.000			-3.059			-1.020
214601.000			-3.058			-1.019
214700.000			-3.058			-1.019
214800.000			-3.058			-1.019
214901.000			-3.058			-1.019
215000.000			-3.058			-1.019
215100.000			-3.059			-1.020
215201.000			-3.058			-1.019
215301.000			-3.058			-1.019
215401.000			-3.058			-1.019
215501.000			-3.058			-1.019
215600.000			-3.059			-1.020
215700.000			-3.059			-1.020
215800.000			-3.058			-1.019
215900.000			-3.058			-1.019
216001.000			-3.058			-1.019
216100.000			-3.057			-1.019
216201.000			-3.058			-1.019
216302.000			-3.057			-1.019
216401.000			-3.058			-1.019
216500.000			-3.057			-1.019
216601.000			-3.058			-1.019
216700.000			-3.058			-1.019
216800.000			-3.058			-1.019
216901.000			-3.058			-1.019
217000.000			-3.057			-1.019
217101.000			-3.057			-1.019
217202.000			-3.058			-1.019
217301.000			-3.058			-1.019
217400.000			-3.057			-1.019
217501.000			-3.058			-1.019
217600.000			-3.058			-1.019
217700.000			-3.058			-1.019
217801.000			-3.058			-1.019
217900.000			-3.058			-1.019
218001.000			-3.057			-1.019
218102.000			-3.058			-1.019
218201.000			-3.058			-1.019
218300.000			-3.057			-1.019
218401.000			-3.057			-1.019
218500.000			-3.056			-1.019
218600.000			-3.057			-1.019
218701.000			-3.057			-1.019
218800.000			-3.056			-1.019
218902.000			-3.057			-1.019
219001.000			-3.057			-1.019
219101.000			-3.057			-1.019
219201.000			-3.056			-1.019
219300.000			-3.057			-1.019
219400.000			-3.058			-1.019
219501.000			-3.057			-1.019
219600.000			-3.057			-1.019
219700.000			-3.057			-1.019
219801.000			-3.056			-1.019
219901.000			-3.056			-1.019
220001.000			-3.056			-1.019
220101.000			-3.056			-1.019
220200.000			-3.056			-1.019
220300.000			-3.056			-1.019
220401.000			-3.056			-1.019
220500.000			-3.056			-1.019
220600.000			-3.056			-1.019
220702.000			-3.056			-1.019
220801.000			-3.058			-1.019
220901.000			-3.056			-1.019
221001.000			-3.056			-1.019
221100.000			-3.055			-1.018
221200.000			-3.055			-1.018
221301.000			-3.056			-1.019
221400.000			-3.056			-1.019
221500.000			-3.056			-1.019
221602.000			-3.056			-1.019
221701.000			-3.056			-1.019
221800.000			-3.055			-1.018
221901.000			-3.055			-1.018
222000.000			-3.055			-1.018
222100.000			-3.055			-1.018
222200.000			-3.055			-1.018
222300.000			-3.056			-1.019
222401.000			-3.055			-1.018
222501.000			-3.055			-1.018
222601.000			-3.055			-1.018
222701.000			-3.055			-1.018
222800.000			-3.055			-1.018
222900.000			-3.055			-1.018
223001.000			-3.055			-1.018
223100.000			-3.056			-1.019
223200.000			-3.056			-1.019
223301.000			-3.056			-1.019
223401.000			-3.055			-1.018
223501.000			-3.055			-1.018
223601.000			-3.055			-1.018
223700.000			-3.055			-1.018
223800.000			-3.055			-1.018
223901.000			-3.055			-1.018
224000.000			-3.055			-1.018
224100.000			-3.055			-1.018
224201.000			-3.055			-1.018
224301.000			-3.055			-1.018
224401.000			-3.055			-1.018
224501.000			-3.055			-1.018
224600.000			-3.055			-1.018
224700.000			-3.055			-1.018
224801.000			-3.056			-1.019
224900.000			-3.055			-1.018
225000.000			-3.054			-1.018
225102.000			-3.054			-1.018
225201.000			-3.054			-1.018
225302.000			-3.054			-1.018
225400.000			-3.054			-1.018
225500.000			-3.055			-1.018
225601.000			-3.054			-1.018
225700.000			-3.055			-1.018
225800.000			-3.054			-1.018
225901.000			-3.054			-1.018
226001.000			-3.054			-1.018
226101.000			-3.054			-1.018
226202.000			-3.054			-1.018
226300.000			-3.055			-1.018
226400.000			-3.055			-1.018
226501.000			-3.054			-1.018
226600.000			-3.055			-1.018
226700.000			-3.054			-1.018
226801.000			-3.053			-1.018
226901.000			-3.053			-1.018
227001.000			-3.054			-1.018
227101.000			-3.054			-1.018
227200.000			-3.054			-1.018
227300.000			-3.054			-1.018
227401.000			-3.054			-1.018
227500.000			-3.054			-1.018
227600.000			-3.053			-1.018
227701.000			-3.054			-1.018
227801.000			-3.055			-1.018
227901.000			-3.054			-1.018
228001.000			-3.054			-1.018
228100.000			-3.054			-1.018
228200.000			-3.053			-1.018
228301.000			-3.053			-1.018
228400.000			-3.052			-1.017
228500.000			-3.052			-1.017
228600.000			-3.052			-1.017
228701.000			-3.053			-1.018
228802.000			-3.053			-1.018
228901.000			-3.052			-1.017
229000.000			-3.052			-1.017
229101.000			-3.053			-1.018
229200.000			-3.052			-1.017
229300.000			-3.052			-1.017
229401.000			-3.052			-1.017
229500.000			-3.054			-1.018
229601.000			-3.053			-1.018
229702.000			-3.054			-1.018
229801.000			-3.054			-1.018
229900.000			-3.053			-1.018
230001.000			-3.053			-1.018
230100.000			-3.053			-1.018
230200.000			-3.052			-1.017
230301.000			-3.053			-1.018
230400.000			-3.052			-1.017
230501.000			-3.051			-1.017
230602.000			-3.051			-1.017
230700.000			-3.052			-1.017
230800.000			-3.052			-1.017
230901.000			-3.052			-1.017
231000.000			-3.052			-1.017
231100.000			-3.053			-1.018
231201.000			-3.052			-1.017
231300.000			-3.051			-1.017
231401.000			-3.051			-1.017
231502.000			-3.051			-1.017
231600.000			-3.051			-1.017
231700.000			-3.052			-1.017
231800.000			-3.052			-1.017
231900.000			-3.052			-1.017
232001.000			-3.053			-1.018
232100.000			-3.052			-1.017
232200.000			-3.051			-1.017
232302.000			-3.051			-1.017
232401.000			-3.051			-1.017
232500.000			-3.051			-1.017
232601.000			-3.051			-1.017
232700.000			-3.051			-1.017
232800.000			-3.052			-1.017
232901.000			-3.052			-1.017
233000.000			-3.051			-1.017
233101.000			-3.052			-1.017
233202.000			-3.050			-1.017
233301.000			-3.051			-1.017
233400.000			-3.052			-1.017
233501.000			-3.051			-1.017
233600.000			-3.050			-1.017
233700.000			-3.050			-1.017
233801.000			-3.050			-1.017
233900.000			-3.051			-1.017
234001.000			-3.052			-1.017
234102.000			-3.052			-1.017
234200.000			-3.050			-1.017
234300.000			-3.050			-1.017
234401.000			-3.051			-1.017
234500.000			-3.051			-1.017
234600.000			-3.051			-1.017
234701.000			-3.051			-1.017
234800.000			-3.050			-1.017
234902.000			-3.051			-1.017
235001.000			-3.050			-1.017
235100.000			-3.051			-1.017
235201.000			-3.051			-1.017
235300.000			-3.050			-1.017
235400.000			-3.050			-1.017
235501.000			-3.052			-1.017
235600.000			-3.051			-1.017
235700.000			-3.050			-1.017
235802.000			-3.050			-1.017
235901.000			-3.050			-1.017
236000.000			-3.050			-1.017
236101.000			-3.050			-1.017
236200.000			-3.051			-1.017
236300.000			-3.050			-1.017
236401.000			-3.049			-1.016
236500.000			-3.049			-1.016
236600.000			-3.051			-1.017
236702.000			-3.050			-1.017
236801.000			-3.049			-1.016
236900.000			-3.050			-1.017
237001.000			-3.049			-1.016
237100.000			-3.049			-1.016
237200.000			-3.050			-1.017
237301.000			-3.050			-1.017
237400.000			-3.050			-1.017
237500.000			-3.049			-1.016
237602.000			-3.049			-1.016
237701.000			-3.049			-1.016
237801.000			-3.049			-1.016
237901.000			-3.050			-1.017
238000.000			-3.050			-1.017
238100.000			-3.050			-1.017
238200.000			-3.050			-1.017
238300.000			-3.050			-1.017
238401.000			-3.050			-1.017
238501.000			-3.050			-1.017
238601.000			-3.050			-1.017
238702.000			-3.050			-1.017
238800.000			-3.050			-1.017
238900.000			-3.049			-1.016
239001.000			-3.048			-1.016
239100.000			-3.048			-1.016
239200.000			-3.049			-1.016
239301.000			-3.049			-1.016
239400.000			-3.048			-1.016
239501.000			-3.049			-1.016
239602.000			-3.049			-1.016
239700.000			-3.048			-1.016
239800.000			-3.049			-1.016
239901.000			-3.049			-1.016
240000.000			-3.049			-1.016
240100.000			-3.049			-1.016
240201.000			-3.049			-1.016
240300.000			-3.048			-1.016
240401.000			-3.048			-1.016
240502.000			-3.048			-1.016
240600.000			-3.048			-1.016
240700.000			-3.049			-1.016
240801.000			-3.049			-1.016
240900.000			-3.048			-1.016
241000.000			-3.047			-1.016
241101.000			-3.047			-1.016
241200.000			-3.048			-1.016
241302.000			-3.048			-1.016
241401.000			-3.048			-1.016
241500.000			-3.048			-1.016
241601.000			-3.049			-1.016
241700.000			-3.048			-1.016
241800.000			-3.048			-1.016
241901.000			-3.049			-1.016
242000.000			-3.048			-1.016
242100.000			-3.047			-1.016
242202.000			-3.047			-1.016
242301.000			-3.048			-1.016
242401.000			-3.047			-1.016
242501.000			-3.047			-1.016
242600.000			-3.047			-1.016
242700.000			-3.048			-1.016
242801.000			-3.047			-1.016
242900.000			-3.047			-1.016
243000.000			-3.047			-1.016
243102.000			-3.048			-1.016
243201.000			-3.048			-1.016
243301.000			-3.048			-1.016
243401.000			-3.047			-1.016
243500.000			-3.048			-1.016
243600.000			-3.047			-1.016
243701.000			-3.047			-1.016
243800.000			-3.046			-1.015
243900.000			-3.048			-1.016
244002.000			-3.047			-1.016
244101.000			-3.048			-1.016
244201.000			-3.049			-1.016
244301.000			-3.048			-1.016
244400.000			-3.048			-1.016
244500.000			-3.048			-1.016
244600.000			-3.047			-1.016
244700.000			-3.047			-1.016
244801.000			-3.047			-1.016
244901.000			-3.047			-1.016
245001.000			-3.047			-1.016
245102.000			-3.047			-1.016
245200.000			-3.048			-1.016
245300.000			-3.047			-1.016
245401.000			-3.048			-1.016
245500.000			-3.048			-1.016
245600.000			-3.047			-1.016
245701.000			-3.047			-1.016
245801.000			-3.046			-1.015
245901.000			-3.045			-1.015
246002.000			-3.045			-1.015
246100.000			-3.045			-1.015
246200.000			-3.046			-1.015
246301.000			-3.045			-1.015
246400.000			-3.047			-1.016
246500.000			-3.046			-1.015
246601.000			-3.046			-1.015
246701.000			-3.047			-1.016
246801.000			-3.047			-1.016
246902.000			-3.046			-1.015
247000.000			-3.046			-1.015
247100.000			-3.046			-1.015
247201.000			-3.047			-1.016
247300.000			-3.047			-1.016
247400.000			-3.046			-1.015
247501.000			-3.046			-1.015
247601.000			-3.046			-1.015
247702.000			-3.046			-1.015
247801.000			-3.046			-1.015
247900.000			-3.047			-1.016
248001.000			-3.046			-1.015
248100.000			-3.046			-1.015
248200.000			-3.046			-1.015
248301.000			-3.046			-1.015
248400.000			-3.046			-1.015
248500.000			-3.046			-1.015
248602.000			-3.045			-1.015
248701.000			-3.046			-1.015
248800.000			-3.046			-1.015
248901.000			-3.046			-1.015
249000.000			-3.045			-1.015
249100.000			-3.045			-1.015
249201.000			-3.046			-1.015
249300.000			-3.046			-1.015
249400.000			-3.045			-1.015
249502.000			-3.045			-1.015
249601.000			-3.045			-1.015
249701.000			-3.045			-1.015
249801.000			-3.046			-1.015
249900.000			-3.045			-1.015
250000.000			-3.046			-1.015
250101.000			-3.046			-1.015
250200.000			-3.046			-1.015
250300.000			-3.045			-1.015
250402.000			-3.045			-1.015
250501.000			-3.045			-1.015
250601.000			-3.046			-1.015
250701.000			-3.045			-1.015
250800.000			-3.044			-1.015
250900.000			-3.045			-1.015
251000.000			-3.044			-1.015
251100.000			-3.044			-1.015
251201.000			-3.044			-1.015
251301.000			-3.045			-1.015
251401.000			-3.044			-1.015
251501.000			-3.045			-1.015
251600.000			-3.044			-1.015
251700.000			-3.044			-1.015
251801.000			-3.045			-1.015
251900.000			-3.046			-1.015
252000.000			-3.045			-1.015
252101.000			-3.045			-1.015
252201.000			-3.045			-1.015
252301.000			-3.044			-1.015
252401.000			-3.045			-1.015
252500.000			-3.044			-1.015
252600.000			-3.044			-1.015
252701.000			-3.044			-1.015
252800.000			-3.045			-1.015
252900.000			-3.045			-1.015
253001.000			-3.045			-1.015
253101.000			-3.044			-1.015
253201.000			-3.043			-1.014
253301.000			-3.043			-1.014
253400.000			-3.045			-1.015
253500.000			-3.045			-1.015
253601.000			-3.044			-1.015
253700.000			-3.044			-1.015
253800.000			-3.044			-1.015
253901.000			-3.043			-1.014
254001.000			-3.043			-1.014
254102.000			-3.043			-1.014
254200.000			-3.043			-1.014
254300.000			-3.043			-1.014
254401.000			-3.043			-1.014
254500.000			-3.044			-1.015
254600.000			-3.044			-1.015
254701.000			-3.043			-1.014
254800.000			-3.043			-1.014
254901.000			-3.044			-1.015
255002.000			-3.043			-1.014
255100.000			-3.044			-1.015
255200.000			-3.043			-1.014
255301.000			-3.043			-1.014
255400.000			-3.043			-1.014
255500.000			-3.044			-1.015
255601.000			-3.043			-1.014
255700.000			-3.043			-1.014
255801.000			-3.042			-1.014
255902.000			-3.043			-1.014
256000.000			-3.043			-1.014
256100.000			-3.043			-1.014
256201.000			-3.042			-1.014
256300.000			-3.042			-1.014
256400.000			-3.043			-1.014
256501.000			-3.044			-1.015
256600.000			-3.043			-1.014
256701.000			-3.042			-1.014
256802.000			-3.042			-1.014
256900.000			-3.043			-1.014
257000.000			-3.043			-1.014
257101.000			-3.042			-1.014
257200.000			-3.041			-1.014
257300.000			-3.042			-1.014
257400.000			-3.043			-1.014
257500.000			-3.042			-1.014
257602.000			-3.044			-1.015
257701.000			-3.044			-1.015
257800.000			-3.042			-1.014
257901.000			-3.042			-1.014
258000.000			-3.043			-1.014
258100.000			-3.043			-1.014
258201.000			-3.043			-1.014
258300.000			-3.043			-1.014
258400.000			-3.043			-1.014
258502.000			-3.042			-1.014
258601.000			-3.043			-1.014
258700.000			-3.043			-1.014
258801.000			-3.042			-1.014
258900.000			-3.042			-1.014
259000.000			-3.042			-1.014
259101.000			-3.043			-1.014
259200.000			-3.042			-1.014
259300.000			-3.042			-1.014
259402.000			-3.041			-1.014
259501.000			-3.041			-1.014
259600.000			-3.041			-1.014
259701.000			-3.041			-1.014
259800.000			-3.042			-1.014
259900.000			-3.042			-1.014
260001.000			-3.042			-1.014
260100.000			-3.042			-1.014
260200.000			-3.042			-1.014
260302.000			-3.042			-1.014
260401.000			-3.041			-1.014
260500.000			-3.041			-1.014
260600.000			-3.042			-1.014
260700.000			-3.042			-1.014
260801.000			-3.042			-1.014
260900.000			-3.041			-1.014
261000.000			-3.042			-1.014
261101.000			-3.042			-1.014
261201.000			-3.042			-1.014
261301.000			-3.042			-1.014
261401.000			-3.042			-1.014
261500.000			-3.041			-1.014
261600.000			-3.041			-1.014
261701.000			-3.041			-1.014
261800.000			-3.042			-1.014
261900.000			-3.041			-1.014
262001.000			-3.042			-1.014
262101.000			-3.042			-1.014
262201.000			-3.042			-1.014
262301.000			-3.042			-1.014
262400.000			-3.041			-1.014
262500.000			-3.040			-1.013
262601.000			-3.040			-1.013
262700.000			-3.041			-1.014
262800.000			-3.042			-1.014
262902.000			-3.041			-1.014
263001.000			-3.040			-1.013
263100.000			-3.040			-1.013
263201.000			-3.040			-1.013
263300.000			-3.041			-1.014
263400.000			-3.040			-1.013
263501.000			-3.040			-1.013
263600.000			-3.040			-1.013
263700.000			-3.040			-1.013
263802.000			-3.041			-1.014
263901.000			-3.041			-1.014
264001.000			-3.041			-1.014
264100.000			-3.041			-1.014
264200.000			-3.040			-1.013
264301.000			-3.040			-1.013
264400.000			-3.040			-1.013
264500.000			-3.040			-1.013
264601.000			-3.041			-1.014
264701.000			-3.041			-1.014
264801.000			-3.042			-1.014
264901.000			-3.040			-1.013
265000.000			-3.040			-1.013
265100.000			-3.040			-1.013
265201.000			-3.040			-1.013
265300.000			-3.040			-1.013
265400.000			-3.040			-1.013
265501.000			-3.040			-1.013
265601.000			-3.040			-1.013
265701.000			-3.039			-1.013
265801.000			-3.039			-1.013
265900.000			-3.040			-1.013
266000.000			-3.040			-1.013
266101.000			-3.039			-1.013
266200.000			-3.039			-1.013
266300.000			-3.038			-1.013
266401.000			-3.038			-1.013
266501.000			-3.039			-1.013
266601.000			-3.040			-1.013
266701.000			-3.039			-1.013
266800.000			-3.039			-1.013
266900.000			-3.039			-1.013
267000.000			-3.038			-1.013
267100.000			-3.040			-1.013
267201.000			-3.040			-1.013
267300.000			-3.039			-1.013
267401.000			-3.039			-1.013
267502.000			-3.038			-1.013
267600.000			-3.037			-1.012
267700.000			-3.038			-1.013
267801.000			-3.039			-1.013
267900.000			-3.037			-1.012
268000.000			-3.037			-1.012
268101.000			-3.039			-1.013
268200.000			-3.039			-1.013
268301.000			-3.039			-1.013
268402.000			-3.040			-1.013
268501.000			-3.038			-1.013
268600.000			-3.039			-1.013
268701.000			-3.039			-1.013
268800.000			-3.039			-1.013
268900.000			-3.039			-1.013
269001.000			-3.039			-1.013
269100.000			-3.039			-1.013
269200.000			-3.038			-1.013
269302.000			-3.038			-1.013
269401.000			-3.038			-1.013
269500.000			-3.038			-1.013
269601.000			-3.038			-1.013
269700.000			-3.038			-1.013
269800.000			-3.038			-1.013
269901.000			-3.038			-1.013
270000.000			-3.038			-1.013
270100.000			-3.038			-1.013
270202.000			-3.039			-1.013
270301.000			-3.039			-1.013
270401.000			-3.039			-1.013
270500.000			-3.039			-1.013
270600.000			-3.038			-1.013
270701.000			-3.039			-1.013
270800.000			-3.039			-1.013
270900.000			-3.037			-1.012
271001.000			-3.037			-1.012
271101.000			-3.037			-1.012
271201.000			-3.038			-1.013
271301.000			-3.038			-1.013
271400.000			-3.038			-1.013
271500.000			-3.037			-1.012
271601.000			-3.038			-1.013
271700.000			-3.037			-1.012
271800.000			-3.036			-1.012
271901.000			-3.036			-1.012
272001.000			-3.037			-1.012
272101.000			-3.037			-1.012
272201.000			-3.037			-1.012
272300.000			-3.038			-1.013
272400.000			-3.037			-1.012
272501.000			-3.037			-1.012
272600.000			-3.038			-1.013
272700.000			-3.038			-1.013
272801.000			-3.038			-1.013
272901.000			-3.037			-1.012
273001.000			-3.038			-1.013
273101.000			-3.038			-1.013
273200.000			-3.037			-1.012
273300.000			-3.038			-1.013
273400.000			-3.037			-1.012
273500.000			-3.037			-1.012
273601.000			-3.037			-1.012
273700.000			-3.038			-1.013
273801.000			-3.038			-1.013
273902.000			-3.038			-1.013
274000.000			-3.038			-1.013
274100.000			-3.038			-1.013
274201.000			-3.037			-1.012
274300.000			-3.036			-1.012
274400.000			-3.037			-1.012
274501.000			-3.036			-1.012
274600.000			-3.036			-1.012
274701.000			-3.037			-1.012
274802.000			-3.037			-1.012
274901.000			-3.037			-1.012
275000.000			-3.036			-1.012
275101.000			-3.036			-1.012
275200.000			-3.037			-1.012
275300.000			-3.037			-1.012
275401.000			-3.036			-1.012
275500.000			-3.037			-1.012
275601.000			-3.037			-1.012
275702.000			-3.036			-1.012
275801.000			-3.036			-1.012
275900.000			-3.037			-1.012
276001.000			-3.038			-1.013
276100.000			-3.037			-1.012
276200.000			-3.037			-1.012
276301.000			-3.037			-1.012
276400.000			-3.036			-1.012
276502.000			-3.036			-1.012
276601.000			-3.035			-1.012
276701.000			-3.036			-1.012
276801.000			-3.036			-1.012
276900.000			-3.035			-1.012
277000.000			-3.036			-1.012
277101.000			-3.036			-1.012
277200.000			-3.037			-1.012
277300.000			-3.036			-1.012
277401.000			-3.036			-1.012
277501.000			-3.036			-1.012
277601.000			-3.037			-1.012
277701.000			-3.036			-1.012
277800.000			-3.035			-1.012
277900.000			-3.035			-1.012
278001.000			-3.035			-1.012
278100.000			-3.036			-1.012
278200.000			-3.036			-1.012
278301.000			-3.036			-1.012
278401.000			-3.036			-1.012
278501.000			-3.036			-1.012
278601.000			-3.035			-1.012
278700.000			-3.034			-1.011
278800.000			-3.035			-1.012
278901.000			-3.036			-1.012
279000.000			-3.036			-1.012
279100.000			-3.036			-1.012
279201.000			-3.035			-1.012
279301.000			-3.035			-1.012
279401.000			-3.035			-1.012
279501.000			-3.036			-1.012
279600.000			-3.036			-1.012
279700.000			-3.035			-1.012
279800.000			-3.035			-1.012
279900.000			-3.035			-1.012
280001.000			-3.035			-1.012
280100.000			-3.035			-1.012
280201.000			-3.035			-1.012
280302.000			-3.036			-1.012
280400.000			-3.036			-1.012
280500.000			-3.035			-1.012
280601.000			-3.036			-1.012
280700.000			-3.035			-1.012
280800.000			-3.035			-1.012
280901.000			-3.034			-1.011
281000.000			-3.034			-1.011
281101.000			-3.035			-1.012
281202.000			-3.035			-1.012
281300.000			-3.035			-1.012
281400.000			-3.035			-1.012
281501.000			-3.034			-1.011
281600.000			-3.035			-1.012
281700.000			-3.035			-1.012
281801.000			-3.035			-1.012
281900.000			-3.035			-1.012
282001.000			-3.034			-1.011
282102.000			-3.034			-1.011
282200.000			-3.034			-1.011
282300.000			-3.035			-1.012
282401.000			-3.035			-1.012
282500.000			-3.034			-1.011
282600.000			-3.034			-1.011
282701.000			-3.035			-1.012
282800.000			-3.035			-1.012
282902.000			-3.033			-1.011
283001.000			-3.033			-1.011
283100.000			-3.034			-1.011
283201.000			-3.034			-1.011
283300.000			-3.034			-1.011
283400.000			-3.034			-1.011
283501.000			-3.034			-1.011
283600.000			-3.034			-1.011
283700.000			-3.035			-1.012
283802.000			-3.035			-1.012
283901.000			-3.034			-1.011
284000.000			-3.032			-1.011
284101.000			-3.033			-1.011
284200.000			-3.033			-1.011
284300.000			-3.033			-1.011
284401.000			-3.034			-1.011
284500.000			-3.034			-1.011
284600.000			-3.033			-1.011
284702.000			-3.034			-1.011
284801.000			-3.034			-1.011
284900.000			-3.034			-1.011
285001.000			-3.034			-1.011
285100.000			-3.034			-1.011
285200.000			-3.035			-1.012
285301.000			-3.034			-1.011
285400.000			-3.033			-1.011
285500.000			-3.034			-1.011
285602.000			-3.034			-1.011
285701.000			-3.034			-1.011
285800.000			-3.034			-1.011
285901.000			-3.033			-1.011
286000.000			-3.033			-1.011
286100.000			-3.033			-1.011
286200.000			-3.034			-1.011
286300.000			-3.033			-1.011
286401.000			-3.033			-1.011
286501.000			-3.034			-1.011
286601.000			-3.034			-1.011
286701.000			-3.034			-1.011
286800.000			-3.034			-1.011
286900.000			-3.033			-1.011
287001.000			-3.033			-1.011
287100.000			-3.033			-1.011
287200.000			-3.033			-1.011
287301.000			-3.033			-1.011
287401.000			-3.033			-1.011
287501.000			-3.033			-1.011
287601.000			-3.034			-1.011
287700.000			-3.033			-1.011
287800.000			-3.033			-1.011
287901.000			-3.033			-1.011
288000.000			-3.033			-1.011
288100.000			-3.032			-1.011
288201.000			-3.033			-1.011
288301.000			-3.033			-1.011
288401.000			-3.033			-1.011
288501.000			-3.033			-1.011
288600.000			-3.033			-1.011
288700.000			-3.032			-1.011
288801.000			-3.032			-1.011
288900.000			-3.033			-1.011
289000.000			-3.033			-1.011
289101.000			-3.033			-1.011
289201.000			-3.032			-1.011
289302.000			-3.033			-1.011
289401.000			-3.032			-1.011
289500.000			-3.032			-1.011
289601.000			-3.032			-1.011
289700.000			-3.033			-1.011
289800.000			-3.033			-1.011
289901.000			-3.032			-1.011
290000.000			-3.033			-1.011
290101.000			-3.033			-1.011
290202.000			-3.032			-1.011
290301.000			-3.032			-1.011
290400.000			-3.032			-1.011
290501.000			-3.031			-1.010
290600.000			-3.032			-1.011
290700.000			-3.032			-1.011
290801.000			-3.032			-1.011
290900.000			-3.032			-1.011
291001.000			-3.032			-1.011
291102.000			-3.032			-1.011
291200.000			-3.032			-1.011
291300.000			-3.032			-1.011
291401.000			-3.032			-1.011
291500.000			-3.032			-1.011
291600.000			-3.032			-1.011
291701.000			-3.033			-1.011
291800.000			-3.033			-1.011
291901.000			-3.031			-1.010
292002.000			-3.031			-1.010
292100.000			-3.031			-1.010
292200.000			-3.031			-1.010
292301.000			-3.032			-1.011
292400.000			-3.032			-1.011
292500.000			-3.032			-1.011
292600.000			-3.032			-1.011
292700.000			-3.032			-1.011
292802.000			-3.030			-1.010
292901.000			-3.031			-1.010
293000.000			-3.031			-1.010
293101.000			-3.031			-1.010
293200.000			-3.031			-1.010
293300.000			-3.031			-1.010
293401.000			-3.031			-1.010
293500.000			-3.032			-1.011
293600.000			-3.031			-1.010
293702.000			-3.031			-1.010
293801.000			-3.031			-1.010
293900.000			-3.031			-1.010
294001.000			-3.031			-1.010
294100.000			-3.031			-1.010
294200.000			-3.032			-1.011
294301.000			-3.031			-1.010
294400.000			-3.031			-1.010
294501.000			-3.031			-1.010
294602.000			-3.031			-1.010
294701.000			-3.031			-1.010
294800.000			-3.031			-1.010
294901.000			-3.030			-1.010
295000.000			-3.029			-1.010
295100.000			-3.031			-1.010
295201.000			-3.031			-1.010
295300.000			-3.031			-1.010
295401.000			-3.030			-1.010
295502.000			-3.031			-1.010
295601.000			-3.030			-1.010
295700.000			-3.030			-1.010
295800.000			-3.031			-1.010
295900.000			-3.031			-1.010
296001.000			-3.031			-1.010
296100.000			-3.030			-1.010
296200.000			-3.031			-1.010
296302.000			-3.031			-1.010
296401.000			-3.030			-1.010
296501.000			-3.030			-1.010
296601.000			-3.030			-1.010
296700.000			-3.031			-1.010
296800.000			-3.030			-1.010
296901.000			-3.030			-1.010
297000.000			-3.029			-1.010
297100.000			-3.029			-1.010
297202.000			-3.030			-1.010
297301.000			-3.030			-1.010
297401.000			-3.030			-1.010
297501.000			-3.029			-1.010
297600.000			-3.030			-1.010
297700.000			-3.030			-1.010
297801.000			-3.030			-1.010
297900.000			-3.030			-1.010
298000.000			-3.030			-1.010
298102.000			-3.029			-1.010
298201.000			-3.030			-1.010
298301.000			-3.030			-1.010
298401.000			-3.030			-1.010
298500.000			-3.030			-1.010
298600.000			-3.030			-1.010
298701.000			-3.028			-1.009
298800.000			-3.029			-1.010
298900.000			-3.030			-1.010
299000.000			-3.030			-1.010
299101.000			-3.030			-1.010
299202.000			-3.030			-1.010
299300.000			-3.030			-1.010
299400.000			-3.029			-1.010
299501.000			-3.030			-1.010
299600.000			-3.029			-1.010
299700.000			-3.030			-1.010
299801.000			-3.030			-1.010
299900.000			-3.029			-1.010
