# Acquired on 26/01/2024 09:59:36 
# SPIDER: Creep_3mm_HM077x145x38AB-1
# CREEP MEASUREMENT

# time [ms]		force [N]		stiffness [N/mm]
0.000			-10.174			-3.391
104.000			-10.883			-3.628
205.000			-11.097			-3.699
304.000			-11.082			-3.694
404.000			-11.049			-3.683
505.000			-11.007			-3.669
604.000			-10.990			-3.663
704.000			-10.974			-3.658
804.000			-10.960			-3.653
904.000			-10.948			-3.649
1004.000			-10.936			-3.645
1105.000			-10.925			-3.642
1204.000			-10.907			-3.636
1303.000			-10.898			-3.633
1405.000			-10.889			-3.630
1504.000			-10.881			-3.627
1605.000			-10.873			-3.624
1704.000			-10.865			-3.622
1804.000			-10.859			-3.620
1905.000			-10.845			-3.615
2003.000			-10.839			-3.613
2104.000			-10.833			-3.611
2205.000			-10.827			-3.609
2304.000			-10.822			-3.607
2404.000			-10.817			-3.606
2504.000			-10.811			-3.604
2604.000			-10.806			-3.602
2704.000			-10.795			-3.598
2805.000			-10.792			-3.597
2904.000			-10.786			-3.595
3004.000			-10.781			-3.594
3105.000			-10.778			-3.593
3203.000			-10.773			-3.591
3304.000			-10.769			-3.590
3405.000			-10.760			-3.587
3504.000			-10.757			-3.586
3604.000			-10.754			-3.585
3704.000			-10.749			-3.583
3804.000			-10.745			-3.582
3904.000			-10.741			-3.580
4005.000			-10.738			-3.579
4104.000			-10.732			-3.577
4204.000			-10.728			-3.576
4305.000			-10.724			-3.575
4403.000			-10.721			-3.574
4504.000			-10.718			-3.573
4605.000			-10.714			-3.571
4704.000			-10.711			-3.570
4805.000			-10.706			-3.569
4903.000			-10.703			-3.568
5004.000			-10.700			-3.567
5105.000			-10.697			-3.566
5204.000			-10.694			-3.565
5304.000			-10.692			-3.564
5405.000			-10.689			-3.563
5504.000			-10.686			-3.562
5603.000			-10.680			-3.560
5705.000			-10.678			-3.559
5804.000			-10.675			-3.558
5904.000			-10.673			-3.558
6005.000			-10.671			-3.557
6103.000			-10.667			-3.556
6204.000			-10.665			-3.555
6305.000			-10.661			-3.554
6404.000			-10.659			-3.553
6504.000			-10.657			-3.552
6605.000			-10.654			-3.551
6704.000			-10.651			-3.550
6803.000			-10.650			-3.550
6905.000			-10.647			-3.549
7004.000			-10.643			-3.548
7104.000			-10.640			-3.547
7205.000			-10.639			-3.546
7304.000			-10.638			-3.546
7404.000			-10.635			-3.545
7504.000			-10.633			-3.544
7604.000			-10.631			-3.544
7704.000			-10.629			-3.543
7804.000			-10.625			-3.542
7904.000			-10.623			-3.541
8003.000			-10.621			-3.540
8104.000			-10.620			-3.540
8204.000			-10.617			-3.539
8305.000			-10.615			-3.538
8404.000			-10.614			-3.538
8504.000			-10.610			-3.537
8605.000			-10.608			-3.536
8703.000			-10.606			-3.535
8804.000			-10.605			-3.535
8905.000			-10.604			-3.535
9004.000			-10.602			-3.534
9104.000			-10.600			-3.533
9204.000			-10.596			-3.532
9304.000			-10.596			-3.532
9404.000			-10.594			-3.531
9505.000			-10.592			-3.531
9604.000			-10.590			-3.530
9704.000			-10.589			-3.530
9805.000			-10.586			-3.529
9903.000			-10.585			-3.528
10004.000			-10.582			-3.527
10105.000			-10.580			-3.527
10204.000			-10.579			-3.526
10304.000			-10.578			-3.526
10405.000			-10.576			-3.525
10504.000			-10.574			-3.525
10603.000			-10.573			-3.524
10705.000			-10.570			-3.523
10804.000			-10.568			-3.523
10904.000			-10.567			-3.522
11005.000			-10.566			-3.522
11103.000			-10.565			-3.522
11205.000			-10.564			-3.521
11304.000			-10.562			-3.521
11404.000			-10.559			-3.520
11505.000			-10.559			-3.520
11604.000			-10.557			-3.519
11704.000			-10.556			-3.519
11804.000			-10.554			-3.518
11904.000			-10.553			-3.518
12004.000			-10.551			-3.517
12105.000			-10.549			-3.516
12204.000			-10.547			-3.516
12304.000			-10.546			-3.515
12405.000			-10.544			-3.515
12503.000			-10.542			-3.514
12604.000			-10.542			-3.514
12705.000			-10.541			-3.514
12804.000			-10.541			-3.514
12904.000			-10.538			-3.513
13004.000			-10.537			-3.512
13104.000			-10.536			-3.512
13204.000			-10.534			-3.511
13305.000			-10.534			-3.511
13404.000			-10.532			-3.511
13504.000			-10.532			-3.511
13605.000			-10.530			-3.510
13703.000			-10.528			-3.509
13804.000			-10.526			-3.509
13905.000			-10.525			-3.508
14004.000			-10.524			-3.508
14104.000			-10.523			-3.508
14204.000			-10.523			-3.508
14304.000			-10.521			-3.507
14403.000			-10.519			-3.506
14504.000			-10.517			-3.506
14604.000			-10.516			-3.505
14705.000			-10.516			-3.505
14804.000			-10.515			-3.505
14903.000			-10.512			-3.504
15005.000			-10.511			-3.504
15104.000			-10.508			-3.503
15204.000			-10.508			-3.503
15305.000			-10.507			-3.502
15404.000			-10.506			-3.502
15504.000			-10.506			-3.502
15604.000			-10.505			-3.502
15704.000			-10.503			-3.501
15804.000			-10.501			-3.500
15905.000			-10.498			-3.499
16004.000			-10.497			-3.499
16104.000			-10.496			-3.499
16205.000			-10.495			-3.498
16304.000			-10.495			-3.498
16404.000			-10.494			-3.498
16505.000			-10.490			-3.497
16604.000			-10.489			-3.496
16704.000			-10.489			-3.496
16804.000			-10.489			-3.496
16904.000			-10.488			-3.496
17003.000			-10.486			-3.495
17105.000			-10.486			-3.495
17204.000			-10.483			-3.494
17304.000			-10.483			-3.494
17405.000			-10.482			-3.494
17503.000			-10.481			-3.494
17605.000			-10.480			-3.493
17704.000			-10.479			-3.493
17804.000			-10.478			-3.493
17905.000			-10.477			-3.492
18004.000			-10.474			-3.491
18104.000			-10.474			-3.491
18204.000			-10.473			-3.491
18304.000			-10.473			-3.491
18404.000			-10.473			-3.491
18505.000			-10.471			-3.490
18604.000			-10.470			-3.490
18704.000			-10.468			-3.489
18805.000			-10.466			-3.489
18903.000			-10.466			-3.489
19004.000			-10.465			-3.488
19105.000			-10.464			-3.488
19204.000			-10.464			-3.488
19304.000			-10.462			-3.487
19405.000			-10.462			-3.487
19504.000			-10.461			-3.487
19603.000			-10.461			-3.487
19705.000			-10.461			-3.487
19804.000			-10.459			-3.486
19904.000			-10.459			-3.486
20005.000			-10.458			-3.486
20103.000			-10.457			-3.486
20204.000			-10.455			-3.485
20305.000			-10.454			-3.485
20404.000			-10.453			-3.484
20504.000			-10.453			-3.484
20604.000			-10.452			-3.484
20704.000			-10.451			-3.484
20803.000			-10.450			-3.483
20904.000			-10.449			-3.483
21004.000			-10.449			-3.483
21105.000			-10.449			-3.483
21204.000			-10.448			-3.483
21304.000			-10.446			-3.482
21405.000			-10.446			-3.482
21504.000			-10.445			-3.482
21604.000			-10.443			-3.481
21705.000			-10.442			-3.481
21804.000			-10.443			-3.481
21904.000			-10.442			-3.481
22004.000			-10.441			-3.480
22104.000			-10.439			-3.480
22204.000			-10.439			-3.480
22305.000			-10.438			-3.479
22404.000			-10.438			-3.479
22504.000			-10.436			-3.479
22605.000			-10.436			-3.479
22703.000			-10.435			-3.478
22804.000			-10.434			-3.478
22905.000			-10.433			-3.478
23004.000			-10.432			-3.477
23104.000			-10.432			-3.477
23204.000			-10.432			-3.477
23304.000			-10.431			-3.477
23404.000			-10.429			-3.476
23505.000			-10.428			-3.476
23604.000			-10.428			-3.476
23704.000			-10.426			-3.475
23805.000			-10.426			-3.475
23903.000			-10.426			-3.475
24005.000			-10.425			-3.475
24104.000			-10.424			-3.475
24204.000			-10.423			-3.474
24305.000			-10.421			-3.474
24404.000			-10.421			-3.474
24504.000			-10.420			-3.473
24604.000			-10.420			-3.473
24704.000			-10.419			-3.473
24804.000			-10.419			-3.473
24905.000			-10.416			-3.472
25004.000			-10.416			-3.472
25103.000			-10.416			-3.472
25205.000			-10.414			-3.471
25304.000			-10.414			-3.471
25404.000			-10.413			-3.471
25505.000			-10.412			-3.471
25604.000			-10.412			-3.471
25704.000			-10.411			-3.470
25804.000			-10.410			-3.470
25904.000			-10.410			-3.470
26004.000			-10.408			-3.469
26105.000			-10.408			-3.469
26204.000			-10.407			-3.469
26304.000			-10.407			-3.469
26405.000			-10.406			-3.469
26504.000			-10.405			-3.468
26604.000			-10.405			-3.468
26705.000			-10.403			-3.468
26804.000			-10.402			-3.467
26904.000			-10.402			-3.467
27003.000			-10.402			-3.467
27104.000			-10.401			-3.467
27205.000			-10.400			-3.467
27304.000			-10.399			-3.466
27404.000			-10.398			-3.466
27505.000			-10.398			-3.466
27604.000			-10.397			-3.466
27703.000			-10.397			-3.466
27805.000			-10.396			-3.465
27904.000			-10.395			-3.465
28004.000			-10.394			-3.465
28105.000			-10.394			-3.465
28204.000			-10.393			-3.464
28304.000			-10.392			-3.464
28404.000			-10.391			-3.464
28504.000			-10.391			-3.464
28604.000			-10.390			-3.463
28705.000			-10.388			-3.463
28804.000			-10.388			-3.463
28904.000			-10.387			-3.462
29005.000			-10.386			-3.462
29103.000			-10.386			-3.462
29204.000			-10.386			-3.462
29305.000			-10.385			-3.462
29404.000			-10.384			-3.461
29504.000			-10.383			-3.461
29604.000			-10.383			-3.461
29704.000			-10.383			-3.461
29803.000			-10.381			-3.460
29905.000			-10.381			-3.460
30004.000			-10.381			-3.460
30104.000			-10.380			-3.460
30205.000			-10.379			-3.460
30303.000			-10.378			-3.459
30405.000			-10.376			-3.459
30504.000			-10.377			-3.459
30604.000			-10.378			-3.459
30705.000			-10.377			-3.459
30804.000			-10.374			-3.458
30904.000			-10.374			-3.458
31004.000			-10.374			-3.458
31104.000			-10.373			-3.458
31204.000			-10.372			-3.457
31305.000			-10.372			-3.457
31404.000			-10.371			-3.457
31504.000			-10.371			-3.457
31605.000			-10.370			-3.457
31703.000			-10.370			-3.457
31804.000			-10.368			-3.456
31905.000			-10.369			-3.456
32004.000			-10.368			-3.456
32104.000			-10.366			-3.455
32204.000			-10.365			-3.455
32304.000			-10.365			-3.455
32404.000			-10.364			-3.455
32505.000			-10.364			-3.455
32604.000			-10.364			-3.455
32704.000			-10.363			-3.454
32805.000			-10.363			-3.454
32903.000			-10.363			-3.454
33004.000			-10.361			-3.454
33105.000			-10.360			-3.453
33204.000			-10.360			-3.453
33304.000			-10.359			-3.453
33404.000			-10.358			-3.453
33504.000			-10.358			-3.453
33603.000			-10.358			-3.453
33704.000			-10.357			-3.452
33804.000			-10.357			-3.452
33905.000			-10.356			-3.452
34004.000			-10.355			-3.452
34103.000			-10.355			-3.452
34205.000			-10.355			-3.452
34304.000			-10.354			-3.451
34404.000			-10.353			-3.451
34505.000			-10.353			-3.451
34604.000			-10.352			-3.451
34704.000			-10.352			-3.451
34804.000			-10.350			-3.450
34904.000			-10.349			-3.450
35004.000			-10.349			-3.450
35105.000			-10.348			-3.449
35204.000			-10.348			-3.449
35303.000			-10.348			-3.449
35405.000			-10.349			-3.450
35504.000			-10.347			-3.449
35604.000			-10.347			-3.449
35705.000			-10.347			-3.449
35804.000			-10.346			-3.449
35904.000			-10.345			-3.448
36004.000			-10.345			-3.448
36104.000			-10.343			-3.448
36204.000			-10.343			-3.448
36305.000			-10.342			-3.447
36404.000			-10.341			-3.447
36504.000			-10.340			-3.447
36605.000			-10.340			-3.447
36703.000			-10.341			-3.447
36805.000			-10.340			-3.447
36904.000			-10.339			-3.446
37004.000			-10.338			-3.446
37105.000			-10.338			-3.446
37203.000			-10.337			-3.446
37304.000			-10.337			-3.446
37405.000			-10.337			-3.446
37504.000			-10.336			-3.445
37604.000			-10.336			-3.445
37705.000			-10.335			-3.445
37804.000			-10.334			-3.445
37903.000			-10.333			-3.444
38005.000			-10.333			-3.444
38104.000			-10.332			-3.444
38204.000			-10.331			-3.444
38305.000			-10.332			-3.444
38404.000			-10.331			-3.444
38504.000			-10.331			-3.444
38604.000			-10.330			-3.443
38704.000			-10.330			-3.443
38804.000			-10.329			-3.443
38905.000			-10.328			-3.443
39004.000			-10.328			-3.443
39104.000			-10.327			-3.442
39205.000			-10.328			-3.443
39303.000			-10.327			-3.442
39404.000			-10.326			-3.442
39505.000			-10.325			-3.442
39604.000			-10.324			-3.441
39704.000			-10.325			-3.442
39803.000			-10.324			-3.441
39904.000			-10.324			-3.441
40005.000			-10.324			-3.441
40104.000			-10.324			-3.441
40204.000			-10.323			-3.441
40305.000			-10.322			-3.441
40404.000			-10.321			-3.440
40503.000			-10.321			-3.440
40605.000			-10.320			-3.440
40704.000			-10.320			-3.440
40804.000			-10.320			-3.440
40905.000			-10.318			-3.439
41004.000			-10.317			-3.439
41104.000			-10.317			-3.439
41204.000			-10.316			-3.439
41304.000			-10.316			-3.439
41404.000			-10.316			-3.439
41505.000			-10.316			-3.439
41604.000			-10.315			-3.438
41703.000			-10.315			-3.438
41805.000			-10.314			-3.438
41904.000			-10.313			-3.438
42004.000			-10.313			-3.438
42105.000			-10.312			-3.437
42204.000			-10.312			-3.437
42304.000			-10.311			-3.437
42404.000			-10.311			-3.437
42504.000			-10.311			-3.437
42604.000			-10.311			-3.437
42705.000			-10.310			-3.437
42804.000			-10.309			-3.436
42903.000			-10.309			-3.436
43005.000			-10.308			-3.436
43104.000			-10.307			-3.436
43205.000			-10.307			-3.436
43304.000			-10.307			-3.436
43404.000			-10.307			-3.436
43505.000			-10.305			-3.435
43603.000			-10.304			-3.435
43704.000			-10.304			-3.435
43805.000			-10.305			-3.435
43904.000			-10.304			-3.435
44004.000			-10.303			-3.434
44104.000			-10.303			-3.434
44204.000			-10.301			-3.434
44303.000			-10.300			-3.433
44405.000			-10.299			-3.433
44504.000			-10.300			-3.433
44604.000			-10.300			-3.433
44705.000			-10.298			-3.433
44803.000			-10.298			-3.433
44904.000			-10.297			-3.432
45005.000			-10.296			-3.432
45104.000			-10.296			-3.432
45204.000			-10.296			-3.432
45305.000			-10.295			-3.432
45404.000			-10.294			-3.431
45503.000			-10.293			-3.431
45605.000			-10.293			-3.431
45704.000			-10.292			-3.431
45804.000			-10.292			-3.431
45905.000			-10.291			-3.430
46004.000			-10.291			-3.430
46104.000			-10.291			-3.430
46203.000			-10.291			-3.430
46304.000			-10.290			-3.430
46405.000			-10.289			-3.430
46504.000			-10.288			-3.429
46604.000			-10.289			-3.430
46705.000			-10.287			-3.429
46804.000			-10.287			-3.429
46903.000			-10.287			-3.429
47005.000			-10.286			-3.429
47104.000			-10.285			-3.428
47204.000			-10.284			-3.428
47305.000			-10.284			-3.428
47404.000			-10.284			-3.428
47504.000			-10.284			-3.428
47604.000			-10.283			-3.428
47704.000			-10.282			-3.427
47804.000			-10.283			-3.428
47905.000			-10.282			-3.427
48004.000			-10.281			-3.427
48104.000			-10.281			-3.427
48205.000			-10.280			-3.427
48303.000			-10.280			-3.427
48404.000			-10.280			-3.427
48505.000			-10.280			-3.427
48604.000			-10.279			-3.426
48704.000			-10.279			-3.426
48804.000			-10.278			-3.426
48904.000			-10.278			-3.426
49003.000			-10.278			-3.426
49105.000			-10.277			-3.426
49204.000			-10.277			-3.426
49304.000			-10.275			-3.425
49405.000			-10.275			-3.425
49503.000			-10.274			-3.425
49605.000			-10.274			-3.425
49704.000			-10.274			-3.425
49804.000			-10.273			-3.424
49905.000			-10.273			-3.424
50004.000			-10.271			-3.424
50104.000			-10.271			-3.424
50204.000			-10.271			-3.424
50304.000			-10.271			-3.424
50404.000			-10.272			-3.424
50505.000			-10.271			-3.424
50604.000			-10.270			-3.423
50704.000			-10.270			-3.423
50805.000			-10.269			-3.423
50903.000			-10.269			-3.423
51004.000			-10.268			-3.423
51105.000			-10.267			-3.422
51204.000			-10.267			-3.422
51304.000			-10.267			-3.422
51405.000			-10.267			-3.422
51504.000			-10.266			-3.422
51603.000			-10.266			-3.422
51705.000			-10.265			-3.422
51804.000			-10.264			-3.421
51904.000			-10.263			-3.421
52005.000			-10.263			-3.421
52103.000			-10.264			-3.421
52204.000			-10.264			-3.421
52305.000			-10.262			-3.421
52404.000			-10.261			-3.420
52504.000			-10.261			-3.420
52604.000			-10.261			-3.420
52704.000			-10.261			-3.420
52803.000			-10.262			-3.421
52904.000			-10.260			-3.420
53004.000			-10.261			-3.420
53105.000			-10.260			-3.420
53204.000			-10.258			-3.419
53304.000			-10.258			-3.419
53405.000			-10.259			-3.420
53504.000			-10.259			-3.420
53604.000			-10.259			-3.420
53705.000			-10.258			-3.419
53804.000			-10.256			-3.419
53904.000			-10.256			-3.419
54004.000			-10.257			-3.419
54104.000			-10.256			-3.419
54204.000			-10.255			-3.418
54305.000			-10.255			-3.418
54404.000			-10.253			-3.418
54504.000			-10.253			-3.418
54605.000			-10.253			-3.418
54703.000			-10.253			-3.418
54804.000			-10.253			-3.418
54905.000			-10.253			-3.418
55004.000			-10.252			-3.417
55104.000			-10.251			-3.417
55205.000			-10.251			-3.417
55304.000			-10.251			-3.417
55403.000			-10.251			-3.417
55505.000			-10.249			-3.416
55604.000			-10.249			-3.416
55704.000			-10.250			-3.417
55805.000			-10.249			-3.416
55903.000			-10.249			-3.416
56005.000			-10.248			-3.416
56104.000			-10.247			-3.416
56204.000			-10.246			-3.415
56305.000			-10.247			-3.416
56404.000			-10.246			-3.415
56504.000			-10.246			-3.415
56604.000			-10.244			-3.415
56704.000			-10.245			-3.415
56804.000			-10.245			-3.415
56905.000			-10.246			-3.415
57004.000			-10.244			-3.415
57104.000			-10.244			-3.415
57205.000			-10.244			-3.415
57303.000			-10.243			-3.414
57404.000			-10.244			-3.415
57505.000			-10.242			-3.414
57604.000			-10.242			-3.414
57704.000			-10.242			-3.414
57805.000			-10.240			-3.413
57904.000			-10.240			-3.413
58003.000			-10.241			-3.414
58105.000			-10.240			-3.413
58204.000			-10.239			-3.413
58304.000			-10.239			-3.413
58405.000			-10.240			-3.413
58503.000			-10.240			-3.413
58604.000			-10.238			-3.413
58705.000			-10.237			-3.412
58804.000			-10.238			-3.413
58904.000			-10.237			-3.412
59004.000			-10.238			-3.413
59104.000			-10.238			-3.413
59203.000			-10.238			-3.413
59304.000			-10.236			-3.412
59404.000			-10.236			-3.412
59505.000			-10.236			-3.412
59604.000			-10.234			-3.411
59704.000			-10.235			-3.412
59805.000			-10.235			-3.412
59903.000			-10.234			-3.411
60004.000			-10.233			-3.411
60105.000			-10.233			-3.411
60204.000			-10.233			-3.411
60304.000			-10.234			-3.411
60405.000			-10.233			-3.411
60504.000			-10.233			-3.411
60603.000			-10.233			-3.411
60705.000			-10.231			-3.410
60804.000			-10.231			-3.410
60904.000			-10.231			-3.410
61005.000			-10.229			-3.410
61103.000			-10.229			-3.410
61204.000			-10.229			-3.410
61305.000			-10.229			-3.410
61404.000			-10.229			-3.410
61504.000			-10.229			-3.410
61605.000			-10.228			-3.409
61704.000			-10.228			-3.409
61803.000			-10.228			-3.409
61905.000			-10.227			-3.409
62004.000			-10.227			-3.409
62104.000			-10.227			-3.409
62205.000			-10.227			-3.409
62304.000			-10.227			-3.409
62405.000			-10.227			-3.409
62503.000			-10.226			-3.409
62604.000			-10.225			-3.408
62705.000			-10.225			-3.408
62804.000			-10.225			-3.408
62904.000			-10.225			-3.408
63004.000			-10.225			-3.408
63104.000			-10.225			-3.408
63204.000			-10.224			-3.408
63305.000			-10.224			-3.408
63404.000			-10.223			-3.408
63504.000			-10.223			-3.408
63605.000			-10.224			-3.408
63703.000			-10.223			-3.408
63804.000			-10.222			-3.407
63905.000			-10.221			-3.407
64004.000			-10.221			-3.407
64104.000			-10.220			-3.407
64204.000			-10.220			-3.407
64304.000			-10.221			-3.407
64404.000			-10.221			-3.407
64505.000			-10.220			-3.407
64604.000			-10.220			-3.407
64704.000			-10.220			-3.407
64805.000			-10.219			-3.406
64903.000			-10.220			-3.407
65004.000			-10.219			-3.406
65105.000			-10.219			-3.406
65204.000			-10.220			-3.407
65304.000			-10.219			-3.406
65404.000			-10.219			-3.406
65504.000			-10.219			-3.406
65603.000			-10.219			-3.406
65704.000			-10.220			-3.407
65804.000			-10.218			-3.406
65905.000			-10.218			-3.406
66004.000			-10.218			-3.406
66104.000			-10.217			-3.406
66205.000			-10.216			-3.405
66303.000			-10.217			-3.406
66404.000			-10.217			-3.406
66505.000			-10.216			-3.405
66604.000			-10.216			-3.405
66704.000			-10.216			-3.405
66804.000			-10.216			-3.405
66904.000			-10.216			-3.405
67003.000			-10.214			-3.405
67105.000			-10.214			-3.405
67204.000			-10.214			-3.405
67304.000			-10.214			-3.405
67405.000			-10.214			-3.405
67503.000			-10.214			-3.405
67604.000			-10.214			-3.405
67705.000			-10.213			-3.404
67804.000			-10.213			-3.404
67904.000			-10.213			-3.404
68005.000			-10.213			-3.404
68104.000			-10.212			-3.404
68203.000			-10.212			-3.404
68305.000			-10.212			-3.404
68404.000			-10.212			-3.404
68504.000			-10.211			-3.404
68605.000			-10.210			-3.403
68704.000			-10.210			-3.403
68805.000			-10.211			-3.404
68903.000			-10.211			-3.404
69004.000			-10.210			-3.403
69105.000			-10.209			-3.403
69204.000			-10.209			-3.403
69304.000			-10.209			-3.403
69405.000			-10.209			-3.403
69504.000			-10.209			-3.403
69603.000			-10.208			-3.403
69705.000			-10.208			-3.403
69804.000			-10.209			-3.403
69904.000			-10.208			-3.403
70005.000			-10.208			-3.403
70103.000			-10.207			-3.402
70204.000			-10.206			-3.402
70305.000			-10.205			-3.402
70404.000			-10.205			-3.402
70504.000			-10.206			-3.402
70605.000			-10.205			-3.402
70704.000			-10.204			-3.401
70803.000			-10.205			-3.402
70905.000			-10.205			-3.402
71004.000			-10.204			-3.401
71104.000			-10.204			-3.401
71205.000			-10.204			-3.401
71304.000			-10.203			-3.401
71404.000			-10.202			-3.401
71504.000			-10.202			-3.401
71604.000			-10.203			-3.401
71704.000			-10.202			-3.401
71804.000			-10.203			-3.401
71904.000			-10.202			-3.401
72003.000			-10.201			-3.400
72104.000			-10.201			-3.400
72204.000			-10.202			-3.401
72305.000			-10.201			-3.400
72404.000			-10.200			-3.400
72504.000			-10.200			-3.400
72605.000			-10.199			-3.400
72703.000			-10.199			-3.400
72804.000			-10.199			-3.400
72905.000			-10.198			-3.399
73004.000			-10.198			-3.399
73104.000			-10.197			-3.399
73205.000			-10.197			-3.399
73304.000			-10.197			-3.399
73403.000			-10.197			-3.399
73505.000			-10.197			-3.399
73604.000			-10.196			-3.399
73704.000			-10.195			-3.398
73805.000			-10.194			-3.398
73904.000			-10.195			-3.398
74004.000			-10.195			-3.398
74104.000			-10.195			-3.398
74204.000			-10.195			-3.398
74304.000			-10.194			-3.398
74405.000			-10.193			-3.398
74504.000			-10.193			-3.398
74604.000			-10.193			-3.398
74705.000			-10.193			-3.398
74803.000			-10.192			-3.397
74904.000			-10.192			-3.397
75005.000			-10.192			-3.397
75104.000			-10.192			-3.397
75205.000			-10.192			-3.397
75304.000			-10.191			-3.397
75404.000			-10.190			-3.397
75504.000			-10.192			-3.397
75604.000			-10.190			-3.397
75704.000			-10.191			-3.397
75805.000			-10.191			-3.397
75904.000			-10.190			-3.397
76004.000			-10.190			-3.397
76105.000			-10.189			-3.396
76203.000			-10.189			-3.396
76304.000			-10.189			-3.396
76405.000			-10.188			-3.396
76504.000			-10.187			-3.396
76604.000			-10.187			-3.396
76705.000			-10.188			-3.396
76804.000			-10.187			-3.396
76903.000			-10.187			-3.396
77005.000			-10.186			-3.395
77104.000			-10.186			-3.395
77204.000			-10.186			-3.395
77305.000			-10.184			-3.395
77404.000			-10.184			-3.395
77504.000			-10.185			-3.395
77604.000			-10.184			-3.395
77704.000			-10.184			-3.395
77804.000			-10.185			-3.395
77905.000			-10.184			-3.395
78004.000			-10.183			-3.394
78103.000			-10.183			-3.394
78205.000			-10.182			-3.394
78304.000			-10.183			-3.394
78405.000			-10.183			-3.394
78504.000			-10.181			-3.394
78604.000			-10.183			-3.394
78705.000			-10.182			-3.394
78804.000			-10.181			-3.394
78904.000			-10.182			-3.394
79004.000			-10.180			-3.393
79104.000			-10.179			-3.393
79204.000			-10.179			-3.393
79305.000			-10.181			-3.394
79404.000			-10.180			-3.393
79504.000			-10.179			-3.393
79605.000			-10.179			-3.393
79703.000			-10.179			-3.393
79804.000			-10.178			-3.393
79905.000			-10.178			-3.393
80004.000			-10.177			-3.392
80104.000			-10.178			-3.393
80205.000			-10.178			-3.393
80304.000			-10.178			-3.393
80403.000			-10.177			-3.392
80505.000			-10.177			-3.392
80604.000			-10.176			-3.392
80704.000			-10.175			-3.392
80805.000			-10.175			-3.392
80904.000			-10.176			-3.392
81004.000			-10.175			-3.392
81104.000			-10.174			-3.391
81204.000			-10.174			-3.391
81304.000			-10.174			-3.391
81404.000			-10.174			-3.391
81504.000			-10.173			-3.391
81603.000			-10.173			-3.391
81704.000			-10.173			-3.391
81804.000			-10.173			-3.391
81905.000			-10.173			-3.391
82004.000			-10.173			-3.391
82104.000			-10.171			-3.390
82205.000			-10.172			-3.391
82303.000			-10.171			-3.390
82404.000			-10.171			-3.390
82505.000			-10.170			-3.390
82604.000			-10.172			-3.391
82704.000			-10.173			-3.391
82805.000			-10.171			-3.390
82904.000			-10.170			-3.390
83003.000			-10.170			-3.390
83105.000			-10.169			-3.390
83204.000			-10.170			-3.390
83304.000			-10.170			-3.390
83405.000			-10.169			-3.390
83504.000			-10.169			-3.390
83604.000			-10.168			-3.389
83704.000			-10.168			-3.389
83804.000			-10.168			-3.389
83904.000			-10.167			-3.389
84005.000			-10.168			-3.389
84104.000			-10.168			-3.389
84204.000			-10.167			-3.389
84305.000			-10.166			-3.389
84403.000			-10.165			-3.388
84504.000			-10.166			-3.389
84605.000			-10.166			-3.389
84704.000			-10.166			-3.389
84805.000			-10.165			-3.388
84904.000			-10.166			-3.389
85004.000			-10.165			-3.388
85104.000			-10.164			-3.388
85204.000			-10.165			-3.388
85304.000			-10.165			-3.388
85405.000			-10.165			-3.388
85504.000			-10.164			-3.388
85604.000			-10.163			-3.388
85705.000			-10.163			-3.388
85804.000			-10.162			-3.387
85904.000			-10.162			-3.387
86005.000			-10.162			-3.387
86104.000			-10.162			-3.387
86204.000			-10.161			-3.387
86304.000			-10.162			-3.387
86404.000			-10.162			-3.387
86504.000			-10.161			-3.387
86605.000			-10.160			-3.387
86704.000			-10.160			-3.387
86804.000			-10.160			-3.387
86905.000			-10.160			-3.387
87003.000			-10.160			-3.387
87104.000			-10.160			-3.387
87205.000			-10.160			-3.387
87304.000			-10.160			-3.387
87404.000			-10.159			-3.386
87505.000			-10.158			-3.386
87604.000			-10.158			-3.386
87703.000			-10.159			-3.386
87805.000			-10.158			-3.386
87904.000			-10.158			-3.386
88005.000			-10.157			-3.386
88104.000			-10.157			-3.386
88204.000			-10.157			-3.386
88305.000			-10.156			-3.385
88403.000			-10.157			-3.386
88504.000			-10.157			-3.386
88605.000			-10.155			-3.385
88704.000			-10.155			-3.385
88804.000			-10.155			-3.385
88905.000			-10.155			-3.385
89004.000			-10.155			-3.385
89103.000			-10.155			-3.385
89205.000			-10.154			-3.385
89304.000			-10.155			-3.385
89404.000			-10.154			-3.385
89505.000			-10.153			-3.384
89604.000			-10.154			-3.385
89704.000			-10.153			-3.384
89804.000			-10.153			-3.384
89904.000			-10.153			-3.384
90004.000			-10.153			-3.384
90105.000			-10.153			-3.384
90204.000			-10.152			-3.384
90304.000			-10.153			-3.384
90405.000			-10.153			-3.384
90503.000			-10.152			-3.384
90604.000			-10.151			-3.384
90705.000			-10.150			-3.383
90804.000			-10.150			-3.383
90904.000			-10.151			-3.384
91004.000			-10.151			-3.384
91104.000			-10.150			-3.383
91203.000			-10.150			-3.383
91304.000			-10.149			-3.383
91404.000			-10.148			-3.383
91505.000			-10.149			-3.383
91604.000			-10.149			-3.383
91704.000			-10.149			-3.383
91805.000			-10.148			-3.383
91903.000			-10.147			-3.382
92004.000			-10.147			-3.382
92105.000			-10.148			-3.383
92204.000			-10.147			-3.382
92304.000			-10.147			-3.382
92404.000			-10.147			-3.382
92504.000			-10.146			-3.382
92604.000			-10.145			-3.382
92705.000			-10.146			-3.382
92804.000			-10.146			-3.382
92904.000			-10.146			-3.382
93005.000			-10.146			-3.382
93103.000			-10.146			-3.382
93204.000			-10.145			-3.382
93305.000			-10.145			-3.382
93404.000			-10.144			-3.381
93504.000			-10.144			-3.381
93605.000			-10.145			-3.382
93704.000			-10.144			-3.381
93803.000			-10.144			-3.381
93905.000			-10.144			-3.381
94004.000			-10.144			-3.381
94104.000			-10.143			-3.381
94205.000			-10.143			-3.381
94304.000			-10.143			-3.381
94405.000			-10.143			-3.381
94503.000			-10.142			-3.381
94604.000			-10.142			-3.381
94705.000			-10.141			-3.380
94804.000			-10.141			-3.380
94904.000			-10.141			-3.380
95004.000			-10.140			-3.380
95104.000			-10.141			-3.380
95203.000			-10.141			-3.380
95305.000			-10.140			-3.380
95404.000			-10.140			-3.380
95504.000			-10.140			-3.380
95605.000			-10.140			-3.380
95703.000			-10.138			-3.379
95804.000			-10.138			-3.379
95905.000			-10.138			-3.379
96004.000			-10.138			-3.379
96104.000			-10.139			-3.380
96205.000			-10.139			-3.380
96304.000			-10.137			-3.379
96403.000			-10.138			-3.379
96505.000			-10.139			-3.380
96604.000			-10.138			-3.379
96704.000			-10.137			-3.379
96805.000			-10.136			-3.379
96904.000			-10.137			-3.379
97004.000			-10.136			-3.379
97104.000			-10.135			-3.378
97204.000			-10.135			-3.378
97304.000			-10.135			-3.378
97404.000			-10.135			-3.378
97504.000			-10.135			-3.378
97605.000			-10.135			-3.378
97704.000			-10.135			-3.378
97803.000			-10.134			-3.378
97905.000			-10.135			-3.378
98004.000			-10.135			-3.378
98104.000			-10.134			-3.378
98205.000			-10.133			-3.378
98304.000			-10.133			-3.378
98404.000			-10.133			-3.378
98504.000			-10.132			-3.377
98604.000			-10.132			-3.377
98704.000			-10.132			-3.377
98805.000			-10.132			-3.377
98904.000			-10.132			-3.377
99004.000			-10.132			-3.377
99105.000			-10.132			-3.377
99203.000			-10.131			-3.377
99304.000			-10.132			-3.377
99405.000			-10.131			-3.377
99504.000			-10.130			-3.377
99604.000			-10.130			-3.377
99705.000			-10.130			-3.377
99804.000			-10.129			-3.376
99903.000			-10.129			-3.376
100005.000			-10.130			-3.377
100104.000			-10.130			-3.377
100204.000			-10.129			-3.376
100305.000			-10.130			-3.377
100404.000			-10.129			-3.376
100504.000			-10.129			-3.376
100603.000			-10.129			-3.376
100704.000			-10.128			-3.376
100805.000			-10.129			-3.376
100904.000			-10.128			-3.376
101004.000			-10.127			-3.376
101105.000			-10.128			-3.376
101204.000			-10.127			-3.376
101303.000			-10.127			-3.376
101405.000			-10.127			-3.376
101504.000			-10.126			-3.375
101604.000			-10.126			-3.375
101705.000			-10.126			-3.375
101804.000			-10.126			-3.375
101904.000			-10.126			-3.375
102004.000			-10.126			-3.375
102104.000			-10.125			-3.375
102204.000			-10.125			-3.375
102305.000			-10.125			-3.375
102404.000			-10.126			-3.375
102504.000			-10.125			-3.375
102605.000			-10.124			-3.375
102703.000			-10.124			-3.375
102804.000			-10.124			-3.375
102905.000			-10.124			-3.375
103004.000			-10.123			-3.374
103104.000			-10.123			-3.374
103204.000			-10.123			-3.374
103304.000			-10.122			-3.374
103404.000			-10.123			-3.374
103505.000			-10.122			-3.374
103604.000			-10.122			-3.374
103704.000			-10.122			-3.374
103805.000			-10.121			-3.374
103903.000			-10.120			-3.373
104005.000			-10.121			-3.374
104104.000			-10.120			-3.373
104204.000			-10.121			-3.374
104305.000			-10.120			-3.373
104404.000			-10.120			-3.373
104504.000			-10.120			-3.373
104604.000			-10.120			-3.373
104704.000			-10.120			-3.373
104804.000			-10.119			-3.373
104905.000			-10.120			-3.373
105004.000			-10.118			-3.373
105104.000			-10.118			-3.373
105205.000			-10.119			-3.373
105303.000			-10.119			-3.373
105404.000			-10.119			-3.373
105505.000			-10.118			-3.373
105604.000			-10.118			-3.373
105704.000			-10.118			-3.373
105805.000			-10.117			-3.372
105904.000			-10.117			-3.372
106003.000			-10.117			-3.372
106105.000			-10.116			-3.372
106204.000			-10.116			-3.372
106304.000			-10.119			-3.373
106405.000			-10.117			-3.372
106504.000			-10.116			-3.372
106604.000			-10.116			-3.372
106704.000			-10.115			-3.372
106804.000			-10.116			-3.372
106904.000			-10.116			-3.372
107004.000			-10.116			-3.372
107104.000			-10.116			-3.372
107203.000			-10.115			-3.372
107304.000			-10.115			-3.372
107403.000			-10.115			-3.372
107505.000			-10.115			-3.372
107604.000			-10.114			-3.371
107704.000			-10.113			-3.371
107805.000			-10.112			-3.371
107903.000			-10.113			-3.371
108004.000			-10.113			-3.371
108105.000			-10.113			-3.371
108204.000			-10.113			-3.371
108304.000			-10.112			-3.371
108405.000			-10.113			-3.371
108504.000			-10.113			-3.371
108603.000			-10.112			-3.371
108705.000			-10.111			-3.370
108804.000			-10.111			-3.370
108904.000			-10.111			-3.370
109005.000			-10.111			-3.370
109104.000			-10.112			-3.371
109204.000			-10.111			-3.370
109304.000			-10.111			-3.370
109404.000			-10.110			-3.370
109504.000			-10.110			-3.370
109605.000			-10.110			-3.370
109704.000			-10.111			-3.370
109804.000			-10.110			-3.370
109905.000			-10.109			-3.370
110003.000			-10.110			-3.370
110104.000			-10.109			-3.370
110205.000			-10.109			-3.370
110304.000			-10.108			-3.369
110405.000			-10.108			-3.369
110504.000			-10.108			-3.369
110604.000			-10.109			-3.370
110704.000			-10.107			-3.369
110804.000			-10.107			-3.369
110904.000			-10.107			-3.369
111005.000			-10.108			-3.369
111104.000			-10.107			-3.369
111204.000			-10.106			-3.369
111305.000			-10.106			-3.369
111403.000			-10.106			-3.369
111504.000			-10.106			-3.369
111605.000			-10.106			-3.369
111704.000			-10.106			-3.369
111804.000			-10.105			-3.368
111904.000			-10.105			-3.368
112004.000			-10.104			-3.368
112103.000			-10.105			-3.368
112205.000			-10.105			-3.368
112304.000			-10.104			-3.368
112404.000			-10.104			-3.368
112505.000			-10.105			-3.368
112603.000			-10.104			-3.368
112704.000			-10.103			-3.368
112805.000			-10.104			-3.368
112904.000			-10.104			-3.368
113004.000			-10.103			-3.368
113105.000			-10.103			-3.368
113204.000			-10.103			-3.368
113303.000			-10.102			-3.367
113405.000			-10.102			-3.367
113504.000			-10.101			-3.367
113605.000			-10.101			-3.367
113704.000			-10.101			-3.367
113804.000			-10.102			-3.367
113905.000			-10.102			-3.367
114003.000			-10.102			-3.367
114104.000			-10.102			-3.367
114205.000			-10.101			-3.367
114304.000			-10.101			-3.367
114404.000			-10.100			-3.367
114505.000			-10.100			-3.367
114604.000			-10.100			-3.367
114703.000			-10.100			-3.367
114805.000			-10.099			-3.366
114904.000			-10.100			-3.367
115004.000			-10.101			-3.367
115105.000			-10.100			-3.367
115204.000			-10.099			-3.366
115304.000			-10.098			-3.366
115404.000			-10.099			-3.366
115504.000			-10.099			-3.366
115604.000			-10.098			-3.366
115705.000			-10.098			-3.366
115804.000			-10.098			-3.366
115904.000			-10.098			-3.366
116005.000			-10.097			-3.366
116103.000			-10.097			-3.366
116204.000			-10.098			-3.366
116305.000			-10.097			-3.366
116404.000			-10.098			-3.366
116504.000			-10.097			-3.366
116604.000			-10.096			-3.365
116704.000			-10.096			-3.365
116803.000			-10.096			-3.365
116904.000			-10.095			-3.365
117004.000			-10.095			-3.365
117105.000			-10.096			-3.365
117204.000			-10.095			-3.365
117304.000			-10.095			-3.365
117405.000			-10.095			-3.365
117503.000			-10.094			-3.365
117604.000			-10.094			-3.365
117705.000			-10.094			-3.365
117804.000			-10.094			-3.365
117904.000			-10.094			-3.365
118005.000			-10.094			-3.365
118104.000			-10.094			-3.365
118203.000			-10.094			-3.365
118305.000			-10.094			-3.365
118404.000			-10.094			-3.365
118504.000			-10.093			-3.364
118605.000			-10.093			-3.364
118704.000			-10.093			-3.364
118804.000			-10.093			-3.364
118904.000			-10.092			-3.364
119004.000			-10.092			-3.364
119104.000			-10.092			-3.364
119205.000			-10.092			-3.364
119304.000			-10.093			-3.364
119404.000			-10.092			-3.364
119505.000			-10.092			-3.364
119603.000			-10.091			-3.364
119704.000			-10.090			-3.363
119805.000			-10.089			-3.363
119904.000			-10.090			-3.363
120005.000			-10.090			-3.363
120104.000			-10.089			-3.363
120204.000			-10.089			-3.363
120304.000			-10.090			-3.363
120404.000			-10.089			-3.363
120504.000			-10.088			-3.363
120605.000			-10.089			-3.363
120704.000			-10.089			-3.363
120804.000			-10.089			-3.363
120905.000			-10.089			-3.363
121003.000			-10.089			-3.363
121104.000			-10.088			-3.363
121205.000			-10.087			-3.362
121304.000			-10.088			-3.363
121404.000			-10.088			-3.363
121505.000			-10.089			-3.363
121604.000			-10.088			-3.363
121703.000			-10.088			-3.363
121805.000			-10.088			-3.363
121904.000			-10.087			-3.362
122004.000			-10.087			-3.362
122105.000			-10.087			-3.362
122204.000			-10.086			-3.362
122304.000			-10.086			-3.362
122404.000			-10.086			-3.362
122504.000			-10.086			-3.362
122604.000			-10.086			-3.362
122705.000			-10.086			-3.362
122804.000			-10.086			-3.362
122904.000			-10.086			-3.362
123005.000			-10.084			-3.361
123103.000			-10.084			-3.361
123205.000			-10.084			-3.361
123304.000			-10.083			-3.361
123404.000			-10.084			-3.361
123505.000			-10.084			-3.361
123604.000			-10.084			-3.361
123704.000			-10.084			-3.361
123804.000			-10.084			-3.361
123904.000			-10.083			-3.361
124004.000			-10.083			-3.361
124105.000			-10.083			-3.361
124204.000			-10.083			-3.361
124304.000			-10.083			-3.361
124405.000			-10.083			-3.361
124503.000			-10.083			-3.361
124604.000			-10.083			-3.361
124705.000			-10.083			-3.361
124804.000			-10.083			-3.361
124904.000			-10.082			-3.361
125005.000			-10.081			-3.360
125104.000			-10.082			-3.361
125203.000			-10.081			-3.360
125305.000			-10.081			-3.360
125404.000			-10.080			-3.360
125504.000			-10.079			-3.360
125605.000			-10.079			-3.360
125704.000			-10.079			-3.360
125804.000			-10.078			-3.359
125904.000			-10.079			-3.360
126004.000			-10.080			-3.360
126103.000			-10.079			-3.360
126205.000			-10.079			-3.360
126304.000			-10.079			-3.360
126405.000			-10.079			-3.360
126504.000			-10.078			-3.359
126604.000			-10.078			-3.359
126705.000			-10.077			-3.359
126803.000			-10.077			-3.359
126904.000			-10.077			-3.359
127005.000			-10.078			-3.359
127104.000			-10.078			-3.359
127204.000			-10.078			-3.359
127305.000			-10.078			-3.359
127404.000			-10.077			-3.359
127503.000			-10.077			-3.359
127605.000			-10.077			-3.359
127704.000			-10.077			-3.359
127804.000			-10.077			-3.359
127905.000			-10.077			-3.359
128004.000			-10.077			-3.359
128104.000			-10.076			-3.359
128204.000			-10.075			-3.358
128304.000			-10.075			-3.358
128404.000			-10.075			-3.358
128505.000			-10.075			-3.358
128604.000			-10.076			-3.359
128704.000			-10.075			-3.358
128805.000			-10.074			-3.358
128903.000			-10.075			-3.358
129004.000			-10.074			-3.358
129105.000			-10.074			-3.358
129204.000			-10.075			-3.358
129304.000			-10.074			-3.358
129404.000			-10.074			-3.358
129504.000			-10.073			-3.358
129603.000			-10.074			-3.358
129704.000			-10.073			-3.358
129803.000			-10.073			-3.358
129905.000			-10.073			-3.358
130004.000			-10.073			-3.358
130104.000			-10.073			-3.358
130205.000			-10.072			-3.357
130303.000			-10.072			-3.357
130404.000			-10.072			-3.357
130505.000			-10.071			-3.357
130604.000			-10.071			-3.357
130704.000			-10.071			-3.357
130805.000			-10.072			-3.357
130904.000			-10.071			-3.357
131003.000			-10.071			-3.357
131105.000			-10.070			-3.357
131204.000			-10.070			-3.357
131304.000			-10.070			-3.357
131405.000			-10.069			-3.356
131504.000			-10.070			-3.357
131604.000			-10.070			-3.357
131705.000			-10.068			-3.356
131804.000			-10.070			-3.357
131903.000			-10.069			-3.356
132005.000			-10.069			-3.356
132104.000			-10.070			-3.357
132204.000			-10.069			-3.356
132305.000			-10.069			-3.356
132404.000			-10.069			-3.356
132504.000			-10.069			-3.356
132604.000			-10.068			-3.356
132704.000			-10.067			-3.356
132803.000			-10.067			-3.356
132904.000			-10.068			-3.356
133004.000			-10.069			-3.356
133105.000			-10.068			-3.356
133204.000			-10.067			-3.356
133304.000			-10.067			-3.356
133405.000			-10.067			-3.356
133503.000			-10.066			-3.355
133604.000			-10.066			-3.355
133705.000			-10.066			-3.355
133804.000			-10.066			-3.355
133904.000			-10.066			-3.355
134005.000			-10.066			-3.355
134104.000			-10.065			-3.355
134204.000			-10.065			-3.355
134305.000			-10.066			-3.355
134403.000			-10.066			-3.355
134504.000			-10.065			-3.355
134605.000			-10.065			-3.355
134704.000			-10.064			-3.355
134804.000			-10.064			-3.355
134905.000			-10.064			-3.355
135004.000			-10.064			-3.355
135103.000			-10.065			-3.355
135205.000			-10.064			-3.355
135304.000			-10.063			-3.354
135404.000			-10.064			-3.355
135505.000			-10.063			-3.354
135604.000			-10.062			-3.354
135704.000			-10.063			-3.354
135804.000			-10.062			-3.354
135904.000			-10.062			-3.354
136003.000			-10.062			-3.354
136104.000			-10.062			-3.354
136204.000			-10.063			-3.354
136305.000			-10.063			-3.354
136404.000			-10.063			-3.354
136504.000			-10.063			-3.354
136605.000			-10.062			-3.354
136703.000			-10.061			-3.354
136804.000			-10.061			-3.354
136904.000			-10.061			-3.354
137004.000			-10.060			-3.353
137104.000			-10.061			-3.354
137205.000			-10.060			-3.353
137304.000			-10.060			-3.353
137404.000			-10.059			-3.353
137505.000			-10.060			-3.353
137603.000			-10.059			-3.353
137704.000			-10.060			-3.353
137805.000			-10.060			-3.353
137904.000			-10.059			-3.353
138004.000			-10.060			-3.353
138105.000			-10.059			-3.353
138204.000			-10.059			-3.353
138304.000			-10.058			-3.353
138405.000			-10.058			-3.353
138503.000			-10.059			-3.353
138604.000			-10.059			-3.353
138705.000			-10.059			-3.353
138804.000			-10.058			-3.353
138904.000			-10.058			-3.353
139004.000			-10.058			-3.353
139104.000			-10.057			-3.352
139205.000			-10.057			-3.352
139304.000			-10.058			-3.353
139403.000			-10.058			-3.353
139505.000			-10.058			-3.353
139604.000			-10.057			-3.352
139704.000			-10.057			-3.352
139805.000			-10.056			-3.352
139904.000			-10.057			-3.352
140004.000			-10.056			-3.352
140104.000			-10.056			-3.352
140204.000			-10.056			-3.352
140303.000			-10.056			-3.352
140405.000			-10.056			-3.352
140504.000			-10.055			-3.352
140604.000			-10.057			-3.352
140705.000			-10.056			-3.352
140804.000			-10.055			-3.352
140904.000			-10.055			-3.352
141004.000			-10.054			-3.351
141104.000			-10.055			-3.352
141204.000			-10.055			-3.352
141305.000			-10.054			-3.351
141404.000			-10.054			-3.351
141504.000			-10.053			-3.351
141605.000			-10.054			-3.351
141703.000			-10.053			-3.351
141804.000			-10.052			-3.351
141904.000			-10.052			-3.351
142004.000			-10.052			-3.351
142104.000			-10.052			-3.351
142204.000			-10.052			-3.351
142304.000			-10.053			-3.351
142405.000			-10.052			-3.351
142504.000			-10.052			-3.351
142603.000			-10.052			-3.351
142705.000			-10.050			-3.350
142804.000			-10.050			-3.350
142904.000			-10.050			-3.350
143005.000			-10.050			-3.350
143104.000			-10.049			-3.350
143204.000			-10.050			-3.350
143304.000			-10.050			-3.350
143404.000			-10.049			-3.350
143504.000			-10.050			-3.350
143605.000			-10.050			-3.350
143704.000			-10.050			-3.350
143804.000			-10.050			-3.350
143905.000			-10.050			-3.350
144004.000			-10.049			-3.350
144104.000			-10.049			-3.350
144204.000			-10.048			-3.349
144304.000			-10.049			-3.350
144404.000			-10.048			-3.349
144505.000			-10.048			-3.349
144604.000			-10.048			-3.349
144704.000			-10.047			-3.349
144805.000			-10.046			-3.349
144903.000			-10.047			-3.349
145004.000			-10.047			-3.349
145105.000			-10.047			-3.349
145204.000			-10.047			-3.349
145304.000			-10.046			-3.349
145404.000			-10.047			-3.349
145504.000			-10.048			-3.349
145605.000			-10.046			-3.349
145704.000			-10.046			-3.349
145803.000			-10.046			-3.349
145905.000			-10.045			-3.348
146004.000			-10.045			-3.348
146104.000			-10.045			-3.348
146205.000			-10.045			-3.348
146304.000			-10.044			-3.348
146404.000			-10.045			-3.348
146504.000			-10.044			-3.348
146604.000			-10.044			-3.348
146703.000			-10.045			-3.348
146805.000			-10.044			-3.348
146904.000			-10.045			-3.348
147004.000			-10.045			-3.348
147105.000			-10.044			-3.348
147204.000			-10.044			-3.348
147304.000			-10.044			-3.348
147404.000			-10.044			-3.348
147504.000			-10.044			-3.348
147604.000			-10.043			-3.348
147705.000			-10.043			-3.348
147804.000			-10.044			-3.348
147904.000			-10.043			-3.348
148005.000			-10.043			-3.348
148104.000			-10.042			-3.347
148204.000			-10.043			-3.348
148304.000			-10.043			-3.348
148404.000			-10.043			-3.348
148504.000			-10.042			-3.347
148604.000			-10.042			-3.347
148704.000			-10.043			-3.348
148805.000			-10.042			-3.347
148904.000			-10.041			-3.347
149004.000			-10.041			-3.347
149105.000			-10.042			-3.347
149203.000			-10.042			-3.347
149304.000			-10.040			-3.347
149405.000			-10.041			-3.347
149504.000			-10.041			-3.347
149604.000			-10.041			-3.347
149705.000			-10.041			-3.347
149804.000			-10.041			-3.347
149903.000			-10.042			-3.347
150005.000			-10.040			-3.347
150104.000			-10.040			-3.347
150204.000			-10.040			-3.347
150305.000			-10.040			-3.347
150404.000			-10.041			-3.347
150504.000			-10.040			-3.347
150605.000			-10.039			-3.346
150704.000			-10.039			-3.346
150803.000			-10.038			-3.346
150905.000			-10.039			-3.346
151004.000			-10.039			-3.346
151104.000			-10.037			-3.346
151205.000			-10.038			-3.346
151304.000			-10.040			-3.347
151404.000			-10.039			-3.346
151504.000			-10.038			-3.346
151604.000			-10.038			-3.346
151704.000			-10.037			-3.346
151804.000			-10.037			-3.346
151904.000			-10.037			-3.346
152005.000			-10.038			-3.346
152104.000			-10.038			-3.346
152204.000			-10.038			-3.346
152305.000			-10.038			-3.346
152403.000			-10.038			-3.346
152504.000			-10.037			-3.346
152605.000			-10.036			-3.345
152704.000			-10.036			-3.345
152804.000			-10.036			-3.345
152905.000			-10.035			-3.345
153004.000			-10.036			-3.345
153103.000			-10.037			-3.346
153205.000			-10.035			-3.345
153304.000			-10.034			-3.345
153404.000			-10.035			-3.345
153505.000			-10.035			-3.345
153604.000			-10.035			-3.345
153704.000			-10.035			-3.345
153804.000			-10.035			-3.345
153904.000			-10.034			-3.345
154003.000			-10.033			-3.344
154105.000			-10.034			-3.345
154204.000			-10.034			-3.345
154304.000			-10.034			-3.345
154405.000			-10.034			-3.345
154504.000			-10.035			-3.345
154604.000			-10.033			-3.344
154704.000			-10.034			-3.345
154804.000			-10.034			-3.345
154904.000			-10.034			-3.345
155004.000			-10.034			-3.345
155104.000			-10.032			-3.344
155205.000			-10.032			-3.344
155304.000			-10.032			-3.344
155404.000			-10.032			-3.344
155505.000			-10.032			-3.344
155603.000			-10.032			-3.344
155704.000			-10.031			-3.344
155805.000			-10.031			-3.344
155904.000			-10.030			-3.343
156004.000			-10.031			-3.344
156105.000			-10.032			-3.344
156204.000			-10.031			-3.344
156303.000			-10.031			-3.344
156405.000			-10.031			-3.344
156504.000			-10.031			-3.344
156604.000			-10.030			-3.343
156705.000			-10.030			-3.343
156804.000			-10.031			-3.344
156904.000			-10.030			-3.343
157004.000			-10.029			-3.343
157104.000			-10.031			-3.344
157203.000			-10.031			-3.344
157305.000			-10.030			-3.343
157404.000			-10.030			-3.343
157504.000			-10.030			-3.343
157605.000			-10.030			-3.343
157704.000			-10.030			-3.343
157804.000			-10.029			-3.343
157904.000			-10.030			-3.343
158004.000			-10.029			-3.343
158104.000			-10.029			-3.343
158204.000			-10.028			-3.343
158304.000			-10.028			-3.343
158405.000			-10.028			-3.343
158504.000			-10.028			-3.343
158604.000			-10.028			-3.343
158705.000			-10.028			-3.343
158803.000			-10.027			-3.342
158904.000			-10.027			-3.342
159005.000			-10.027			-3.342
159104.000			-10.027			-3.342
159204.000			-10.028			-3.343
159305.000			-10.027			-3.342
159404.000			-10.027			-3.342
159503.000			-10.027			-3.342
159605.000			-10.026			-3.342
159703.000			-10.026			-3.342
159804.000			-10.026			-3.342
159905.000			-10.026			-3.342
160004.000			-10.026			-3.342
160104.000			-10.026			-3.342
160205.000			-10.025			-3.342
160304.000			-10.025			-3.342
160403.000			-10.024			-3.341
160505.000			-10.024			-3.341
160604.000			-10.024			-3.341
160704.000			-10.025			-3.342
160805.000			-10.025			-3.342
160904.000			-10.024			-3.341
161004.000			-10.025			-3.342
161104.000			-10.024			-3.341
161204.000			-10.024			-3.341
161304.000			-10.024			-3.341
161404.000			-10.024			-3.341
161504.000			-10.024			-3.341
161605.000			-10.024			-3.341
161704.000			-10.024			-3.341
161804.000			-10.023			-3.341
161905.000			-10.022			-3.341
162003.000			-10.022			-3.341
162104.000			-10.022			-3.341
162205.000			-10.022			-3.341
162304.000			-10.023			-3.341
162404.000			-10.023			-3.341
162505.000			-10.021			-3.340
162604.000			-10.022			-3.341
162703.000			-10.022			-3.341
162805.000			-10.022			-3.341
162904.000			-10.021			-3.340
163004.000			-10.022			-3.341
163105.000			-10.021			-3.340
163204.000			-10.021			-3.340
163304.000			-10.020			-3.340
163404.000			-10.021			-3.340
163504.000			-10.021			-3.340
163604.000			-10.021			-3.340
163705.000			-10.019			-3.340
163804.000			-10.019			-3.340
163904.000			-10.020			-3.340
164005.000			-10.020			-3.340
164104.000			-10.021			-3.340
164204.000			-10.020			-3.340
164304.000			-10.020			-3.340
164404.000			-10.020			-3.340
164504.000			-10.020			-3.340
164604.000			-10.019			-3.340
164704.000			-10.018			-3.339
164805.000			-10.018			-3.339
164904.000			-10.018			-3.339
165003.000			-10.018			-3.339
165105.000			-10.018			-3.339
165204.000			-10.017			-3.339
165304.000			-10.018			-3.339
165405.000			-10.018			-3.339
165504.000			-10.018			-3.339
165604.000			-10.019			-3.340
165705.000			-10.019			-3.340
165804.000			-10.018			-3.339
165903.000			-10.018			-3.339
166005.000			-10.017			-3.339
166104.000			-10.016			-3.339
166204.000			-10.017			-3.339
166305.000			-10.017			-3.339
166404.000			-10.017			-3.339
166504.000			-10.016			-3.339
166604.000			-10.015			-3.338
166704.000			-10.016			-3.339
166803.000			-10.016			-3.339
166905.000			-10.017			-3.339
167004.000			-10.016			-3.339
167104.000			-10.016			-3.339
167205.000			-10.016			-3.339
167304.000			-10.015			-3.338
167404.000			-10.014			-3.338
167504.000			-10.015			-3.338
167604.000			-10.016			-3.339
167704.000			-10.016			-3.339
167804.000			-10.015			-3.338
167904.000			-10.015			-3.338
168005.000			-10.015			-3.338
168104.000			-10.014			-3.338
168204.000			-10.014			-3.338
168305.000			-10.014			-3.338
168403.000			-10.013			-3.338
168504.000			-10.013			-3.338
168605.000			-10.014			-3.338
168704.000			-10.014			-3.338
168804.000			-10.014			-3.338
168905.000			-10.013			-3.338
169004.000			-10.013			-3.338
169103.000			-10.012			-3.337
169205.000			-10.012			-3.337
169304.000			-10.012			-3.337
169404.000			-10.013			-3.338
169505.000			-10.013			-3.338
169604.000			-10.012			-3.337
169704.000			-10.012			-3.337
169805.000			-10.012			-3.337
169904.000			-10.012			-3.337
170003.000			-10.013			-3.338
170105.000			-10.013			-3.338
170204.000			-10.012			-3.337
170304.000			-10.012			-3.337
170405.000			-10.011			-3.337
170504.000			-10.011			-3.337
170604.000			-10.012			-3.337
170704.000			-10.012			-3.337
170804.000			-10.011			-3.337
170904.000			-10.011			-3.337
171004.000			-10.011			-3.337
171104.000			-10.010			-3.337
171205.000			-10.010			-3.337
171304.000			-10.010			-3.337
171403.000			-10.010			-3.337
171505.000			-10.010			-3.337
171603.000			-10.010			-3.337
171704.000			-10.009			-3.336
171805.000			-10.010			-3.337
171904.000			-10.010			-3.337
172004.000			-10.009			-3.336
172105.000			-10.009			-3.336
172204.000			-10.009			-3.336
172303.000			-10.008			-3.336
172405.000			-10.009			-3.336
172504.000			-10.009			-3.336
172604.000			-10.009			-3.336
172705.000			-10.008			-3.336
172804.000			-10.007			-3.336
172904.000			-10.008			-3.336
173004.000			-10.008			-3.336
173104.000			-10.007			-3.336
173204.000			-10.009			-3.336
173305.000			-10.007			-3.336
173404.000			-10.007			-3.336
173504.000			-10.007			-3.336
173605.000			-10.008			-3.336
173704.000			-10.008			-3.336
173804.000			-10.008			-3.336
173904.000			-10.008			-3.336
174004.000			-10.007			-3.336
174104.000			-10.008			-3.336
174204.000			-10.007			-3.336
174304.000			-10.006			-3.335
174405.000			-10.006			-3.335
174504.000			-10.005			-3.335
174603.000			-10.005			-3.335
174705.000			-10.006			-3.335
174804.000			-10.005			-3.335
174904.000			-10.006			-3.335
175005.000			-10.006			-3.335
175104.000			-10.005			-3.335
175204.000			-10.006			-3.335
175305.000			-10.005			-3.335
175404.000			-10.005			-3.335
175503.000			-10.006			-3.335
175605.000			-10.005			-3.335
175704.000			-10.004			-3.335
175804.000			-10.004			-3.335
175905.000			-10.004			-3.335
176004.000			-10.004			-3.335
176104.000			-10.004			-3.335
176204.000			-10.004			-3.335
176304.000			-10.004			-3.335
176404.000			-10.003			-3.334
176505.000			-10.004			-3.335
176604.000			-10.004			-3.335
176704.000			-10.003			-3.334
176805.000			-10.002			-3.334
176904.000			-10.002			-3.334
177004.000			-10.003			-3.334
177104.000			-10.002			-3.334
177204.000			-10.002			-3.334
177304.000			-10.003			-3.334
177404.000			-10.002			-3.334
177504.000			-10.003			-3.334
177605.000			-10.003			-3.334
177704.000			-10.002			-3.334
177803.000			-10.002			-3.334
177905.000			-10.002			-3.334
178004.000			-10.001			-3.334
178104.000			-10.002			-3.334
178205.000			-10.002			-3.334
178304.000			-10.002			-3.334
178404.000			-10.001			-3.334
178505.000			-10.001			-3.334
178604.000			-10.000			-3.333
178703.000			-10.000			-3.333
178805.000			-10.000			-3.333
178904.000			-10.001			-3.334
179004.000			-10.001			-3.334
179105.000			-10.000			-3.333
179204.000			-9.999			-3.333
179304.000			-10.000			-3.333
179405.000			-10.000			-3.333
179504.000			-10.000			-3.333
179603.000			-10.000			-3.333
179705.000			-10.000			-3.333
179804.000			-9.999			-3.333
179904.000			-9.999			-3.333
180005.000			-10.000			-3.333
180104.000			-9.999			-3.333
180204.000			-9.999			-3.333
180305.000			-9.999			-3.333
180404.000			-10.000			-3.333
180503.000			-9.999			-3.333
180605.000			-9.998			-3.333
180704.000			-9.998			-3.333
180805.000			-9.998			-3.333
180904.000			-9.997			-3.332
181004.000			-9.997			-3.332
181105.000			-9.998			-3.333
181204.000			-9.998			-3.333
181304.000			-9.998			-3.333
181404.000			-9.998			-3.333
181504.000			-9.998			-3.333
181603.000			-9.998			-3.333
181705.000			-9.998			-3.333
181804.000			-9.997			-3.332
181904.000			-9.996			-3.332
182005.000			-9.996			-3.332
182104.000			-9.997			-3.332
182204.000			-9.996			-3.332
182305.000			-9.996			-3.332
182404.000			-9.996			-3.332
182503.000			-9.996			-3.332
182605.000			-9.996			-3.332
182704.000			-9.997			-3.332
182804.000			-9.997			-3.332
182905.000			-9.996			-3.332
183004.000			-9.996			-3.332
183104.000			-9.995			-3.332
183205.000			-9.996			-3.332
183304.000			-9.996			-3.332
183404.000			-9.995			-3.332
183505.000			-9.996			-3.332
183603.000			-9.995			-3.332
183704.000			-9.995			-3.332
183805.000			-9.996			-3.332
183904.000			-9.996			-3.332
184005.000			-9.995			-3.332
184104.000			-9.995			-3.332
184204.000			-9.994			-3.331
184305.000			-9.994			-3.331
184404.000			-9.995			-3.332
184503.000			-9.994			-3.331
184605.000			-9.993			-3.331
184703.000			-9.993			-3.331
184804.000			-9.993			-3.331
184905.000			-9.994			-3.331
185004.000			-9.993			-3.331
185104.000			-9.994			-3.331
185205.000			-9.994			-3.331
185304.000			-9.993			-3.331
185404.000			-9.994			-3.331
185505.000			-9.993			-3.331
185603.000			-9.992			-3.331
185704.000			-9.992			-3.331
185805.000			-9.992			-3.331
185904.000			-9.992			-3.331
186004.000			-9.992			-3.331
186105.000			-9.992			-3.331
186204.000			-9.992			-3.331
186304.000			-9.992			-3.331
186405.000			-9.992			-3.331
186503.000			-9.992			-3.331
186604.000			-9.991			-3.330
186704.000			-9.991			-3.330
186804.000			-9.991			-3.330
186904.000			-9.990			-3.330
187004.000			-9.991			-3.330
187104.000			-9.990			-3.330
187205.000			-9.989			-3.330
187304.000			-9.989			-3.330
187404.000			-9.990			-3.330
187505.000			-9.991			-3.330
187603.000			-9.990			-3.330
187704.000			-9.990			-3.330
187804.000			-9.990			-3.330
187904.000			-9.989			-3.330
188004.000			-9.989			-3.330
188105.000			-9.990			-3.330
188204.000			-9.989			-3.330
188304.000			-9.989			-3.330
188405.000			-9.989			-3.330
188504.000			-9.989			-3.330
188604.000			-9.990			-3.330
188704.000			-9.988			-3.329
188804.000			-9.988			-3.329
188903.000			-9.988			-3.329
189005.000			-9.989			-3.330
189104.000			-9.989			-3.330
189204.000			-9.988			-3.329
189305.000			-9.989			-3.330
189404.000			-9.988			-3.329
189504.000			-9.987			-3.329
189605.000			-9.988			-3.329
189704.000			-9.988			-3.329
189803.000			-9.988			-3.329
189905.000			-9.988			-3.329
190003.000			-9.987			-3.329
190104.000			-9.987			-3.329
190205.000			-9.987			-3.329
190304.000			-9.987			-3.329
190405.000			-9.987			-3.329
190504.000			-9.987			-3.329
190604.000			-9.987			-3.329
190705.000			-9.986			-3.329
190804.000			-9.985			-3.328
190903.000			-9.985			-3.328
191005.000			-9.985			-3.328
191104.000			-9.986			-3.329
191204.000			-9.986			-3.329
191305.000			-9.986			-3.329
191404.000			-9.987			-3.329
191504.000			-9.985			-3.328
191605.000			-9.985			-3.328
191704.000			-9.985			-3.328
191803.000			-9.986			-3.329
191905.000			-9.984			-3.328
192003.000			-9.985			-3.328
192104.000			-9.985			-3.328
192205.000			-9.984			-3.328
192304.000			-9.984			-3.328
192404.000			-9.984			-3.328
192505.000			-9.984			-3.328
192604.000			-9.984			-3.328
192704.000			-9.983			-3.328
192805.000			-9.983			-3.328
192903.000			-9.983			-3.328
193004.000			-9.983			-3.328
193105.000			-9.983			-3.328
193204.000			-9.983			-3.328
193304.000			-9.983			-3.328
193404.000			-9.982			-3.327
193504.000			-9.983			-3.328
193605.000			-9.983			-3.328
193704.000			-9.982			-3.327
193803.000			-9.982			-3.327
193905.000			-9.983			-3.328
194003.000			-9.983			-3.328
194104.000			-9.982			-3.327
194205.000			-9.982			-3.327
194304.000			-9.982			-3.327
194404.000			-9.981			-3.327
194505.000			-9.981			-3.327
194604.000			-9.982			-3.327
194704.000			-9.982			-3.327
194805.000			-9.982			-3.327
194903.000			-9.981			-3.327
195004.000			-9.981			-3.327
195105.000			-9.982			-3.327
195204.000			-9.980			-3.327
195304.000			-9.980			-3.327
195405.000			-9.980			-3.327
195504.000			-9.980			-3.327
195604.000			-9.980			-3.327
195705.000			-9.980			-3.327
195804.000			-9.981			-3.327
195904.000			-9.980			-3.327
196004.000			-9.979			-3.326
196104.000			-9.980			-3.327
196204.000			-9.981			-3.327
196305.000			-9.980			-3.327
196404.000			-9.980			-3.327
196504.000			-9.979			-3.326
196605.000			-9.979			-3.326
196704.000			-9.979			-3.326
196805.000			-9.979			-3.326
196904.000			-9.978			-3.326
197004.000			-9.978			-3.326
197104.000			-9.978			-3.326
197204.000			-9.979			-3.326
197304.000			-9.978			-3.326
197405.000			-9.978			-3.326
197504.000			-9.978			-3.326
197604.000			-9.978			-3.326
197705.000			-9.978			-3.326
197804.000			-9.978			-3.326
197904.000			-9.977			-3.326
198005.000			-9.977			-3.326
198104.000			-9.978			-3.326
198203.000			-9.978			-3.326
198305.000			-9.978			-3.326
198404.000			-9.978			-3.326
198504.000			-9.977			-3.326
198605.000			-9.977			-3.326
198704.000			-9.978			-3.326
198804.000			-9.977			-3.326
198905.000			-9.977			-3.326
199004.000			-9.976			-3.325
199104.000			-9.977			-3.326
199205.000			-9.977			-3.326
199303.000			-9.976			-3.325
199404.000			-9.978			-3.326
199505.000			-9.976			-3.325
199604.000			-9.975			-3.325
199704.000			-9.974			-3.325
199804.000			-9.974			-3.325
199904.000			-9.975			-3.325
200005.000			-9.975			-3.325
200104.000			-9.975			-3.325
200203.000			-9.975			-3.325
200305.000			-9.976			-3.325
200403.000			-9.975			-3.325
200504.000			-9.974			-3.325
200605.000			-9.974			-3.325
200704.000			-9.974			-3.325
200804.000			-9.973			-3.324
200905.000			-9.974			-3.325
201004.000			-9.973			-3.324
201103.000			-9.973			-3.324
201205.000			-9.974			-3.325
201303.000			-9.974			-3.325
201404.000			-9.973			-3.324
201505.000			-9.972			-3.324
201604.000			-9.973			-3.324
201704.000			-9.973			-3.324
201805.000			-9.974			-3.325
201904.000			-9.973			-3.324
202003.000			-9.972			-3.324
202105.000			-9.972			-3.324
202203.000			-9.972			-3.324
202304.000			-9.972			-3.324
202405.000			-9.972			-3.324
202504.000			-9.971			-3.324
202604.000			-9.971			-3.324
202705.000			-9.972			-3.324
202804.000			-9.972			-3.324
202903.000			-9.972			-3.324
203005.000			-9.972			-3.324
203104.000			-9.971			-3.324
203205.000			-9.970			-3.323
203304.000			-9.971			-3.324
203404.000			-9.971			-3.324
203505.000			-9.971			-3.324
203604.000			-9.971			-3.324
203704.000			-9.971			-3.324
203804.000			-9.971			-3.324
203904.000			-9.970			-3.323
204003.000			-9.970			-3.323
204105.000			-9.970			-3.323
204204.000			-9.970			-3.323
204304.000			-9.970			-3.323
204405.000			-9.970			-3.323
204504.000			-9.969			-3.323
204604.000			-9.969			-3.323
204704.000			-9.969			-3.323
204804.000			-9.969			-3.323
204903.000			-9.970			-3.323
205005.000			-9.969			-3.323
205104.000			-9.968			-3.323
205204.000			-9.969			-3.323
205305.000			-9.969			-3.323
205404.000			-9.969			-3.323
205504.000			-9.967			-3.322
205604.000			-9.967			-3.322
205704.000			-9.968			-3.323
205803.000			-9.968			-3.323
205905.000			-9.968			-3.323
206004.000			-9.967			-3.322
206104.000			-9.967			-3.322
206205.000			-9.967			-3.322
206304.000			-9.968			-3.323
206405.000			-9.968			-3.323
206504.000			-9.968			-3.323
206604.000			-9.967			-3.322
206704.000			-9.967			-3.322
206804.000			-9.967			-3.322
206904.000			-9.967			-3.322
207005.000			-9.967			-3.322
207104.000			-9.966			-3.322
207204.000			-9.966			-3.322
207305.000			-9.966			-3.322
207404.000			-9.966			-3.322
207504.000			-9.967			-3.322
207604.000			-9.966			-3.322
207704.000			-9.966			-3.322
207804.000			-9.966			-3.322
207905.000			-9.966			-3.322
208004.000			-9.966			-3.322
208104.000			-9.966			-3.322
208205.000			-9.966			-3.322
208304.000			-9.964			-3.321
208404.000			-9.964			-3.321
208504.000			-9.965			-3.322
208604.000			-9.966			-3.322
208703.000			-9.965			-3.322
208805.000			-9.965			-3.322
208904.000			-9.964			-3.321
209004.000			-9.964			-3.321
209105.000			-9.965			-3.322
209204.000			-9.965			-3.322
209304.000			-9.963			-3.321
209403.000			-9.964			-3.321
209504.000			-9.964			-3.321
209603.000			-9.964			-3.321
209704.000			-9.964			-3.321
209804.000			-9.964			-3.321
209905.000			-9.964			-3.321
210004.000			-9.964			-3.321
210104.000			-9.964			-3.321
210205.000			-9.964			-3.321
210304.000			-9.963			-3.321
210404.000			-9.963			-3.321
210504.000			-9.963			-3.321
210604.000			-9.963			-3.321
210704.000			-9.962			-3.321
210805.000			-9.964			-3.321
210904.000			-9.964			-3.321
211004.000			-9.963			-3.321
211105.000			-9.962			-3.321
211203.000			-9.962			-3.321
211304.000			-9.962			-3.321
211404.000			-9.962			-3.321
211504.000			-9.962			-3.321
211604.000			-9.961			-3.320
211705.000			-9.960			-3.320
211804.000			-9.961			-3.320
211904.000			-9.961			-3.320
212005.000			-9.961			-3.320
212103.000			-9.960			-3.320
212204.000			-9.960			-3.320
212305.000			-9.961			-3.320
212404.000			-9.961			-3.320
212504.000			-9.960			-3.320
212604.000			-9.961			-3.320
212704.000			-9.960			-3.320
212805.000			-9.961			-3.320
212904.000			-9.961			-3.320
213003.000			-9.960			-3.320
213105.000			-9.960			-3.320
213204.000			-9.960			-3.320
213304.000			-9.960			-3.320
213405.000			-9.962			-3.321
213504.000			-9.961			-3.320
213604.000			-9.961			-3.320
213705.000			-9.960			-3.320
213804.000			-9.959			-3.320
213903.000			-9.959			-3.320
214005.000			-9.959			-3.320
214104.000			-9.959			-3.320
214204.000			-9.959			-3.320
214305.000			-9.959			-3.320
214404.000			-9.959			-3.320
214504.000			-9.958			-3.319
214605.000			-9.957			-3.319
214704.000			-9.957			-3.319
214803.000			-9.957			-3.319
214905.000			-9.957			-3.319
215003.000			-9.958			-3.319
215104.000			-9.958			-3.319
215205.000			-9.958			-3.319
215304.000			-9.958			-3.319
215404.000			-9.958			-3.319
215505.000			-9.957			-3.319
215604.000			-9.959			-3.320
215704.000			-9.957			-3.319
215805.000			-9.957			-3.319
215903.000			-9.957			-3.319
216005.000			-9.957			-3.319
216104.000			-9.958			-3.319
216204.000			-9.958			-3.319
216305.000			-9.956			-3.319
216404.000			-9.955			-3.318
216504.000			-9.956			-3.319
216605.000			-9.958			-3.319
216704.000			-9.957			-3.319
216803.000			-9.957			-3.319
216905.000			-9.957			-3.319
217003.000			-9.956			-3.319
217104.000			-9.957			-3.319
217205.000			-9.956			-3.319
217304.000			-9.956			-3.319
217404.000			-9.956			-3.319
217505.000			-9.955			-3.318
217604.000			-9.956			-3.319
217703.000			-9.955			-3.318
217805.000			-9.955			-3.318
217903.000			-9.956			-3.319
218004.000			-9.957			-3.319
218105.000			-9.956			-3.319
218204.000			-9.956			-3.319
218304.000			-9.955			-3.318
218405.000			-9.954			-3.318
218504.000			-9.955			-3.318
218603.000			-9.955			-3.318
218705.000			-9.955			-3.318
218803.000			-9.954			-3.318
218904.000			-9.954			-3.318
219005.000			-9.955			-3.318
219104.000			-9.955			-3.318
219205.000			-9.954			-3.318
219304.000			-9.954			-3.318
219404.000			-9.954			-3.318
219505.000			-9.953			-3.318
219604.000			-9.953			-3.318
219703.000			-9.954			-3.318
219805.000			-9.954			-3.318
219904.000			-9.954			-3.318
220004.000			-9.954			-3.318
220105.000			-9.954			-3.318
220204.000			-9.954			-3.318
220304.000			-9.954			-3.318
220405.000			-9.953			-3.318
220504.000			-9.953			-3.318
220603.000			-9.952			-3.317
220705.000			-9.953			-3.318
220804.000			-9.953			-3.318
220904.000			-9.953			-3.318
221005.000			-9.954			-3.318
221104.000			-9.953			-3.318
221204.000			-9.953			-3.318
221304.000			-9.952			-3.317
221404.000			-9.952			-3.317
221503.000			-9.952			-3.317
221605.000			-9.951			-3.317
221704.000			-9.952			-3.317
221804.000			-9.952			-3.317
221905.000			-9.951			-3.317
222004.000			-9.952			-3.317
222104.000			-9.952			-3.317
222203.000			-9.951			-3.317
222304.000			-9.951			-3.317
222403.000			-9.951			-3.317
222504.000			-9.951			-3.317
222604.000			-9.952			-3.317
222705.000			-9.952			-3.317
222804.000			-9.952			-3.317
222904.000			-9.951			-3.317
223005.000			-9.952			-3.317
223103.000			-9.952			-3.317
223204.000			-9.951			-3.317
223305.000			-9.950			-3.317
223404.000			-9.950			-3.317
223504.000			-9.950			-3.317
223605.000			-9.951			-3.317
223704.000			-9.951			-3.317
223804.000			-9.951			-3.317
223905.000			-9.950			-3.317
224003.000			-9.950			-3.317
224104.000			-9.950			-3.317
224205.000			-9.948			-3.316
224304.000			-9.949			-3.316
224404.000			-9.950			-3.317
224505.000			-9.950			-3.317
224604.000			-9.949			-3.316
224704.000			-9.949			-3.316
224805.000			-9.950			-3.317
224903.000			-9.949			-3.316
225004.000			-9.949			-3.316
225104.000			-9.949			-3.316
225204.000			-9.947			-3.316
225304.000			-9.948			-3.316
225404.000			-9.949			-3.316
225504.000			-9.948			-3.316
225605.000			-9.948			-3.316
225704.000			-9.947			-3.316
225803.000			-9.947			-3.316
225905.000			-9.947			-3.316
226003.000			-9.948			-3.316
226104.000			-9.948			-3.316
226205.000			-9.948			-3.316
226304.000			-9.948			-3.316
226404.000			-9.948			-3.316
226505.000			-9.947			-3.316
226604.000			-9.947			-3.316
226703.000			-9.947			-3.316
226805.000			-9.948			-3.316
226903.000			-9.946			-3.315
227004.000			-9.947			-3.316
227105.000			-9.948			-3.316
227204.000			-9.946			-3.315
227304.000			-9.946			-3.315
227405.000			-9.947			-3.316
227504.000			-9.946			-3.315
227604.000			-9.946			-3.315
227705.000			-9.947			-3.316
227803.000			-9.945			-3.315
227904.000			-9.945			-3.315
228005.000			-9.945			-3.315
228104.000			-9.945			-3.315
228204.000			-9.945			-3.315
228305.000			-9.945			-3.315
228404.000			-9.945			-3.315
228504.000			-9.945			-3.315
228605.000			-9.944			-3.315
228703.000			-9.945			-3.315
228805.000			-9.944			-3.315
228904.000			-9.945			-3.315
229004.000			-9.945			-3.315
229105.000			-9.945			-3.315
229204.000			-9.944			-3.315
229304.000			-9.944			-3.315
229405.000			-9.944			-3.315
229504.000			-9.944			-3.315
229603.000			-9.944			-3.315
229705.000			-9.945			-3.315
229804.000			-9.945			-3.315
229904.000			-9.943			-3.314
230005.000			-9.942			-3.314
230104.000			-9.943			-3.314
230204.000			-9.944			-3.315
230305.000			-9.944			-3.315
230404.000			-9.943			-3.314
230503.000			-9.943			-3.314
230605.000			-9.944			-3.315
230704.000			-9.944			-3.315
230804.000			-9.942			-3.314
230905.000			-9.944			-3.315
231004.000			-9.942			-3.314
231104.000			-9.941			-3.314
231205.000			-9.942			-3.314
231304.000			-9.943			-3.314
231403.000			-9.943			-3.314
231505.000			-9.942			-3.314
231604.000			-9.942			-3.314
231704.000			-9.943			-3.314
231805.000			-9.942			-3.314
231904.000			-9.941			-3.314
232005.000			-9.941			-3.314
232104.000			-9.941			-3.314
232204.000			-9.942			-3.314
232304.000			-9.941			-3.314
232404.000			-9.940			-3.313
232504.000			-9.941			-3.314
232605.000			-9.940			-3.313
232704.000			-9.940			-3.313
232804.000			-9.939			-3.313
232905.000			-9.940			-3.313
233004.000			-9.940			-3.313
233104.000			-9.940			-3.313
233204.000			-9.940			-3.313
233304.000			-9.941			-3.314
233404.000			-9.940			-3.313
233505.000			-9.941			-3.314
233604.000			-9.940			-3.313
233704.000			-9.939			-3.313
233805.000			-9.940			-3.313
233904.000			-9.940			-3.313
234004.000			-9.939			-3.313
234104.000			-9.939			-3.313
234204.000			-9.939			-3.313
234304.000			-9.940			-3.313
234405.000			-9.940			-3.313
234504.000			-9.939			-3.313
234604.000			-9.938			-3.313
234705.000			-9.938			-3.313
234804.000			-9.938			-3.313
234904.000			-9.939			-3.313
235003.000			-9.938			-3.313
235104.000			-9.939			-3.313
235205.000			-9.938			-3.313
235304.000			-9.938			-3.313
235404.000			-9.939			-3.313
235505.000			-9.938			-3.313
235604.000			-9.938			-3.313
235704.000			-9.938			-3.313
235805.000			-9.938			-3.313
235903.000			-9.938			-3.313
236004.000			-9.937			-3.312
236104.000			-9.937			-3.312
236204.000			-9.938			-3.313
236304.000			-9.938			-3.313
236405.000			-9.938			-3.313
236504.000			-9.937			-3.312
236604.000			-9.937			-3.312
236705.000			-9.937			-3.312
236803.000			-9.937			-3.312
236904.000			-9.937			-3.312
237004.000			-9.937			-3.312
237104.000			-9.937			-3.312
237204.000			-9.935			-3.312
237305.000			-9.935			-3.312
237404.000			-9.937			-3.312
237504.000			-9.936			-3.312
237605.000			-9.935			-3.312
237703.000			-9.936			-3.312
237804.000			-9.937			-3.312
237904.000			-9.936			-3.312
238004.000			-9.935			-3.312
238104.000			-9.935			-3.312
238204.000			-9.935			-3.312
238304.000			-9.935			-3.312
238405.000			-9.935			-3.312
238504.000			-9.935			-3.312
238604.000			-9.935			-3.312
238705.000			-9.935			-3.312
238803.000			-9.935			-3.312
238904.000			-9.935			-3.312
239005.000			-9.935			-3.312
239104.000			-9.935			-3.312
239204.000			-9.935			-3.312
239305.000			-9.935			-3.312
239404.000			-9.934			-3.311
239504.000			-9.934			-3.311
239605.000			-9.933			-3.311
239703.000			-9.933			-3.311
239804.000			-9.934			-3.311
239904.000			-9.934			-3.311
240004.000			-9.934			-3.311
240104.000			-9.933			-3.311
240205.000			-9.934			-3.311
240304.000			-9.934			-3.311
240404.000			-9.933			-3.311
240505.000			-9.933			-3.311
240603.000			-9.933			-3.311
240704.000			-9.933			-3.311
240805.000			-9.933			-3.311
240904.000			-9.932			-3.311
241004.000			-9.932			-3.311
241105.000			-9.933			-3.311
241204.000			-9.932			-3.311
241304.000			-9.932			-3.311
241405.000			-9.932			-3.311
241503.000			-9.932			-3.311
241605.000			-9.932			-3.311
241704.000			-9.932			-3.311
241804.000			-9.931			-3.310
241905.000			-9.931			-3.310
242004.000			-9.931			-3.310
242104.000			-9.932			-3.311
242205.000			-9.931			-3.310
242304.000			-9.931			-3.310
242403.000			-9.931			-3.310
242505.000			-9.931			-3.310
242604.000			-9.931			-3.310
242704.000			-9.931			-3.310
242805.000			-9.930			-3.310
242904.000			-9.931			-3.310
243004.000			-9.930			-3.310
243105.000			-9.930			-3.310
243204.000			-9.929			-3.310
243303.000			-9.930			-3.310
243405.000			-9.930			-3.310
243504.000			-9.931			-3.310
243604.000			-9.931			-3.310
243705.000			-9.930			-3.310
243804.000			-9.930			-3.310
243904.000			-9.930			-3.310
244005.000			-9.929			-3.310
244104.000			-9.929			-3.310
244203.000			-9.929			-3.310
244305.000			-9.929			-3.310
244404.000			-9.930			-3.310
244504.000			-9.930			-3.310
244605.000			-9.929			-3.310
244704.000			-9.928			-3.309
244805.000			-9.929			-3.310
244904.000			-9.930			-3.310
245004.000			-9.929			-3.310
245104.000			-9.930			-3.310
245204.000			-9.930			-3.310
245304.000			-9.929			-3.310
245405.000			-9.928			-3.309
245504.000			-9.928			-3.309
245604.000			-9.929			-3.310
245705.000			-9.929			-3.310
245804.000			-9.929			-3.310
245904.000			-9.928			-3.309
246004.000			-9.928			-3.309
246104.000			-9.928			-3.309
246203.000			-9.928			-3.309
246305.000			-9.928			-3.309
246404.000			-9.927			-3.309
246504.000			-9.926			-3.309
246605.000			-9.928			-3.309
246704.000			-9.928			-3.309
246804.000			-9.928			-3.309
246904.000			-9.927			-3.309
247004.000			-9.928			-3.309
247103.000			-9.929			-3.310
247205.000			-9.929			-3.310
247304.000			-9.928			-3.309
247404.000			-9.927			-3.309
247505.000			-9.927			-3.309
247604.000			-9.926			-3.309
247704.000			-9.927			-3.309
247804.000			-9.926			-3.309
247904.000			-9.927			-3.309
248003.000			-9.927			-3.309
248104.000			-9.926			-3.309
248204.000			-9.927			-3.309
248305.000			-9.927			-3.309
248404.000			-9.926			-3.309
248504.000			-9.926			-3.309
248605.000			-9.926			-3.309
248704.000			-9.926			-3.309
248804.000			-9.925			-3.308
248904.000			-9.925			-3.308
249004.000			-9.925			-3.308
249103.000			-9.925			-3.308
249205.000			-9.926			-3.309
249304.000			-9.925			-3.308
249404.000			-9.925			-3.308
249505.000			-9.924			-3.308
249604.000			-9.925			-3.308
249704.000			-9.924			-3.308
249804.000			-9.924			-3.308
249904.000			-9.925			-3.308
250003.000			-9.923			-3.308
250105.000			-9.923			-3.308
250204.000			-9.924			-3.308
250304.000			-9.925			-3.308
250405.000			-9.924			-3.308
250504.000			-9.923			-3.308
250604.000			-9.923			-3.308
250704.000			-9.923			-3.308
250804.000			-9.923			-3.308
250903.000			-9.923			-3.308
251005.000			-9.923			-3.308
251104.000			-9.925			-3.308
251205.000			-9.924			-3.308
251304.000			-9.923			-3.308
251404.000			-9.923			-3.308
251505.000			-9.922			-3.307
251603.000			-9.922			-3.307
251704.000			-9.922			-3.307
251805.000			-9.923			-3.308
251904.000			-9.922			-3.307
252004.000			-9.923			-3.308
252105.000			-9.922			-3.307
252204.000			-9.922			-3.307
252304.000			-9.921			-3.307
252405.000			-9.923			-3.308
252503.000			-9.922			-3.307
252604.000			-9.921			-3.307
252705.000			-9.922			-3.307
252804.000			-9.922			-3.307
252904.000			-9.923			-3.308
253005.000			-9.923			-3.308
253104.000			-9.922			-3.307
253204.000			-9.923			-3.308
253305.000			-9.921			-3.307
253403.000			-9.921			-3.307
253504.000			-9.922			-3.307
253605.000			-9.921			-3.307
253704.000			-9.920			-3.307
253804.000			-9.921			-3.307
253905.000			-9.921			-3.307
254004.000			-9.921			-3.307
254104.000			-9.920			-3.307
254205.000			-9.920			-3.307
254303.000			-9.920			-3.307
254405.000			-9.920			-3.307
254504.000			-9.919			-3.306
254604.000			-9.919			-3.306
254705.000			-9.919			-3.306
254804.000			-9.919			-3.306
254904.000			-9.919			-3.306
255005.000			-9.918			-3.306
255104.000			-9.919			-3.306
255203.000			-9.920			-3.307
255305.000			-9.918			-3.306
255404.000			-9.919			-3.306
255504.000			-9.919			-3.306
255605.000			-9.919			-3.306
255704.000			-9.919			-3.306
255804.000			-9.919			-3.306
255905.000			-9.919			-3.306
256004.000			-9.919			-3.306
256103.000			-9.918			-3.306
256205.000			-9.918			-3.306
256303.000			-9.919			-3.306
256404.000			-9.918			-3.306
256505.000			-9.918			-3.306
256604.000			-9.918			-3.306
256704.000			-9.917			-3.306
256805.000			-9.918			-3.306
256904.000			-9.918			-3.306
257004.000			-9.917			-3.306
257105.000			-9.917			-3.306
257203.000			-9.916			-3.305
257304.000			-9.917			-3.306
257405.000			-9.917			-3.306
257504.000			-9.917			-3.306
257605.000			-9.917			-3.306
257704.000			-9.916			-3.305
257804.000			-9.918			-3.306
257905.000			-9.917			-3.306
258004.000			-9.917			-3.306
258103.000			-9.917			-3.306
258205.000			-9.917			-3.306
258304.000			-9.917			-3.306
258404.000			-9.917			-3.306
258505.000			-9.916			-3.305
258604.000			-9.916			-3.305
258704.000			-9.916			-3.305
258805.000			-9.916			-3.305
258904.000			-9.916			-3.305
259003.000			-9.917			-3.306
259105.000			-9.917			-3.306
259203.000			-9.915			-3.305
259304.000			-9.916			-3.305
259405.000			-9.916			-3.305
259504.000			-9.916			-3.305
259604.000			-9.915			-3.305
259705.000			-9.915			-3.305
259804.000			-9.915			-3.305
259904.000			-9.915			-3.305
260005.000			-9.915			-3.305
260103.000			-9.916			-3.305
260204.000			-9.916			-3.305
260305.000			-9.915			-3.305
260404.000			-9.915			-3.305
260504.000			-9.914			-3.305
260604.000			-9.915			-3.305
260704.000			-9.914			-3.305
260803.000			-9.915			-3.305
260904.000			-9.915			-3.305
261003.000			-9.914			-3.305
261105.000			-9.915			-3.305
261204.000			-9.914			-3.305
261304.000			-9.913			-3.304
261405.000			-9.913			-3.304
261504.000			-9.913			-3.304
261604.000			-9.913			-3.304
261704.000			-9.913			-3.304
261804.000			-9.912			-3.304
261903.000			-9.912			-3.304
262005.000			-9.913			-3.304
262104.000			-9.914			-3.305
262204.000			-9.913			-3.304
262305.000			-9.913			-3.304
262404.000			-9.913			-3.304
262504.000			-9.914			-3.305
262604.000			-9.913			-3.304
262704.000			-9.913			-3.304
262804.000			-9.912			-3.304
262905.000			-9.912			-3.304
263004.000			-9.912			-3.304
263104.000			-9.913			-3.304
263205.000			-9.912			-3.304
263304.000			-9.912			-3.304
263404.000			-9.912			-3.304
263504.000			-9.912			-3.304
263604.000			-9.911			-3.304
263704.000			-9.911			-3.304
263804.000			-9.911			-3.304
263904.000			-9.911			-3.304
264005.000			-9.911			-3.304
264104.000			-9.911			-3.304
264204.000			-9.911			-3.304
264305.000			-9.911			-3.304
264403.000			-9.910			-3.303
264504.000			-9.910			-3.303
264605.000			-9.910			-3.303
264704.000			-9.910			-3.303
264804.000			-9.910			-3.303
264905.000			-9.910			-3.303
265004.000			-9.911			-3.304
265103.000			-9.909			-3.303
265205.000			-9.909			-3.303
265303.000			-9.909			-3.303
265404.000			-9.910			-3.303
265505.000			-9.910			-3.303
265604.000			-9.910			-3.303
265704.000			-9.910			-3.303
265805.000			-9.909			-3.303
265904.000			-9.909			-3.303
266004.000			-9.909			-3.303
266105.000			-9.909			-3.303
266203.000			-9.909			-3.303
266304.000			-9.910			-3.303
266405.000			-9.910			-3.303
266504.000			-9.909			-3.303
266604.000			-9.910			-3.303
266705.000			-9.909			-3.303
266804.000			-9.909			-3.303
266904.000			-9.909			-3.303
267005.000			-9.909			-3.303
267103.000			-9.909			-3.303
267205.000			-9.909			-3.303
267304.000			-9.909			-3.303
267404.000			-9.908			-3.303
267505.000			-9.908			-3.303
267604.000			-9.908			-3.303
267704.000			-9.908			-3.303
267805.000			-9.909			-3.303
267904.000			-9.909			-3.303
268003.000			-9.909			-3.303
268105.000			-9.908			-3.303
268203.000			-9.908			-3.303
268304.000			-9.907			-3.302
268405.000			-9.907			-3.302
268504.000			-9.908			-3.303
268604.000			-9.908			-3.303
268705.000			17.191			5.730
268880.000			-9.908			-3.303
268968.000			-9.907			-3.302
269056.000			-9.907			-3.302
269144.000			-9.908			-3.303
269232.000			-9.907			-3.302
269320.000			-9.906			-3.302
269408.000			-9.906			-3.302
269504.000			-9.907			-3.302
269605.000			-9.906			-3.302
269704.000			-9.906			-3.302
269804.000			-9.906			-3.302
269905.000			-9.906			-3.302
270003.000			-9.906			-3.302
270104.000			-9.906			-3.302
270205.000			-9.907			-3.302
270304.000			-9.906			-3.302
270405.000			-9.906			-3.302
270504.000			-9.907			-3.302
270604.000			-9.907			-3.302
270705.000			-9.907			-3.302
270804.000			-9.907			-3.302
270903.000			-9.905			-3.302
271005.000			-9.905			-3.302
271104.000			-9.905			-3.302
271204.000			-9.906			-3.302
271305.000			-9.906			-3.302
271404.000			-9.906			-3.302
271504.000			-9.905			-3.302
271605.000			-9.905			-3.302
271704.000			-9.905			-3.302
271803.000			-9.905			-3.302
271905.000			-9.905			-3.302
272004.000			-9.904			-3.301
272104.000			-9.904			-3.301
272205.000			-9.905			-3.302
272304.000			-9.905			-3.302
272404.000			-9.905			-3.302
272505.000			-9.904			-3.301
272604.000			-9.903			-3.301
272703.000			-9.903			-3.301
272805.000			-9.904			-3.301
272904.000			-9.904			-3.301
273004.000			-9.904			-3.301
273105.000			-9.903			-3.301
273204.000			-9.903			-3.301
273304.000			-9.903			-3.301
273404.000			-9.903			-3.301
273504.000			-9.903			-3.301
273603.000			-9.903			-3.301
273704.000			-9.904			-3.301
273804.000			-9.903			-3.301
273905.000			-9.903			-3.301
274004.000			-9.902			-3.301
274104.000			-9.902			-3.301
274205.000			-9.903			-3.301
274303.000			-9.902			-3.301
274404.000			-9.902			-3.301
274504.000			-9.902			-3.301
274604.000			-9.902			-3.301
274704.000			-9.902			-3.301
274805.000			-9.903			-3.301
274904.000			-9.902			-3.301
275004.000			-9.902			-3.301
275105.000			-9.902			-3.301
275203.000			-9.902			-3.301
275304.000			-9.901			-3.300
275404.000			-9.901			-3.300
275504.000			-9.901			-3.300
275604.000			-9.902			-3.301
275705.000			-9.901			-3.300
275804.000			-9.901			-3.300
275904.000			-9.901			-3.300
276005.000			-9.902			-3.301
276103.000			-9.901			-3.300
276204.000			-9.901			-3.300
276305.000			-9.901			-3.300
276404.000			-9.901			-3.300
276504.000			-9.901			-3.300
276604.000			-9.900			-3.300
276704.000			-9.900			-3.300
276805.000			-9.900			-3.300
276904.000			-9.901			-3.300
277003.000			-9.900			-3.300
277105.000			-9.901			-3.300
277204.000			-9.901			-3.300
277304.000			-9.900			-3.300
277405.000			-9.900			-3.300
277504.000			-9.899			-3.300
277604.000			-9.900			-3.300
277705.000			-9.900			-3.300
277804.000			-9.900			-3.300
277903.000			-9.900			-3.300
278005.000			-9.900			-3.300
278103.000			-9.899			-3.300
278204.000			-9.900			-3.300
278305.000			-9.901			-3.300
278404.000			-9.901			-3.300
278504.000			-9.899			-3.300
278605.000			-9.899			-3.300
278704.000			-9.898			-3.299
278804.000			-9.898			-3.299
278905.000			-9.899			-3.300
279003.000			-9.899			-3.300
279104.000			-9.899			-3.300
279204.000			-9.899			-3.300
279304.000			-9.899			-3.300
279404.000			-9.898			-3.299
279505.000			-9.897			-3.299
279604.000			-9.897			-3.299
279704.000			-9.899			-3.300
279805.000			-9.899			-3.300
279904.000			-9.898			-3.299
280005.000			-9.898			-3.299
280103.000			-9.897			-3.299
280204.000			-9.898			-3.299
280304.000			-9.898			-3.299
280404.000			-9.897			-3.299
280504.000			-9.898			-3.299
280605.000			-9.898			-3.299
280704.000			-9.897			-3.299
280804.000			-9.898			-3.299
280905.000			-9.898			-3.299
281004.000			-9.897			-3.299
281104.000			-9.897			-3.299
281204.000			-9.897			-3.299
281304.000			-9.897			-3.299
281404.000			-9.897			-3.299
281505.000			-9.897			-3.299
281604.000			-9.896			-3.299
281704.000			-9.896			-3.299
281805.000			-9.896			-3.299
281904.000			-9.897			-3.299
282004.000			-9.896			-3.299
282104.000			-9.897			-3.299
282204.000			-9.897			-3.299
282303.000			-9.896			-3.299
282405.000			-9.896			-3.299
282504.000			-9.896			-3.299
282604.000			-9.896			-3.299
282705.000			-9.894			-3.298
282804.000			-9.895			-3.298
282904.000			-9.895			-3.298
283004.000			-9.895			-3.298
283104.000			-9.895			-3.298
283203.000			-9.894			-3.298
283304.000			-9.895			-3.298
283404.000			-9.896			-3.299
283505.000			-9.895			-3.298
283604.000			-9.895			-3.298
283704.000			-9.894			-3.298
283805.000			-9.895			-3.298
283904.000			-9.895			-3.298
284004.000			-9.894			-3.298
284104.000			-9.894			-3.298
284204.000			-9.894			-3.298
284303.000			-9.894			-3.298
284405.000			-9.894			-3.298
284504.000			-9.893			-3.298
284604.000			-9.893			-3.298
284705.000			-9.893			-3.298
284804.000			-9.893			-3.298
284904.000			-9.894			-3.298
285004.000			-9.895			-3.298
285104.000			-9.894			-3.298
285203.000			-9.893			-3.298
285305.000			-9.892			-3.297
285404.000			-9.892			-3.297
285504.000			-9.893			-3.298
285605.000			-9.893			-3.298
285704.000			-9.893			-3.298
285804.000			-9.893			-3.298
285905.000			-9.893			-3.298
286004.000			-9.892			-3.297
286103.000			-9.892			-3.297
286205.000			-9.893			-3.298
286304.000			-9.892			-3.297
286405.000			-9.892			-3.297
286504.000			-9.892			-3.297
286604.000			-9.893			-3.298
286705.000			-9.893			-3.298
286804.000			-9.892			-3.297
286904.000			-9.891			-3.297
287004.000			-9.892			-3.297
287104.000			-9.893			-3.298
287203.000			-9.892			-3.297
287305.000			-9.891			-3.297
287404.000			-9.891			-3.297
287504.000			-9.891			-3.297
287605.000			-9.892			-3.297
287704.000			-9.892			-3.297
287804.000			-9.891			-3.297
287905.000			-9.890			-3.297
288004.000			-9.891			-3.297
288103.000			-9.892			-3.297
288205.000			-9.890			-3.297
288304.000			-9.890			-3.297
288404.000			-9.890			-3.297
288505.000			-9.891			-3.297
288604.000			-9.891			-3.297
288704.000			-9.891			-3.297
288805.000			-9.890			-3.297
288904.000			-9.888			-3.296
289003.000			-9.889			-3.296
289105.000			-9.889			-3.296
289203.000			-9.889			-3.296
289304.000			-9.890			-3.297
289405.000			-9.890			-3.297
289504.000			-9.890			-3.297
289605.000			-9.890			-3.297
289704.000			-9.891			-3.297
289804.000			-9.890			-3.297
289905.000			-9.890			-3.297
290004.000			-9.889			-3.296
290103.000			-9.889			-3.296
290205.000			-9.889			-3.296
290304.000			-9.889			-3.296
290404.000			-9.889			-3.296
290505.000			-9.889			-3.296
290604.000			-9.891			-3.297
290704.000			-9.890			-3.297
290805.000			-9.889			-3.296
290904.000			-9.889			-3.296
291003.000			-9.889			-3.296
291105.000			-9.888			-3.296
291203.000			-9.887			-3.296
291304.000			-9.888			-3.296
291405.000			-9.888			-3.296
291504.000			-9.888			-3.296
291604.000			-9.888			-3.296
291705.000			-9.888			-3.296
291804.000			-9.887			-3.296
291904.000			-9.887			-3.296
292005.000			-9.888			-3.296
292103.000			-9.888			-3.296
292204.000			-9.888			-3.296
292305.000			-9.888			-3.296
292404.000			-9.887			-3.296
292504.000			-9.887			-3.296
292604.000			-9.887			-3.296
292704.000			-9.888			-3.296
292805.000			-9.887			-3.296
292904.000			-9.887			-3.296
293004.000			-9.887			-3.296
293105.000			-9.887			-3.296
293203.000			-9.887			-3.296
293304.000			-9.886			-3.295
293405.000			-9.886			-3.295
293504.000			-9.887			-3.296
293604.000			-9.887			-3.296
293705.000			-9.887			-3.296
293804.000			-9.886			-3.295
293904.000			-9.886			-3.295
294005.000			-9.886			-3.295
294103.000			-9.886			-3.295
294204.000			-9.886			-3.295
294304.000			-9.887			-3.296
294404.000			-9.886			-3.295
294504.000			-9.886			-3.295
294605.000			-9.886			-3.295
294704.000			-9.885			-3.295
294804.000			-9.886			-3.295
294905.000			-9.885			-3.295
295004.000			-9.885			-3.295
295104.000			-9.885			-3.295
295204.000			-9.885			-3.295
295304.000			-9.886			-3.295
295404.000			-9.885			-3.295
295505.000			-9.886			-3.295
295604.000			-9.885			-3.295
295704.000			-9.885			-3.295
295805.000			-9.885			-3.295
295904.000			-9.885			-3.295
296005.000			-9.884			-3.295
296103.000			-9.885			-3.295
296204.000			-9.884			-3.295
296304.000			-9.884			-3.295
296404.000			-9.884			-3.295
296504.000			-9.884			-3.295
296605.000			-9.884			-3.295
296704.000			-9.884			-3.295
296804.000			-9.884			-3.295
296905.000			-9.884			-3.295
297004.000			-9.884			-3.295
297104.000			-9.883			-3.294
297204.000			-9.884			-3.295
297304.000			-9.883			-3.294
297404.000			-9.883			-3.294
297505.000			-9.883			-3.294
297604.000			-9.883			-3.294
297704.000			-9.882			-3.294
297805.000			-9.882			-3.294
297904.000			-9.882			-3.294
298004.000			-9.882			-3.294
298104.000			-9.882			-3.294
298204.000			-9.881			-3.294
298303.000			-9.881			-3.294
298405.000			-9.882			-3.294
298504.000			-9.882			-3.294
298604.000			-9.881			-3.294
298705.000			-9.882			-3.294
298804.000			-9.882			-3.294
298904.000			-9.882			-3.294
299003.000			-9.881			-3.294
299104.000			-9.881			-3.294
299203.000			-9.881			-3.294
299304.000			-9.881			-3.294
299404.000			-9.880			-3.293
299505.000			-9.880			-3.293
299604.000			-9.880			-3.293
299704.000			-9.882			-3.294
299805.000			-9.882			-3.294
299904.000			-9.882			-3.294
