# Acquired on 10/01/2024 09:36:10 
# SPIDER: Creep_10mm_07714532C-2
# CREEP MEASUREMENT

# time [ms]		force [N]		stiffness [N/mm]
0.000			-36.758			-3.676
100.000			-37.954			-3.795
200.000			-38.263			-3.826
302.000			-38.080			-3.808
401.000			-37.888			-3.789
500.000			-37.746			-3.775
601.000			-37.628			-3.763
700.000			-37.439			-3.744
800.000			-37.359			-3.736
901.000			-37.287			-3.729
1001.000			-37.222			-3.722
1101.000			-37.163			-3.716
1201.000			-37.107			-3.711
1300.000			-37.054			-3.705
1400.000			-36.961			-3.696
1500.000			-36.918			-3.692
1600.000			-36.877			-3.688
1701.000			-36.839			-3.684
1801.000			-36.802			-3.680
1901.000			-36.767			-3.677
2001.000			-36.733			-3.673
2100.000			-36.669			-3.667
2200.000			-36.639			-3.664
2301.000			-36.610			-3.661
2400.000			-36.583			-3.658
2500.000			-36.557			-3.656
2602.000			-36.531			-3.653
2701.000			-36.506			-3.651
2800.000			-36.482			-3.648
2901.000			-36.437			-3.644
3000.000			-36.414			-3.641
3100.000			-36.393			-3.639
3201.000			-36.372			-3.637
3301.000			-36.351			-3.635
3401.000			-36.331			-3.633
3501.000			-36.312			-3.631
3600.000			-36.274			-3.627
3700.000			-36.257			-3.626
3801.000			-36.239			-3.624
3900.000			-36.221			-3.622
4000.000			-36.204			-3.620
4102.000			-36.187			-3.619
4201.000			-36.171			-3.617
4300.000			-36.141			-3.614
4401.000			-36.124			-3.612
4500.000			-36.109			-3.611
4600.000			-36.095			-3.610
4700.000			-36.081			-3.608
4800.000			-36.067			-3.607
4902.000			-36.054			-3.605
5001.000			-36.039			-3.604
5100.000			-36.012			-3.601
5201.000			-35.998			-3.600
5300.000			-35.987			-3.599
5400.000			-35.975			-3.597
5501.000			-35.962			-3.596
5601.000			-35.949			-3.595
5701.000			-35.938			-3.594
5801.000			-35.913			-3.591
5900.000			-35.902			-3.590
6000.000			-35.890			-3.589
6101.000			-35.879			-3.588
6200.000			-35.868			-3.587
6300.000			-35.858			-3.586
6402.000			-35.846			-3.585
6501.000			-35.825			-3.583
6600.000			-35.815			-3.582
6701.000			-35.804			-3.580
6800.000			-35.795			-3.579
6900.000			-35.786			-3.579
7001.000			-35.776			-3.578
7100.000			-35.767			-3.577
7201.000			-35.757			-3.576
7302.000			-35.738			-3.574
7400.000			-35.729			-3.573
7500.000			-35.720			-3.572
7601.000			-35.710			-3.571
7700.000			-35.702			-3.570
7800.000			-35.693			-3.569
7900.000			-35.684			-3.568
8001.000			-35.667			-3.567
8102.000			-35.659			-3.566
8200.000			-35.651			-3.565
8300.000			-35.643			-3.564
8401.000			-35.635			-3.563
8500.000			-35.627			-3.563
8600.000			-35.618			-3.562
8701.000			-35.611			-3.561
8801.000			-35.595			-3.559
8901.000			-35.587			-3.559
9001.000			-35.580			-3.558
9100.000			-35.572			-3.557
9200.000			-35.564			-3.556
9301.000			-35.556			-3.556
9400.000			-35.549			-3.555
9500.000			-35.534			-3.553
9602.000			-35.526			-3.553
9701.000			-35.520			-3.552
9800.000			-35.513			-3.551
9901.000			-35.506			-3.551
10000.000			-35.499			-3.550
10100.000			-35.492			-3.549
10201.000			-35.479			-3.548
10300.000			-35.471			-3.547
10401.000			-35.466			-3.547
10502.000			-35.460			-3.546
10600.000			-35.452			-3.545
10700.000			-35.446			-3.545
10801.000			-35.440			-3.544
10900.000			-35.433			-3.543
11000.000			-35.420			-3.542
11100.000			-35.414			-3.541
11201.000			-35.409			-3.541
11302.000			-35.401			-3.540
11400.000			-35.395			-3.539
11500.000			-35.389			-3.539
11601.000			-35.384			-3.538
11700.000			-35.371			-3.537
11800.000			-35.366			-3.537
11901.000			-35.361			-3.536
12001.000			-35.355			-3.536
12101.000			-35.350			-3.535
12201.000			-35.343			-3.534
12300.000			-35.338			-3.534
12400.000			-35.327			-3.533
12501.000			-35.320			-3.532
12600.000			-35.315			-3.532
12701.000			-35.311			-3.531
12802.000			-35.305			-3.530
12900.000			-35.299			-3.530
13000.000			-35.295			-3.529
13101.000			-35.289			-3.529
13200.000			-35.279			-3.528
13300.000			-35.273			-3.527
13401.000			-35.267			-3.527
13501.000			-35.262			-3.526
13601.000			-35.257			-3.526
13701.000			-35.252			-3.525
13800.000			-35.248			-3.525
13900.000			-35.238			-3.524
14001.000			-35.231			-3.523
14100.000			-35.227			-3.523
14200.000			-35.222			-3.522
14302.000			-35.218			-3.522
14401.000			-35.213			-3.521
14501.000			-35.208			-3.521
14600.000			-35.199			-3.520
14700.000			-35.194			-3.519
14801.000			-35.189			-3.519
14900.000			-35.184			-3.518
15000.000			-35.180			-3.518
15102.000			-35.176			-3.518
15201.000			-35.170			-3.517
15301.000			-35.165			-3.517
15401.000			-35.156			-3.516
15500.000			-35.152			-3.515
15600.000			-35.147			-3.515
15701.000			-35.144			-3.514
15800.000			-35.139			-3.514
15901.000			-35.134			-3.513
16002.000			-35.130			-3.513
16100.000			-35.121			-3.512
16200.000			-35.117			-3.512
16301.000			-35.113			-3.511
16400.000			-35.109			-3.511
16500.000			-35.105			-3.511
16601.000			-35.101			-3.510
16701.000			-35.097			-3.510
16801.000			-35.087			-3.509
16901.000			-35.084			-3.508
17000.000			-35.080			-3.508
17100.000			-35.076			-3.508
17201.000			-35.073			-3.507
17300.000			-35.068			-3.507
17400.000			-35.064			-3.506
17502.000			-35.059			-3.506
17601.000			-35.052			-3.505
17701.000			-35.048			-3.505
17800.000			-35.044			-3.504
17900.000			-35.040			-3.504
18001.000			-35.036			-3.504
18100.000			-35.033			-3.503
18200.000			-35.029			-3.503
18302.000			-35.020			-3.502
18401.000			-35.016			-3.502
18500.000			-35.013			-3.501
18601.000			-35.008			-3.501
18700.000			-35.005			-3.501
18800.000			-35.002			-3.500
18901.000			-34.998			-3.500
19000.000			-34.989			-3.499
19101.000			-34.985			-3.498
19202.000			-34.982			-3.498
19300.000			-34.979			-3.498
19400.000			-34.976			-3.498
19501.000			-34.972			-3.497
19600.000			-34.968			-3.497
19700.000			-34.965			-3.497
19801.000			-34.958			-3.496
19901.000			-34.955			-3.496
20001.000			-34.952			-3.495
20101.000			-34.948			-3.495
20200.000			-34.945			-3.494
20300.000			-34.941			-3.494
20401.000			-34.938			-3.494
20500.000			-34.931			-3.493
20600.000			-34.927			-3.493
20702.000			-34.924			-3.492
20801.000			-34.921			-3.492
20902.000			-34.917			-3.492
21000.000			-34.914			-3.491
21100.000			-34.911			-3.491
21201.000			-34.904			-3.490
21300.000			-34.901			-3.490
21400.000			-34.898			-3.490
21502.000			-34.894			-3.489
21601.000			-34.891			-3.489
21700.000			-34.888			-3.489
21801.000			-34.885			-3.489
21900.000			-34.881			-3.488
22000.000			-34.877			-3.488
22101.000			-34.873			-3.487
22200.000			-34.870			-3.487
22301.000			-34.866			-3.487
22402.000			-34.863			-3.486
22501.000			-34.860			-3.486
22600.000			-34.858			-3.486
22701.000			-34.851			-3.485
22800.000			-34.847			-3.485
22900.000			-34.844			-3.484
23001.000			-34.842			-3.484
23100.000			-34.839			-3.484
23201.000			-34.836			-3.484
23302.000			-34.832			-3.483
23400.000			-34.826			-3.483
23500.000			-34.823			-3.482
23601.000			-34.819			-3.482
23700.000			-34.816			-3.482
23800.000			-34.814			-3.481
23900.000			-34.811			-3.481
24001.000			-34.808			-3.481
24102.000			-34.806			-3.481
24200.000			-34.799			-3.480
24300.000			-34.796			-3.480
24401.000			-34.793			-3.479
24500.000			-34.791			-3.479
24600.000			-34.789			-3.479
24701.000			-34.785			-3.479
24801.000			-34.782			-3.478
24901.000			-34.776			-3.478
25001.000			-34.773			-3.477
25100.000			-34.770			-3.477
25200.000			-34.768			-3.477
25301.000			-34.765			-3.477
25400.000			-34.762			-3.476
25500.000			-34.759			-3.476
25602.000			-34.755			-3.476
25701.000			-34.752			-3.475
25800.000			-34.749			-3.475
25901.000			-34.746			-3.475
26000.000			-34.743			-3.474
26100.000			-34.741			-3.474
26201.000			-34.739			-3.474
26300.000			-34.735			-3.473
26401.000			-34.730			-3.473
26502.000			-34.727			-3.473
26600.000			-34.725			-3.472
26700.000			-34.722			-3.472
26801.000			-34.720			-3.472
26900.000			-34.717			-3.472
27000.000			-34.715			-3.471
27100.000			-34.710			-3.471
27201.000			-34.707			-3.471
27302.000			-34.704			-3.470
27400.000			-34.701			-3.470
27500.000			-34.698			-3.470
27601.000			-34.695			-3.470
27700.000			-34.693			-3.469
27800.000			-34.690			-3.469
27901.000			-34.685			-3.469
28001.000			-34.684			-3.468
28101.000			-34.682			-3.468
28202.000			-34.680			-3.468
28300.000			-34.676			-3.468
28400.000			-34.674			-3.467
28501.000			-34.672			-3.467
28600.000			-34.666			-3.467
28700.000			-34.664			-3.466
28801.000			-34.661			-3.466
28901.000			-34.659			-3.466
29001.000			-34.656			-3.466
29101.000			-34.654			-3.465
29200.000			-34.651			-3.465
29300.000			-34.647			-3.465
29401.000			-34.645			-3.464
29500.000			-34.641			-3.464
29600.000			-34.639			-3.464
29702.000			-34.637			-3.464
29801.000			-34.635			-3.464
29900.000			-34.633			-3.463
30001.000			-34.630			-3.463
30100.000			-34.625			-3.463
30200.000			-34.622			-3.462
30300.000			-34.619			-3.462
30400.000			-34.619			-3.462
30502.000			-34.617			-3.462
30601.000			-34.614			-3.461
30700.000			-34.612			-3.461
30801.000			-34.607			-3.461
30900.000			-34.605			-3.460
31000.000			-34.602			-3.460
31101.000			-34.599			-3.460
31201.000			-34.598			-3.460
31301.000			-34.595			-3.460
31402.000			-34.592			-3.459
31500.000			-34.589			-3.459
31600.000			-34.586			-3.459
31701.000			-34.584			-3.458
31800.000			-34.582			-3.458
31900.000			-34.579			-3.458
32001.000			-34.579			-3.458
32101.000			-34.576			-3.458
32201.000			-34.574			-3.457
32301.000			-34.568			-3.457
32400.000			-34.566			-3.457
32500.000			-34.564			-3.456
32601.000			-34.562			-3.456
32700.000			-34.560			-3.456
32800.000			-34.558			-3.456
32902.000			-34.557			-3.456
33001.000			-34.551			-3.455
33100.000			-34.549			-3.455
33201.000			-34.547			-3.455
33300.000			-34.546			-3.455
33400.000			-34.543			-3.454
33500.000			-34.540			-3.454
33600.000			-34.539			-3.454
33702.000			-34.535			-3.453
33801.000			-34.533			-3.453
33900.000			-34.531			-3.453
34001.000			-34.528			-3.453
34100.000			-34.527			-3.453
34200.000			-34.524			-3.452
34301.000			-34.522			-3.452
34400.000			-34.520			-3.452
34501.000			-34.516			-3.452
34602.000			-34.514			-3.451
34700.000			-34.513			-3.451
34800.000			-34.511			-3.451
34901.000			-34.507			-3.451
35000.000			-34.505			-3.451
35100.000			-34.504			-3.450
35201.000			-34.501			-3.450
35301.000			-34.499			-3.450
35401.000			-34.497			-3.450
35501.000			-34.495			-3.449
35600.000			-34.492			-3.449
35700.000			-34.489			-3.449
35801.000			-34.487			-3.449
35900.000			-34.484			-3.448
36000.000			-34.483			-3.448
36102.000			-34.481			-3.448
36201.000			-34.479			-3.448
36300.000			-34.476			-3.448
36401.000			-34.475			-3.447
36500.000			-34.472			-3.447
36600.000			-34.469			-3.447
36700.000			-34.466			-3.447
36800.000			-34.463			-3.446
36902.000			-34.463			-3.446
37001.000			-34.461			-3.446
37100.000			-34.459			-3.446
37201.000			-34.456			-3.446
37300.000			-34.456			-3.446
37400.000			-34.452			-3.445
37501.000			-34.450			-3.445
37600.000			-34.448			-3.445
37701.000			-34.446			-3.445
37802.000			-34.444			-3.444
37900.000			-34.442			-3.444
38000.000			-34.440			-3.444
38101.000			-34.438			-3.444
38200.000			-34.434			-3.443
38300.000			-34.432			-3.443
38401.000			-34.432			-3.443
38501.000			-34.430			-3.443
38601.000			-34.427			-3.443
38701.000			-34.425			-3.443
38800.000			-34.423			-3.442
38900.000			-34.420			-3.442
39001.000			-34.418			-3.442
39100.000			-34.416			-3.442
39200.000			-34.414			-3.441
39302.000			-34.413			-3.441
39401.000			-34.411			-3.441
39500.000			-34.409			-3.441
39601.000			-34.405			-3.440
39700.000			-34.403			-3.440
39800.000			-34.402			-3.440
39900.000			-34.400			-3.440
40000.000			-34.398			-3.440
40102.000			-34.396			-3.440
40201.000			-34.394			-3.439
40300.000			-34.392			-3.439
40401.000			-34.390			-3.439
40500.000			-34.388			-3.439
40600.000			-34.385			-3.439
40701.000			-34.383			-3.438
40800.000			-34.382			-3.438
40901.000			-34.380			-3.438
41002.000			-34.378			-3.438
41100.000			-34.375			-3.437
41200.000			-34.372			-3.437
41301.000			-34.371			-3.437
41400.000			-34.369			-3.437
41500.000			-34.367			-3.437
41601.000			-34.366			-3.437
41701.000			-34.365			-3.436
41801.000			-34.361			-3.436
41901.000			-34.359			-3.436
42000.000			-34.358			-3.436
42100.000			-34.356			-3.436
42201.000			-34.354			-3.435
42300.000			-34.352			-3.435
42400.000			-34.352			-3.435
42502.000			-34.351			-3.435
42601.000			-34.347			-3.435
42700.000			-34.344			-3.434
42801.000			-34.342			-3.434
42900.000			-34.340			-3.434
43000.000			-34.339			-3.434
43100.000			-34.337			-3.434
43200.000			-34.336			-3.434
43302.000			-34.333			-3.433
43401.000			-34.331			-3.433
43500.000			-34.329			-3.433
43601.000			-34.328			-3.433
43700.000			-34.327			-3.433
43800.000			-34.324			-3.432
43901.000			-34.323			-3.432
44001.000			-34.320			-3.432
44101.000			-34.319			-3.432
44201.000			-34.318			-3.432
44300.000			-34.316			-3.432
44400.000			-34.314			-3.431
44501.000			-34.312			-3.431
44600.000			-34.310			-3.431
44700.000			-34.308			-3.431
44802.000			-34.306			-3.431
44901.000			-34.305			-3.430
45000.000			-34.303			-3.430
45101.000			-34.301			-3.430
45200.000			-34.300			-3.430
45300.000			-34.298			-3.430
45401.000			-34.296			-3.430
45500.000			-34.295			-3.430
45601.000			-34.293			-3.429
45702.000			-34.291			-3.429
45800.000			-34.289			-3.429
45900.000			-34.288			-3.429
46001.000			-34.286			-3.429
46100.000			-34.286			-3.429
46200.000			-34.281			-3.428
46300.000			-34.280			-3.428
46401.000			-34.279			-3.428
46502.000			-34.277			-3.428
46600.000			-34.274			-3.427
46700.000			-34.273			-3.427
46801.000			-34.272			-3.427
46900.000			-34.270			-3.427
47000.000			-34.267			-3.427
47101.000			-34.266			-3.427
47201.000			-34.265			-3.427
47301.000			-34.262			-3.426
47401.000			-34.262			-3.426
47500.000			-34.259			-3.426
47600.000			-34.258			-3.426
47701.000			-34.255			-3.426
47800.000			-34.254			-3.425
47900.000			-34.252			-3.425
48002.000			-34.251			-3.425
48101.000			-34.249			-3.425
48201.000			-34.248			-3.425
48301.000			-34.246			-3.425
48400.000			-34.244			-3.424
48500.000			-34.242			-3.424
48601.000			-34.241			-3.424
48700.000			-34.239			-3.424
48800.000			-34.237			-3.424
48902.000			-34.236			-3.424
49001.000			-34.234			-3.423
49100.000			-34.233			-3.423
49201.000			-34.231			-3.423
49300.000			-34.229			-3.423
49400.000			-34.228			-3.423
49500.000			-34.226			-3.423
49600.000			-34.225			-3.422
49702.000			-34.223			-3.422
49801.000			-34.221			-3.422
49900.000			-34.220			-3.422
50001.000			-34.217			-3.422
50100.000			-34.216			-3.422
50200.000			-34.215			-3.422
50301.000			-34.214			-3.421
50401.000			-34.212			-3.421
50501.000			-34.209			-3.421
50601.000			-34.207			-3.421
50700.000			-34.207			-3.421
50800.000			-34.205			-3.421
50901.000			-34.203			-3.420
51000.000			-34.202			-3.420
51100.000			-34.202			-3.420
51202.000			-34.199			-3.420
51301.000			-34.197			-3.420
51400.000			-34.195			-3.420
51501.000			-34.194			-3.419
51600.000			-34.193			-3.419
51700.000			-34.191			-3.419
51801.000			-34.190			-3.419
51900.000			-34.187			-3.419
52001.000			-34.187			-3.419
52102.000			-34.184			-3.418
52200.000			-34.182			-3.418
52300.000			-34.182			-3.418
52401.000			-34.181			-3.418
52500.000			-34.179			-3.418
52600.000			-34.178			-3.418
52700.000			-34.176			-3.418
52801.000			-34.175			-3.417
52902.000			-34.173			-3.417
53000.000			-34.171			-3.417
53100.000			-34.170			-3.417
53201.000			-34.169			-3.417
53300.000			-34.167			-3.417
53400.000			-34.165			-3.417
53502.000			-34.165			-3.416
53601.000			-34.161			-3.416
53700.000			-34.160			-3.416
53801.000			-34.158			-3.416
53900.000			-34.157			-3.416
54000.000			-34.157			-3.416
54101.000			-34.157			-3.416
54200.000			-34.156			-3.416
54301.000			-34.151			-3.415
54402.000			-34.150			-3.415
54500.000			-34.149			-3.415
54600.000			-34.148			-3.415
54701.000			-34.147			-3.415
54800.000			-34.145			-3.414
54900.000			-34.144			-3.414
55001.000			-34.143			-3.414
55101.000			-34.140			-3.414
55201.000			-34.138			-3.414
55301.000			-34.137			-3.414
55400.000			-34.136			-3.414
55500.000			-34.134			-3.413
55601.000			-34.133			-3.413
55700.000			-34.133			-3.413
55800.000			-34.130			-3.413
55902.000			-34.128			-3.413
56001.000			-34.127			-3.413
56101.000			-34.126			-3.413
56200.000			-34.125			-3.413
56300.000			-34.124			-3.412
56401.000			-34.122			-3.412
56500.000			-34.120			-3.412
56600.000			-34.119			-3.412
56702.000			-34.118			-3.412
56801.000			-34.116			-3.412
56900.000			-34.113			-3.411
57001.000			-34.112			-3.411
57100.000			-34.111			-3.411
57200.000			-34.110			-3.411
57301.000			-34.108			-3.411
57400.000			-34.107			-3.411
57501.000			-34.106			-3.411
57602.000			-34.104			-3.410
57700.000			-34.103			-3.410
57800.000			-34.102			-3.410
57901.000			-34.101			-3.410
58000.000			-34.099			-3.410
58100.000			-34.097			-3.410
58201.000			-34.095			-3.410
58301.000			-34.094			-3.409
58401.000			-34.093			-3.409
58501.000			-34.092			-3.409
58600.000			-34.092			-3.409
58700.000			-34.089			-3.409
58801.000			-34.088			-3.409
58900.000			-34.087			-3.409
59000.000			-34.085			-3.408
59102.000			-34.083			-3.408
59201.000			-34.083			-3.408
59301.000			-34.081			-3.408
59400.000			-34.080			-3.408
59500.000			-34.079			-3.408
59601.000			-34.076			-3.408
59700.000			-34.075			-3.407
59800.000			-34.074			-3.407
59902.000			-34.073			-3.407
60001.000			-34.072			-3.407
60100.000			-34.071			-3.407
60201.000			-34.068			-3.407
60300.000			-34.067			-3.407
60400.000			-34.066			-3.407
60501.000			-34.065			-3.406
60600.000			-34.063			-3.406
60701.000			-34.063			-3.406
60802.000			-34.061			-3.406
60900.000			-34.060			-3.406
61000.000			-34.058			-3.406
61101.000			-34.056			-3.406
61200.000			-34.054			-3.405
61300.000			-34.053			-3.405
61402.000			-34.053			-3.405
61501.000			-34.052			-3.405
61600.000			-34.051			-3.405
61701.000			-34.049			-3.405
61800.000			-34.046			-3.405
61900.000			-34.045			-3.405
62001.000			-34.045			-3.405
62100.000			-34.044			-3.404
62202.000			-34.043			-3.404
62301.000			-34.042			-3.404
62400.000			-34.039			-3.404
62501.000			-34.037			-3.404
62600.000			-34.036			-3.404
62700.000			-34.034			-3.403
62801.000			-34.034			-3.403
62900.000			-34.034			-3.403
63001.000			-34.032			-3.403
63102.000			-34.030			-3.403
63200.000			-34.029			-3.403
63300.000			-34.027			-3.403
63401.000			-34.025			-3.403
63500.000			-34.026			-3.403
63600.000			-34.025			-3.402
63701.000			-34.023			-3.402
63801.000			-34.021			-3.402
63901.000			-34.020			-3.402
64001.000			-34.018			-3.402
64100.000			-34.016			-3.402
64200.000			-34.016			-3.402
64301.000			-34.016			-3.402
64400.000			-34.014			-3.401
64500.000			-34.013			-3.401
64602.000			-34.010			-3.401
64701.000			-34.008			-3.401
64800.000			-34.009			-3.401
64901.000			-34.008			-3.401
65000.000			-34.007			-3.401
65100.000			-34.005			-3.400
65201.000			-34.003			-3.400
65301.000			-34.002			-3.400
65402.000			-34.000			-3.400
65501.000			-33.999			-3.400
65600.000			-33.999			-3.400
65701.000			-33.998			-3.400
65800.000			-33.997			-3.400
65900.000			-33.995			-3.399
66001.000			-33.994			-3.399
66100.000			-33.993			-3.399
66201.000			-33.991			-3.399
66302.000			-33.990			-3.399
66400.000			-33.988			-3.399
66500.000			-33.987			-3.399
66601.000			-33.985			-3.399
66700.000			-33.985			-3.398
66800.000			-33.984			-3.398
66901.000			-33.982			-3.398
67001.000			-33.981			-3.398
67101.000			-33.979			-3.398
67202.000			-33.979			-3.398
67300.000			-33.978			-3.398
67400.000			-33.977			-3.398
67501.000			-33.975			-3.398
67600.000			-33.973			-3.397
67700.000			-33.973			-3.397
67801.000			-33.972			-3.397
67901.000			-33.970			-3.397
68001.000			-33.968			-3.397
68101.000			-33.968			-3.397
68200.000			-33.967			-3.397
68300.000			-33.966			-3.397
68401.000			-33.965			-3.396
68500.000			-33.964			-3.396
68600.000			-33.962			-3.396
68700.000			-33.961			-3.396
68801.000			-33.961			-3.396
68902.000			-33.960			-3.396
69000.000			-33.957			-3.396
69100.000			-33.956			-3.396
69201.000			-33.956			-3.396
69300.000			-33.954			-3.395
69400.000			-33.953			-3.395
69501.000			-33.952			-3.395
69601.000			-33.951			-3.395
69701.000			-33.949			-3.395
69801.000			-33.948			-3.395
69900.000			-33.947			-3.395
70000.000			-33.945			-3.394
70101.000			-33.944			-3.394
70200.000			-33.943			-3.394
70300.000			-33.942			-3.394
70402.000			-33.941			-3.394
70501.000			-33.940			-3.394
70601.000			-33.939			-3.394
70701.000			-33.937			-3.394
70800.000			-33.936			-3.394
70900.000			-33.935			-3.394
71001.000			-33.934			-3.393
71100.000			-33.932			-3.393
71200.000			-33.932			-3.393
71302.000			-33.930			-3.393
71401.000			-33.930			-3.393
71500.000			-33.928			-3.393
71601.000			-33.927			-3.393
71700.000			-33.926			-3.393
71800.000			-33.926			-3.393
71900.000			-33.924			-3.392
72000.000			-33.922			-3.392
72102.000			-33.922			-3.392
72201.000			-33.920			-3.392
72300.000			-33.918			-3.392
72401.000			-33.918			-3.392
72500.000			-33.917			-3.392
72600.000			-33.915			-3.392
72701.000			-33.913			-3.391
72800.000			-33.913			-3.391
72901.000			-33.912			-3.391
73002.000			-33.911			-3.391
73101.000			-33.910			-3.391
73200.000			-33.909			-3.391
73301.000			-33.909			-3.391
73400.000			-33.907			-3.391
73500.000			-33.905			-3.391
73601.000			-33.904			-3.390
73701.000			-33.904			-3.390
73801.000			-33.902			-3.390
73902.000			-33.900			-3.390
74000.000			-33.901			-3.390
74100.000			-33.899			-3.390
74201.000			-33.897			-3.390
74300.000			-33.897			-3.390
74400.000			-33.896			-3.390
74501.000			-33.895			-3.389
74601.000			-33.893			-3.389
74701.000			-33.892			-3.389
74801.000			-33.892			-3.389
74900.000			-33.890			-3.389
75000.000			-33.888			-3.389
75100.000			-33.888			-3.389
75200.000			-33.888			-3.389
75301.000			-33.887			-3.389
75400.000			-33.885			-3.389
75501.000			-33.884			-3.388
75602.000			-33.882			-3.388
75700.000			-33.881			-3.388
75800.000			-33.880			-3.388
75901.000			-33.878			-3.388
76000.000			-33.878			-3.388
76100.000			-33.877			-3.388
76201.000			-33.876			-3.388
76301.000			-33.875			-3.387
76401.000			-33.873			-3.387
76501.000			-33.873			-3.387
76600.000			-33.871			-3.387
76700.000			-33.871			-3.387
76801.000			-33.869			-3.387
76900.000			-33.868			-3.387
77000.000			-33.868			-3.387
77102.000			-33.866			-3.387
77201.000			-33.865			-3.386
77301.000			-33.864			-3.386
77401.000			-33.863			-3.386
77500.000			-33.862			-3.386
77600.000			-33.861			-3.386
77701.000			-33.860			-3.386
77800.000			-33.859			-3.386
77900.000			-33.858			-3.386
78002.000			-33.857			-3.386
78101.000			-33.855			-3.386
78200.000			-33.854			-3.385
78300.000			-33.853			-3.385
78400.000			-33.853			-3.385
78501.000			-33.852			-3.385
78600.000			-33.851			-3.385
78700.000			-33.850			-3.385
78802.000			-33.848			-3.385
78901.000			-33.847			-3.385
79000.000			-33.847			-3.385
79101.000			-33.846			-3.385
79200.000			-33.844			-3.384
79300.000			-33.843			-3.384
79401.000			-33.842			-3.384
79500.000			-33.842			-3.384
79600.000			-33.840			-3.384
79702.000			-33.839			-3.384
79801.000			-33.838			-3.384
79900.000			-33.838			-3.384
80001.000			-33.836			-3.384
80100.000			-33.834			-3.383
80200.000			-33.833			-3.383
80301.000			-33.833			-3.383
80400.000			-33.832			-3.383
80501.000			-33.831			-3.383
80602.000			-33.829			-3.383
80700.000			-33.829			-3.383
80800.000			-33.828			-3.383
80901.000			-33.826			-3.383
81000.000			-33.825			-3.383
81100.000			-33.825			-3.383
81201.000			-33.824			-3.382
81301.000			-33.824			-3.382
81402.000			-33.822			-3.382
81501.000			-33.820			-3.382
81600.000			-33.819			-3.382
81701.000			-33.819			-3.382
81800.000			-33.818			-3.382
81900.000			-33.818			-3.382
82001.000			-33.818			-3.382
82100.000			-33.816			-3.382
82201.000			-33.813			-3.381
82302.000			-33.812			-3.381
82400.000			-33.811			-3.381
82500.000			-33.810			-3.381
82601.000			-33.809			-3.381
82700.000			-33.809			-3.381
82800.000			-33.808			-3.381
82901.000			-33.806			-3.381
83001.000			-33.804			-3.380
83101.000			-33.803			-3.380
83201.000			-33.803			-3.380
83300.000			-33.803			-3.380
83400.000			-33.802			-3.380
83501.000			-33.802			-3.380
83600.000			-33.800			-3.380
83700.000			-33.798			-3.380
83802.000			-33.797			-3.380
83901.000			-33.795			-3.380
84000.000			-33.795			-3.380
84101.000			-33.795			-3.380
84200.000			-33.796			-3.380
84300.000			-33.793			-3.379
84401.000			-33.791			-3.379
84500.000			-33.791			-3.379
84602.000			-33.790			-3.379
84701.000			-33.787			-3.379
84800.000			-33.787			-3.379
84901.000			-33.786			-3.379
85000.000			-33.785			-3.379
85100.000			-33.784			-3.378
85201.000			-33.783			-3.378
85300.000			-33.782			-3.378
85400.000			-33.782			-3.378
85502.000			-33.781			-3.378
85601.000			-33.780			-3.378
85700.000			-33.779			-3.378
85801.000			-33.779			-3.378
85900.000			-33.777			-3.378
86000.000			-33.777			-3.378
86101.000			-33.775			-3.377
86200.000			-33.773			-3.377
86301.000			-33.773			-3.377
86402.000			-33.774			-3.377
86500.000			-33.772			-3.377
86600.000			-33.770			-3.377
86701.000			-33.768			-3.377
86800.000			-33.768			-3.377
86900.000			-33.768			-3.377
87001.000			-33.767			-3.377
87101.000			-33.765			-3.377
87201.000			-33.764			-3.376
87302.000			-33.763			-3.376
87400.000			-33.762			-3.376
87500.000			-33.761			-3.376
87601.000			-33.760			-3.376
87700.000			-33.759			-3.376
87800.000			-33.759			-3.376
87900.000			-33.758			-3.376
88001.000			-33.757			-3.376
88102.000			-33.756			-3.376
88200.000			-33.755			-3.375
88300.000			-33.754			-3.375
88401.000			-33.753			-3.375
88500.000			-33.753			-3.375
88600.000			-33.752			-3.375
88701.000			-33.751			-3.375
88801.000			-33.749			-3.375
88901.000			-33.748			-3.375
89002.000			-33.748			-3.375
89100.000			-33.747			-3.375
89200.000			-33.746			-3.375
89301.000			-33.745			-3.375
89400.000			-33.744			-3.374
89500.000			-33.743			-3.374
89601.000			-33.741			-3.374
89701.000			-33.741			-3.374
89801.000			-33.741			-3.374
89901.000			-33.739			-3.374
90000.000			-33.739			-3.374
90100.000			-33.737			-3.374
90201.000			-33.737			-3.374
90300.000			-33.735			-3.374
90400.000			-33.734			-3.373
90502.000			-33.733			-3.373
90601.000			-33.732			-3.373
90700.000			-33.733			-3.373
90801.000			-33.731			-3.373
90900.000			-33.730			-3.373
91000.000			-33.730			-3.373
91100.000			-33.727			-3.373
91200.000			-33.726			-3.373
91302.000			-33.726			-3.373
91401.000			-33.726			-3.373
91500.000			-33.725			-3.373
91601.000			-33.725			-3.372
91700.000			-33.723			-3.372
91800.000			-33.722			-3.372
91901.000			-33.721			-3.372
92000.000			-33.721			-3.372
92101.000			-33.719			-3.372
92202.000			-33.719			-3.372
92301.000			-33.717			-3.372
92400.000			-33.717			-3.372
92501.000			-33.716			-3.372
92600.000			-33.714			-3.371
92700.000			-33.713			-3.371
92801.000			-33.713			-3.371
92900.000			-33.712			-3.371
93001.000			-33.710			-3.371
93102.000			-33.710			-3.371
93200.000			-33.709			-3.371
93300.000			-33.708			-3.371
93401.000			-33.707			-3.371
93500.000			-33.707			-3.371
93600.000			-33.706			-3.371
93701.000			-33.705			-3.371
93801.000			-33.705			-3.370
93901.000			-33.704			-3.370
94001.000			-33.703			-3.370
94100.000			-33.702			-3.370
94200.000			-33.701			-3.370
94300.000			-33.700			-3.370
94400.000			-33.700			-3.370
94501.000			-33.699			-3.370
94601.000			-33.698			-3.370
94701.000			-33.695			-3.370
94801.000			-33.695			-3.369
94900.000			-33.693			-3.369
95000.000			-33.693			-3.369
95101.000			-33.694			-3.369
95200.000			-33.693			-3.369
95300.000			-33.690			-3.369
95402.000			-33.690			-3.369
95501.000			-33.689			-3.369
95601.000			-33.688			-3.369
95701.000			-33.688			-3.369
95800.000			-33.687			-3.369
95900.000			-33.685			-3.368
96001.000			-33.684			-3.368
96100.000			-33.684			-3.368
96200.000			-33.683			-3.368
96302.000			-33.682			-3.368
96401.000			-33.682			-3.368
96500.000			-33.681			-3.368
96601.000			-33.680			-3.368
96700.000			-33.680			-3.368
96800.000			-33.680			-3.368
96901.000			-33.676			-3.368
97000.000			-33.676			-3.368
97100.000			-33.676			-3.368
97202.000			-33.675			-3.367
97301.000			-33.674			-3.367
97400.000			-33.674			-3.367
97500.000			-33.673			-3.367
97600.000			-33.672			-3.367
97701.000			-33.671			-3.367
97800.000			-33.670			-3.367
97900.000			-33.670			-3.367
98002.000			-33.668			-3.367
98101.000			-33.668			-3.367
98200.000			-33.667			-3.367
98301.000			-33.666			-3.367
98400.000			-33.665			-3.366
98500.000			-33.664			-3.366
98601.000			-33.663			-3.366
98700.000			-33.663			-3.366
98800.000			-33.662			-3.366
98902.000			-33.660			-3.366
99001.000			-33.660			-3.366
99100.000			-33.659			-3.366
99201.000			-33.658			-3.366
99300.000			-33.657			-3.366
99400.000			-33.656			-3.366
99501.000			-33.656			-3.366
99600.000			-33.655			-3.365
99701.000			-33.654			-3.365
99802.000			-33.653			-3.365
99901.000			-33.653			-3.365
100000.000			-33.652			-3.365
100101.000			-33.651			-3.365
100200.000			-33.649			-3.365
100300.000			-33.648			-3.365
100401.000			-33.648			-3.365
100500.000			-33.648			-3.365
100602.000			-33.647			-3.365
100701.000			-33.647			-3.365
100800.000			-33.645			-3.365
100901.000			-33.645			-3.364
101000.000			-33.644			-3.364
101100.000			-33.643			-3.364
101201.000			-33.643			-3.364
101300.000			-33.641			-3.364
101401.000			-33.640			-3.364
101502.000			-33.639			-3.364
101600.000			-33.638			-3.364
101700.000			-33.638			-3.364
101801.000			-33.638			-3.364
101900.000			-33.636			-3.364
102000.000			-33.634			-3.363
102101.000			-33.634			-3.363
102201.000			-33.634			-3.363
102301.000			-33.634			-3.363
102401.000			-33.632			-3.363
102500.000			-33.632			-3.363
102600.000			-33.630			-3.363
102701.000			-33.630			-3.363
102800.000			-33.629			-3.363
102900.000			-33.629			-3.363
103002.000			-33.628			-3.363
103101.000			-33.626			-3.363
103200.000			-33.626			-3.363
103301.000			-33.626			-3.363
103400.000			-33.625			-3.363
103500.000			-33.623			-3.362
103601.000			-33.622			-3.362
103700.000			-33.621			-3.362
103802.000			-33.621			-3.362
103901.000			-33.620			-3.362
104001.000			-33.619			-3.362
104101.000			-33.619			-3.362
104200.000			-33.619			-3.362
104300.000			-33.617			-3.362
104401.000			-33.616			-3.362
104500.000			-33.616			-3.362
104600.000			-33.616			-3.362
104702.000			-33.614			-3.361
104801.000			-33.614			-3.361
104900.000			-33.613			-3.361
105001.000			-33.612			-3.361
105100.000			-33.612			-3.361
105200.000			-33.610			-3.361
105301.000			-33.609			-3.361
105400.000			-33.609			-3.361
105501.000			-33.608			-3.361
105602.000			-33.608			-3.361
105700.000			-33.607			-3.361
105800.000			-33.606			-3.361
105901.000			-33.605			-3.361
106000.000			-33.604			-3.360
106100.000			-33.603			-3.360
106201.000			-33.602			-3.360
106301.000			-33.601			-3.360
106401.000			-33.600			-3.360
106501.000			-33.600			-3.360
106600.000			-33.600			-3.360
106700.000			-33.599			-3.360
106801.000			-33.598			-3.360
106900.000			-33.597			-3.360
107000.000			-33.596			-3.360
107100.000			-33.595			-3.360
107201.000			-33.594			-3.359
107302.000			-33.594			-3.359
107400.000			-33.593			-3.359
107500.000			-33.592			-3.359
107601.000			-33.592			-3.359
107700.000			-33.591			-3.359
107800.000			-33.590			-3.359
107901.000			-33.589			-3.359
108001.000			-33.587			-3.359
108101.000			-33.587			-3.359
108201.000			-33.587			-3.359
108300.000			-33.586			-3.359
108400.000			-33.586			-3.359
108501.000			-33.586			-3.359
108600.000			-33.585			-3.358
108700.000			-33.583			-3.358
108801.000			-33.582			-3.358
108901.000			-33.581			-3.358
109001.000			-33.580			-3.358
109101.000			-33.580			-3.358
109200.000			-33.579			-3.358
109300.000			-33.578			-3.358
109401.000			-33.577			-3.358
109500.000			-33.576			-3.358
109600.000			-33.575			-3.358
109702.000			-33.575			-3.357
109801.000			-33.575			-3.357
109901.000			-33.574			-3.357
110001.000			-33.573			-3.357
110100.000			-33.572			-3.357
110200.000			-33.571			-3.357
110300.000			-33.570			-3.357
110400.000			-33.569			-3.357
110501.000			-33.569			-3.357
110601.000			-33.568			-3.357
110701.000			-33.568			-3.357
110801.000			-33.567			-3.357
110900.000			-33.565			-3.357
111000.000			-33.565			-3.356
111101.000			-33.564			-3.356
111200.000			-33.564			-3.356
111300.000			-33.563			-3.356
111402.000			-33.563			-3.356
111501.000			-33.561			-3.356
111600.000			-33.559			-3.356
111701.000			-33.559			-3.356
111800.000			-33.559			-3.356
111900.000			-33.559			-3.356
112001.000			-33.559			-3.356
112100.000			-33.557			-3.356
112200.000			-33.556			-3.356
112302.000			-33.555			-3.356
112401.000			-33.555			-3.356
112500.000			-33.554			-3.355
112601.000			-33.554			-3.355
112700.000			-33.553			-3.355
112800.000			-33.552			-3.355
112901.000			-33.552			-3.355
113000.000			-33.550			-3.355
113101.000			-33.550			-3.355
113202.000			-33.548			-3.355
113300.000			-33.547			-3.355
113400.000			-33.548			-3.355
113500.000			-33.547			-3.355
113600.000			-33.546			-3.355
113701.000			-33.546			-3.355
113800.000			-33.544			-3.354
113901.000			-33.542			-3.354
114002.000			-33.543			-3.354
114101.000			-33.542			-3.354
114200.000			-33.542			-3.354
114301.000			-33.541			-3.354
114400.000			-33.541			-3.354
114500.000			-33.540			-3.354
114601.000			-33.539			-3.354
114700.000			-33.539			-3.354
114801.000			-33.538			-3.354
114902.000			-33.537			-3.354
115000.000			-33.535			-3.354
115100.000			-33.535			-3.354
115201.000			-33.535			-3.354
115300.000			-33.534			-3.353
115400.000			-33.533			-3.353
115501.000			-33.533			-3.353
115601.000			-33.532			-3.353
115701.000			-33.532			-3.353
115801.000			-33.531			-3.353
115900.000			-33.531			-3.353
116000.000			-33.528			-3.353
116101.000			-33.528			-3.353
116200.000			-33.528			-3.353
116300.000			-33.528			-3.353
116402.000			-33.527			-3.353
116501.000			-33.526			-3.353
116602.000			-33.526			-3.353
116700.000			-33.524			-3.352
116800.000			-33.524			-3.352
116901.000			-33.524			-3.352
117000.000			-33.522			-3.352
117100.000			-33.520			-3.352
117201.000			-33.520			-3.352
117301.000			-33.520			-3.352
117401.000			-33.521			-3.352
117501.000			-33.518			-3.352
117600.000			-33.518			-3.352
117700.000			-33.517			-3.352
117801.000			-33.517			-3.352
117900.000			-33.516			-3.352
118000.000			-33.516			-3.352
118102.000			-33.515			-3.352
118201.000			-33.513			-3.351
118300.000			-33.512			-3.351
118401.000			-33.511			-3.351
118500.000			-33.511			-3.351
118600.000			-33.510			-3.351
118701.000			-33.510			-3.351
118800.000			-33.510			-3.351
118900.000			-33.509			-3.351
119002.000			-33.507			-3.351
119101.000			-33.506			-3.351
119200.000			-33.506			-3.351
119301.000			-33.505			-3.351
119400.000			-33.504			-3.350
119500.000			-33.504			-3.350
119601.000			-33.504			-3.350
119700.000			-33.502			-3.350
119802.000			-33.502			-3.350
119901.000			-33.502			-3.350
120000.000			-33.501			-3.350
120101.000			-33.500			-3.350
120200.000			-33.500			-3.350
120300.000			-33.500			-3.350
120401.000			-33.498			-3.350
120500.000			-33.497			-3.350
120601.000			-33.496			-3.350
120702.000			-33.496			-3.350
120800.000			-33.496			-3.350
120900.000			-33.495			-3.350
121001.000			-33.494			-3.349
121100.000			-33.492			-3.349
121200.000			-33.492			-3.349
121301.000			-33.492			-3.349
121401.000			-33.491			-3.349
121501.000			-33.489			-3.349
121602.000			-33.490			-3.349
121700.000			-33.489			-3.349
121800.000			-33.489			-3.349
121901.000			-33.487			-3.349
122000.000			-33.487			-3.349
122100.000			-33.486			-3.349
122201.000			-33.485			-3.348
122301.000			-33.485			-3.349
122401.000			-33.484			-3.348
122501.000			-33.482			-3.348
122600.000			-33.483			-3.348
122700.000			-33.482			-3.348
122801.000			-33.482			-3.348
122900.000			-33.482			-3.348
123000.000			-33.481			-3.348
123102.000			-33.480			-3.348
123201.000			-33.480			-3.348
123302.000			-33.478			-3.348
123400.000			-33.478			-3.348
123500.000			-33.477			-3.348
123601.000			-33.477			-3.348
123700.000			-33.476			-3.348
123800.000			-33.475			-3.347
123901.000			-33.474			-3.347
124001.000			-33.474			-3.347
124101.000			-33.474			-3.347
124201.000			-33.474			-3.347
124300.000			-33.471			-3.347
124400.000			-33.470			-3.347
124501.000			-33.470			-3.347
124600.000			-33.469			-3.347
124700.000			-33.468			-3.347
124802.000			-33.468			-3.347
124901.000			-33.468			-3.347
125001.000			-33.467			-3.347
125101.000			-33.466			-3.347
125200.000			-33.466			-3.347
125300.000			-33.466			-3.347
125401.000			-33.465			-3.347
125500.000			-33.463			-3.346
125600.000			-33.463			-3.346
125702.000			-33.462			-3.346
125801.000			-33.462			-3.346
125900.000			-33.462			-3.346
126001.000			-33.462			-3.346
126100.000			-33.461			-3.346
126200.000			-33.460			-3.346
126300.000			-33.458			-3.346
126400.000			-33.457			-3.346
126501.000			-33.457			-3.346
126601.000			-33.456			-3.346
126701.000			-33.455			-3.346
126801.000			-33.455			-3.345
126900.000			-33.454			-3.345
127000.000			-33.453			-3.345
127101.000			-33.454			-3.345
127200.000			-33.453			-3.345
127300.000			-33.451			-3.345
127402.000			-33.451			-3.345
127501.000			-33.451			-3.345
127601.000			-33.450			-3.345
127701.000			-33.448			-3.345
127800.000			-33.448			-3.345
127900.000			-33.447			-3.345
128001.000			-33.447			-3.345
128100.000			-33.446			-3.345
128200.000			-33.445			-3.344
128302.000			-33.444			-3.344
128401.000			-33.445			-3.344
128500.000			-33.443			-3.344
128601.000			-33.443			-3.344
128700.000			-33.442			-3.344
128800.000			-33.443			-3.344
128901.000			-33.442			-3.344
129000.000			-33.442			-3.344
129100.000			-33.441			-3.344
129202.000			-33.439			-3.344
129301.000			-33.439			-3.344
129400.000			-33.438			-3.344
129500.000			-33.438			-3.344
129600.000			-33.437			-3.344
129701.000			-33.436			-3.344
129800.000			-33.435			-3.344
129900.000			-33.437			-3.344
130002.000			-33.435			-3.343
130101.000			-33.433			-3.343
130200.000			-33.433			-3.343
130301.000			-33.433			-3.343
130400.000			-33.432			-3.343
130500.000			-33.431			-3.343
130601.000			-33.432			-3.343
130700.000			-33.429			-3.343
130801.000			-33.429			-3.343
130902.000			-33.429			-3.343
131001.000			-33.428			-3.343
131100.000			-33.428			-3.343
131201.000			-33.427			-3.343
131300.000			-33.426			-3.343
131400.000			-33.426			-3.343
131501.000			-33.425			-3.342
131600.000			-33.424			-3.342
131701.000			-33.423			-3.342
131802.000			-33.422			-3.342
131900.000			-33.423			-3.342
132000.000			-33.423			-3.342
132101.000			-33.420			-3.342
132200.000			-33.420			-3.342
132300.000			-33.420			-3.342
132401.000			-33.419			-3.342
132500.000			-33.418			-3.342
132602.000			-33.417			-3.342
132701.000			-33.416			-3.342
132800.000			-33.416			-3.342
132901.000			-33.417			-3.342
133000.000			-33.416			-3.342
133100.000			-33.414			-3.341
133201.000			-33.413			-3.341
133300.000			-33.413			-3.341
133400.000			-33.413			-3.341
133502.000			-33.412			-3.341
133601.000			-33.412			-3.341
133700.000			-33.412			-3.341
133801.000			-33.410			-3.341
133900.000			-33.409			-3.341
134000.000			-33.409			-3.341
134101.000			-33.408			-3.341
134200.000			-33.407			-3.341
134300.000			-33.406			-3.341
134402.000			-33.407			-3.341
134501.000			-33.406			-3.341
134600.000			-33.405			-3.340
134701.000			-33.404			-3.340
134800.000			-33.404			-3.340
134900.000			-33.404			-3.340
135001.000			-33.403			-3.340
135100.000			-33.402			-3.340
135200.000			-33.401			-3.340
135302.000			-33.401			-3.340
135401.000			-33.400			-3.340
135500.000			-33.399			-3.340
135601.000			-33.399			-3.340
135700.000			-33.399			-3.340
135800.000			-33.398			-3.340
135900.000			-33.398			-3.340
136000.000			-33.397			-3.340
136101.000			-33.396			-3.340
136201.000			-33.396			-3.340
136301.000			-33.395			-3.339
136402.000			-33.394			-3.339
136500.000			-33.394			-3.339
136600.000			-33.392			-3.339
136701.000			-33.392			-3.339
136800.000			-33.391			-3.339
136900.000			-33.390			-3.339
137001.000			-33.390			-3.339
137100.000			-33.389			-3.339
137201.000			-33.389			-3.339
137302.000			-33.389			-3.339
137400.000			-33.388			-3.339
137500.000			-33.387			-3.339
137601.000			-33.387			-3.339
137700.000			-33.386			-3.339
137800.000			-33.385			-3.339
137901.000			-33.384			-3.338
138000.000			-33.384			-3.338
138101.000			-33.383			-3.338
138202.000			-33.384			-3.338
138301.000			-33.382			-3.338
138400.000			-33.381			-3.338
138501.000			-33.382			-3.338
138600.000			-33.381			-3.338
138700.000			-33.381			-3.338
138801.000			-33.381			-3.338
138900.000			-33.380			-3.338
139002.000			-33.379			-3.338
139101.000			-33.379			-3.338
139201.000			-33.377			-3.338
139301.000			-33.377			-3.338
139400.000			-33.376			-3.338
139500.000			-33.375			-3.338
139601.000			-33.375			-3.337
139700.000			-33.374			-3.337
139800.000			-33.374			-3.337
139901.000			-33.373			-3.337
140001.000			-33.372			-3.337
140101.000			-33.371			-3.337
140201.000			-33.370			-3.337
140300.000			-33.368			-3.337
140400.000			-33.369			-3.337
140501.000			-33.370			-3.337
140600.000			-33.369			-3.337
140700.000			-33.368			-3.337
140801.000			-33.368			-3.337
140901.000			-33.367			-3.337
141001.000			-33.365			-3.337
141101.000			-33.365			-3.336
141200.000			-33.364			-3.336
141300.000			-33.364			-3.336
141401.000			-33.363			-3.336
141500.000			-33.363			-3.336
141600.000			-33.362			-3.336
141701.000			-33.362			-3.336
141801.000			-33.361			-3.336
141901.000			-33.360			-3.336
142001.000			-33.361			-3.336
142100.000			-33.360			-3.336
142200.000			-33.360			-3.336
142300.000			-33.358			-3.336
142400.000			-33.358			-3.336
142501.000			-33.357			-3.336
142600.000			-33.356			-3.336
142701.000			-33.356			-3.336
142802.000			-33.356			-3.336
142900.000			-33.354			-3.335
143000.000			-33.353			-3.335
143101.000			-33.353			-3.335
143200.000			-33.352			-3.335
143300.000			-33.352			-3.335
143401.000			-33.352			-3.335
143500.000			-33.350			-3.335
143601.000			-33.349			-3.335
143702.000			-33.350			-3.335
143800.000			-33.349			-3.335
143900.000			-33.348			-3.335
144001.000			-33.347			-3.335
144100.000			-33.347			-3.335
144200.000			-33.347			-3.335
144301.000			-33.346			-3.335
144400.000			-33.346			-3.335
144501.000			-33.345			-3.335
144602.000			-33.344			-3.334
144701.000			-33.344			-3.334
144800.000			-33.345			-3.334
144901.000			-33.343			-3.334
145000.000			-33.343			-3.334
145100.000			-33.342			-3.334
145201.000			-33.341			-3.334
145300.000			-33.341			-3.334
145402.000			-33.339			-3.334
145501.000			-33.338			-3.334
145601.000			-33.338			-3.334
145701.000			-33.338			-3.334
145800.000			-33.337			-3.334
145900.000			-33.337			-3.334
146001.000			-33.338			-3.334
146100.000			-33.336			-3.334
146200.000			-33.336			-3.334
146302.000			-33.335			-3.333
146401.000			-33.335			-3.334
146501.000			-33.335			-3.333
146601.000			-33.333			-3.333
146700.000			-33.333			-3.333
146800.000			-33.332			-3.333
146901.000			-33.332			-3.333
147000.000			-33.331			-3.333
147100.000			-33.331			-3.333
147201.000			-33.330			-3.333
147301.000			-33.330			-3.333
147401.000			-33.329			-3.333
147501.000			-33.329			-3.333
147600.000			-33.328			-3.333
147700.000			-33.327			-3.333
147801.000			-33.327			-3.333
147900.000			-33.326			-3.333
148000.000			-33.324			-3.332
148101.000			-33.324			-3.332
148201.000			-33.325			-3.333
148301.000			-33.323			-3.332
148401.000			-33.323			-3.332
148500.000			-33.323			-3.332
148600.000			-33.322			-3.332
148700.000			-33.322			-3.332
148800.000			-33.321			-3.332
148901.000			-33.320			-3.332
149000.000			-33.319			-3.332
149101.000			-33.319			-3.332
149202.000			-33.319			-3.332
149301.000			-33.318			-3.332
149400.000			-33.317			-3.332
149501.000			-33.316			-3.332
149600.000			-33.316			-3.332
149700.000			-33.315			-3.332
149801.000			-33.315			-3.332
149900.000			-33.316			-3.332
150000.000			-33.314			-3.331
150102.000			-33.313			-3.331
150201.000			-33.312			-3.331
150300.000			-33.311			-3.331
150401.000			-33.313			-3.331
150500.000			-33.311			-3.331
150600.000			-33.311			-3.331
150701.000			-33.310			-3.331
150800.000			-33.309			-3.331
150901.000			-33.309			-3.331
151002.000			-33.309			-3.331
151101.000			-33.308			-3.331
151200.000			-33.307			-3.331
151301.000			-33.307			-3.331
151400.000			-33.307			-3.331
151500.000			-33.306			-3.331
151601.000			-33.305			-3.331
151700.000			-33.305			-3.331
151802.000			-33.304			-3.330
151901.000			-33.303			-3.330
152001.000			-33.304			-3.330
152101.000			-33.303			-3.330
152200.000			-33.302			-3.330
152300.000			-33.301			-3.330
152401.000			-33.300			-3.330
152500.000			-33.301			-3.330
152600.000			-33.300			-3.330
152701.000			-33.299			-3.330
152801.000			-33.298			-3.330
152901.000			-33.298			-3.330
153001.000			-33.298			-3.330
153100.000			-33.298			-3.330
153200.000			-33.296			-3.330
153301.000			-33.296			-3.330
153400.000			-33.294			-3.329
153500.000			-33.295			-3.329
153601.000			-33.295			-3.329
153701.000			-33.294			-3.329
153801.000			-33.293			-3.329
153902.000			-33.292			-3.329
154000.000			-33.292			-3.329
154100.000			-33.290			-3.329
154201.000			-33.290			-3.329
154300.000			-33.289			-3.329
154400.000			-33.289			-3.329
154501.000			-33.290			-3.329
154601.000			-33.289			-3.329
154701.000			-33.288			-3.329
154802.000			-33.287			-3.329
154900.000			-33.287			-3.329
155000.000			-33.286			-3.329
155100.000			-33.285			-3.329
155200.000			-33.286			-3.329
155301.000			-33.284			-3.328
155400.000			-33.285			-3.328
155500.000			-33.285			-3.329
155602.000			-33.283			-3.328
155701.000			-33.283			-3.328
155801.000			-33.282			-3.328
155901.000			-33.282			-3.328
156000.000			-33.281			-3.328
156100.000			-33.280			-3.328
156201.000			-33.281			-3.328
156300.000			-33.281			-3.328
156400.000			-33.277			-3.328
156502.000			-33.278			-3.328
156601.000			-33.278			-3.328
156701.000			-33.278			-3.328
156801.000			-33.277			-3.328
156900.000			-33.277			-3.328
157000.000			-33.276			-3.328
157101.000			-33.276			-3.328
157200.000			-33.274			-3.327
157300.000			-33.273			-3.327
157401.000			-33.274			-3.327
157501.000			-33.274			-3.327
157601.000			-33.272			-3.327
157701.000			-33.272			-3.327
157800.000			-33.273			-3.327
157900.000			-33.272			-3.327
158001.000			-33.270			-3.327
158100.000			-33.269			-3.327
158200.000			-33.270			-3.327
158300.000			-33.270			-3.327
158401.000			-33.269			-3.327
158502.000			-33.267			-3.327
158601.000			-33.267			-3.327
158700.000			-33.266			-3.327
158801.000			-33.267			-3.327
158900.000			-33.266			-3.327
159000.000			-33.265			-3.327
159101.000			-33.266			-3.327
159200.000			-33.265			-3.326
159300.000			-33.263			-3.326
159402.000			-33.262			-3.326
159501.000			-33.262			-3.326
159600.000			-33.262			-3.326
159701.000			-33.261			-3.326
159800.000			-33.261			-3.326
159900.000			-33.261			-3.326
160001.000			-33.259			-3.326
160100.000			-33.259			-3.326
160200.000			-33.258			-3.326
160302.000			-33.257			-3.326
160401.000			-33.258			-3.326
160501.000			-33.258			-3.326
160601.000			-33.257			-3.326
160700.000			-33.257			-3.326
160800.000			-33.256			-3.326
160901.000			-33.255			-3.325
161000.000			-33.254			-3.325
161100.000			-33.254			-3.325
161202.000			-33.254			-3.325
161301.000			-33.253			-3.325
161402.000			-33.252			-3.325
161500.000			-33.251			-3.325
161600.000			-33.251			-3.325
161701.000			-33.250			-3.325
161800.000			-33.249			-3.325
161900.000			-33.249			-3.325
162001.000			-33.248			-3.325
162101.000			-33.248			-3.325
162201.000			-33.247			-3.325
162302.000			-33.247			-3.325
162400.000			-33.246			-3.325
162500.000			-33.246			-3.325
162601.000			-33.246			-3.325
162700.000			-33.245			-3.324
162800.000			-33.245			-3.325
162901.000			-33.245			-3.325
163001.000			-33.242			-3.324
163101.000			-33.242			-3.324
163202.000			-33.242			-3.324
163300.000			-33.242			-3.324
163400.000			-33.243			-3.324
163501.000			-33.241			-3.324
163600.000			-33.240			-3.324
163700.000			-33.239			-3.324
163801.000			-33.239			-3.324
163901.000			-33.239			-3.324
164001.000			-33.238			-3.324
164102.000			-33.237			-3.324
164200.000			-33.237			-3.324
164300.000			-33.236			-3.324
164401.000			-33.235			-3.324
164500.000			-33.235			-3.324
164600.000			-33.235			-3.324
164700.000			-33.234			-3.323
164800.000			-33.234			-3.323
164902.000			-33.234			-3.323
165001.000			-33.234			-3.323
165100.000			-33.233			-3.323
165201.000			-33.233			-3.323
165300.000			-33.232			-3.323
165400.000			-33.231			-3.323
165501.000			-33.231			-3.323
165600.000			-33.230			-3.323
165700.000			-33.230			-3.323
165802.000			-33.229			-3.323
165901.000			-33.227			-3.323
166000.000			-33.227			-3.323
166101.000			-33.227			-3.323
166200.000			-33.227			-3.323
166300.000			-33.226			-3.323
166401.000			-33.226			-3.323
166500.000			-33.226			-3.323
166600.000			-33.224			-3.322
166702.000			-33.224			-3.322
166801.000			-33.223			-3.322
166900.000			-33.224			-3.322
167001.000			-33.223			-3.322
167100.000			-33.222			-3.322
167200.000			-33.222			-3.322
167301.000			-33.221			-3.322
167400.000			-33.220			-3.322
167500.000			-33.219			-3.322
167602.000			-33.218			-3.322
167701.000			-33.219			-3.322
167802.000			-33.220			-3.322
167900.000			-33.218			-3.322
168000.000			-33.217			-3.322
168101.000			-33.217			-3.322
168200.000			-33.217			-3.322
168300.000			-33.216			-3.322
168401.000			-33.216			-3.322
168501.000			-33.216			-3.322
168601.000			-33.216			-3.322
168702.000			-33.214			-3.321
168800.000			-33.214			-3.321
168900.000			-33.214			-3.321
169001.000			-33.213			-3.321
169100.000			-33.213			-3.321
169200.000			-33.212			-3.321
169301.000			-33.212			-3.321
169400.000			-33.211			-3.321
169501.000			-33.210			-3.321
169602.000			-33.210			-3.321
169700.000			-33.209			-3.321
169800.000			-33.209			-3.321
169901.000			-33.209			-3.321
170000.000			-33.209			-3.321
170100.000			-33.209			-3.321
170201.000			-33.208			-3.321
170300.000			-33.206			-3.321
170401.000			-33.205			-3.321
170502.000			-33.205			-3.321
170600.000			-33.205			-3.321
170700.000			-33.205			-3.321
170801.000			-33.204			-3.320
170900.000			-33.204			-3.320
171000.000			-33.203			-3.320
171100.000			-33.202			-3.320
171200.000			-33.202			-3.320
171302.000			-33.202			-3.320
171401.000			-33.201			-3.320
171500.000			-33.202			-3.320
171601.000			-33.201			-3.320
171700.000			-33.200			-3.320
171800.000			-33.198			-3.320
171901.000			-33.198			-3.320
172000.000			-33.197			-3.320
172100.000			-33.198			-3.320
172202.000			-33.197			-3.320
172301.000			-33.196			-3.320
172400.000			-33.196			-3.320
172501.000			-33.195			-3.319
172600.000			-33.194			-3.319
172700.000			-33.195			-3.319
172801.000			-33.194			-3.319
172900.000			-33.192			-3.319
173000.000			-33.192			-3.319
173102.000			-33.192			-3.319
173201.000			-33.192			-3.319
173301.000			-33.191			-3.319
173401.000			-33.191			-3.319
173500.000			-33.190			-3.319
173600.000			-33.189			-3.319
173701.000			-33.188			-3.319
173800.000			-33.188			-3.319
173900.000			-33.188			-3.319
174001.000			-33.187			-3.319
174101.000			-33.187			-3.319
174202.000			-33.187			-3.319
174300.000			-33.187			-3.319
174400.000			-33.187			-3.319
174501.000			-33.186			-3.319
174600.000			-33.184			-3.318
174700.000			-33.184			-3.318
174801.000			-33.183			-3.318
174900.000			-33.183			-3.318
175001.000			-33.183			-3.318
175102.000			-33.183			-3.318
175201.000			-33.182			-3.318
175300.000			-33.181			-3.318
175401.000			-33.180			-3.318
175500.000			-33.181			-3.318
175600.000			-33.181			-3.318
175701.000			-33.181			-3.318
175800.000			-33.179			-3.318
175900.000			-33.178			-3.318
176002.000			-33.177			-3.318
176101.000			-33.178			-3.318
176200.000			-33.177			-3.318
176301.000			-33.177			-3.318
176400.000			-33.177			-3.318
176500.000			-33.176			-3.318
176601.000			-33.174			-3.317
176700.000			-33.173			-3.317
176800.000			-33.174			-3.317
176902.000			-33.173			-3.317
177001.000			-33.173			-3.317
177101.000			-33.173			-3.317
177201.000			-33.172			-3.317
177300.000			-33.172			-3.317
177400.000			-33.172			-3.317
177500.000			-33.171			-3.317
177600.000			-33.171			-3.317
177701.000			-33.169			-3.317
177800.000			-33.169			-3.317
177901.000			-33.169			-3.317
178002.000			-33.167			-3.317
178100.000			-33.168			-3.317
178200.000			-33.168			-3.317
178301.000			-33.168			-3.317
178400.000			-33.166			-3.317
178500.000			-33.166			-3.317
178601.000			-33.166			-3.317
178700.000			-33.166			-3.317
178801.000			-33.166			-3.317
178902.000			-33.165			-3.317
179001.000			-33.165			-3.317
179100.000			-33.164			-3.316
179201.000			-33.163			-3.316
179300.000			-33.163			-3.316
179400.000			-33.163			-3.316
179501.000			-33.163			-3.316
179600.000			-33.162			-3.316
179700.000			-33.160			-3.316
179802.000			-33.160			-3.316
179901.000			-33.159			-3.316
180000.000			-33.159			-3.316
180101.000			-33.159			-3.316
180200.000			-33.159			-3.316
180300.000			-33.157			-3.316
180401.000			-33.156			-3.316
180500.000			-33.157			-3.316
180600.000			-33.157			-3.316
180702.000			-33.157			-3.316
180801.000			-33.157			-3.316
180902.000			-33.156			-3.316
181000.000			-33.155			-3.316
181100.000			-33.155			-3.315
181201.000			-33.155			-3.315
181300.000			-33.154			-3.315
181400.000			-33.153			-3.315
181501.000			-33.152			-3.315
181601.000			-33.151			-3.315
181701.000			-33.152			-3.315
181802.000			-33.152			-3.315
181900.000			-33.152			-3.315
182000.000			-33.151			-3.315
182101.000			-33.150			-3.315
182200.000			-33.150			-3.315
182300.000			-33.150			-3.315
182401.000			-33.149			-3.315
182501.000			-33.148			-3.315
182601.000			-33.148			-3.315
182702.000			-33.148			-3.315
182800.000			-33.147			-3.315
182900.000			-33.147			-3.315
183001.000			-33.147			-3.315
183100.000			-33.145			-3.315
183200.000			-33.144			-3.314
183301.000			-33.145			-3.314
183400.000			-33.146			-3.315
183501.000			-33.144			-3.314
183602.000			-33.143			-3.314
183700.000			-33.143			-3.314
183800.000			-33.142			-3.314
183900.000			-33.141			-3.314
184000.000			-33.141			-3.314
184101.000			-33.141			-3.314
184200.000			-33.140			-3.314
184300.000			-33.140			-3.314
184402.000			-33.140			-3.314
184501.000			-33.139			-3.314
184600.000			-33.138			-3.314
184701.000			-33.138			-3.314
184800.000			-33.138			-3.314
184900.000			-33.137			-3.314
185001.000			-33.137			-3.314
185100.000			-33.136			-3.314
185200.000			-33.135			-3.314
185302.000			-33.136			-3.314
185401.000			-33.136			-3.314
185501.000			-33.135			-3.313
185601.000			-33.133			-3.313
185700.000			-33.134			-3.313
185800.000			-33.133			-3.313
185901.000			-33.132			-3.313
186000.000			-33.132			-3.313
186100.000			-33.132			-3.313
186202.000			-33.131			-3.313
186301.000			-33.131			-3.313
186401.000			-33.131			-3.313
186501.000			-33.129			-3.313
186600.000			-33.129			-3.313
186700.000			-33.129			-3.313
186801.000			-33.129			-3.313
186900.000			-33.128			-3.313
187000.000			-33.128			-3.313
187100.000			-33.128			-3.313
187201.000			-33.126			-3.313
187302.000			-33.125			-3.312
187400.000			-33.124			-3.312
187500.000			-33.124			-3.312
187601.000			-33.125			-3.312
187700.000			-33.124			-3.312
187800.000			-33.123			-3.312
187901.000			-33.123			-3.312
188000.000			-33.122			-3.312
188101.000			-33.122			-3.312
188202.000			-33.122			-3.312
188301.000			-33.121			-3.312
188400.000			-33.120			-3.312
188501.000			-33.119			-3.312
188600.000			-33.121			-3.312
188700.000			-33.120			-3.312
188801.000			-33.119			-3.312
188900.000			-33.119			-3.312
189000.000			-33.119			-3.312
189102.000			-33.119			-3.312
189201.000			-33.118			-3.312
189300.000			-33.117			-3.312
189401.000			-33.116			-3.312
189500.000			-33.117			-3.312
189600.000			-33.116			-3.312
189701.000			-33.115			-3.312
189800.000			-33.116			-3.312
189900.000			-33.114			-3.311
190002.000			-33.113			-3.311
190101.000			-33.113			-3.311
190202.000			-33.113			-3.311
190300.000			-33.114			-3.311
190400.000			-33.114			-3.311
190501.000			-33.113			-3.311
190600.000			-33.111			-3.311
190700.000			-33.111			-3.311
190801.000			-33.112			-3.311
190901.000			-33.109			-3.311
191001.000			-33.109			-3.311
191101.000			-33.109			-3.311
191200.000			-33.108			-3.311
191300.000			-33.108			-3.311
191401.000			-33.108			-3.311
191500.000			-33.107			-3.311
191600.000			-33.105			-3.311
191701.000			-33.105			-3.311
191801.000			-33.105			-3.310
191901.000			-33.105			-3.311
192002.000			-33.104			-3.310
192100.000			-33.105			-3.310
192200.000			-33.104			-3.310
192301.000			-33.103			-3.310
192400.000			-33.103			-3.310
192500.000			-33.102			-3.310
192601.000			-33.101			-3.310
192701.000			-33.101			-3.310
192801.000			-33.101			-3.310
192902.000			-33.102			-3.310
193000.000			-33.101			-3.310
193100.000			-33.100			-3.310
193201.000			-33.100			-3.310
193300.000			-33.099			-3.310
193400.000			-33.098			-3.310
193500.000			-33.098			-3.310
193600.000			-33.099			-3.310
193702.000			-33.097			-3.310
193801.000			-33.096			-3.310
193900.000			-33.096			-3.310
194001.000			-33.096			-3.310
194100.000			-33.096			-3.310
194200.000			-33.095			-3.310
194301.000			-33.096			-3.310
194400.000			-33.095			-3.310
194500.000			-33.094			-3.309
194602.000			-33.094			-3.309
194701.000			-33.094			-3.309
194801.000			-33.093			-3.309
194901.000			-33.093			-3.309
195000.000			-33.091			-3.309
195100.000			-33.090			-3.309
195201.000			-33.091			-3.309
195300.000			-33.090			-3.309
195400.000			-33.089			-3.309
195501.000			-33.089			-3.309
195601.000			-33.089			-3.309
195701.000			-33.088			-3.309
195801.000			-33.088			-3.309
195900.000			-33.087			-3.309
196000.000			-33.088			-3.309
196101.000			-33.086			-3.309
196200.000			-33.086			-3.309
196300.000			-33.086			-3.309
196401.000			-33.086			-3.309
196501.000			-33.086			-3.309
196602.000			-33.085			-3.309
196701.000			-33.085			-3.308
196800.000			-33.084			-3.308
196901.000			-33.083			-3.308
197000.000			-33.082			-3.308
197100.000			-33.082			-3.308
197201.000			-33.082			-3.308
197300.000			-33.082			-3.308
197400.000			-33.081			-3.308
197502.000			-33.081			-3.308
197601.000			-33.080			-3.308
197700.000			-33.079			-3.308
197801.000			-33.079			-3.308
197900.000			-33.079			-3.308
198000.000			-33.078			-3.308
198101.000			-33.077			-3.308
198200.000			-33.077			-3.308
198300.000			-33.077			-3.308
198402.000			-33.077			-3.308
198501.000			-33.076			-3.308
198601.000			-33.076			-3.308
198701.000			-33.076			-3.308
198800.000			-33.076			-3.308
198900.000			-33.075			-3.307
199001.000			-33.074			-3.307
199100.000			-33.073			-3.307
199200.000			-33.073			-3.307
199301.000			-33.073			-3.307
199401.000			-33.072			-3.307
199501.000			-33.072			-3.307
199601.000			-33.071			-3.307
199700.000			-33.069			-3.307
199800.000			-33.070			-3.307
199900.000			-33.070			-3.307
200000.000			-33.069			-3.307
200101.000			-33.069			-3.307
200200.000			-33.069			-3.307
200301.000			-33.068			-3.307
200402.000			-33.068			-3.307
200500.000			-33.067			-3.307
200600.000			-33.067			-3.307
200701.000			-33.066			-3.307
200800.000			-33.066			-3.307
200900.000			-33.066			-3.307
201001.000			-33.065			-3.306
201100.000			-33.065			-3.307
201201.000			-33.065			-3.306
201302.000			-33.064			-3.306
201400.000			-33.063			-3.306
201500.000			-33.063			-3.306
201601.000			-33.062			-3.306
201700.000			-33.062			-3.306
201800.000			-33.061			-3.306
201901.000			-33.061			-3.306
202000.000			-33.062			-3.306
202101.000			-33.061			-3.306
202202.000			-33.060			-3.306
202300.000			-33.060			-3.306
202400.000			-33.060			-3.306
202501.000			-33.060			-3.306
202600.000			-33.059			-3.306
202700.000			-33.059			-3.306
202801.000			-33.059			-3.306
202900.000			-33.057			-3.306
203002.000			-33.057			-3.306
203101.000			-33.057			-3.306
203200.000			-33.056			-3.306
203301.000			-33.055			-3.306
203400.000			-33.055			-3.305
203500.000			-33.054			-3.305
203601.000			-33.054			-3.305
203700.000			-33.053			-3.305
203800.000			-33.054			-3.305
203902.000			-33.054			-3.305
204001.000			-33.054			-3.305
204100.000			-33.053			-3.305
204201.000			-33.052			-3.305
204300.000			-33.052			-3.305
204400.000			-33.051			-3.305
204501.000			-33.051			-3.305
204600.000			-33.051			-3.305
204701.000			-33.050			-3.305
204802.000			-33.050			-3.305
204901.000			-33.049			-3.305
205000.000			-33.048			-3.305
205101.000			-33.048			-3.305
205200.000			-33.047			-3.305
205300.000			-33.046			-3.305
205401.000			-33.047			-3.305
205500.000			-33.047			-3.305
205601.000			-33.046			-3.305
205702.000			-33.045			-3.305
205800.000			-33.045			-3.304
205900.000			-33.045			-3.304
206001.000			-33.045			-3.305
206100.000			-33.045			-3.304
206200.000			-33.044			-3.304
206300.000			-33.043			-3.304
206400.000			-33.042			-3.304
206502.000			-33.042			-3.304
206601.000			-33.043			-3.304
206700.000			-33.042			-3.304
206801.000			-33.041			-3.304
206900.000			-33.039			-3.304
207000.000			-33.040			-3.304
207101.000			-33.040			-3.304
207200.000			-33.040			-3.304
207300.000			-33.039			-3.304
207402.000			-33.039			-3.304
207501.000			-33.039			-3.304
207600.000			-33.037			-3.304
207701.000			-33.037			-3.304
207800.000			-33.036			-3.304
207900.000			-33.037			-3.304
208001.000			-33.036			-3.304
208100.000			-33.034			-3.303
208200.000			-33.035			-3.303
208302.000			-33.035			-3.304
208401.000			-33.034			-3.303
208500.000			-33.033			-3.303
208601.000			-33.033			-3.303
208700.000			-33.033			-3.303
208800.000			-33.033			-3.303
208901.000			-33.033			-3.303
209000.000			-33.033			-3.303
209100.000			-33.031			-3.303
209202.000			-33.030			-3.303
209301.000			-33.030			-3.303
209400.000			-33.030			-3.303
209500.000			-33.030			-3.303
209600.000			-33.030			-3.303
209701.000			-33.029			-3.303
209800.000			-33.029			-3.303
209900.000			-33.028			-3.303
210001.000			-33.028			-3.303
210101.000			-33.028			-3.303
210201.000			-33.027			-3.303
210301.000			-33.027			-3.303
210400.000			-33.026			-3.303
210500.000			-33.026			-3.303
210601.000			-33.026			-3.303
210700.000			-33.026			-3.303
210800.000			-33.025			-3.303
210902.000			-33.024			-3.302
211001.000			-33.025			-3.303
211101.000			-33.024			-3.302
211201.000			-33.023			-3.302
211300.000			-33.022			-3.302
211400.000			-33.023			-3.302
211501.000			-33.022			-3.302
211600.000			-33.021			-3.302
211700.000			-33.020			-3.302
211802.000			-33.021			-3.302
211901.000			-33.021			-3.302
212000.000			-33.020			-3.302
212101.000			-33.020			-3.302
212200.000			-33.019			-3.302
212300.000			-33.018			-3.302
212401.000			-33.017			-3.302
212500.000			-33.016			-3.302
212600.000			-33.016			-3.302
212702.000			-33.016			-3.302
212801.000			-33.017			-3.302
212901.000			-33.015			-3.302
213000.000			-33.015			-3.301
213100.000			-33.015			-3.301
213201.000			-33.014			-3.301
213300.000			-33.014			-3.301
213400.000			-33.014			-3.301
213502.000			-33.015			-3.301
213601.000			-33.014			-3.301
213701.000			-33.014			-3.301
213801.000			-33.013			-3.301
213900.000			-33.013			-3.301
214000.000			-33.012			-3.301
214101.000			-33.012			-3.301
214200.000			-33.011			-3.301
214300.000			-33.011			-3.301
214402.000			-33.011			-3.301
214501.000			-33.010			-3.301
214600.000			-33.009			-3.301
214701.000			-33.009			-3.301
214800.000			-33.009			-3.301
214900.000			-33.008			-3.301
215001.000			-33.007			-3.301
215100.000			-33.007			-3.301
215200.000			-33.007			-3.301
215302.000			-33.007			-3.301
215401.000			-33.007			-3.301
215500.000			-33.006			-3.301
215601.000			-33.005			-3.301
215700.000			-33.004			-3.300
215800.000			-33.004			-3.300
215900.000			-33.004			-3.300
216000.000			-33.003			-3.300
216101.000			-33.003			-3.300
216201.000			-33.003			-3.300
216301.000			-33.003			-3.300
216401.000			-33.002			-3.300
216500.000			-33.001			-3.300
216600.000			-33.000			-3.300
216701.000			-33.000			-3.300
216800.000			-33.000			-3.300
216900.000			-32.999			-3.300
217001.000			-32.999			-3.300
217101.000			-32.998			-3.300
217201.000			-32.998			-3.300
217301.000			-32.998			-3.300
217400.000			-32.998			-3.300
217500.000			-32.997			-3.300
217601.000			-32.997			-3.300
217700.000			-32.997			-3.300
217800.000			-32.996			-3.300
217901.000			-32.995			-3.300
218001.000			-32.995			-3.299
218101.000			-32.995			-3.300
218202.000			-32.995			-3.299
218300.000			-32.995			-3.299
218400.000			-32.995			-3.299
218501.000			-32.993			-3.299
218600.000			-32.993			-3.299
218700.000			-32.993			-3.299
218801.000			-32.993			-3.299
218900.000			-32.993			-3.299
219002.000			-32.993			-3.299
219101.000			-32.993			-3.299
219201.000			-32.992			-3.299
219301.000			-32.992			-3.299
219400.000			-32.991			-3.299
219500.000			-32.990			-3.299
219601.000			-32.990			-3.299
219700.000			-32.990			-3.299
219800.000			-32.989			-3.299
219901.000			-32.989			-3.299
220001.000			-32.989			-3.299
220101.000			-32.988			-3.299
220201.000			-32.988			-3.299
220300.000			-32.987			-3.299
220400.000			-32.986			-3.299
220501.000			-32.986			-3.299
220600.000			-32.987			-3.299
220700.000			-32.986			-3.299
220801.000			-32.985			-3.299
220901.000			-32.986			-3.299
221001.000			-32.986			-3.299
221102.000			-32.984			-3.298
221200.000			-32.984			-3.298
221300.000			-32.984			-3.298
221401.000			-32.982			-3.298
221500.000			-32.981			-3.298
221600.000			-32.982			-3.298
221701.000			-32.980			-3.298
221800.000			-32.980			-3.298
221901.000			-32.981			-3.298
222002.000			-32.981			-3.298
222100.000			-32.981			-3.298
222200.000			-32.981			-3.298
222300.000			-32.980			-3.298
222400.000			-32.979			-3.298
222501.000			-32.978			-3.298
222600.000			-32.977			-3.298
222700.000			-32.978			-3.298
222802.000			-32.977			-3.298
222901.000			-32.976			-3.298
223001.000			-32.976			-3.298
223101.000			-32.976			-3.298
223200.000			-32.976			-3.298
223300.000			-32.975			-3.298
223401.000			-32.976			-3.298
223500.000			-32.974			-3.297
223600.000			-32.974			-3.297
223701.000			-32.973			-3.297
223801.000			-32.974			-3.297
223901.000			-32.973			-3.297
224001.000			-32.973			-3.297
224100.000			-32.972			-3.297
224200.000			-32.972			-3.297
224301.000			-32.973			-3.297
224400.000			-32.972			-3.297
224500.000			-32.972			-3.297
224601.000			-32.972			-3.297
224701.000			-32.970			-3.297
224801.000			-32.969			-3.297
224901.000			-32.969			-3.297
225000.000			-32.968			-3.297
225100.000			-32.968			-3.297
225201.000			-32.967			-3.297
225300.000			-32.968			-3.297
225400.000			-32.967			-3.297
225500.000			-32.967			-3.297
225600.000			-32.968			-3.297
225702.000			-32.966			-3.297
225801.000			-32.966			-3.297
225900.000			-32.966			-3.297
226001.000			-32.966			-3.297
226100.000			-32.965			-3.297
226200.000			-32.964			-3.296
226301.000			-32.964			-3.296
226400.000			-32.964			-3.296
226500.000			-32.963			-3.296
226602.000			-32.962			-3.296
226701.000			-32.962			-3.296
226801.000			-32.961			-3.296
226901.000			-32.961			-3.296
227000.000			-32.962			-3.296
227100.000			-32.961			-3.296
227201.000			-32.961			-3.296
227300.000			-32.960			-3.296
227400.000			-32.961			-3.296
227501.000			-32.960			-3.296
227601.000			-32.959			-3.296
227701.000			-32.959			-3.296
227801.000			-32.958			-3.296
227900.000			-32.959			-3.296
228000.000			-32.959			-3.296
228101.000			-32.958			-3.296
228200.000			-32.957			-3.296
228300.000			-32.955			-3.296
228401.000			-32.956			-3.296
228501.000			-32.956			-3.296
228602.000			-32.955			-3.296
228701.000			-32.955			-3.296
228800.000			-32.955			-3.296
228901.000			-32.955			-3.295
229000.000			-32.955			-3.295
229100.000			-32.954			-3.295
229201.000			-32.952			-3.295
229300.000			-32.952			-3.295
229400.000			-32.953			-3.295
229502.000			-32.952			-3.295
229601.000			-32.952			-3.295
229700.000			-32.952			-3.295
229801.000			-32.951			-3.295
229900.000			-32.950			-3.295
230000.000			-32.950			-3.295
230101.000			-32.949			-3.295
230200.000			-32.949			-3.295
230300.000			-32.949			-3.295
230402.000			-32.949			-3.295
230501.000			-32.948			-3.295
230601.000			-32.948			-3.295
230701.000			-32.948			-3.295
230800.000			-32.947			-3.295
230900.000			-32.947			-3.295
231001.000			-32.946			-3.295
231100.000			-32.945			-3.295
231200.000			-32.945			-3.295
231301.000			-32.945			-3.294
231401.000			-32.945			-3.295
231501.000			-32.945			-3.295
231601.000			-32.944			-3.294
231700.000			-32.945			-3.294
231800.000			-32.944			-3.294
231900.000			-32.943			-3.294
232000.000			-32.942			-3.294
232101.000			-32.942			-3.294
232200.000			-32.942			-3.294
232301.000			-32.941			-3.294
232402.000			-32.942			-3.294
232500.000			-32.941			-3.294
232600.000			-32.940			-3.294
232701.000			-32.940			-3.294
232800.000			-32.940			-3.294
232900.000			-32.939			-3.294
233001.000			-32.939			-3.294
233100.000			-32.938			-3.294
233201.000			-32.937			-3.294
233302.000			-32.937			-3.294
233401.000			-32.937			-3.294
233500.000			-32.936			-3.294
233601.000			-32.936			-3.294
233700.000			-32.936			-3.294
233800.000			-32.936			-3.294
233901.000			-32.936			-3.294
234000.000			-32.934			-3.293
234100.000			-32.934			-3.293
234202.000			-32.934			-3.293
234301.000			-32.934			-3.293
234400.000			-32.933			-3.293
234501.000			-32.932			-3.293
234600.000			-32.932			-3.293
234700.000			-32.932			-3.293
234801.000			-32.932			-3.293
234900.000			-32.932			-3.293
235000.000			-32.930			-3.293
235102.000			-32.930			-3.293
235201.000			-32.930			-3.293
235302.000			-32.930			-3.293
235400.000			-32.929			-3.293
235500.000			-32.928			-3.293
235601.000			-32.928			-3.293
235700.000			-32.928			-3.293
235800.000			-32.927			-3.293
235901.000			-32.928			-3.293
236000.000			-32.926			-3.293
236101.000			-32.926			-3.293
236202.000			-32.926			-3.293
236300.000			-32.926			-3.293
236400.000			-32.925			-3.293
236501.000			-32.925			-3.293
236600.000			-32.926			-3.293
236700.000			-32.925			-3.293
236801.000			-32.925			-3.293
236900.000			-32.925			-3.292
237001.000			-32.926			-3.293
237102.000			-32.925			-3.293
237201.000			-32.924			-3.292
237300.000			-32.924			-3.292
237401.000			-32.923			-3.292
237500.000			-32.922			-3.292
237600.000			-32.921			-3.292
237701.000			-32.921			-3.292
237800.000			-32.921			-3.292
237900.000			-32.921			-3.292
238002.000			-32.921			-3.292
238101.000			-32.921			-3.292
238200.000			-32.920			-3.292
238300.000			-32.919			-3.292
238400.000			-32.919			-3.292
238501.000			-32.919			-3.292
238600.000			-32.919			-3.292
238700.000			-32.918			-3.292
238801.000			-32.919			-3.292
238901.000			-32.918			-3.292
239001.000			-32.917			-3.292
239102.000			-32.917			-3.292
239200.000			-32.916			-3.292
239300.000			-32.917			-3.292
239401.000			-32.915			-3.291
239500.000			-32.915			-3.291
239600.000			-32.915			-3.292
239701.000			-32.914			-3.291
239800.000			-32.914			-3.291
239901.000			-32.915			-3.291
240002.000			-32.914			-3.291
240100.000			-32.912			-3.291
240200.000			-32.913			-3.291
240301.000			-32.912			-3.291
240400.000			-32.912			-3.291
240500.000			-32.911			-3.291
240601.000			-32.911			-3.291
240700.000			-32.911			-3.291
240801.000			-32.911			-3.291
240902.000			-32.910			-3.291
241000.000			-32.910			-3.291
241100.000			-32.909			-3.291
241201.000			-32.909			-3.291
241300.000			-32.909			-3.291
241400.000			-32.908			-3.291
241500.000			-32.907			-3.291
241600.000			-32.907			-3.291
241702.000			-32.907			-3.291
241801.000			-32.908			-3.291
241900.000			-32.908			-3.291
242001.000			-32.907			-3.291
242100.000			-32.906			-3.291
242200.000			-32.905			-3.291
242301.000			-32.905			-3.290
242400.000			-32.905			-3.290
242500.000			-32.905			-3.291
242602.000			-32.905			-3.290
242701.000			-32.905			-3.290
242800.000			-32.905			-3.290
242901.000			-32.904			-3.290
243000.000			-32.904			-3.290
243100.000			-32.903			-3.290
243201.000			-32.902			-3.290
243300.000			-32.901			-3.290
243400.000			-32.901			-3.290
243502.000			-32.902			-3.290
243601.000			-32.901			-3.290
243700.000			-32.900			-3.290
243801.000			-32.900			-3.290
243900.000			-32.900			-3.290
244000.000			-32.899			-3.290
244101.000			-32.900			-3.290
244200.000			-32.899			-3.290
244300.000			-32.898			-3.290
244401.000			-32.899			-3.290
244501.000			-32.897			-3.290
244602.000			-32.897			-3.290
244700.000			-32.898			-3.290
244800.000			-32.896			-3.290
244901.000			-32.895			-3.289
245000.000			-32.896			-3.290
245100.000			-32.895			-3.290
245201.000			-32.895			-3.289
245300.000			-32.895			-3.289
245401.000			-32.895			-3.289
245502.000			-32.893			-3.289
245601.000			-32.893			-3.289
245700.000			-32.893			-3.289
245801.000			-32.893			-3.289
245900.000			-32.893			-3.289
246000.000			-32.892			-3.289
246101.000			-32.892			-3.289
246200.000			-32.892			-3.289
246300.000			-32.892			-3.289
246402.000			-32.891			-3.289
246501.000			-32.891			-3.289
246600.000			-32.890			-3.289
246701.000			-32.891			-3.289
246800.000			-32.889			-3.289
246900.000			-32.889			-3.289
247001.000			-32.888			-3.289
247100.000			-32.888			-3.289
247200.000			-32.888			-3.289
247301.000			-32.888			-3.289
247401.000			-32.887			-3.289
247501.000			-32.887			-3.289
247601.000			-32.887			-3.289
247700.000			-32.886			-3.289
247800.000			-32.886			-3.289
247900.000			-32.886			-3.289
248000.000			-32.885			-3.289
248101.000			-32.885			-3.288
248200.000			-32.884			-3.288
248300.000			-32.884			-3.288
248402.000			-32.884			-3.288
248501.000			-32.883			-3.288
248600.000			-32.884			-3.288
248701.000			-32.883			-3.288
248800.000			-32.883			-3.288
248900.000			-32.882			-3.288
249001.000			-32.882			-3.288
249100.000			-32.881			-3.288
249200.000			-32.880			-3.288
249302.000			-32.880			-3.288
249401.000			-32.880			-3.288
249501.000			-32.880			-3.288
249601.000			-32.879			-3.288
249700.000			-32.877			-3.288
249800.000			-32.877			-3.288
249901.000			-32.878			-3.288
250000.000			-32.878			-3.288
250100.000			-32.877			-3.288
250201.000			-32.877			-3.288
250301.000			-32.876			-3.288
250401.000			-32.876			-3.288
250501.000			-32.876			-3.288
250600.000			-32.876			-3.288
250700.000			-32.876			-3.288
250801.000			-32.875			-3.287
250900.000			-32.874			-3.287
251000.000			-32.874			-3.287
251100.000			-32.873			-3.287
251200.000			-32.874			-3.287
251302.000			-32.874			-3.287
251401.000			-32.873			-3.287
251500.000			-32.872			-3.287
251601.000			-32.872			-3.287
251700.000			-32.871			-3.287
251800.000			-32.871			-3.287
251901.000			-32.871			-3.287
252000.000			-32.871			-3.287
252100.000			-32.870			-3.287
252202.000			-32.869			-3.287
252301.000			-32.869			-3.287
252400.000			-32.870			-3.287
252501.000			-32.870			-3.287
252600.000			-32.869			-3.287
252700.000			-32.868			-3.287
252801.000			-32.868			-3.287
252900.000			-32.868			-3.287
253000.000			-32.867			-3.287
253102.000			-32.867			-3.287
253201.000			-32.866			-3.287
253301.000			-32.866			-3.287
253401.000			-32.865			-3.287
253500.000			-32.866			-3.287
253600.000			-32.866			-3.287
253701.000			-32.865			-3.286
253800.000			-32.864			-3.286
253900.000			-32.864			-3.286
254001.000			-32.864			-3.286
254101.000			-32.864			-3.286
254202.000			-32.863			-3.286
254300.000			-32.863			-3.286
254400.000			-32.863			-3.286
254501.000			-32.863			-3.286
254600.000			-32.862			-3.286
254700.000			-32.861			-3.286
254801.000			-32.860			-3.286
254900.000			-32.860			-3.286
255000.000			-32.860			-3.286
255102.000			-32.860			-3.286
255201.000			-32.861			-3.286
255300.000			-32.860			-3.286
255401.000			-32.859			-3.286
255500.000			-32.859			-3.286
255600.000			-32.859			-3.286
255701.000			-32.859			-3.286
255800.000			-32.859			-3.286
255900.000			-32.858			-3.286
256002.000			-32.858			-3.286
256101.000			-32.858			-3.286
256201.000			-32.858			-3.286
256301.000			-32.856			-3.286
256400.000			-32.856			-3.286
256500.000			-32.856			-3.286
256601.000			-32.856			-3.286
256700.000			-32.855			-3.286
256800.000			-32.856			-3.286
256901.000			-32.855			-3.285
257001.000			-32.854			-3.285
257101.000			-32.855			-3.285
257201.000			-32.854			-3.285
257300.000			-32.853			-3.285
257400.000			-32.853			-3.285
257500.000			-32.853			-3.285
257600.000			-32.853			-3.285
257701.000			-32.853			-3.285
257800.000			-32.851			-3.285
257901.000			-32.851			-3.285
258002.000			-32.850			-3.285
258101.000			-32.849			-3.285
258200.000			-32.849			-3.285
258301.000			-32.849			-3.285
258400.000			-32.849			-3.285
258500.000			-32.849			-3.285
258601.000			-32.849			-3.285
258700.000			-32.848			-3.285
258800.000			-32.848			-3.285
258902.000			-32.848			-3.285
259001.000			-32.848			-3.285
259101.000			-32.848			-3.285
259201.000			-32.847			-3.285
259300.000			-32.846			-3.285
259400.000			-32.846			-3.285
259501.000			-32.846			-3.285
259600.000			-32.845			-3.285
259700.000			-32.846			-3.285
259801.000			-32.845			-3.284
259901.000			-32.844			-3.284
260001.000			-32.844			-3.284
260102.000			-32.845			-3.285
260200.000			-32.845			-3.284
260300.000			-32.844			-3.284
260401.000			-32.842			-3.284
260500.000			-32.842			-3.284
260600.000			-32.842			-3.284
260700.000			-32.842			-3.284
260801.000			-32.842			-3.284
260902.000			-32.841			-3.284
261001.000			-32.841			-3.284
261100.000			-32.841			-3.284
261201.000			-32.840			-3.284
261300.000			-32.840			-3.284
261400.000			-32.839			-3.284
261501.000			-32.839			-3.284
261600.000			-32.839			-3.284
261700.000			-32.839			-3.284
261802.000			-32.839			-3.284
261901.000			-32.837			-3.284
262000.000			-32.837			-3.284
262101.000			-32.837			-3.284
262200.000			-32.836			-3.284
262300.000			-32.836			-3.284
262401.000			-32.837			-3.284
262500.000			-32.835			-3.284
262600.000			-32.835			-3.284
262702.000			-32.834			-3.283
262801.000			-32.834			-3.283
262901.000			-32.834			-3.283
263001.000			-32.834			-3.283
263100.000			-32.834			-3.283
263200.000			-32.834			-3.283
263301.000			-32.834			-3.283
263400.000			-32.832			-3.283
263500.000			-32.831			-3.283
263602.000			-32.832			-3.283
263701.000			-32.831			-3.283
263802.000			-32.830			-3.283
263900.000			-32.830			-3.283
264000.000			-32.831			-3.283
264101.000			-32.830			-3.283
264200.000			-32.830			-3.283
264300.000			-32.829			-3.283
264401.000			-32.828			-3.283
264500.000			-32.828			-3.283
264601.000			-32.827			-3.283
264702.000			-32.827			-3.283
264800.000			-32.827			-3.283
264900.000			-32.827			-3.283
265001.000			-32.827			-3.283
265100.000			-32.826			-3.283
265200.000			-32.825			-3.283
265301.000			-32.825			-3.283
265400.000			-32.825			-3.282
265501.000			-32.823			-3.282
265602.000			-32.824			-3.282
265701.000			-32.824			-3.282
265800.000			-32.823			-3.282
265901.000			-32.823			-3.282
266000.000			-32.823			-3.282
266100.000			-32.822			-3.282
266201.000			-32.821			-3.282
266300.000			-32.821			-3.282
266401.000			-32.821			-3.282
266502.000			-32.822			-3.282
266601.000			-32.821			-3.282
266700.000			-32.821			-3.282
266801.000			-32.820			-3.282
266900.000			-32.820			-3.282
267000.000			-32.820			-3.282
267100.000			-32.819			-3.282
267200.000			-32.818			-3.282
267301.000			-32.818			-3.282
267401.000			-32.818			-3.282
267501.000			-32.817			-3.282
267602.000			-32.818			-3.282
267700.000			-32.818			-3.282
267800.000			-32.818			-3.282
267901.000			-32.818			-3.282
268000.000			-32.817			-3.282
268100.000			-32.816			-3.282
268201.000			-32.817			-3.282
268300.000			-32.816			-3.282
268401.000			-32.815			-3.282
268502.000			-32.815			-3.282
268600.000			-32.815			-3.281
268700.000			-32.815			-3.281
268801.000			-32.814			-3.281
268900.000			-32.814			-3.281
269000.000			-32.814			-3.281
269101.000			-32.813			-3.281
269200.000			-32.813			-3.281
269300.000			-32.812			-3.281
269402.000			-32.812			-3.281
269501.000			-32.812			-3.281
269600.000			-32.812			-3.281
269701.000			-32.810			-3.281
269800.000			-32.811			-3.281
269900.000			-32.811			-3.281
270001.000			-32.811			-3.281
270100.000			-32.811			-3.281
270200.000			-32.810			-3.281
270302.000			-32.811			-3.281
270401.000			-32.809			-3.281
270501.000			-32.808			-3.281
270600.000			-32.808			-3.281
270700.000			-32.808			-3.281
270801.000			-32.808			-3.281
270900.000			-32.808			-3.281
271000.000			-32.807			-3.281
271101.000			-32.806			-3.281
271201.000			-32.806			-3.281
271301.000			-32.806			-3.281
271401.000			-32.807			-3.281
271500.000			-32.806			-3.281
271600.000			-32.806			-3.281
271701.000			-32.805			-3.281
271800.000			-32.804			-3.280
271900.000			-32.804			-3.280
272001.000			-32.803			-3.280
272101.000			-32.803			-3.280
272201.000			-32.804			-3.280
272302.000			-32.804			-3.280
272400.000			-32.802			-3.280
272500.000			-32.801			-3.280
272601.000			-32.801			-3.280
272700.000			-32.802			-3.280
272800.000			-32.803			-3.280
272901.000			-32.803			-3.280
273001.000			-32.802			-3.280
273101.000			-32.801			-3.280
273202.000			-32.801			-3.280
273300.000			-32.800			-3.280
273400.000			-32.799			-3.280
273500.000			-32.799			-3.280
273600.000			-32.799			-3.280
273701.000			-32.800			-3.280
273800.000			-32.799			-3.280
273900.000			-32.797			-3.280
274002.000			-32.797			-3.280
274101.000			-32.799			-3.280
274201.000			-32.798			-3.280
274301.000			-32.796			-3.280
274400.000			-32.796			-3.280
274500.000			-32.796			-3.280
274601.000			-32.796			-3.280
274700.000			-32.795			-3.280
274800.000			-32.795			-3.280
274901.000			-32.795			-3.280
275001.000			-32.795			-3.280
275101.000			-32.796			-3.280
275202.000			-32.795			-3.279
275300.000			-32.793			-3.279
275400.000			-32.793			-3.279
275501.000			-32.793			-3.279
275600.000			-32.793			-3.279
275700.000			-32.793			-3.279
275801.000			-32.793			-3.279
275900.000			-32.792			-3.279
276001.000			-32.792			-3.279
276102.000			-32.793			-3.279
276201.000			-32.791			-3.279
276300.000			-32.791			-3.279
276401.000			-32.792			-3.279
276500.000			-32.790			-3.279
276600.000			-32.789			-3.279
276700.000			-32.789			-3.279
276800.000			-32.790			-3.279
276901.000			-32.789			-3.279
277001.000			-32.789			-3.279
277101.000			-32.788			-3.279
277201.000			-32.787			-3.279
277300.000			-32.788			-3.279
277400.000			-32.787			-3.279
277501.000			-32.787			-3.279
277600.000			-32.788			-3.279
277700.000			-32.788			-3.279
277801.000			-32.787			-3.279
277900.000			-32.786			-3.279
278001.000			-32.786			-3.279
278102.000			-32.786			-3.279
278200.000			-32.785			-3.279
278300.000			-32.784			-3.278
278401.000			-32.785			-3.279
278500.000			-32.785			-3.279
278600.000			-32.785			-3.278
278701.000			-32.784			-3.278
278800.000			-32.783			-3.278
278901.000			-32.783			-3.278
279002.000			-32.783			-3.278
279101.000			-32.782			-3.278
279200.000			-32.782			-3.278
279301.000			-32.782			-3.278
279400.000			-32.782			-3.278
279500.000			-32.781			-3.278
279601.000			-32.781			-3.278
279700.000			-32.781			-3.278
279800.000			-32.782			-3.278
279902.000			-32.781			-3.278
280001.000			-32.779			-3.278
280102.000			-32.778			-3.278
280200.000			-32.778			-3.278
280300.000			-32.779			-3.278
280401.000			-32.779			-3.278
280500.000			-32.778			-3.278
280600.000			-32.776			-3.278
280701.000			-32.777			-3.278
280800.000			-32.777			-3.278
280901.000			-32.777			-3.278
281002.000			-32.777			-3.278
281101.000			-32.776			-3.278
281200.000			-32.776			-3.278
281301.000			-32.776			-3.278
281400.000			-32.776			-3.278
281500.000			-32.774			-3.277
281601.000			-32.774			-3.277
281700.000			-32.775			-3.278
281800.000			-32.775			-3.277
281902.000			-32.774			-3.277
282001.000			-32.774			-3.277
282100.000			-32.774			-3.277
282201.000			-32.774			-3.277
282300.000			-32.773			-3.277
282400.000			-32.771			-3.277
282501.000			-32.771			-3.277
282600.000			-32.771			-3.277
282700.000			-32.772			-3.277
282802.000			-32.771			-3.277
282901.000			-32.771			-3.277
283002.000			-32.770			-3.277
283100.000			-32.770			-3.277
283200.000			-32.771			-3.277
283301.000			-32.771			-3.277
283400.000			-32.770			-3.277
283500.000			-32.769			-3.277
283601.000			-32.769			-3.277
283701.000			-32.768			-3.277
283801.000			-32.767			-3.277
283902.000			-32.768			-3.277
284000.000			-32.768			-3.277
284100.000			-32.767			-3.277
284201.000			-32.767			-3.277
284300.000			-32.767			-3.277
284400.000			-32.766			-3.277
284501.000			-32.766			-3.277
284600.000			-32.766			-3.277
284701.000			-32.766			-3.277
284802.000			-32.765			-3.277
284901.000			-32.766			-3.277
285000.000			-32.766			-3.277
285101.000			-32.765			-3.277
285200.000			-32.763			-3.276
285300.000			-32.762			-3.276
285401.000			-32.763			-3.276
285500.000			-32.763			-3.276
285600.000			-32.763			-3.276
285702.000			-32.762			-3.276
285801.000			-32.762			-3.276
285900.000			-32.761			-3.276
286001.000			-32.761			-3.276
286100.000			-32.761			-3.276
286200.000			-32.761			-3.276
286300.000			-32.760			-3.276
286400.000			-32.759			-3.276
286501.000			-32.759			-3.276
286601.000			-32.758			-3.276
286701.000			-32.760			-3.276
286802.000			-32.759			-3.276
286900.000			-32.757			-3.276
287000.000			-32.758			-3.276
287101.000			-32.759			-3.276
287200.000			-32.758			-3.276
287300.000			-32.759			-3.276
287401.000			-32.758			-3.276
287500.000			-32.757			-3.276
287601.000			-32.756			-3.276
287702.000			-32.757			-3.276
287801.000			-32.756			-3.276
287900.000			-32.755			-3.276
288001.000			-32.756			-3.276
288100.000			-32.755			-3.276
288200.000			-32.755			-3.275
288301.000			-32.754			-3.275
288400.000			-32.754			-3.275
288500.000			-32.754			-3.275
288602.000			-32.754			-3.275
288701.000			-32.753			-3.275
288800.000			-32.753			-3.275
288901.000			-32.753			-3.275
289000.000			-32.754			-3.275
289100.000			-32.754			-3.275
289201.000			-32.752			-3.275
289300.000			-32.752			-3.275
289400.000			-32.751			-3.275
289502.000			-32.752			-3.275
289601.000			-32.751			-3.275
289702.000			-32.751			-3.275
289800.000			-32.750			-3.275
289900.000			-32.750			-3.275
290001.000			-32.750			-3.275
290100.000			-32.750			-3.275
290200.000			-32.749			-3.275
290301.000			-32.747			-3.275
290400.000			-32.747			-3.275
290501.000			-32.748			-3.275
290602.000			-32.749			-3.275
290700.000			-32.748			-3.275
290800.000			-32.746			-3.275
290901.000			-32.747			-3.275
291000.000			-32.746			-3.275
291100.000			-32.746			-3.275
291201.000			-32.746			-3.275
291300.000			-32.746			-3.275
291401.000			-32.746			-3.275
291502.000			-32.745			-3.275
291601.000			-32.744			-3.274
291700.000			-32.744			-3.274
291801.000			-32.743			-3.274
291900.000			-32.743			-3.274
292000.000			-32.743			-3.274
292101.000			-32.743			-3.274
292200.000			-32.743			-3.274
292300.000			-32.742			-3.274
292402.000			-32.742			-3.274
292501.000			-32.741			-3.274
292600.000			-32.742			-3.274
292700.000			-32.742			-3.274
292800.000			-32.740			-3.274
292901.000			-32.739			-3.274
293000.000			-32.739			-3.274
293100.000			-32.740			-3.274
293201.000			-32.740			-3.274
293301.000			-32.739			-3.274
293401.000			-32.740			-3.274
293501.000			-32.739			-3.274
293600.000			-32.738			-3.274
293700.000			-32.738			-3.274
293801.000			-32.738			-3.274
293900.000			-32.736			-3.274
294000.000			-32.737			-3.274
294101.000			-32.737			-3.274
294201.000			-32.737			-3.274
294301.000			-32.738			-3.274
294402.000			-32.737			-3.274
294500.000			-32.735			-3.273
294600.000			-32.734			-3.273
294701.000			-32.735			-3.274
294800.000			-32.735			-3.274
294900.000			-32.735			-3.273
295001.000			-32.734			-3.273
295100.000			-32.734			-3.273
295201.000			-32.735			-3.274
295302.000			-32.734			-3.273
295401.000			-32.734			-3.273
295500.000			-32.734			-3.273
295601.000			-32.733			-3.273
295700.000			-32.733			-3.273
295800.000			-32.733			-3.273
295900.000			-32.733			-3.273
296000.000			-32.732			-3.273
296101.000			-32.731			-3.273
296201.000			-32.731			-3.273
296301.000			-32.731			-3.273
296401.000			-32.731			-3.273
296500.000			-32.731			-3.273
296600.000			-32.730			-3.273
296701.000			-32.730			-3.273
296800.000			-32.729			-3.273
296900.000			-32.729			-3.273
297001.000			-32.729			-3.273
297101.000			-32.729			-3.273
297201.000			-32.729			-3.273
297301.000			-32.728			-3.273
297400.000			-32.728			-3.273
297500.000			-32.727			-3.273
297601.000			-32.727			-3.273
297700.000			-32.726			-3.273
297800.000			-32.727			-3.273
297901.000			-32.726			-3.273
298001.000			-32.727			-3.273
298101.000			-32.726			-3.273
298202.000			-32.725			-3.273
298300.000			-32.725			-3.272
298400.000			-32.723			-3.272
298501.000			-32.724			-3.272
298600.000			-32.725			-3.272
298700.000			-32.725			-3.272
298801.000			-32.724			-3.272
298900.000			-32.723			-3.272
299002.000			-32.723			-3.272
299101.000			-32.722			-3.272
299201.000			-32.722			-3.272
299301.000			-32.721			-3.272
299400.000			-32.721			-3.272
299500.000			-32.722			-3.272
299601.000			-32.722			-3.272
299700.000			-32.721			-3.272
299800.000			-32.721			-3.272
299902.000			-32.720			-3.272
