# Acquired on 10/01/2024 10:13:56 
# SPIDER: Creep_-10mm_07714532B-1
# CREEP MEASUREMENT

# time [ms]		force [N]		stiffness [N/mm]
0.000			50.416			-5.042
101.000			52.101			-5.210
201.000			52.585			-5.258
301.000			52.366			-5.237
400.000			52.084			-5.208
500.000			51.869			-5.187
601.000			51.537			-5.154
700.000			51.403			-5.140
801.000			51.281			-5.128
902.000			51.172			-5.117
1000.000			51.072			-5.107
1100.000			50.982			-5.098
1201.000			50.897			-5.090
1300.000			50.745			-5.074
1400.000			50.676			-5.068
1502.000			50.610			-5.061
1601.000			50.548			-5.055
1700.000			50.489			-5.049
1801.000			50.435			-5.043
1900.000			50.382			-5.038
2000.000			50.331			-5.033
2101.000			50.238			-5.024
2201.000			50.194			-5.019
2301.000			50.152			-5.015
2401.000			50.110			-5.011
2500.000			50.070			-5.007
2600.000			50.031			-5.003
2700.000			49.995			-4.999
2800.000			49.925			-4.993
2901.000			49.892			-4.989
3001.000			49.859			-4.986
3101.000			49.827			-4.983
3201.000			49.796			-4.980
3300.000			49.766			-4.977
3400.000			49.737			-4.974
3501.000			49.682			-4.968
3600.000			49.655			-4.965
3700.000			49.628			-4.963
3802.000			49.602			-4.960
3901.000			49.578			-4.958
4000.000			49.553			-4.955
4101.000			49.528			-4.953
4200.000			49.504			-4.950
4300.000			49.460			-4.946
4401.000			49.438			-4.944
4500.000			49.417			-4.942
4601.000			49.396			-4.940
4702.000			49.375			-4.938
4800.000			49.354			-4.935
4900.000			49.334			-4.933
5001.000			49.296			-4.930
5100.000			49.277			-4.928
5200.000			49.258			-4.926
5301.000			49.239			-4.924
5401.000			49.221			-4.922
5501.000			49.204			-4.920
5601.000			49.187			-4.919
5700.000			49.152			-4.915
5800.000			49.136			-4.914
5900.000			49.121			-4.912
6000.000			49.105			-4.911
6102.000			49.087			-4.909
6201.000			49.072			-4.907
6301.000			49.056			-4.906
6401.000			49.041			-4.904
6500.000			49.012			-4.901
6600.000			48.997			-4.900
6701.000			48.982			-4.898
6800.000			48.969			-4.897
6901.000			48.956			-4.896
7002.000			48.941			-4.894
7100.000			48.928			-4.893
7200.000			48.900			-4.890
7301.000			48.887			-4.889
7400.000			48.875			-4.887
7500.000			48.861			-4.886
7601.000			48.849			-4.885
7701.000			48.837			-4.884
7801.000			48.825			-4.883
7901.000			48.801			-4.880
8000.000			48.789			-4.879
8100.000			48.778			-4.878
8201.000			48.767			-4.877
8300.000			48.755			-4.875
8400.000			48.743			-4.874
8502.000			48.731			-4.873
8601.000			48.719			-4.872
8700.000			48.699			-4.870
8801.000			48.688			-4.869
8900.000			48.676			-4.868
9000.000			48.666			-4.867
9100.000			48.656			-4.866
9200.000			48.646			-4.865
9302.000			48.635			-4.863
9401.000			48.615			-4.861
9500.000			48.606			-4.861
9601.000			48.596			-4.860
9700.000			48.586			-4.859
9800.000			48.576			-4.858
9901.000			48.566			-4.857
10000.000			48.556			-4.856
10100.000			48.537			-4.854
10202.000			48.528			-4.853
10301.000			48.519			-4.852
10400.000			48.511			-4.851
10501.000			48.500			-4.850
10600.000			48.491			-4.849
10700.000			48.484			-4.848
10801.000			48.475			-4.848
10901.000			48.457			-4.846
11001.000			48.449			-4.845
11101.000			48.440			-4.844
11200.000			48.431			-4.843
11300.000			48.423			-4.842
11401.000			48.415			-4.841
11500.000			48.406			-4.841
11600.000			48.390			-4.839
11702.000			48.382			-4.838
11801.000			48.375			-4.838
11900.000			48.367			-4.837
12001.000			48.358			-4.836
12100.000			48.351			-4.835
12200.000			48.341			-4.834
12300.000			48.327			-4.833
12400.000			48.320			-4.832
12502.000			48.311			-4.831
12601.000			48.304			-4.830
12700.000			48.296			-4.830
12801.000			48.289			-4.829
12900.000			48.281			-4.828
13000.000			48.273			-4.827
13101.000			48.259			-4.826
13200.000			48.252			-4.825
13301.000			48.245			-4.825
13402.000			48.237			-4.824
13500.000			48.230			-4.823
13600.000			48.223			-4.822
13701.000			48.216			-4.822
13800.000			48.202			-4.820
13900.000			48.196			-4.820
14001.000			48.189			-4.819
14101.000			48.182			-4.818
14201.000			48.176			-4.818
14301.000			48.170			-4.817
14400.000			48.163			-4.816
14500.000			48.151			-4.815
14601.000			48.144			-4.814
14700.000			48.137			-4.814
14800.000			48.131			-4.813
14902.000			48.125			-4.813
15001.000			48.119			-4.812
15100.000			48.112			-4.811
15201.000			48.106			-4.811
15300.000			48.092			-4.809
15400.000			48.087			-4.809
15500.000			48.081			-4.808
15600.000			48.075			-4.807
15702.000			48.068			-4.807
15801.000			48.063			-4.806
15900.000			48.057			-4.806
16001.000			48.046			-4.805
16100.000			48.038			-4.804
16200.000			48.032			-4.803
16301.000			48.027			-4.803
16400.000			48.021			-4.802
16501.000			48.016			-4.802
16602.000			48.011			-4.801
16700.000			48.000			-4.800
16800.000			47.994			-4.799
16901.000			47.989			-4.799
17000.000			47.984			-4.798
17100.000			47.977			-4.798
17201.000			47.971			-4.797
17301.000			47.966			-4.797
17401.000			47.960			-4.796
17502.000			47.950			-4.795
17600.000			47.944			-4.794
17700.000			47.939			-4.794
17801.000			47.933			-4.793
17900.000			47.927			-4.793
18000.000			47.922			-4.792
18101.000			47.918			-4.792
18201.000			47.908			-4.791
18301.000			47.903			-4.790
18401.000			47.898			-4.790
18500.000			47.893			-4.789
18600.000			47.887			-4.789
18700.000			47.883			-4.788
18800.000			47.878			-4.788
18901.000			47.868			-4.787
19001.000			47.862			-4.786
19101.000			47.858			-4.786
19201.000			47.853			-4.785
19300.000			47.849			-4.785
19400.000			47.843			-4.784
19501.000			47.838			-4.784
19600.000			47.833			-4.783
19700.000			47.823			-4.782
19802.000			47.818			-4.782
19901.000			47.814			-4.781
20001.000			47.810			-4.781
20101.000			47.805			-4.781
20200.000			47.801			-4.780
20300.000			47.797			-4.780
20401.000			47.786			-4.779
20500.000			47.782			-4.778
20601.000			47.777			-4.778
20702.000			47.773			-4.777
20801.000			47.769			-4.777
20900.000			47.765			-4.776
21001.000			47.761			-4.776
21100.000			47.750			-4.775
21200.000			47.747			-4.775
21301.000			47.742			-4.774
21401.000			47.738			-4.774
21501.000			47.734			-4.773
21602.000			47.729			-4.773
21700.000			47.724			-4.772
21800.000			47.720			-4.772
21900.000			47.711			-4.771
22000.000			47.708			-4.771
22101.000			47.704			-4.770
22200.000			47.700			-4.770
22301.000			47.694			-4.769
22402.000			47.690			-4.769
22500.000			47.687			-4.769
22600.000			47.677			-4.768
22701.000			47.674			-4.767
22800.000			47.669			-4.767
22900.000			47.665			-4.767
23001.000			47.661			-4.766
23101.000			47.658			-4.766
23201.000			47.654			-4.765
23301.000			47.646			-4.765
23400.000			47.643			-4.764
23500.000			47.638			-4.764
23601.000			47.634			-4.763
23700.000			47.631			-4.763
23800.000			47.626			-4.763
23902.000			47.622			-4.762
24001.000			47.619			-4.762
24100.000			47.611			-4.761
24201.000			47.607			-4.761
24300.000			47.603			-4.760
24400.000			47.599			-4.760
24501.000			47.595			-4.759
24600.000			47.592			-4.759
24701.000			47.588			-4.759
24802.000			47.581			-4.758
24900.000			47.577			-4.758
25000.000			47.573			-4.757
25100.000			47.570			-4.757
25200.000			47.566			-4.757
25301.000			47.563			-4.756
25400.000			47.559			-4.756
25501.000			47.551			-4.755
25602.000			47.547			-4.755
25700.000			47.543			-4.754
25800.000			47.540			-4.754
25901.000			47.538			-4.754
26000.000			47.533			-4.753
26100.000			47.529			-4.753
26201.000			47.526			-4.753
26301.000			47.518			-4.752
26401.000			47.514			-4.751
26501.000			47.510			-4.751
26600.000			47.508			-4.751
26700.000			47.504			-4.750
26801.000			47.501			-4.750
26900.000			47.497			-4.750
27000.000			47.490			-4.749
27102.000			47.487			-4.749
27201.000			47.483			-4.748
27301.000			47.480			-4.748
27401.000			47.478			-4.748
27500.000			47.475			-4.747
27600.000			47.472			-4.747
27701.000			47.464			-4.746
27800.000			47.461			-4.746
27900.000			47.457			-4.746
28002.000			47.454			-4.745
28101.000			47.450			-4.745
28200.000			47.446			-4.745
28300.000			47.443			-4.744
28400.000			47.439			-4.744
28501.000			47.435			-4.743
28600.000			47.431			-4.743
28700.000			47.429			-4.743
28802.000			47.426			-4.743
28901.000			47.421			-4.742
29000.000			47.419			-4.742
29101.000			47.415			-4.742
29200.000			47.408			-4.741
29300.000			47.405			-4.741
29401.000			47.401			-4.740
29500.000			47.398			-4.740
29601.000			47.394			-4.739
29702.000			47.392			-4.739
29800.000			47.390			-4.739
29900.000			47.387			-4.739
30001.000			47.380			-4.738
30100.000			47.377			-4.738
30200.000			47.375			-4.737
30301.000			47.373			-4.737
30401.000			47.369			-4.737
30501.000			47.365			-4.736
30601.000			47.361			-4.736
30700.000			47.355			-4.735
30800.000			47.353			-4.735
30901.000			47.350			-4.735
31000.000			47.346			-4.735
31100.000			47.344			-4.734
31202.000			47.340			-4.734
31301.000			47.338			-4.734
31400.000			47.331			-4.733
31500.000			47.328			-4.733
31600.000			47.325			-4.733
31701.000			47.322			-4.732
31800.000			47.319			-4.732
31900.000			47.317			-4.732
32002.000			47.313			-4.731
32101.000			47.311			-4.731
32200.000			47.305			-4.730
32301.000			47.301			-4.730
32400.000			47.298			-4.730
32500.000			47.296			-4.730
32601.000			47.292			-4.729
32700.000			47.290			-4.729
32801.000			47.288			-4.729
32902.000			47.283			-4.728
33000.000			47.280			-4.728
33100.000			47.277			-4.728
33201.000			47.274			-4.727
33300.000			47.271			-4.727
33400.000			47.268			-4.727
33501.000			47.265			-4.726
33601.000			47.260			-4.726
33701.000			47.257			-4.726
33801.000			47.254			-4.725
33900.000			47.251			-4.725
34000.000			47.249			-4.725
34101.000			47.246			-4.725
34200.000			47.243			-4.724
34300.000			47.240			-4.724
34402.000			47.234			-4.723
34501.000			47.232			-4.723
34600.000			47.230			-4.723
34700.000			47.227			-4.723
34800.000			47.225			-4.722
34901.000			47.222			-4.722
35000.000			47.218			-4.722
35100.000			47.214			-4.721
35202.000			47.211			-4.721
35301.000			47.208			-4.721
35400.000			47.205			-4.721
35501.000			47.203			-4.720
35600.000			47.200			-4.720
35700.000			47.198			-4.720
35801.000			47.192			-4.719
35901.000			47.191			-4.719
36001.000			47.189			-4.719
36102.000			47.185			-4.718
36200.000			47.182			-4.718
36300.000			47.179			-4.718
36401.000			47.177			-4.718
36500.000			47.174			-4.717
36600.000			47.170			-4.717
36701.000			47.168			-4.717
36801.000			47.165			-4.717
36901.000			47.163			-4.716
37001.000			47.160			-4.716
37100.000			47.157			-4.716
37200.000			47.154			-4.715
37301.000			47.149			-4.715
37400.000			47.147			-4.715
37500.000			47.146			-4.715
37602.000			47.143			-4.714
37701.000			47.140			-4.714
37800.000			47.137			-4.714
37900.000			47.136			-4.714
38000.000			47.131			-4.713
38101.000			47.127			-4.713
38200.000			47.125			-4.713
38300.000			47.123			-4.712
38402.000			47.121			-4.712
38501.000			47.117			-4.712
38600.000			47.115			-4.712
38701.000			47.113			-4.711
38800.000			47.108			-4.711
38900.000			47.107			-4.711
39001.000			47.104			-4.710
39100.000			47.102			-4.710
39201.000			47.100			-4.710
39302.000			47.097			-4.710
39400.000			47.094			-4.709
39500.000			47.088			-4.709
39601.000			47.087			-4.709
39700.000			47.086			-4.709
39800.000			47.084			-4.708
39901.000			47.080			-4.708
40001.000			47.077			-4.708
40101.000			47.075			-4.707
40201.000			47.071			-4.707
40300.000			47.069			-4.707
40400.000			47.066			-4.707
40501.000			47.064			-4.706
40600.000			47.062			-4.706
40700.000			47.060			-4.706
40802.000			47.058			-4.706
40901.000			47.055			-4.706
41000.000			47.049			-4.705
41100.000			47.047			-4.705
41200.000			47.045			-4.705
41301.000			47.043			-4.704
41400.000			47.041			-4.704
41501.000			47.039			-4.704
41602.000			47.036			-4.704
41700.000			47.032			-4.703
41800.000			47.030			-4.703
41901.000			47.027			-4.703
42000.000			47.025			-4.703
42100.000			47.024			-4.702
42201.000			47.021			-4.702
42301.000			47.018			-4.702
42401.000			47.015			-4.702
42501.000			47.013			-4.701
42600.000			47.010			-4.701
42700.000			47.008			-4.701
42801.000			47.007			-4.701
42900.000			47.005			-4.701
43000.000			47.002			-4.700
43102.000			46.999			-4.700
43201.000			46.996			-4.700
43300.000			46.994			-4.699
43401.000			46.991			-4.699
43500.000			46.989			-4.699
43600.000			46.987			-4.699
43701.000			46.986			-4.699
43800.000			46.984			-4.698
43901.000			46.980			-4.698
44002.000			46.978			-4.698
44100.000			46.976			-4.698
44200.000			46.974			-4.697
44300.000			46.971			-4.697
44400.000			46.968			-4.697
44501.000			46.967			-4.697
44600.000			46.965			-4.697
44701.000			46.961			-4.696
44802.000			46.959			-4.696
44900.000			46.957			-4.696
45000.000			46.955			-4.695
45101.000			46.952			-4.695
45200.000			46.951			-4.695
45300.000			46.950			-4.695
45401.000			46.944			-4.694
45501.000			46.942			-4.694
45601.000			46.940			-4.694
45701.000			46.940			-4.694
45800.000			46.938			-4.694
45900.000			46.935			-4.693
46001.000			46.933			-4.693
46100.000			46.929			-4.693
46200.000			46.927			-4.693
46301.000			46.925			-4.692
46401.000			46.921			-4.692
46501.000			46.919			-4.692
46601.000			46.919			-4.692
46700.000			46.919			-4.692
46800.000			46.914			-4.691
46901.000			46.910			-4.691
47000.000			46.909			-4.691
47100.000			46.907			-4.691
47202.000			46.905			-4.691
47301.000			46.903			-4.690
47400.000			46.900			-4.690
47500.000			46.898			-4.690
47600.000			46.896			-4.690
47701.000			46.893			-4.689
47800.000			46.892			-4.689
47900.000			46.890			-4.689
48002.000			46.888			-4.689
48101.000			46.885			-4.689
48201.000			46.883			-4.688
48301.000			46.880			-4.688
48400.000			46.878			-4.688
48500.000			46.876			-4.688
48601.000			46.873			-4.687
48700.000			46.873			-4.687
48800.000			46.870			-4.687
48902.000			46.868			-4.687
49001.000			46.866			-4.687
49100.000			46.862			-4.686
49201.000			46.859			-4.686
49300.000			46.857			-4.686
49400.000			46.857			-4.686
49501.000			46.854			-4.685
49600.000			46.852			-4.685
49701.000			46.850			-4.685
49802.000			46.847			-4.685
49901.000			46.845			-4.684
50000.000			46.843			-4.684
50101.000			46.842			-4.684
50200.000			46.840			-4.684
50300.000			46.838			-4.684
50401.000			46.836			-4.684
50501.000			46.833			-4.683
50602.000			46.831			-4.683
50701.000			46.830			-4.683
50800.000			46.828			-4.683
50901.000			46.827			-4.683
51000.000			46.823			-4.682
51100.000			46.820			-4.682
51201.000			46.819			-4.682
51301.000			46.817			-4.682
51401.000			46.814			-4.681
51502.000			46.812			-4.681
51600.000			46.811			-4.681
51700.000			46.809			-4.681
51801.000			46.806			-4.681
51900.000			46.805			-4.680
52000.000			46.802			-4.680
52101.000			46.799			-4.680
52201.000			46.798			-4.680
52301.000			46.796			-4.680
52401.000			46.795			-4.680
52500.000			46.793			-4.679
52600.000			46.792			-4.679
52701.000			46.788			-4.679
52800.000			46.786			-4.679
52900.000			46.783			-4.678
53002.000			46.782			-4.678
53101.000			46.781			-4.678
53200.000			46.780			-4.678
53301.000			46.778			-4.678
53400.000			46.775			-4.677
53500.000			46.772			-4.677
53601.000			46.771			-4.677
53700.000			46.769			-4.677
53802.000			46.766			-4.677
53901.000			46.765			-4.677
54000.000			46.764			-4.676
54101.000			46.761			-4.676
54200.000			46.758			-4.676
54300.000			46.756			-4.676
54401.000			46.755			-4.676
54500.000			46.754			-4.675
54601.000			46.752			-4.675
54702.000			46.751			-4.675
54800.000			46.749			-4.675
54900.000			46.745			-4.674
55001.000			46.744			-4.674
55100.000			46.742			-4.674
55200.000			46.740			-4.674
55301.000			46.739			-4.674
55401.000			46.737			-4.674
55501.000			46.736			-4.674
55602.000			46.735			-4.673
55700.000			46.731			-4.673
55800.000			46.728			-4.673
55901.000			46.726			-4.673
56000.000			46.725			-4.672
56100.000			46.724			-4.672
56201.000			46.722			-4.672
56301.000			46.720			-4.672
56401.000			46.718			-4.672
56501.000			46.716			-4.672
56600.000			46.713			-4.671
56700.000			46.712			-4.671
56801.000			46.711			-4.671
56900.000			46.709			-4.671
57000.000			46.707			-4.671
57102.000			46.704			-4.670
57201.000			46.704			-4.670
57301.000			46.702			-4.670
57400.000			46.699			-4.670
57500.000			46.698			-4.670
57601.000			46.697			-4.670
57700.000			46.696			-4.670
57800.000			46.694			-4.669
57902.000			46.691			-4.669
58001.000			46.688			-4.669
58101.000			46.686			-4.669
58201.000			46.685			-4.668
58300.000			46.684			-4.668
58400.000			46.682			-4.668
58501.000			46.681			-4.668
58600.000			46.678			-4.668
58700.000			46.676			-4.668
58802.000			46.675			-4.667
58901.000			46.673			-4.667
59000.000			46.672			-4.667
59101.000			46.670			-4.667
59200.000			46.667			-4.667
59300.000			46.665			-4.667
59401.000			46.664			-4.666
59500.000			46.661			-4.666
59601.000			46.660			-4.666
59702.000			46.658			-4.666
59800.000			46.656			-4.666
59900.000			46.656			-4.666
60001.000			46.655			-4.666
60100.000			46.650			-4.665
60200.000			46.649			-4.665
60300.000			46.647			-4.665
60401.000			46.646			-4.665
60502.000			46.645			-4.664
60601.000			46.643			-4.664
60700.000			46.642			-4.664
60801.000			46.639			-4.664
60900.000			46.638			-4.664
61000.000			46.635			-4.664
61101.000			46.634			-4.663
61201.000			46.633			-4.663
61301.000			46.631			-4.663
61401.000			46.629			-4.663
61500.000			46.628			-4.663
61600.000			46.625			-4.663
61701.000			46.623			-4.662
61800.000			46.622			-4.662
61900.000			46.620			-4.662
62002.000			46.619			-4.662
62101.000			46.618			-4.662
62201.000			46.617			-4.662
62301.000			46.614			-4.661
62400.000			46.613			-4.661
62500.000			46.610			-4.661
62601.000			46.609			-4.661
62700.000			46.608			-4.661
62800.000			46.607			-4.661
62902.000			46.605			-4.660
63001.000			46.601			-4.660
63100.000			46.600			-4.660
63201.000			46.597			-4.660
63300.000			46.596			-4.660
63400.000			46.595			-4.659
63500.000			46.594			-4.659
63600.000			46.593			-4.659
63702.000			46.591			-4.659
63801.000			46.588			-4.659
63900.000			46.587			-4.659
64001.000			46.587			-4.659
64100.000			46.585			-4.659
64200.000			46.584			-4.658
64301.000			46.581			-4.658
64400.000			46.580			-4.658
64501.000			46.578			-4.658
64602.000			46.577			-4.658
64700.000			46.575			-4.657
64800.000			46.574			-4.657
64901.000			46.573			-4.657
65000.000			46.570			-4.657
65100.000			46.568			-4.657
65201.000			46.565			-4.657
65301.000			46.564			-4.656
65401.000			46.564			-4.656
65501.000			46.562			-4.656
65600.000			46.559			-4.656
65700.000			46.558			-4.656
65801.000			46.557			-4.656
65900.000			46.556			-4.656
66000.000			46.553			-4.655
66101.000			46.551			-4.655
66201.000			46.549			-4.655
66301.000			46.548			-4.655
66401.000			46.547			-4.655
66500.000			46.546			-4.655
66600.000			46.545			-4.654
66700.000			46.542			-4.654
66800.000			46.542			-4.654
66901.000			46.540			-4.654
67001.000			46.538			-4.654
67101.000			46.537			-4.654
67201.000			46.537			-4.654
67300.000			46.535			-4.653
67400.000			46.533			-4.653
67501.000			46.530			-4.653
67600.000			46.529			-4.653
67700.000			46.527			-4.653
67802.000			46.525			-4.652
67901.000			46.523			-4.652
68001.000			46.523			-4.652
68101.000			46.522			-4.652
68200.000			46.519			-4.652
68300.000			46.518			-4.652
68401.000			46.516			-4.652
68500.000			46.516			-4.652
68600.000			46.514			-4.651
68702.000			46.512			-4.651
68801.000			46.510			-4.651
68900.000			46.508			-4.651
69001.000			46.507			-4.651
69100.000			46.507			-4.651
69200.000			46.505			-4.650
69301.000			46.503			-4.650
69400.000			46.502			-4.650
69501.000			46.501			-4.650
69602.000			46.498			-4.650
69700.000			46.498			-4.650
69800.000			46.496			-4.650
69900.000			46.494			-4.649
70000.000			46.493			-4.649
70101.000			46.492			-4.649
70200.000			46.490			-4.649
70301.000			46.488			-4.649
70402.000			46.487			-4.649
70501.000			46.486			-4.649
70600.000			46.484			-4.648
70701.000			46.483			-4.648
70800.000			46.482			-4.648
70900.000			46.480			-4.648
71001.000			46.478			-4.648
71101.000			46.475			-4.648
71201.000			46.474			-4.647
71302.000			46.473			-4.647
71400.000			46.473			-4.647
71500.000			46.471			-4.647
71601.000			46.470			-4.647
71700.000			46.469			-4.647
71800.000			46.467			-4.647
71901.000			46.465			-4.646
72001.000			46.464			-4.646
72101.000			46.462			-4.646
72201.000			46.461			-4.646
72300.000			46.459			-4.646
72400.000			46.458			-4.646
72501.000			46.456			-4.646
72600.000			46.453			-4.645
72700.000			46.453			-4.645
72802.000			46.452			-4.645
72901.000			46.451			-4.645
73000.000			46.449			-4.645
73100.000			46.448			-4.645
73200.000			46.448			-4.645
73301.000			46.444			-4.644
73400.000			46.443			-4.644
73500.000			46.443			-4.644
73602.000			46.441			-4.644
73701.000			46.439			-4.644
73800.000			46.438			-4.644
73901.000			46.437			-4.644
74000.000			46.435			-4.644
74100.000			46.433			-4.643
74201.000			46.431			-4.643
74300.000			46.430			-4.643
74400.000			46.430			-4.643
74502.000			46.428			-4.643
74601.000			46.428			-4.643
74700.000			46.426			-4.643
74801.000			46.422			-4.642
74900.000			46.421			-4.642
75000.000			46.420			-4.642
75101.000			46.420			-4.642
75200.000			46.419			-4.642
75301.000			46.417			-4.642
75402.000			46.415			-4.641
75500.000			46.413			-4.641
75600.000			46.412			-4.641
75701.000			46.410			-4.641
75800.000			46.410			-4.641
75900.000			46.409			-4.641
76001.000			46.406			-4.641
76101.000			46.406			-4.641
76202.000			46.405			-4.641
76300.000			46.402			-4.640
76400.000			46.400			-4.640
76501.000			46.399			-4.640
76600.000			46.398			-4.640
76700.000			46.397			-4.640
76801.000			46.397			-4.640
76901.000			46.395			-4.640
77001.000			46.392			-4.639
77101.000			46.391			-4.639
77200.000			46.388			-4.639
77300.000			46.387			-4.639
77401.000			46.386			-4.639
77500.000			46.386			-4.639
77600.000			46.384			-4.638
77701.000			46.382			-4.638
77801.000			46.381			-4.638
77901.000			46.381			-4.638
78001.000			46.380			-4.638
78100.000			46.379			-4.638
78200.000			46.378			-4.638
78301.000			46.375			-4.638
78400.000			46.373			-4.637
78500.000			46.373			-4.637
78602.000			46.371			-4.637
78701.000			46.370			-4.637
78800.000			46.369			-4.637
78901.000			46.369			-4.637
79000.000			46.366			-4.637
79100.000			46.364			-4.636
79201.000			46.362			-4.636
79300.000			46.361			-4.636
79400.000			46.360			-4.636
79502.000			46.358			-4.636
79601.000			46.357			-4.636
79701.000			46.357			-4.636
79800.000			46.356			-4.636
79900.000			46.352			-4.635
80001.000			46.351			-4.635
80100.000			46.352			-4.635
80200.000			46.350			-4.635
80302.000			46.349			-4.635
80401.000			46.348			-4.635
80500.000			46.347			-4.635
80601.000			46.345			-4.635
80700.000			46.344			-4.634
80800.000			46.342			-4.634
80901.000			46.342			-4.634
81000.000			46.340			-4.634
81101.000			46.337			-4.634
81202.000			46.336			-4.634
81300.000			46.336			-4.634
81400.000			46.334			-4.633
81501.000			46.332			-4.633
81600.000			46.331			-4.633
81700.000			46.331			-4.633
81801.000			46.330			-4.633
81901.000			46.328			-4.633
82001.000			46.327			-4.633
82101.000			46.324			-4.632
82200.000			46.323			-4.632
82300.000			46.323			-4.632
82401.000			46.323			-4.632
82500.000			46.321			-4.632
82600.000			46.319			-4.632
82702.000			46.318			-4.632
82801.000			46.316			-4.632
82902.000			46.315			-4.631
83000.000			46.314			-4.631
83100.000			46.313			-4.631
83201.000			46.312			-4.631
83300.000			46.310			-4.631
83400.000			46.309			-4.631
83501.000			46.308			-4.631
83601.000			46.306			-4.631
83701.000			46.305			-4.630
83801.000			46.302			-4.630
83900.000			46.301			-4.630
84000.000			46.302			-4.630
84101.000			46.301			-4.630
84200.000			46.300			-4.630
84300.000			46.296			-4.630
84402.000			46.295			-4.629
84501.000			46.295			-4.630
84600.000			46.294			-4.629
84701.000			46.291			-4.629
84800.000			46.291			-4.629
84900.000			46.290			-4.629
85001.000			46.289			-4.629
85100.000			46.288			-4.629
85201.000			46.285			-4.629
85302.000			46.285			-4.628
85400.000			46.285			-4.628
85500.000			46.283			-4.628
85601.000			46.282			-4.628
85700.000			46.281			-4.628
85800.000			46.278			-4.628
85900.000			46.277			-4.628
86000.000			46.276			-4.628
86102.000			46.276			-4.628
86201.000			46.275			-4.627
86300.000			46.273			-4.627
86401.000			46.272			-4.627
86500.000			46.270			-4.627
86600.000			46.270			-4.627
86701.000			46.268			-4.627
86800.000			46.267			-4.627
86901.000			46.266			-4.627
87002.000			46.263			-4.626
87100.000			46.263			-4.626
87200.000			46.263			-4.626
87301.000			46.261			-4.626
87400.000			46.260			-4.626
87500.000			46.258			-4.626
87601.000			46.257			-4.626
87701.000			46.256			-4.626
87801.000			46.256			-4.626
87901.000			46.256			-4.626
88000.000			46.253			-4.625
88100.000			46.252			-4.625
88201.000			46.250			-4.625
88300.000			46.248			-4.625
88400.000			46.248			-4.625
88501.000			46.247			-4.625
88601.000			46.245			-4.625
88701.000			46.244			-4.624
88801.000			46.243			-4.624
88900.000			46.242			-4.624
89000.000			46.240			-4.624
89100.000			46.239			-4.624
89200.000			46.238			-4.624
89301.000			46.237			-4.624
89401.000			46.236			-4.624
89501.000			46.234			-4.623
89601.000			46.233			-4.623
89700.000			46.232			-4.623
89800.000			46.231			-4.623
89901.000			46.230			-4.623
90000.000			46.230			-4.623
90100.000			46.228			-4.623
90201.000			46.227			-4.623
90301.000			46.226			-4.623
90401.000			46.224			-4.622
90501.000			46.222			-4.622
90600.000			46.221			-4.622
90700.000			46.220			-4.622
90801.000			46.220			-4.622
90900.000			46.219			-4.622
91000.000			46.218			-4.622
91102.000			46.217			-4.622
91201.000			46.217			-4.622
91300.000			46.215			-4.622
91401.000			46.213			-4.621
91500.000			46.213			-4.621
91600.000			46.212			-4.621
91701.000			46.209			-4.621
91801.000			46.209			-4.621
91901.000			46.208			-4.621
92002.000			46.208			-4.621
92100.000			46.206			-4.621
92200.000			46.206			-4.621
92300.000			46.204			-4.620
92400.000			46.203			-4.620
92501.000			46.202			-4.620
92601.000			46.201			-4.620
92701.000			46.199			-4.620
92802.000			46.197			-4.620
92900.000			46.197			-4.620
93000.000			46.196			-4.620
93101.000			46.194			-4.619
93200.000			46.193			-4.619
93300.000			46.191			-4.619
93401.000			46.191			-4.619
93501.000			46.191			-4.619
93601.000			46.189			-4.619
93701.000			46.188			-4.619
93800.000			46.187			-4.619
93900.000			46.183			-4.618
94001.000			46.182			-4.618
94100.000			46.183			-4.618
94200.000			46.182			-4.618
94302.000			46.181			-4.618
94401.000			46.179			-4.618
94500.000			46.178			-4.618
94601.000			46.176			-4.618
94700.000			46.175			-4.618
94800.000			46.175			-4.618
94901.000			46.173			-4.617
95000.000			46.172			-4.617
95100.000			46.171			-4.617
95202.000			46.170			-4.617
95301.000			46.168			-4.617
95400.000			46.167			-4.617
95500.000			46.166			-4.617
95600.000			46.164			-4.616
95701.000			46.164			-4.616
95800.000			46.163			-4.616
95900.000			46.163			-4.616
96002.000			46.162			-4.616
96101.000			46.159			-4.616
96200.000			46.158			-4.616
96301.000			46.157			-4.616
96400.000			46.156			-4.616
96500.000			46.155			-4.616
96601.000			46.154			-4.615
96700.000			46.153			-4.615
96801.000			46.151			-4.615
96902.000			46.150			-4.615
97000.000			46.150			-4.615
97100.000			46.149			-4.615
97201.000			46.147			-4.615
97300.000			46.147			-4.615
97400.000			46.146			-4.615
97501.000			46.145			-4.615
97601.000			46.144			-4.614
97701.000			46.143			-4.614
97801.000			46.141			-4.614
97900.000			46.140			-4.614
98000.000			46.140			-4.614
98101.000			46.139			-4.614
98200.000			46.138			-4.614
98300.000			46.135			-4.614
98402.000			46.135			-4.613
98501.000			46.133			-4.613
98602.000			46.132			-4.613
98700.000			46.131			-4.613
98800.000			46.129			-4.613
98901.000			46.129			-4.613
99000.000			46.128			-4.613
99100.000			46.126			-4.613
99201.000			46.125			-4.613
99301.000			46.126			-4.613
99401.000			46.125			-4.612
99501.000			46.123			-4.612
99600.000			46.122			-4.612
99700.000			46.121			-4.612
99801.000			46.119			-4.612
99900.000			46.118			-4.612
100000.000			46.117			-4.612
100102.000			46.116			-4.612
100201.000			46.116			-4.612
100300.000			46.115			-4.612
100401.000			46.114			-4.611
100500.000			46.112			-4.611
100600.000			46.111			-4.611
100701.000			46.110			-4.611
100800.000			46.109			-4.611
100901.000			46.108			-4.611
101002.000			46.107			-4.611
101101.000			46.106			-4.611
101200.000			46.104			-4.610
101301.000			46.103			-4.610
101400.000			46.103			-4.610
101500.000			46.102			-4.610
101601.000			46.102			-4.610
101701.000			46.101			-4.610
101802.000			46.100			-4.610
101901.000			46.100			-4.610
102000.000			46.096			-4.610
102101.000			46.095			-4.609
102200.000			46.094			-4.609
102300.000			46.094			-4.609
102401.000			46.093			-4.609
102500.000			46.092			-4.609
102601.000			46.092			-4.609
102702.000			46.091			-4.609
102800.000			46.091			-4.609
102900.000			46.089			-4.609
103001.000			46.087			-4.609
103100.000			46.087			-4.609
103200.000			46.085			-4.609
103301.000			46.084			-4.608
103401.000			46.084			-4.608
103501.000			46.082			-4.608
103601.000			46.081			-4.608
103700.000			46.081			-4.608
103800.000			46.079			-4.608
103901.000			46.078			-4.608
104000.000			46.077			-4.608
104100.000			46.076			-4.608
104201.000			46.075			-4.607
104301.000			46.074			-4.607
104401.000			46.074			-4.607
104501.000			46.074			-4.607
104600.000			46.072			-4.607
104700.000			46.071			-4.607
104801.000			46.070			-4.607
104900.000			46.068			-4.607
105000.000			46.067			-4.607
105102.000			46.066			-4.607
105201.000			46.065			-4.607
105301.000			46.064			-4.606
105400.000			46.063			-4.606
105500.000			46.062			-4.606
105601.000			46.061			-4.606
105700.000			46.059			-4.606
105800.000			46.059			-4.606
105902.000			46.058			-4.606
106001.000			46.057			-4.606
106100.000			46.056			-4.606
106201.000			46.055			-4.605
106300.000			46.053			-4.605
106400.000			46.053			-4.605
106501.000			46.051			-4.605
106600.000			46.051			-4.605
106701.000			46.049			-4.605
106802.000			46.049			-4.605
106901.000			46.048			-4.605
107000.000			46.048			-4.605
107101.000			46.046			-4.605
107200.000			46.045			-4.604
107300.000			46.044			-4.604
107401.000			46.042			-4.604
107500.000			46.041			-4.604
107601.000			46.040			-4.604
107702.000			46.039			-4.604
107800.000			46.040			-4.604
107900.000			46.039			-4.604
108001.000			46.037			-4.604
108100.000			46.036			-4.604
108200.000			46.035			-4.604
108300.000			46.034			-4.603
108400.000			46.034			-4.603
108502.000			46.033			-4.603
108601.000			46.031			-4.603
108700.000			46.029			-4.603
108801.000			46.029			-4.603
108900.000			46.029			-4.603
109000.000			46.028			-4.603
109101.000			46.027			-4.603
109200.000			46.025			-4.602
109301.000			46.024			-4.602
109402.000			46.024			-4.602
109500.000			46.023			-4.602
109600.000			46.022			-4.602
109701.000			46.021			-4.602
109800.000			46.020			-4.602
109900.000			46.019			-4.602
110001.000			46.018			-4.602
110101.000			46.017			-4.602
110201.000			46.016			-4.602
110302.000			46.015			-4.601
110400.000			46.014			-4.601
110500.000			46.013			-4.601
110601.000			46.012			-4.601
110700.000			46.011			-4.601
110800.000			46.010			-4.601
110902.000			46.009			-4.601
111001.000			46.008			-4.601
111101.000			46.008			-4.601
111201.000			46.007			-4.601
111300.000			46.005			-4.600
111400.000			46.003			-4.600
111500.000			46.003			-4.600
111600.000			46.001			-4.600
111702.000			46.001			-4.600
111801.000			46.001			-4.600
111901.000			46.000			-4.600
112001.000			45.998			-4.600
112100.000			45.997			-4.600
112200.000			45.997			-4.600
112301.000			45.996			-4.600
112400.000			45.994			-4.599
112500.000			45.994			-4.599
112602.000			45.993			-4.599
112701.000			45.991			-4.599
112800.000			45.992			-4.599
112901.000			45.991			-4.599
113000.000			45.989			-4.599
113100.000			45.989			-4.599
113201.000			45.987			-4.599
113300.000			45.986			-4.599
113400.000			45.985			-4.599
113502.000			45.984			-4.598
113601.000			45.983			-4.598
113700.000			45.982			-4.598
113801.000			45.982			-4.598
113900.000			45.981			-4.598
114000.000			45.979			-4.598
114101.000			45.979			-4.598
114200.000			45.979			-4.598
114300.000			45.978			-4.598
114402.000			45.976			-4.598
114501.000			45.975			-4.597
114600.000			45.974			-4.597
114700.000			45.975			-4.597
114800.000			45.975			-4.597
114901.000			45.973			-4.597
115000.000			45.971			-4.597
115100.000			45.971			-4.597
115201.000			45.968			-4.597
115301.000			45.967			-4.597
115401.000			45.966			-4.597
115501.000			45.965			-4.597
115600.000			45.964			-4.596
115700.000			45.963			-4.596
115801.000			45.962			-4.596
115900.000			45.962			-4.596
116000.000			45.962			-4.596
116102.000			45.961			-4.596
116201.000			45.959			-4.596
116301.000			45.958			-4.596
116401.000			45.958			-4.596
116500.000			45.957			-4.596
116600.000			45.956			-4.596
116701.000			45.956			-4.596
116800.000			45.954			-4.595
116900.000			45.954			-4.595
117002.000			45.952			-4.595
117101.000			45.952			-4.595
117200.000			45.950			-4.595
117301.000			45.949			-4.595
117400.000			45.948			-4.595
117500.000			45.947			-4.595
117601.000			45.947			-4.595
117700.000			45.947			-4.595
117800.000			45.946			-4.595
117902.000			45.945			-4.594
118001.000			45.944			-4.594
118101.000			45.941			-4.594
118200.000			45.941			-4.594
118300.000			45.941			-4.594
118401.000			45.940			-4.594
118500.000			45.939			-4.594
118600.000			45.939			-4.594
118701.000			45.938			-4.594
118801.000			45.937			-4.594
118901.000			45.936			-4.594
119001.000			45.935			-4.594
119100.000			45.934			-4.593
119200.000			45.934			-4.593
119301.000			45.933			-4.593
119400.000			45.932			-4.593
119500.000			45.930			-4.593
119601.000			45.929			-4.593
119701.000			45.929			-4.593
119801.000			45.927			-4.593
119901.000			45.927			-4.593
120000.000			45.926			-4.593
120100.000			45.925			-4.593
120201.000			45.925			-4.592
120300.000			45.922			-4.592
120400.000			45.921			-4.592
120502.000			45.921			-4.592
120601.000			45.921			-4.592
120701.000			45.920			-4.592
120801.000			45.919			-4.592
120900.000			45.918			-4.592
121000.000			45.916			-4.592
121100.000			45.915			-4.592
121200.000			45.915			-4.592
121301.000			45.916			-4.592
121401.000			45.915			-4.591
121501.000			45.913			-4.591
121601.000			45.912			-4.591
121700.000			45.911			-4.591
121800.000			45.909			-4.591
121901.000			45.908			-4.591
122000.000			45.907			-4.591
122100.000			45.907			-4.591
122202.000			45.906			-4.591
122301.000			45.905			-4.591
122401.000			45.906			-4.591
122501.000			45.903			-4.590
122600.000			45.902			-4.590
122700.000			45.902			-4.590
122801.000			45.901			-4.590
122900.000			45.900			-4.590
123000.000			45.899			-4.590
123102.000			45.899			-4.590
123201.000			45.897			-4.590
123300.000			45.896			-4.590
123401.000			45.896			-4.590
123500.000			45.895			-4.589
123600.000			45.894			-4.589
123701.000			45.893			-4.589
123800.000			45.894			-4.589
123900.000			45.893			-4.589
124002.000			45.892			-4.589
124101.000			45.890			-4.589
124200.000			45.889			-4.589
124300.000			45.889			-4.589
124400.000			45.888			-4.589
124501.000			45.887			-4.589
124600.000			45.886			-4.589
124700.000			45.886			-4.589
124801.000			45.884			-4.588
124901.000			45.884			-4.588
125001.000			45.882			-4.588
125101.000			45.882			-4.588
125200.000			45.882			-4.588
125300.000			45.881			-4.588
125401.000			45.879			-4.588
125500.000			45.878			-4.588
125600.000			45.877			-4.588
125701.000			45.878			-4.588
125801.000			45.877			-4.588
125901.000			45.875			-4.587
126001.000			45.874			-4.587
126100.000			45.874			-4.587
126200.000			45.872			-4.587
126301.000			45.872			-4.587
126400.000			45.871			-4.587
126500.000			45.870			-4.587
126601.000			45.869			-4.587
126701.000			45.869			-4.587
126801.000			45.868			-4.587
126901.000			45.865			-4.587
127000.000			45.864			-4.586
127100.000			45.864			-4.586
127201.000			45.864			-4.586
127300.000			45.864			-4.586
127400.000			45.864			-4.586
127500.000			45.863			-4.586
127601.000			45.860			-4.586
127702.000			45.860			-4.586
127800.000			45.860			-4.586
127900.000			45.859			-4.586
128001.000			45.858			-4.586
128100.000			45.857			-4.586
128200.000			45.857			-4.586
128301.000			45.856			-4.586
128401.000			45.855			-4.585
128501.000			45.854			-4.585
128602.000			45.853			-4.585
128700.000			45.853			-4.585
128800.000			45.852			-4.585
128901.000			45.851			-4.585
129000.000			45.850			-4.585
129100.000			45.849			-4.585
129201.000			45.848			-4.585
129301.000			45.847			-4.585
129401.000			45.847			-4.585
129502.000			45.845			-4.585
129600.000			45.845			-4.584
129700.000			45.844			-4.584
129801.000			45.842			-4.584
129900.000			45.842			-4.584
130000.000			45.842			-4.584
130101.000			45.842			-4.584
130201.000			45.841			-4.584
130301.000			45.840			-4.584
130401.000			45.838			-4.584
130500.000			45.838			-4.584
130600.000			45.837			-4.584
130700.000			45.837			-4.584
130800.000			45.836			-4.584
130901.000			45.835			-4.584
131000.000			45.834			-4.583
131101.000			45.833			-4.583
131202.000			45.833			-4.583
131300.000			45.832			-4.583
131400.000			45.831			-4.583
131501.000			45.830			-4.583
131600.000			45.829			-4.583
131700.000			45.828			-4.583
131801.000			45.827			-4.583
131900.000			45.827			-4.583
132001.000			45.825			-4.583
132102.000			45.824			-4.582
132201.000			45.824			-4.582
132300.000			45.825			-4.582
132401.000			45.823			-4.582
132500.000			45.823			-4.582
132600.000			45.822			-4.582
132701.000			45.821			-4.582
132800.000			45.819			-4.582
132901.000			45.818			-4.582
133002.000			45.818			-4.582
133101.000			45.818			-4.582
133200.000			45.817			-4.582
133301.000			45.816			-4.582
133400.000			45.815			-4.582
133500.000			45.814			-4.581
133601.000			45.812			-4.581
133700.000			45.812			-4.581
133802.000			45.811			-4.581
133901.000			45.810			-4.581
134001.000			45.810			-4.581
134101.000			45.811			-4.581
134200.000			45.810			-4.581
134300.000			45.807			-4.581
134401.000			45.806			-4.581
134500.000			45.805			-4.581
134600.000			45.805			-4.581
134701.000			45.805			-4.580
134801.000			45.805			-4.580
134901.000			45.804			-4.580
135001.000			45.804			-4.580
135100.000			45.803			-4.580
135200.000			45.802			-4.580
135301.000			45.801			-4.580
135400.000			45.799			-4.580
135500.000			45.798			-4.580
135601.000			45.798			-4.580
135701.000			45.796			-4.580
135801.000			45.797			-4.580
135901.000			45.797			-4.580
136000.000			45.795			-4.580
136100.000			45.793			-4.579
136201.000			45.793			-4.579
136300.000			45.794			-4.579
136400.000			45.792			-4.579
136501.000			45.791			-4.579
136600.000			45.790			-4.579
136701.000			45.788			-4.579
136802.000			45.788			-4.579
136900.000			45.788			-4.579
137000.000			45.788			-4.579
137100.000			45.788			-4.579
137200.000			45.785			-4.578
137301.000			45.784			-4.578
137400.000			45.784			-4.578
137500.000			45.783			-4.578
137601.000			45.783			-4.578
137701.000			45.783			-4.578
137801.000			45.782			-4.578
137901.000			45.780			-4.578
138000.000			45.780			-4.578
138100.000			45.778			-4.578
138201.000			45.777			-4.578
138300.000			45.778			-4.578
138400.000			45.778			-4.578
138501.000			45.776			-4.578
138601.000			45.775			-4.577
138701.000			45.774			-4.577
138802.000			45.773			-4.577
138900.000			45.773			-4.577
139000.000			45.772			-4.577
139101.000			45.771			-4.577
139200.000			45.770			-4.577
139300.000			45.769			-4.577
139401.000			45.767			-4.577
139500.000			45.767			-4.577
139600.000			45.767			-4.577
139702.000			45.767			-4.577
139801.000			45.766			-4.577
139900.000			45.764			-4.576
140001.000			45.763			-4.576
140100.000			45.762			-4.576
140200.000			45.762			-4.576
140300.000			45.762			-4.576
140400.000			45.761			-4.576
140501.000			45.759			-4.576
140601.000			45.759			-4.576
140701.000			45.758			-4.576
140801.000			45.756			-4.576
140900.000			45.756			-4.576
141000.000			45.755			-4.576
141101.000			45.754			-4.575
141200.000			45.753			-4.575
141300.000			45.753			-4.575
141401.000			45.753			-4.575
141501.000			45.752			-4.575
141601.000			45.750			-4.575
141702.000			45.750			-4.575
141800.000			45.749			-4.575
141900.000			45.748			-4.575
142001.000			45.748			-4.575
142100.000			45.747			-4.575
142200.000			45.746			-4.575
142301.000			45.745			-4.575
142400.000			45.744			-4.574
142501.000			45.743			-4.574
142602.000			45.743			-4.574
142700.000			45.743			-4.574
142800.000			45.741			-4.574
142901.000			45.740			-4.574
143000.000			45.739			-4.574
143100.000			45.739			-4.574
143201.000			45.738			-4.574
143300.000			45.737			-4.574
143402.000			45.737			-4.574
143501.000			45.736			-4.574
143601.000			45.735			-4.573
143701.000			45.735			-4.573
143800.000			45.733			-4.573
143900.000			45.733			-4.573
144001.000			45.732			-4.573
144100.000			45.732			-4.573
144200.000			45.731			-4.573
144301.000			45.730			-4.573
144401.000			45.730			-4.573
144501.000			45.728			-4.573
144601.000			45.727			-4.573
144700.000			45.726			-4.573
144800.000			45.726			-4.573
144901.000			45.725			-4.572
145000.000			45.724			-4.572
145100.000			45.724			-4.572
145201.000			45.724			-4.572
145301.000			45.723			-4.572
145401.000			45.722			-4.572
145501.000			45.721			-4.572
145600.000			45.721			-4.572
145700.000			45.721			-4.572
145801.000			45.720			-4.572
145900.000			45.719			-4.572
146000.000			45.718			-4.572
146101.000			45.717			-4.572
146201.000			45.716			-4.572
146301.000			45.715			-4.572
146402.000			45.715			-4.572
146500.000			45.714			-4.571
146600.000			45.714			-4.571
146700.000			45.712			-4.571
146800.000			45.711			-4.571
146901.000			45.711			-4.571
147000.000			45.711			-4.571
147100.000			45.711			-4.571
147202.000			45.708			-4.571
147301.000			45.708			-4.571
147400.000			45.708			-4.571
147501.000			45.707			-4.571
147600.000			45.707			-4.571
147700.000			45.706			-4.571
147801.000			45.705			-4.571
147900.000			45.706			-4.571
148000.000			45.705			-4.570
148102.000			45.703			-4.570
148201.000			45.703			-4.570
148301.000			45.701			-4.570
148401.000			45.701			-4.570
148500.000			45.701			-4.570
148600.000			45.700			-4.570
148701.000			45.698			-4.570
148800.000			45.698			-4.570
148900.000			45.697			-4.570
149001.000			45.697			-4.570
149101.000			45.697			-4.570
149201.000			45.697			-4.570
149301.000			45.696			-4.570
149400.000			45.694			-4.569
149500.000			45.694			-4.569
149601.000			45.693			-4.569
149700.000			45.692			-4.569
149800.000			45.692			-4.569
149900.000			45.692			-4.569
150000.000			45.690			-4.569
150102.000			45.689			-4.569
150201.000			45.689			-4.569
150300.000			45.688			-4.569
150401.000			45.686			-4.569
150500.000			45.686			-4.569
150600.000			45.684			-4.568
150701.000			45.684			-4.568
150800.000			45.684			-4.568
150900.000			45.684			-4.568
151002.000			45.683			-4.568
151101.000			45.682			-4.568
151201.000			45.680			-4.568
151301.000			45.679			-4.568
151400.000			45.679			-4.568
151500.000			45.678			-4.568
151601.000			45.678			-4.568
151700.000			45.678			-4.568
151800.000			45.675			-4.568
151901.000			45.674			-4.567
152001.000			45.674			-4.567
152101.000			45.675			-4.567
152201.000			45.675			-4.567
152300.000			45.674			-4.567
152400.000			45.673			-4.567
152501.000			45.672			-4.567
152600.000			45.672			-4.567
152700.000			45.669			-4.567
152801.000			45.668			-4.567
152901.000			45.668			-4.567
153002.000			45.669			-4.567
153101.000			45.668			-4.567
153200.000			45.667			-4.567
153301.000			45.665			-4.567
153400.000			45.664			-4.566
153500.000			45.665			-4.566
153601.000			45.663			-4.566
153700.000			45.663			-4.566
153800.000			45.663			-4.566
153902.000			45.662			-4.566
154001.000			45.662			-4.566
154100.000			45.661			-4.566
154201.000			45.659			-4.566
154300.000			45.658			-4.566
154400.000			45.658			-4.566
154501.000			45.658			-4.566
154600.000			45.657			-4.566
154700.000			45.656			-4.566
154802.000			45.655			-4.565
154901.000			45.654			-4.565
155001.000			45.654			-4.565
155101.000			45.654			-4.565
155200.000			45.654			-4.565
155300.000			45.653			-4.565
155401.000			45.653			-4.565
155500.000			45.651			-4.565
155600.000			45.650			-4.565
155701.000			45.649			-4.565
155801.000			45.649			-4.565
155901.000			45.648			-4.565
156001.000			45.647			-4.565
156100.000			45.646			-4.565
156200.000			45.645			-4.564
156300.000			45.644			-4.564
156400.000			45.645			-4.564
156501.000			45.644			-4.564
156600.000			45.644			-4.564
156701.000			45.644			-4.564
156802.000			45.642			-4.564
156901.000			45.641			-4.564
157000.000			45.641			-4.564
157101.000			45.642			-4.564
157200.000			45.640			-4.564
157300.000			45.640			-4.564
157401.000			45.639			-4.564
157500.000			45.638			-4.564
157600.000			45.637			-4.564
157702.000			45.637			-4.564
157801.000			45.636			-4.564
157900.000			45.635			-4.564
158001.000			45.635			-4.563
158100.000			45.634			-4.563
158200.000			45.634			-4.563
158301.000			45.633			-4.563
158400.000			45.632			-4.563
158500.000			45.631			-4.563
158602.000			45.631			-4.563
158701.000			45.630			-4.563
158801.000			45.629			-4.563
158901.000			45.627			-4.563
159000.000			45.627			-4.563
159100.000			45.627			-4.563
159201.000			45.627			-4.563
159300.000			45.627			-4.563
159400.000			45.626			-4.563
159500.000			45.625			-4.563
159601.000			45.625			-4.563
159702.000			45.624			-4.562
159801.000			45.624			-4.562
159900.000			45.622			-4.562
160001.000			45.621			-4.562
160100.000			45.621			-4.562
160200.000			45.621			-4.562
160301.000			45.620			-4.562
160400.000			45.619			-4.562
160500.000			45.617			-4.562
160602.000			45.617			-4.562
160701.000			45.615			-4.562
160800.000			45.616			-4.562
160901.000			45.617			-4.562
161000.000			45.616			-4.562
161100.000			45.614			-4.561
161201.000			45.614			-4.561
161300.000			45.614			-4.561
161400.000			45.612			-4.561
161502.000			45.611			-4.561
161601.000			45.611			-4.561
161700.000			45.610			-4.561
161801.000			45.609			-4.561
161900.000			45.609			-4.561
162000.000			45.609			-4.561
162101.000			45.608			-4.561
162200.000			45.607			-4.561
162300.000			45.606			-4.561
162402.000			45.606			-4.561
162501.000			45.606			-4.561
162602.000			45.605			-4.561
162700.000			45.604			-4.560
162800.000			45.604			-4.560
162901.000			45.604			-4.560
163000.000			45.601			-4.560
163100.000			45.600			-4.560
163201.000			45.599			-4.560
163300.000			45.598			-4.560
163401.000			45.598			-4.560
163502.000			45.598			-4.560
163601.000			45.597			-4.560
163700.000			45.597			-4.560
163801.000			45.596			-4.560
163900.000			45.597			-4.560
164000.000			45.595			-4.559
164101.000			45.594			-4.559
164200.000			45.594			-4.559
164300.000			45.593			-4.559
164402.000			45.593			-4.559
164501.000			45.592			-4.559
164600.000			45.592			-4.559
164701.000			45.590			-4.559
164800.000			45.590			-4.559
164900.000			45.589			-4.559
165001.000			45.587			-4.559
165100.000			45.587			-4.559
165200.000			45.586			-4.559
165302.000			45.587			-4.559
165401.000			45.586			-4.559
165501.000			45.585			-4.558
165601.000			45.585			-4.559
165700.000			45.584			-4.558
165800.000			45.583			-4.558
165900.000			45.584			-4.558
166000.000			45.583			-4.558
166101.000			45.582			-4.558
166200.000			45.582			-4.558
166301.000			45.580			-4.558
166402.000			45.580			-4.558
166501.000			45.578			-4.558
166600.000			45.577			-4.558
166701.000			45.577			-4.558
166800.000			45.576			-4.558
166900.000			45.576			-4.558
167001.000			45.575			-4.558
167100.000			45.574			-4.557
167200.000			45.575			-4.557
167302.000			45.574			-4.557
167401.000			45.573			-4.557
167500.000			45.573			-4.557
167601.000			45.572			-4.557
167700.000			45.572			-4.557
167800.000			45.571			-4.557
167901.000			45.571			-4.557
168000.000			45.569			-4.557
168100.000			45.568			-4.557
168202.000			45.567			-4.557
168301.000			45.567			-4.557
168401.000			45.567			-4.557
168501.000			45.566			-4.557
168600.000			45.565			-4.557
168700.000			45.564			-4.556
168801.000			45.564			-4.556
168900.000			45.563			-4.556
169000.000			45.563			-4.556
169100.000			45.563			-4.556
169201.000			45.562			-4.556
169302.000			45.561			-4.556
169401.000			45.561			-4.556
169500.000			45.560			-4.556
169601.000			45.560			-4.556
169700.000			45.558			-4.556
169800.000			45.558			-4.556
169901.000			45.557			-4.556
170000.000			45.556			-4.556
170100.000			45.556			-4.556
170202.000			45.556			-4.556
170301.000			45.555			-4.555
170400.000			45.554			-4.555
170501.000			45.555			-4.555
170600.000			45.555			-4.555
170700.000			45.554			-4.555
170801.000			45.552			-4.555
170900.000			45.552			-4.555
171000.000			45.551			-4.555
171102.000			45.550			-4.555
171201.000			45.549			-4.555
171301.000			45.548			-4.555
171401.000			45.546			-4.555
171500.000			45.546			-4.555
171600.000			45.546			-4.555
171701.000			45.546			-4.555
171800.000			45.545			-4.554
171900.000			45.545			-4.554
172001.000			45.545			-4.554
172101.000			45.544			-4.554
172202.000			45.542			-4.554
172300.000			45.542			-4.554
172400.000			45.541			-4.554
172501.000			45.541			-4.554
172600.000			45.541			-4.554
172700.000			45.539			-4.554
172801.000			45.539			-4.554
172900.000			45.539			-4.554
173001.000			45.539			-4.554
173102.000			45.537			-4.554
173201.000			45.537			-4.554
173300.000			45.536			-4.554
173401.000			45.536			-4.554
173500.000			45.535			-4.553
173600.000			45.535			-4.554
173701.000			45.535			-4.553
173800.000			45.534			-4.553
173900.000			45.533			-4.553
174002.000			45.532			-4.553
174101.000			45.532			-4.553
174200.000			45.532			-4.553
174301.000			45.531			-4.553
174400.000			45.530			-4.553
174500.000			45.529			-4.553
174601.000			45.528			-4.553
174700.000			45.527			-4.553
174800.000			45.526			-4.553
174902.000			45.524			-4.552
175001.000			45.524			-4.552
175101.000			45.524			-4.552
175201.000			45.524			-4.552
175300.000			45.523			-4.552
175400.000			45.523			-4.552
175500.000			45.522			-4.552
175600.000			45.521			-4.552
175701.000			45.522			-4.552
175800.000			45.522			-4.552
175901.000			45.521			-4.552
176002.000			45.520			-4.552
176101.000			45.520			-4.552
176200.000			45.519			-4.552
176301.000			45.518			-4.552
176400.000			45.518			-4.552
176500.000			45.519			-4.552
176601.000			45.518			-4.552
176700.000			45.516			-4.552
176800.000			45.516			-4.552
176902.000			45.515			-4.552
177001.000			45.515			-4.551
177100.000			45.514			-4.551
177201.000			45.514			-4.551
177300.000			45.513			-4.551
177400.000			45.512			-4.551
177501.000			45.511			-4.551
177600.000			45.511			-4.551
177700.000			45.511			-4.551
177802.000			45.510			-4.551
177901.000			45.510			-4.551
178001.000			45.509			-4.551
178101.000			45.507			-4.551
178200.000			45.507			-4.551
178300.000			45.507			-4.551
178401.000			45.506			-4.551
178500.000			45.506			-4.551
178600.000			45.506			-4.551
178700.000			45.506			-4.551
178801.000			45.506			-4.551
178902.000			45.503			-4.550
179001.000			45.503			-4.550
179100.000			45.503			-4.550
179201.000			45.502			-4.550
179300.000			45.500			-4.550
179400.000			45.501			-4.550
179501.000			45.501			-4.550
179600.000			45.499			-4.550
179700.000			45.499			-4.550
179802.000			45.499			-4.550
179901.000			45.499			-4.550
180000.000			45.498			-4.550
180101.000			45.496			-4.550
180200.000			45.495			-4.550
180300.000			45.496			-4.550
180401.000			45.495			-4.549
180500.000			45.493			-4.549
180600.000			45.494			-4.549
180702.000			45.494			-4.549
180801.000			45.492			-4.549
180901.000			45.492			-4.549
181001.000			45.492			-4.549
181100.000			45.490			-4.549
181200.000			45.489			-4.549
181301.000			45.487			-4.549
181400.000			45.487			-4.549
181500.000			45.487			-4.549
181601.000			45.488			-4.549
181701.000			45.487			-4.549
181802.000			45.487			-4.549
181900.000			45.485			-4.548
182000.000			45.485			-4.548
182101.000			45.485			-4.548
182200.000			45.484			-4.548
182300.000			45.483			-4.548
182401.000			45.482			-4.548
182500.000			45.481			-4.548
182601.000			45.480			-4.548
182702.000			45.481			-4.548
182801.000			45.480			-4.548
182900.000			45.479			-4.548
183001.000			45.478			-4.548
183100.000			45.478			-4.548
183200.000			45.478			-4.548
183301.000			45.476			-4.548
183400.000			45.475			-4.548
183500.000			45.476			-4.548
183602.000			45.476			-4.548
183701.000			45.476			-4.548
183800.000			45.476			-4.548
183901.000			45.475			-4.547
184000.000			45.474			-4.547
184100.000			45.472			-4.547
184201.000			45.472			-4.547
184300.000			45.472			-4.547
184400.000			45.470			-4.547
184502.000			45.470			-4.547
184601.000			45.470			-4.547
184701.000			45.469			-4.547
184801.000			45.469			-4.547
184900.000			45.469			-4.547
185000.000			45.469			-4.547
185100.000			45.467			-4.547
185200.000			45.466			-4.547
185301.000			45.466			-4.547
185400.000			45.466			-4.547
185501.000			45.464			-4.546
185602.000			45.464			-4.546
185701.000			45.463			-4.546
185800.000			45.462			-4.546
185901.000			45.462			-4.546
186000.000			45.461			-4.546
186100.000			45.460			-4.546
186201.000			45.461			-4.546
186300.000			45.459			-4.546
186400.000			45.459			-4.546
186502.000			45.458			-4.546
186601.000			45.458			-4.546
186700.000			45.457			-4.546
186801.000			45.456			-4.546
186900.000			45.456			-4.546
187000.000			45.456			-4.546
187101.000			45.456			-4.546
187200.000			45.454			-4.545
187300.000			45.455			-4.545
187401.000			45.454			-4.545
187501.000			45.453			-4.545
187601.000			45.452			-4.545
187701.000			45.452			-4.545
187800.000			45.452			-4.545
187900.000			45.450			-4.545
188001.000			45.450			-4.545
188100.000			45.450			-4.545
188200.000			45.449			-4.545
188300.000			45.448			-4.545
188401.000			45.449			-4.545
188502.000			45.447			-4.545
188601.000			45.446			-4.545
188700.000			45.445			-4.545
188801.000			45.446			-4.545
188900.000			45.445			-4.544
189000.000			45.444			-4.544
189101.000			45.444			-4.544
189200.000			45.444			-4.544
189300.000			45.444			-4.544
189402.000			45.443			-4.544
189501.000			45.441			-4.544
189601.000			45.441			-4.544
189701.000			45.441			-4.544
189800.000			45.440			-4.544
189900.000			45.438			-4.544
190001.000			45.438			-4.544
190100.000			45.438			-4.544
190200.000			45.437			-4.544
190301.000			45.436			-4.544
190401.000			45.436			-4.544
190501.000			45.435			-4.544
190601.000			45.434			-4.543
190700.000			45.433			-4.543
190800.000			45.433			-4.543
190901.000			45.433			-4.543
191000.000			45.433			-4.543
191100.000			45.432			-4.543
191201.000			45.431			-4.543
191301.000			45.431			-4.543
191402.000			45.430			-4.543
191500.000			45.429			-4.543
191600.000			45.429			-4.543
191701.000			45.429			-4.543
191800.000			45.429			-4.543
191900.000			45.428			-4.543
192001.000			45.426			-4.543
192100.000			45.427			-4.543
192201.000			45.426			-4.543
192302.000			45.425			-4.543
192401.000			45.425			-4.542
192500.000			45.423			-4.542
192601.000			45.422			-4.542
192700.000			45.422			-4.542
192800.000			45.423			-4.542
192901.000			45.423			-4.542
193000.000			45.422			-4.542
193100.000			45.420			-4.542
193202.000			45.419			-4.542
193301.000			45.419			-4.542
193400.000			45.419			-4.542
193501.000			45.418			-4.542
193600.000			45.417			-4.542
193700.000			45.415			-4.542
193801.000			45.416			-4.542
193900.000			45.415			-4.542
194000.000			45.415			-4.541
194102.000			45.414			-4.541
194201.000			45.414			-4.541
194300.000			45.413			-4.541
194401.000			45.411			-4.541
194500.000			45.412			-4.541
194600.000			45.412			-4.541
194700.000			45.411			-4.541
194800.000			45.411			-4.541
194901.000			45.410			-4.541
195001.000			45.410			-4.541
195101.000			45.408			-4.541
195201.000			45.408			-4.541
195300.000			45.407			-4.541
195400.000			45.407			-4.541
195501.000			45.407			-4.541
195600.000			45.407			-4.541
195700.000			45.407			-4.541
195801.000			45.405			-4.541
195901.000			45.405			-4.541
196001.000			45.405			-4.540
196102.000			45.403			-4.540
196200.000			45.402			-4.540
196300.000			45.401			-4.540
196401.000			45.402			-4.540
196500.000			45.400			-4.540
196600.000			45.400			-4.540
196701.000			45.399			-4.540
196801.000			45.399			-4.540
196901.000			45.398			-4.540
197002.000			45.398			-4.540
197100.000			45.398			-4.540
197200.000			45.396			-4.540
197301.000			45.397			-4.540
197400.000			45.397			-4.540
197500.000			45.396			-4.540
197601.000			45.395			-4.540
197700.000			45.395			-4.539
197800.000			45.394			-4.539
197902.000			45.394			-4.539
198001.000			45.394			-4.539
198101.000			45.393			-4.539
198200.000			45.392			-4.539
198300.000			45.392			-4.539
198401.000			45.392			-4.539
198500.000			45.391			-4.539
198600.000			45.391			-4.539
198701.000			45.388			-4.539
198801.000			45.388			-4.539
198901.000			45.388			-4.539
199002.000			45.388			-4.539
199100.000			45.388			-4.539
199200.000			45.387			-4.539
199301.000			45.387			-4.539
199400.000			45.386			-4.539
199500.000			45.385			-4.539
199601.000			45.385			-4.538
199700.000			45.384			-4.538
199800.000			45.384			-4.538
199902.000			45.384			-4.538
200001.000			45.383			-4.538
200100.000			45.383			-4.538
200201.000			45.382			-4.538
200300.000			45.381			-4.538
200400.000			45.381			-4.538
200501.000			45.380			-4.538
200600.000			45.380			-4.538
200700.000			45.381			-4.538
200802.000			45.379			-4.538
200901.000			45.379			-4.538
201002.000			45.377			-4.538
201100.000			45.378			-4.538
201200.000			45.378			-4.538
201301.000			45.376			-4.538
201400.000			45.376			-4.538
201500.000			45.375			-4.537
201601.000			45.374			-4.537
201701.000			45.374			-4.537
201801.000			45.373			-4.537
201902.000			45.372			-4.537
202000.000			45.372			-4.537
202100.000			45.372			-4.537
202201.000			45.373			-4.537
202300.000			45.372			-4.537
202400.000			45.371			-4.537
202501.000			45.371			-4.537
202601.000			45.371			-4.537
202701.000			45.371			-4.537
202802.000			45.370			-4.537
202900.000			45.369			-4.537
203000.000			45.369			-4.537
203101.000			45.367			-4.537
203200.000			45.367			-4.537
203300.000			45.367			-4.537
203401.000			45.366			-4.537
203500.000			45.365			-4.536
203601.000			45.364			-4.536
203702.000			45.364			-4.536
203800.000			45.363			-4.536
203900.000			45.363			-4.536
204001.000			45.362			-4.536
204100.000			45.361			-4.536
204200.000			45.362			-4.536
204300.000			45.361			-4.536
204400.000			45.360			-4.536
204502.000			45.359			-4.536
204601.000			45.359			-4.536
204701.000			45.359			-4.536
204801.000			45.358			-4.536
204900.000			45.359			-4.536
205000.000			45.359			-4.536
205101.000			45.356			-4.536
205200.000			45.356			-4.536
205300.000			45.357			-4.536
205402.000			45.356			-4.536
205501.000			45.356			-4.536
205601.000			45.355			-4.535
205701.000			45.354			-4.535
205800.000			45.354			-4.535
205900.000			45.354			-4.535
206001.000			45.352			-4.535
206100.000			45.353			-4.535
206200.000			45.350			-4.535
206301.000			45.351			-4.535
206401.000			45.351			-4.535
206501.000			45.349			-4.535
206601.000			45.349			-4.535
206700.000			45.349			-4.535
206800.000			45.348			-4.535
206901.000			45.347			-4.535
207000.000			45.347			-4.535
207100.000			45.347			-4.535
207201.000			45.346			-4.535
207301.000			45.345			-4.535
207402.000			45.345			-4.534
207501.000			45.344			-4.534
207600.000			45.344			-4.534
207701.000			45.343			-4.534
207800.000			45.344			-4.534
207900.000			45.342			-4.534
208001.000			45.341			-4.534
208100.000			45.340			-4.534
208201.000			45.340			-4.534
208302.000			45.340			-4.534
208401.000			45.340			-4.534
208500.000			45.339			-4.534
208601.000			45.339			-4.534
208700.000			45.339			-4.534
208800.000			45.339			-4.534
208901.000			45.338			-4.534
209000.000			45.336			-4.534
209100.000			45.335			-4.533
209202.000			45.334			-4.533
209301.000			45.334			-4.533
209400.000			45.334			-4.533
209501.000			45.333			-4.533
209600.000			45.333			-4.533
209700.000			45.334			-4.533
209801.000			45.333			-4.533
209900.000			45.332			-4.533
210000.000			45.332			-4.533
210102.000			45.332			-4.533
210201.000			45.330			-4.533
210300.000			45.330			-4.533
210401.000			45.329			-4.533
210500.000			45.329			-4.533
210600.000			45.328			-4.533
210700.000			45.327			-4.533
210800.000			45.326			-4.533
210901.000			45.326			-4.533
211001.000			45.326			-4.533
211101.000			45.324			-4.532
211201.000			45.324			-4.532
211300.000			45.323			-4.532
211400.000			45.321			-4.532
211501.000			45.322			-4.532
211600.000			45.322			-4.532
211700.000			45.321			-4.532
211801.000			45.321			-4.532
211901.000			45.321			-4.532
212001.000			45.321			-4.532
212101.000			45.320			-4.532
212200.000			45.319			-4.532
212300.000			45.319			-4.532
212401.000			45.317			-4.532
212500.000			45.317			-4.532
212600.000			45.317			-4.532
212701.000			45.317			-4.532
212801.000			45.316			-4.532
212901.000			45.315			-4.532
213001.000			45.315			-4.531
213100.000			45.314			-4.531
213200.000			45.314			-4.531
213301.000			45.314			-4.531
213400.000			45.312			-4.531
213500.000			45.312			-4.531
213601.000			45.312			-4.531
213701.000			45.312			-4.531
213802.000			45.311			-4.531
213900.000			45.311			-4.531
214000.000			45.310			-4.531
214101.000			45.308			-4.531
214200.000			45.309			-4.531
214300.000			45.309			-4.531
214401.000			45.308			-4.531
214500.000			45.307			-4.531
214601.000			45.307			-4.531
214702.000			45.306			-4.531
214800.000			45.306			-4.531
214900.000			45.305			-4.531
215001.000			45.304			-4.530
215100.000			45.305			-4.530
215200.000			45.304			-4.530
215301.000			45.304			-4.530
215401.000			45.304			-4.530
215501.000			45.303			-4.530
215602.000			45.302			-4.530
215700.000			45.301			-4.530
215800.000			45.301			-4.530
215901.000			45.301			-4.530
216000.000			45.299			-4.530
216100.000			45.299			-4.530
216201.000			45.299			-4.530
216301.000			45.299			-4.530
216401.000			45.298			-4.530
216502.000			45.298			-4.530
216600.000			45.296			-4.530
216700.000			45.296			-4.530
216801.000			45.296			-4.530
216900.000			45.296			-4.530
217000.000			45.296			-4.530
217100.000			45.295			-4.529
217200.000			45.294			-4.529
217302.000			45.294			-4.529
217401.000			45.293			-4.529
217501.000			45.293			-4.529
217601.000			45.293			-4.529
217700.000			45.292			-4.529
217800.000			45.291			-4.529
217901.000			45.291			-4.529
218000.000			45.290			-4.529
218100.000			45.289			-4.529
218201.000			45.289			-4.529
218301.000			45.288			-4.529
218401.000			45.289			-4.529
218501.000			45.287			-4.529
218600.000			45.288			-4.529
218700.000			45.287			-4.529
218801.000			45.287			-4.529
218900.000			45.286			-4.529
219000.000			45.285			-4.529
219101.000			45.286			-4.529
219201.000			45.283			-4.528
219301.000			45.283			-4.528
219402.000			45.283			-4.528
219500.000			45.283			-4.528
219600.000			45.283			-4.528
219701.000			45.282			-4.528
219800.000			45.281			-4.528
219900.000			45.281			-4.528
220001.000			45.279			-4.528
220101.000			45.279			-4.528
220202.000			45.280			-4.528
220301.000			45.279			-4.528
220400.000			45.278			-4.528
220501.000			45.278			-4.528
220600.000			45.279			-4.528
220700.000			45.277			-4.528
220801.000			45.276			-4.528
220900.000			45.275			-4.528
221000.000			45.274			-4.527
221102.000			45.274			-4.527
221201.000			45.275			-4.527
221300.000			45.275			-4.527
221401.000			45.274			-4.527
221500.000			45.273			-4.527
221600.000			45.273			-4.527
221701.000			45.273			-4.527
221800.000			45.273			-4.527
221900.000			45.273			-4.527
222002.000			45.272			-4.527
222101.000			45.272			-4.527
222200.000			45.270			-4.527
222301.000			45.269			-4.527
222400.000			45.269			-4.527
222500.000			45.269			-4.527
222601.000			45.268			-4.527
222700.000			45.268			-4.527
222800.000			45.267			-4.527
222901.000			45.266			-4.527
223001.000			45.265			-4.526
223101.000			45.265			-4.526
223201.000			45.265			-4.527
223300.000			45.266			-4.527
223400.000			45.266			-4.527
223500.000			45.264			-4.526
223600.000			45.263			-4.526
223701.000			45.262			-4.526
223800.000			45.262			-4.526
223901.000			45.262			-4.526
224002.000			45.262			-4.526
224100.000			45.262			-4.526
224200.000			45.262			-4.526
224301.000			45.260			-4.526
224400.000			45.259			-4.526
224500.000			45.258			-4.526
224601.000			45.258			-4.526
224700.000			45.258			-4.526
224801.000			45.257			-4.526
224902.000			45.257			-4.526
225000.000			45.257			-4.526
225100.000			45.256			-4.526
225201.000			45.255			-4.525
225300.000			45.254			-4.525
225400.000			45.254			-4.525
225501.000			45.253			-4.525
225600.000			45.252			-4.525
225701.000			45.253			-4.525
225802.000			45.252			-4.525
225901.000			45.252			-4.525
226000.000			45.251			-4.525
226101.000			45.250			-4.525
226200.000			45.250			-4.525
226300.000			45.250			-4.525
226401.000			45.249			-4.525
226500.000			45.249			-4.525
226602.000			45.248			-4.525
226701.000			45.247			-4.525
226801.000			45.246			-4.525
226901.000			45.245			-4.524
227000.000			45.244			-4.524
227100.000			45.245			-4.524
227201.000			45.246			-4.525
227300.000			45.244			-4.524
227400.000			45.243			-4.524
227501.000			45.243			-4.524
227601.000			45.243			-4.524
227701.000			45.243			-4.524
227801.000			45.243			-4.524
227900.000			45.242			-4.524
228000.000			45.242			-4.524
228101.000			45.239			-4.524
228200.000			45.239			-4.524
228300.000			45.239			-4.524
228401.000			45.239			-4.524
228501.000			45.238			-4.524
228601.000			45.238			-4.524
228702.000			45.237			-4.524
228800.000			45.237			-4.524
228900.000			45.237			-4.524
229001.000			45.236			-4.524
229100.000			45.235			-4.524
229200.000			45.235			-4.524
229301.000			45.234			-4.523
229400.000			45.234			-4.523
229501.000			45.233			-4.523
229602.000			45.232			-4.523
229700.000			45.233			-4.523
229800.000			45.232			-4.523
229900.000			45.232			-4.523
230000.000			45.232			-4.523
230101.000			45.231			-4.523
230200.000			45.230			-4.523
230300.000			45.230			-4.523
230402.000			45.230			-4.523
230501.000			45.230			-4.523
230600.000			45.229			-4.523
230701.000			45.229			-4.523
230800.000			45.228			-4.523
230900.000			45.228			-4.523
231001.000			45.227			-4.523
231100.000			45.227			-4.523
231200.000			45.227			-4.523
231302.000			45.226			-4.523
231401.000			45.225			-4.523
231500.000			45.224			-4.522
231601.000			45.223			-4.522
231700.000			45.223			-4.522
231800.000			45.222			-4.522
231901.000			45.221			-4.522
232000.000			45.221			-4.522
232100.000			45.221			-4.522
232202.000			45.220			-4.522
232301.000			45.220			-4.522
232400.000			45.221			-4.522
232501.000			45.220			-4.522
232600.000			45.219			-4.522
232700.000			45.219			-4.522
232801.000			45.218			-4.522
232900.000			45.217			-4.522
233000.000			45.216			-4.522
233102.000			45.216			-4.522
233201.000			45.216			-4.522
233301.000			45.216			-4.522
233400.000			45.216			-4.522
233500.000			45.215			-4.522
233601.000			45.215			-4.521
233700.000			45.215			-4.521
233800.000			45.215			-4.521
233901.000			45.215			-4.521
234001.000			45.213			-4.521
234101.000			45.212			-4.521
234201.000			45.211			-4.521
234300.000			45.211			-4.521
234400.000			45.210			-4.521
234501.000			45.209			-4.521
234600.000			45.209			-4.521
234700.000			45.209			-4.521
234801.000			45.208			-4.521
234901.000			45.208			-4.521
235001.000			45.208			-4.521
235101.000			45.207			-4.521
235200.000			45.207			-4.521
235300.000			45.207			-4.521
235401.000			45.206			-4.521
235500.000			45.206			-4.521
235600.000			45.205			-4.520
235701.000			45.204			-4.520
235801.000			45.205			-4.521
235901.000			45.205			-4.521
236001.000			45.204			-4.520
236100.000			45.203			-4.520
236200.000			45.201			-4.520
236300.000			45.200			-4.520
236400.000			45.200			-4.520
236501.000			45.200			-4.520
236600.000			45.200			-4.520
236701.000			45.199			-4.520
236802.000			45.198			-4.520
236901.000			45.198			-4.520
237000.000			45.199			-4.520
237101.000			45.198			-4.520
237200.000			45.197			-4.520
237300.000			45.198			-4.520
237401.000			45.197			-4.520
237500.000			45.196			-4.520
237600.000			45.195			-4.520
237702.000			45.196			-4.520
237801.000			45.196			-4.520
237901.000			45.195			-4.520
238001.000			45.195			-4.519
238100.000			45.195			-4.520
238200.000			45.194			-4.519
238301.000			45.193			-4.519
238400.000			45.193			-4.519
238500.000			45.193			-4.519
238602.000			45.194			-4.519
238701.000			45.193			-4.519
238801.000			45.193			-4.519
238901.000			45.192			-4.519
239000.000			45.191			-4.519
239100.000			45.191			-4.519
239201.000			45.190			-4.519
239300.000			45.190			-4.519
239400.000			45.190			-4.519
239500.000			45.190			-4.519
239601.000			45.189			-4.519
239702.000			45.188			-4.519
239801.000			45.188			-4.519
239900.000			45.187			-4.519
240001.000			45.186			-4.519
240100.000			45.186			-4.519
240200.000			45.185			-4.518
240301.000			45.185			-4.518
240400.000			45.186			-4.519
240500.000			45.185			-4.519
240602.000			45.184			-4.518
240701.000			45.183			-4.518
240800.000			45.183			-4.518
240901.000			45.182			-4.518
241000.000			45.182			-4.518
241100.000			45.183			-4.518
241201.000			45.181			-4.518
241300.000			45.181			-4.518
241400.000			45.180			-4.518
241502.000			45.180			-4.518
241601.000			45.179			-4.518
241700.000			45.179			-4.518
241801.000			45.179			-4.518
241900.000			45.178			-4.518
242000.000			45.177			-4.518
242101.000			45.176			-4.518
242200.000			45.175			-4.518
242300.000			45.176			-4.518
242402.000			45.176			-4.518
242501.000			45.175			-4.517
242602.000			45.174			-4.517
242700.000			45.173			-4.517
242800.000			45.173			-4.517
242901.000			45.172			-4.517
243000.000			45.172			-4.517
243100.000			45.172			-4.517
243201.000			45.172			-4.517
243301.000			45.172			-4.517
243401.000			45.170			-4.517
243502.000			45.170			-4.517
243600.000			45.170			-4.517
243700.000			45.168			-4.517
243801.000			45.168			-4.517
243900.000			45.167			-4.517
244000.000			45.167			-4.517
244101.000			45.168			-4.517
244200.000			45.167			-4.517
244301.000			45.167			-4.517
244402.000			45.166			-4.517
244500.000			45.165			-4.516
244600.000			45.165			-4.517
244701.000			45.164			-4.516
244800.000			45.164			-4.516
244900.000			45.163			-4.516
245001.000			45.163			-4.516
245100.000			45.162			-4.516
245201.000			45.162			-4.516
245302.000			45.162			-4.516
245401.000			45.161			-4.516
245500.000			45.161			-4.516
245601.000			45.162			-4.516
245700.000			45.161			-4.516
245800.000			45.160			-4.516
245900.000			45.160			-4.516
246000.000			45.159			-4.516
246101.000			45.159			-4.516
246201.000			45.158			-4.516
246301.000			45.157			-4.516
246401.000			45.158			-4.516
246500.000			45.157			-4.516
246600.000			45.156			-4.516
246701.000			45.156			-4.516
246800.000			45.155			-4.516
246900.000			45.154			-4.515
247001.000			45.154			-4.515
247101.000			45.153			-4.515
247201.000			45.153			-4.515
247301.000			45.153			-4.515
247400.000			45.153			-4.515
247500.000			45.152			-4.515
247601.000			45.153			-4.515
247700.000			45.152			-4.515
247800.000			45.151			-4.515
247901.000			45.151			-4.515
248001.000			45.150			-4.515
248101.000			45.150			-4.515
248202.000			45.150			-4.515
248300.000			45.150			-4.515
248400.000			45.149			-4.515
248501.000			45.148			-4.515
248600.000			45.148			-4.515
248700.000			45.147			-4.515
248801.000			45.147			-4.515
248900.000			45.147			-4.515
249002.000			45.147			-4.515
249101.000			45.147			-4.515
249200.000			45.146			-4.515
249301.000			45.145			-4.515
249400.000			45.145			-4.514
249500.000			45.145			-4.514
249601.000			45.145			-4.514
249700.000			45.144			-4.514
249800.000			45.143			-4.514
249902.000			45.142			-4.514
250001.000			45.141			-4.514
250101.000			45.141			-4.514
250201.000			45.141			-4.514
250300.000			45.141			-4.514
250400.000			45.141			-4.514
250501.000			45.141			-4.514
250600.000			45.141			-4.514
250700.000			45.139			-4.514
250802.000			45.139			-4.514
250901.000			45.139			-4.514
251001.000			45.138			-4.514
251101.000			45.136			-4.514
251200.000			45.136			-4.514
251300.000			45.136			-4.514
251401.000			45.136			-4.514
251500.000			45.135			-4.514
251600.000			45.134			-4.513
251702.000			45.135			-4.513
251801.000			45.134			-4.513
251901.000			45.134			-4.513
252001.000			45.134			-4.513
252100.000			45.132			-4.513
252200.000			45.133			-4.513
252300.000			45.133			-4.513
252400.000			45.132			-4.513
252501.000			45.132			-4.513
252601.000			45.132			-4.513
252701.000			45.131			-4.513
252802.000			45.131			-4.513
252900.000			45.129			-4.513
253000.000			45.130			-4.513
253101.000			45.130			-4.513
253200.000			45.129			-4.513
253300.000			45.128			-4.513
253401.000			45.128			-4.513
253500.000			45.128			-4.513
253601.000			45.127			-4.513
253702.000			45.126			-4.513
253800.000			45.127			-4.513
253900.000			45.127			-4.513
254001.000			45.126			-4.513
254100.000			45.124			-4.512
254200.000			45.124			-4.512
254301.000			45.124			-4.512
254400.000			45.123			-4.512
254501.000			45.124			-4.512
254602.000			45.124			-4.512
254701.000			45.123			-4.512
254800.000			45.122			-4.512
254901.000			45.122			-4.512
255000.000			45.121			-4.512
255100.000			45.120			-4.512
255201.000			45.121			-4.512
255300.000			45.121			-4.512
255402.000			45.120			-4.512
255501.000			45.119			-4.512
255601.000			45.119			-4.512
255701.000			45.118			-4.512
255800.000			45.116			-4.512
255900.000			45.116			-4.512
256001.000			45.116			-4.512
256100.000			45.116			-4.512
256200.000			45.116			-4.512
256301.000			45.116			-4.512
256401.000			45.115			-4.512
256501.000			45.115			-4.511
256601.000			45.113			-4.511
256700.000			45.114			-4.511
256800.000			45.113			-4.511
256901.000			45.112			-4.511
257000.000			45.112			-4.511
257100.000			45.112			-4.511
257201.000			45.110			-4.511
257301.000			45.110			-4.511
257401.000			45.109			-4.511
257501.000			45.109			-4.511
257600.000			45.109			-4.511
257700.000			45.109			-4.511
257801.000			45.109			-4.511
257900.000			45.109			-4.511
258000.000			45.109			-4.511
258101.000			45.107			-4.511
258201.000			45.107			-4.511
258301.000			45.107			-4.511
258401.000			45.107			-4.511
258500.000			45.105			-4.511
258600.000			45.106			-4.511
258700.000			45.106			-4.511
258800.000			45.105			-4.511
258901.000			45.105			-4.511
259000.000			45.104			-4.510
259100.000			45.103			-4.510
259202.000			45.103			-4.510
259301.000			45.102			-4.510
259400.000			45.101			-4.510
259501.000			45.100			-4.510
259600.000			45.100			-4.510
259700.000			45.100			-4.510
259801.000			45.100			-4.510
259900.000			45.099			-4.510
260000.000			45.099			-4.510
260102.000			45.099			-4.510
260201.000			45.099			-4.510
260301.000			45.097			-4.510
260401.000			45.097			-4.510
260500.000			45.097			-4.510
260600.000			45.097			-4.510
260701.000			45.096			-4.510
260800.000			45.095			-4.510
260900.000			45.095			-4.509
261001.000			45.096			-4.510
261101.000			45.095			-4.509
261201.000			45.095			-4.509
261301.000			45.094			-4.509
261400.000			45.092			-4.509
261500.000			45.092			-4.509
261601.000			45.091			-4.509
261700.000			45.091			-4.509
261800.000			45.091			-4.509
261900.000			45.091			-4.509
262001.000			45.091			-4.509
262102.000			45.091			-4.509
262200.000			45.091			-4.509
262300.000			45.091			-4.509
262401.000			45.090			-4.509
262500.000			45.089			-4.509
262600.000			45.088			-4.509
262701.000			45.088			-4.509
262800.000			45.087			-4.509
262901.000			45.087			-4.509
263002.000			45.087			-4.509
263101.000			45.087			-4.509
263200.000			45.086			-4.509
263301.000			45.085			-4.509
263400.000			45.086			-4.509
263500.000			45.085			-4.509
263601.000			45.085			-4.508
263700.000			45.085			-4.508
263800.000			45.084			-4.508
263902.000			45.083			-4.508
264001.000			45.083			-4.508
264100.000			45.082			-4.508
264201.000			45.081			-4.508
264300.000			45.081			-4.508
264400.000			45.082			-4.508
264501.000			45.081			-4.508
264600.000			45.080			-4.508
264700.000			45.080			-4.508
264802.000			45.079			-4.508
264901.000			45.079			-4.508
265000.000			45.079			-4.508
265100.000			45.078			-4.508
265200.000			45.076			-4.508
265301.000			45.076			-4.508
265400.000			45.077			-4.508
265500.000			45.077			-4.508
265601.000			45.076			-4.508
265701.000			45.075			-4.507
265801.000			45.075			-4.508
265902.000			45.075			-4.507
266000.000			45.075			-4.508
266100.000			45.073			-4.507
266201.000			45.074			-4.507
266300.000			45.073			-4.507
266400.000			45.072			-4.507
266501.000			45.072			-4.507
266600.000			45.072			-4.507
266701.000			45.072			-4.507
266802.000			45.070			-4.507
266901.000			45.070			-4.507
267000.000			45.070			-4.507
267101.000			45.070			-4.507
267200.000			45.070			-4.507
267300.000			45.070			-4.507
267401.000			45.070			-4.507
267500.000			45.069			-4.507
267601.000			45.068			-4.507
267702.000			45.068			-4.507
267801.000			45.068			-4.507
267900.000			45.067			-4.507
268001.000			45.067			-4.507
268100.000			45.067			-4.507
268200.000			45.066			-4.507
268300.000			45.066			-4.507
268400.000			45.065			-4.507
268501.000			45.064			-4.506
268601.000			45.064			-4.506
268701.000			45.064			-4.506
268801.000			45.064			-4.506
268900.000			45.063			-4.506
269000.000			45.062			-4.506
269101.000			45.062			-4.506
269200.000			45.062			-4.506
269300.000			45.062			-4.506
269401.000			45.062			-4.506
269501.000			45.061			-4.506
269601.000			45.059			-4.506
269702.000			45.059			-4.506
269800.000			45.058			-4.506
269900.000			45.059			-4.506
270001.000			45.059			-4.506
270100.000			45.058			-4.506
270200.000			45.058			-4.506
270301.000			45.058			-4.506
270400.000			45.057			-4.506
270501.000			45.056			-4.506
270602.000			45.055			-4.505
270700.000			45.055			-4.506
270800.000			45.056			-4.506
270901.000			45.055			-4.505
271000.000			45.055			-4.505
271100.000			45.055			-4.505
271201.000			45.054			-4.505
271300.000			45.055			-4.505
271402.000			45.054			-4.505
271501.000			45.052			-4.505
271600.000			45.052			-4.505
271701.000			45.052			-4.505
271800.000			45.053			-4.505
271900.000			45.053			-4.505
272001.000			45.052			-4.505
272100.000			45.051			-4.505
272200.000			45.051			-4.505
272302.000			45.050			-4.505
272401.000			45.050			-4.505
272501.000			45.050			-4.505
272601.000			45.049			-4.505
272700.000			45.049			-4.505
272800.000			45.049			-4.505
272901.000			45.048			-4.505
273000.000			45.047			-4.505
273100.000			45.047			-4.505
273201.000			45.046			-4.505
273301.000			45.045			-4.505
273401.000			45.046			-4.505
273501.000			45.045			-4.505
273600.000			45.046			-4.505
273700.000			45.045			-4.505
273801.000			45.044			-4.504
273900.000			45.043			-4.504
274000.000			45.043			-4.504
274101.000			45.043			-4.504
274201.000			45.042			-4.504
274301.000			45.041			-4.504
274401.000			45.041			-4.504
274500.000			45.040			-4.504
274600.000			45.040			-4.504
274700.000			45.041			-4.504
274800.000			45.040			-4.504
274901.000			45.038			-4.504
275000.000			45.038			-4.504
275101.000			45.038			-4.504
275202.000			45.038			-4.504
275301.000			45.038			-4.504
275400.000			45.038			-4.504
275501.000			45.037			-4.504
275600.000			45.036			-4.504
275700.000			45.036			-4.504
275801.000			45.036			-4.504
275900.000			45.036			-4.504
276000.000			45.035			-4.503
276102.000			45.035			-4.503
276201.000			45.035			-4.503
276300.000			45.034			-4.503
276401.000			45.033			-4.503
276500.000			45.033			-4.503
276600.000			45.032			-4.503
276701.000			45.032			-4.503
276800.000			45.032			-4.503
276900.000			45.033			-4.503
277002.000			45.032			-4.503
277101.000			45.030			-4.503
277200.000			45.030			-4.503
277301.000			45.030			-4.503
277400.000			45.030			-4.503
277500.000			45.029			-4.503
277601.000			45.029			-4.503
277700.000			45.028			-4.503
277800.000			45.028			-4.503
277902.000			45.026			-4.503
278001.000			45.027			-4.503
278102.000			45.027			-4.503
278200.000			45.027			-4.503
278300.000			45.027			-4.503
278401.000			45.027			-4.503
278500.000			45.026			-4.503
278600.000			45.025			-4.503
278701.000			45.024			-4.502
278800.000			45.024			-4.502
278901.000			45.025			-4.502
279002.000			45.024			-4.502
279100.000			45.023			-4.502
279200.000			45.024			-4.502
279301.000			45.024			-4.502
279400.000			45.022			-4.502
279500.000			45.022			-4.502
279601.000			45.022			-4.502
279700.000			45.021			-4.502
279801.000			45.021			-4.502
279902.000			45.021			-4.502
280001.000			45.021			-4.502
280100.000			45.020			-4.502
280201.000			45.019			-4.502
280300.000			45.019			-4.502
280400.000			45.019			-4.502
280501.000			45.019			-4.502
280600.000			45.020			-4.502
280701.000			45.019			-4.502
280802.000			45.018			-4.502
280901.000			45.017			-4.502
281000.000			45.017			-4.502
281100.000			45.018			-4.502
281200.000			45.018			-4.502
281301.000			45.017			-4.502
281400.000			45.016			-4.502
281500.000			45.014			-4.501
281601.000			45.014			-4.501
281701.000			45.014			-4.501
281801.000			45.014			-4.501
281901.000			45.014			-4.501
282000.000			45.013			-4.501
282100.000			45.013			-4.501
282201.000			45.012			-4.501
282300.000			45.012			-4.501
282400.000			45.012			-4.501
282501.000			45.010			-4.501
282601.000			45.011			-4.501
282701.000			45.012			-4.501
282801.000			45.012			-4.501
282900.000			45.011			-4.501
283000.000			45.010			-4.501
283101.000			45.010			-4.501
283200.000			45.009			-4.501
283300.000			45.008			-4.501
283401.000			45.009			-4.501
283501.000			45.009			-4.501
283601.000			45.008			-4.501
283701.000			45.007			-4.501
283800.000			45.008			-4.501
283900.000			45.007			-4.501
284001.000			45.006			-4.501
284100.000			45.007			-4.501
284200.000			45.007			-4.501
284300.000			45.006			-4.501
284401.000			45.005			-4.500
284502.000			45.004			-4.500
284601.000			45.004			-4.500
284700.000			45.003			-4.500
284801.000			45.004			-4.500
284900.000			45.003			-4.500
285000.000			45.002			-4.500
285101.000			45.003			-4.500
285200.000			45.001			-4.500
285301.000			45.000			-4.500
285402.000			45.001			-4.500
285501.000			45.001			-4.500
285600.000			45.001			-4.500
285701.000			45.000			-4.500
285800.000			45.000			-4.500
285900.000			44.999			-4.500
286001.000			44.998			-4.500
286100.000			44.998			-4.500
286200.000			44.998			-4.500
286302.000			44.997			-4.500
286401.000			44.997			-4.500
286501.000			44.997			-4.500
286601.000			44.996			-4.500
286700.000			44.995			-4.500
286800.000			44.995			-4.499
286901.000			44.994			-4.499
287000.000			44.995			-4.500
287100.000			44.995			-4.499
287201.000			44.994			-4.499
287301.000			44.994			-4.499
287402.000			44.993			-4.499
287501.000			44.994			-4.499
287600.000			44.993			-4.499
287701.000			44.993			-4.499
287800.000			44.992			-4.499
287900.000			44.992			-4.499
288001.000			44.992			-4.499
288100.000			44.990			-4.499
288200.000			44.990			-4.499
288302.000			44.991			-4.499
288401.000			44.991			-4.499
288501.000			44.990			-4.499
288601.000			44.989			-4.499
288700.000			44.989			-4.499
288800.000			44.989			-4.499
288901.000			44.988			-4.499
289000.000			44.988			-4.499
289100.000			44.987			-4.499
289201.000			44.986			-4.499
289301.000			44.986			-4.499
289401.000			44.986			-4.499
289502.000			44.986			-4.499
289600.000			44.985			-4.499
289700.000			44.986			-4.499
289801.000			44.985			-4.499
289900.000			44.986			-4.499
290000.000			44.985			-4.498
290101.000			44.984			-4.498
290200.000			44.984			-4.498
290300.000			44.983			-4.498
290402.000			44.983			-4.498
290501.000			44.982			-4.498
290600.000			44.982			-4.498
290700.000			44.981			-4.498
290800.000			44.981			-4.498
290901.000			44.981			-4.498
291000.000			44.981			-4.498
291100.000			44.980			-4.498
291201.000			44.979			-4.498
291300.000			44.979			-4.498
291401.000			44.978			-4.498
291502.000			44.978			-4.498
291600.000			44.978			-4.498
291700.000			44.978			-4.498
291801.000			44.977			-4.498
291900.000			44.977			-4.498
292000.000			44.977			-4.498
292101.000			44.976			-4.498
292200.000			44.975			-4.498
292300.000			44.975			-4.497
292402.000			44.975			-4.497
292501.000			44.973			-4.497
292600.000			44.974			-4.497
292701.000			44.974			-4.497
292800.000			44.974			-4.497
292900.000			44.973			-4.497
293001.000			44.972			-4.497
293100.000			44.972			-4.497
293200.000			44.971			-4.497
293302.000			44.970			-4.497
293401.000			44.970			-4.497
293501.000			44.971			-4.497
293601.000			44.970			-4.497
293700.000			44.969			-4.497
293800.000			44.968			-4.497
293900.000			44.967			-4.497
294000.000			44.968			-4.497
294101.000			44.968			-4.497
294200.000			44.967			-4.497
294300.000			44.967			-4.497
294402.000			44.968			-4.497
294501.000			44.966			-4.497
294600.000			44.966			-4.497
294701.000			44.963			-4.496
294800.000			44.963			-4.496
294900.000			44.964			-4.496
295001.000			44.964			-4.496
295100.000			44.963			-4.496
295200.000			44.963			-4.496
295301.000			44.963			-4.496
295401.000			44.962			-4.496
295501.000			44.962			-4.496
295601.000			44.962			-4.496
295700.000			44.962			-4.496
295800.000			44.962			-4.496
295901.000			44.962			-4.496
296000.000			44.961			-4.496
296100.000			44.962			-4.496
296201.000			44.961			-4.496
296301.000			44.961			-4.496
296401.000			44.960			-4.496
296502.000			44.961			-4.496
296600.000			44.960			-4.496
296700.000			44.960			-4.496
296801.000			44.960			-4.496
296900.000			44.959			-4.496
297000.000			44.958			-4.496
297100.000			44.958			-4.496
297200.000			44.958			-4.496
297302.000			44.957			-4.496
297401.000			44.956			-4.496
297501.000			44.956			-4.496
297601.000			44.955			-4.496
297700.000			44.955			-4.496
297800.000			44.954			-4.495
297901.000			44.954			-4.495
298000.000			44.953			-4.495
298100.000			44.953			-4.495
298201.000			44.953			-4.495
298301.000			44.953			-4.495
298401.000			44.951			-4.495
298502.000			44.950			-4.495
298600.000			44.951			-4.495
298700.000			44.951			-4.495
298801.000			44.950			-4.495
298900.000			44.950			-4.495
299000.000			44.950			-4.495
299101.000			44.950			-4.495
299200.000			44.949			-4.495
299301.000			44.949			-4.495
299402.000			44.949			-4.495
299501.000			44.948			-4.495
299600.000			44.947			-4.495
299701.000			44.947			-4.495
299800.000			44.945			-4.495
299900.000			44.945			-4.495
