# Acquired on 08/01/2024 11:47:29 
# SPIDER: Creep_2mm_07714532C-1
# CREEP MEASUREMENT

# time [ms]		force [N]		stiffness [N/mm]
0.000			-1.982			-0.991
100.000			-2.341			-1.171
201.000			-2.484			-1.242
300.000			-2.497			-1.248
400.000			-2.483			-1.241
502.000			-2.473			-1.236
601.000			-2.458			-1.229
700.000			-2.453			-1.226
801.000			-2.447			-1.223
900.000			-2.443			-1.221
1000.000			-2.439			-1.219
1101.000			-2.436			-1.218
1201.000			-2.433			-1.216
1301.000			-2.426			-1.213
1401.000			-2.424			-1.212
1500.000			-2.420			-1.210
1600.000			-2.418			-1.209
1701.000			-2.416			-1.208
1800.000			-2.413			-1.207
1901.000			-2.411			-1.206
2002.000			-2.408			-1.204
2100.000			-2.405			-1.203
2200.000			-2.404			-1.202
2301.000			-2.402			-1.201
2400.000			-2.400			-1.200
2500.000			-2.398			-1.199
2601.000			-2.397			-1.199
2701.000			-2.396			-1.198
2802.000			-2.393			-1.197
2900.000			-2.391			-1.196
3000.000			-2.391			-1.195
3101.000			-2.390			-1.195
3200.000			-2.389			-1.194
3300.000			-2.387			-1.194
3402.000			-2.385			-1.193
3501.000			-2.384			-1.192
3600.000			-2.382			-1.191
3701.000			-2.382			-1.191
3800.000			-2.381			-1.190
3900.000			-2.380			-1.190
4001.000			-2.379			-1.190
4100.000			-2.378			-1.189
4201.000			-2.375			-1.188
4302.000			-2.375			-1.188
4400.000			-2.373			-1.187
4500.000			-2.373			-1.186
4601.000			-2.373			-1.187
4700.000			-2.372			-1.186
4800.000			-2.369			-1.185
4902.000			-2.370			-1.185
5001.000			-2.369			-1.184
5100.000			-2.368			-1.184
5201.000			-2.367			-1.183
5300.000			-2.365			-1.183
5400.000			-2.367			-1.183
5501.000			-2.366			-1.183
5600.000			-2.365			-1.182
5701.000			-2.363			-1.182
5802.000			-2.363			-1.181
5900.000			-2.361			-1.181
6000.000			-2.361			-1.181
6100.000			-2.361			-1.181
6200.000			-2.360			-1.180
6301.000			-2.358			-1.179
6401.000			-2.357			-1.179
6501.000			-2.358			-1.179
6601.000			-2.357			-1.179
6700.000			-2.356			-1.178
6800.000			-2.355			-1.177
6901.000			-2.355			-1.178
7000.000			-2.354			-1.177
7100.000			-2.354			-1.177
7202.000			-2.353			-1.177
7301.000			-2.353			-1.176
7400.000			-2.352			-1.176
7501.000			-2.351			-1.176
7600.000			-2.351			-1.175
7700.000			-2.351			-1.175
7801.000			-2.350			-1.175
7901.000			-2.349			-1.175
8001.000			-2.349			-1.174
8101.000			-2.349			-1.174
8200.000			-2.348			-1.174
8300.000			-2.348			-1.174
8401.000			-2.346			-1.173
8500.000			-2.346			-1.173
8600.000			-2.346			-1.173
8702.000			-2.345			-1.172
8801.000			-2.344			-1.172
8900.000			-2.344			-1.172
9001.000			-2.343			-1.172
9100.000			-2.343			-1.172
9200.000			-2.343			-1.172
9300.000			-2.342			-1.171
9401.000			-2.342			-1.171
9502.000			-2.341			-1.170
9600.000			-2.340			-1.170
9700.000			-2.341			-1.171
9801.000			-2.341			-1.171
9900.000			-2.340			-1.170
10000.000			-2.339			-1.169
10101.000			-2.338			-1.169
10201.000			-2.338			-1.169
10301.000			-2.339			-1.169
10401.000			-2.338			-1.169
10500.000			-2.337			-1.169
10600.000			-2.337			-1.168
10701.000			-2.337			-1.168
10800.000			-2.335			-1.168
10901.000			-2.335			-1.168
11002.000			-2.336			-1.168
11100.000			-2.336			-1.168
11200.000			-2.334			-1.167
11301.000			-2.334			-1.167
11400.000			-2.334			-1.167
11500.000			-2.332			-1.166
11601.000			-2.333			-1.166
11701.000			-2.332			-1.166
11801.000			-2.333			-1.166
11901.000			-2.333			-1.166
12000.000			-2.332			-1.166
12100.000			-2.331			-1.166
12201.000			-2.331			-1.165
12300.000			-2.330			-1.165
12400.000			-2.330			-1.165
12502.000			-2.330			-1.165
12601.000			-2.330			-1.165
12701.000			-2.329			-1.165
12800.000			-2.329			-1.164
12900.000			-2.328			-1.164
13001.000			-2.328			-1.164
13100.000			-2.327			-1.164
13201.000			-2.328			-1.164
13302.000			-2.327			-1.164
13400.000			-2.326			-1.163
13500.000			-2.326			-1.163
13601.000			-2.326			-1.163
13700.000			-2.326			-1.163
13800.000			-2.327			-1.164
13901.000			-2.325			-1.163
14001.000			-2.324			-1.162
14101.000			-2.325			-1.163
14201.000			-2.325			-1.163
14300.000			-2.324			-1.162
14400.000			-2.322			-1.161
14501.000			-2.322			-1.161
14600.000			-2.322			-1.161
14700.000			-2.322			-1.161
14802.000			-2.323			-1.161
14901.000			-2.322			-1.161
15000.000			-2.321			-1.161
15101.000			-2.321			-1.161
15200.000			-2.320			-1.160
15300.000			-2.321			-1.161
15401.000			-2.320			-1.160
15501.000			-2.320			-1.160
15602.000			-2.321			-1.160
15700.000			-2.321			-1.160
15800.000			-2.321			-1.160
15901.000			-2.319			-1.160
16000.000			-2.320			-1.160
16100.000			-2.319			-1.160
16201.000			-2.320			-1.160
16301.000			-2.319			-1.160
16401.000			-2.319			-1.159
16501.000			-2.318			-1.159
16600.000			-2.319			-1.159
16700.000			-2.318			-1.159
16801.000			-2.317			-1.159
16900.000			-2.317			-1.158
17000.000			-2.316			-1.158
17102.000			-2.316			-1.158
17201.000			-2.316			-1.158
17300.000			-2.315			-1.158
17401.000			-2.316			-1.158
17500.000			-2.316			-1.158
17600.000			-2.315			-1.157
17701.000			-2.315			-1.158
17801.000			-2.315			-1.157
17901.000			-2.313			-1.157
18001.000			-2.315			-1.157
18100.000			-2.314			-1.157
18200.000			-2.314			-1.157
18301.000			-2.313			-1.157
18400.000			-2.314			-1.157
18500.000			-2.313			-1.157
18602.000			-2.313			-1.156
18701.000			-2.312			-1.156
18800.000			-2.314			-1.157
18900.000			-2.312			-1.156
19000.000			-2.312			-1.156
19101.000			-2.311			-1.156
19200.000			-2.311			-1.155
19300.000			-2.311			-1.156
19402.000			-2.310			-1.155
19501.000			-2.311			-1.155
19600.000			-2.310			-1.155
19701.000			-2.310			-1.155
19800.000			-2.311			-1.155
19900.000			-2.310			-1.155
20001.000			-2.309			-1.154
20101.000			-2.309			-1.155
20201.000			-2.308			-1.154
20301.000			-2.308			-1.154
20400.000			-2.309			-1.154
20500.000			-2.308			-1.154
20601.000			-2.308			-1.154
20700.000			-2.309			-1.154
20800.000			-2.308			-1.154
20902.000			-2.308			-1.154
21001.000			-2.307			-1.154
21100.000			-2.308			-1.154
21201.000			-2.308			-1.154
21300.000			-2.308			-1.154
21400.000			-2.307			-1.153
21501.000			-2.306			-1.153
21601.000			-2.306			-1.153
21701.000			-2.307			-1.153
21801.000			-2.306			-1.153
21900.000			-2.306			-1.153
22000.000			-2.305			-1.153
22100.000			-2.305			-1.152
22200.000			-2.305			-1.152
22301.000			-2.305			-1.152
22401.000			-2.305			-1.153
22501.000			-2.305			-1.152
22601.000			-2.304			-1.152
22700.000			-2.304			-1.152
22800.000			-2.305			-1.153
22901.000			-2.305			-1.152
23000.000			-2.303			-1.152
23100.000			-2.303			-1.152
23202.000			-2.302			-1.151
23301.000			-2.302			-1.151
23400.000			-2.301			-1.151
23501.000			-2.302			-1.151
23600.000			-2.302			-1.151
23700.000			-2.301			-1.151
23801.000			-2.301			-1.151
23901.000			-2.301			-1.151
24001.000			-2.302			-1.151
24101.000			-2.300			-1.150
24200.000			-2.301			-1.150
24300.000			-2.301			-1.151
24401.000			-2.301			-1.150
24500.000			-2.301			-1.151
24600.000			-2.300			-1.150
24702.000			-2.301			-1.151
24801.000			-2.300			-1.150
24900.000			-2.298			-1.149
25001.000			-2.300			-1.150
25100.000			-2.301			-1.150
25200.000			-2.300			-1.150
25300.000			-2.300			-1.150
25400.000			-2.299			-1.150
25502.000			-2.298			-1.149
25601.000			-2.298			-1.149
25700.000			-2.298			-1.149
25801.000			-2.298			-1.149
25900.000			-2.298			-1.149
26000.000			-2.298			-1.149
26101.000			-2.298			-1.149
26200.000			-2.298			-1.149
26301.000			-2.297			-1.149
26402.000			-2.296			-1.148
26500.000			-2.296			-1.148
26600.000			-2.296			-1.148
26701.000			-2.296			-1.148
26800.000			-2.297			-1.149
26900.000			-2.297			-1.148
27001.000			-2.297			-1.148
27101.000			-2.296			-1.148
27201.000			-2.295			-1.148
27301.000			-2.296			-1.148
27400.000			-2.295			-1.148
27500.000			-2.295			-1.148
27601.000			-2.295			-1.148
27700.000			-2.295			-1.147
27800.000			-2.295			-1.147
27902.000			-2.294			-1.147
28001.000			-2.295			-1.147
28100.000			-2.295			-1.148
28201.000			-2.295			-1.147
28300.000			-2.294			-1.147
28400.000			-2.294			-1.147
28500.000			-2.294			-1.147
28600.000			-2.293			-1.147
28702.000			-2.293			-1.146
28801.000			-2.293			-1.147
28900.000			-2.293			-1.147
29001.000			-2.293			-1.146
29100.000			-2.292			-1.146
29200.000			-2.292			-1.146
29301.000			-2.292			-1.146
29400.000			-2.293			-1.146
29501.000			-2.292			-1.146
29602.000			-2.291			-1.146
29700.000			-2.292			-1.146
29800.000			-2.292			-1.146
29901.000			-2.291			-1.146
30000.000			-2.292			-1.146
30100.000			-2.291			-1.145
30202.000			-2.291			-1.146
30301.000			-2.291			-1.146
30400.000			-2.291			-1.145
30501.000			-2.291			-1.145
30600.000			-2.290			-1.145
30700.000			-2.291			-1.145
30801.000			-2.290			-1.145
30900.000			-2.290			-1.145
31001.000			-2.291			-1.146
31102.000			-2.291			-1.146
31200.000			-2.290			-1.145
31300.000			-2.290			-1.145
31401.000			-2.289			-1.145
31500.000			-2.289			-1.145
31600.000			-2.290			-1.145
31700.000			-2.289			-1.144
31801.000			-2.288			-1.144
31902.000			-2.288			-1.144
32000.000			-2.289			-1.144
32100.000			-2.289			-1.144
32201.000			-2.288			-1.144
32300.000			-2.289			-1.144
32400.000			-2.288			-1.144
32501.000			-2.288			-1.144
32601.000			-2.288			-1.144
32701.000			-2.288			-1.144
32801.000			-2.287			-1.144
32900.000			-2.288			-1.144
33000.000			-2.288			-1.144
33101.000			-2.286			-1.143
33200.000			-2.286			-1.143
33300.000			-2.287			-1.143
33402.000			-2.286			-1.143
33501.000			-2.287			-1.143
33600.000			-2.286			-1.143
33701.000			-2.286			-1.143
33800.000			-2.286			-1.143
33900.000			-2.285			-1.143
34001.000			-2.285			-1.142
34101.000			-2.285			-1.143
34201.000			-2.285			-1.142
34302.000			-2.286			-1.143
34400.000			-2.286			-1.143
34500.000			-2.285			-1.142
34601.000			-2.285			-1.143
34700.000			-2.285			-1.143
34800.000			-2.285			-1.142
34902.000			-2.284			-1.142
35001.000			-2.285			-1.143
35101.000			-2.285			-1.143
35200.000			-2.284			-1.142
35300.000			-2.285			-1.142
35401.000			-2.284			-1.142
35500.000			-2.284			-1.142
35600.000			-2.284			-1.142
35702.000			-2.283			-1.142
35801.000			-2.283			-1.142
35900.000			-2.283			-1.142
36001.000			-2.283			-1.142
36100.000			-2.283			-1.142
36200.000			-2.283			-1.142
36301.000			-2.283			-1.141
36400.000			-2.283			-1.141
36501.000			-2.283			-1.141
36602.000			-2.283			-1.141
36700.000			-2.283			-1.142
36800.000			-2.283			-1.142
36901.000			-2.283			-1.142
37000.000			-2.282			-1.141
37100.000			-2.282			-1.141
37201.000			-2.283			-1.141
37301.000			-2.283			-1.141
37401.000			-2.283			-1.142
37501.000			-2.282			-1.141
37600.000			-2.281			-1.141
37700.000			-2.282			-1.141
37801.000			-2.282			-1.141
37900.000			-2.282			-1.141
38000.000			-2.281			-1.141
38102.000			-2.280			-1.140
38201.000			-2.280			-1.140
38301.000			-2.280			-1.140
38400.000			-2.280			-1.140
38500.000			-2.281			-1.140
38601.000			-2.281			-1.140
38700.000			-2.280			-1.140
38800.000			-2.280			-1.140
38902.000			-2.280			-1.140
39001.000			-2.279			-1.140
39100.000			-2.279			-1.139
39201.000			-2.278			-1.139
39300.000			-2.278			-1.139
39400.000			-2.279			-1.140
39501.000			-2.279			-1.140
39600.000			-2.279			-1.139
39701.000			-2.279			-1.139
39802.000			-2.279			-1.139
39900.000			-2.278			-1.139
40000.000			-2.279			-1.140
40101.000			-2.279			-1.140
40200.000			-2.278			-1.139
40300.000			-2.278			-1.139
40401.000			-2.278			-1.139
40501.000			-2.278			-1.139
40601.000			-2.276			-1.138
40701.000			-2.276			-1.138
40800.000			-2.276			-1.138
40900.000			-2.277			-1.139
41001.000			-2.278			-1.139
41100.000			-2.277			-1.139
41202.000			-2.277			-1.138
41301.000			-2.277			-1.138
41400.000			-2.277			-1.139
41501.000			-2.277			-1.139
41600.000			-2.277			-1.138
41700.000			-2.277			-1.139
41801.000			-2.276			-1.138
41900.000			-2.275			-1.138
42001.000			-2.276			-1.138
42102.000			-2.276			-1.138
42200.000			-2.276			-1.138
42300.000			-2.276			-1.138
42401.000			-2.276			-1.138
42500.000			-2.276			-1.138
42600.000			-2.275			-1.138
42701.000			-2.275			-1.137
42801.000			-2.275			-1.138
42901.000			-2.276			-1.138
43001.000			-2.274			-1.137
43100.000			-2.273			-1.136
43200.000			-2.273			-1.137
43301.000			-2.274			-1.137
43400.000			-2.275			-1.137
43500.000			-2.273			-1.137
43602.000			-2.272			-1.136
43701.000			-2.273			-1.137
43800.000			-2.274			-1.137
43901.000			-2.275			-1.137
44000.000			-2.274			-1.137
44100.000			-2.274			-1.137
44201.000			-2.274			-1.137
44301.000			-2.273			-1.136
44402.000			-2.273			-1.137
44501.000			-2.273			-1.136
44600.000			-2.273			-1.136
44701.000			-2.272			-1.136
44800.000			-2.272			-1.136
44900.000			-2.273			-1.136
45001.000			-2.273			-1.136
45101.000			-2.273			-1.137
45201.000			-2.273			-1.136
45301.000			-2.272			-1.136
45400.000			-2.273			-1.136
45500.000			-2.272			-1.136
45601.000			-2.272			-1.136
45700.000			-2.273			-1.136
45800.000			-2.272			-1.136
45902.000			-2.271			-1.136
46001.000			-2.272			-1.136
46100.000			-2.272			-1.136
46201.000			-2.271			-1.136
46300.000			-2.272			-1.136
46400.000			-2.271			-1.135
46501.000			-2.271			-1.136
46600.000			-2.271			-1.135
46701.000			-2.271			-1.135
46802.000			-2.271			-1.136
46900.000			-2.271			-1.135
47000.000			-2.271			-1.135
47101.000			-2.271			-1.135
47200.000			-2.271			-1.135
47300.000			-2.271			-1.135
47401.000			-2.271			-1.135
47501.000			-2.270			-1.135
47602.000			-2.270			-1.135
47700.000			-2.269			-1.135
47800.000			-2.269			-1.135
47901.000			-2.270			-1.135
48000.000			-2.270			-1.135
48100.000			-2.270			-1.135
48201.000			-2.271			-1.136
48301.000			-2.270			-1.135
48401.000			-2.270			-1.135
48501.000			-2.270			-1.135
48600.000			-2.268			-1.134
48700.000			-2.268			-1.134
48801.000			-2.268			-1.134
48900.000			-2.269			-1.134
49000.000			-2.268			-1.134
49102.000			-2.268			-1.134
49201.000			-2.269			-1.134
49300.000			-2.268			-1.134
49401.000			-2.269			-1.135
49500.000			-2.269			-1.134
49600.000			-2.268			-1.134
49701.000			-2.268			-1.134
49800.000			-2.268			-1.134
49901.000			-2.267			-1.134
50002.000			-2.267			-1.134
50100.000			-2.268			-1.134
50200.000			-2.267			-1.134
50301.000			-2.267			-1.134
50400.000			-2.267			-1.134
50500.000			-2.267			-1.134
50601.000			-2.267			-1.133
50701.000			-2.267			-1.133
50802.000			-2.266			-1.133
50900.000			-2.266			-1.133
51000.000			-2.267			-1.133
51101.000			-2.267			-1.134
51200.000			-2.268			-1.134
51300.000			-2.267			-1.134
51402.000			-2.266			-1.133
51501.000			-2.267			-1.133
51600.000			-2.267			-1.134
51701.000			-2.268			-1.134
51800.000			-2.267			-1.133
51900.000			-2.265			-1.133
52001.000			-2.266			-1.133
52100.000			-2.267			-1.134
52201.000			-2.266			-1.133
52302.000			-2.266			-1.133
52400.000			-2.266			-1.133
52500.000			-2.265			-1.132
52601.000			-2.264			-1.132
52700.000			-2.265			-1.132
52800.000			-2.265			-1.133
52901.000			-2.265			-1.133
53001.000			-2.265			-1.133
53101.000			-2.266			-1.133
53201.000			-2.266			-1.133
53300.000			-2.266			-1.133
53400.000			-2.265			-1.133
53501.000			-2.264			-1.132
53600.000			-2.265			-1.132
53700.000			-2.265			-1.132
53802.000			-2.265			-1.133
53901.000			-2.265			-1.133
54000.000			-2.265			-1.132
54100.000			-2.264			-1.132
54200.000			-2.264			-1.132
54301.000			-2.264			-1.132
54400.000			-2.264			-1.132
54500.000			-2.264			-1.132
54602.000			-2.265			-1.132
54701.000			-2.264			-1.132
54800.000			-2.264			-1.132
54901.000			-2.263			-1.132
55000.000			-2.263			-1.132
55100.000			-2.263			-1.131
55201.000			-2.264			-1.132
55301.000			-2.263			-1.132
55401.000			-2.264			-1.132
55502.000			-2.263			-1.132
55600.000			-2.262			-1.131
55700.000			-2.263			-1.131
55801.000			-2.262			-1.131
55900.000			-2.262			-1.131
56000.000			-2.262			-1.131
56102.000			-2.263			-1.131
56201.000			-2.263			-1.131
56300.000			-2.263			-1.131
56401.000			-2.262			-1.131
56500.000			-2.262			-1.131
56600.000			-2.262			-1.131
56701.000			-2.262			-1.131
56800.000			-2.262			-1.131
56901.000			-2.262			-1.131
57002.000			-2.262			-1.131
57100.000			-2.262			-1.131
57200.000			-2.262			-1.131
57300.000			-2.262			-1.131
57400.000			-2.262			-1.131
57501.000			-2.262			-1.131
57600.000			-2.261			-1.131
57701.000			-2.261			-1.131
57802.000			-2.261			-1.131
57900.000			-2.261			-1.131
58000.000			-2.261			-1.131
58101.000			-2.261			-1.131
58200.000			-2.261			-1.130
58300.000			-2.261			-1.131
58401.000			-2.261			-1.131
58501.000			-2.261			-1.130
58601.000			-2.261			-1.130
58701.000			-2.260			-1.130
58800.000			-2.262			-1.131
58900.000			-2.261			-1.130
59001.000			-2.260			-1.130
59100.000			-2.259			-1.130
59200.000			-2.259			-1.129
59302.000			-2.260			-1.130
59401.000			-2.260			-1.130
59500.000			-2.260			-1.130
59601.000			-2.260			-1.130
59700.000			-2.260			-1.130
59800.000			-2.259			-1.129
59901.000			-2.260			-1.130
60000.000			-2.260			-1.130
60101.000			-2.260			-1.130
60202.000			-2.260			-1.130
60300.000			-2.260			-1.130
60400.000			-2.259			-1.130
60500.000			-2.259			-1.129
60600.000			-2.259			-1.130
60701.000			-2.259			-1.130
60800.000			-2.260			-1.130
60901.000			-2.259			-1.129
61002.000			-2.259			-1.130
61100.000			-2.259			-1.129
61200.000			-2.259			-1.129
61301.000			-2.259			-1.129
61400.000			-2.259			-1.129
61500.000			-2.258			-1.129
61601.000			-2.258			-1.129
61701.000			-2.258			-1.129
61801.000			-2.258			-1.129
61901.000			-2.258			-1.129
62000.000			-2.258			-1.129
62100.000			-2.257			-1.129
62201.000			-2.257			-1.128
62300.000			-2.257			-1.129
62401.000			-2.258			-1.129
62502.000			-2.257			-1.129
62600.000			-2.257			-1.129
62700.000			-2.257			-1.129
62801.000			-2.258			-1.129
62900.000			-2.258			-1.129
63000.000			-2.257			-1.129
63101.000			-2.257			-1.129
63201.000			-2.258			-1.129
63301.000			-2.257			-1.129
63401.000			-2.257			-1.129
63500.000			-2.257			-1.129
63600.000			-2.257			-1.129
63700.000			-2.257			-1.129
63800.000			-2.258			-1.129
63901.000			-2.258			-1.129
64001.000			-2.258			-1.129
64101.000			-2.257			-1.129
64201.000			-2.257			-1.128
64300.000			-2.256			-1.128
64400.000			-2.257			-1.128
64501.000			-2.257			-1.129
64600.000			-2.257			-1.129
64700.000			-2.257			-1.128
64802.000			-2.257			-1.128
64901.000			-2.257			-1.129
65000.000			-2.257			-1.129
65101.000			-2.256			-1.128
65200.000			-2.257			-1.128
65300.000			-2.257			-1.128
65401.000			-2.257			-1.128
65500.000			-2.256			-1.128
65601.000			-2.257			-1.129
65702.000			-2.257			-1.129
65800.000			-2.256			-1.128
65900.000			-2.256			-1.128
66001.000			-2.256			-1.128
66100.000			-2.256			-1.128
66200.000			-2.256			-1.128
66301.000			-2.257			-1.129
66401.000			-2.256			-1.128
66501.000			-2.255			-1.128
66601.000			-2.255			-1.128
66700.000			-2.255			-1.128
66800.000			-2.256			-1.128
66900.000			-2.255			-1.128
67000.000			-2.256			-1.128
67101.000			-2.254			-1.127
67201.000			-2.254			-1.127
67301.000			-2.255			-1.127
67402.000			-2.254			-1.127
67500.000			-2.254			-1.127
67600.000			-2.254			-1.127
67701.000			-2.255			-1.127
67800.000			-2.254			-1.127
67900.000			-2.254			-1.127
68001.000			-2.255			-1.127
68101.000			-2.254			-1.127
68201.000			-2.254			-1.127
68301.000			-2.254			-1.127
68400.000			-2.254			-1.127
68500.000			-2.254			-1.127
68601.000			-2.254			-1.127
68700.000			-2.255			-1.127
68800.000			-2.255			-1.127
68902.000			-2.255			-1.128
69001.000			-2.254			-1.127
69100.000			-2.254			-1.127
69201.000			-2.254			-1.127
69300.000			-2.254			-1.127
69400.000			-2.254			-1.127
69501.000			-2.254			-1.127
69600.000			-2.254			-1.127
69701.000			-2.255			-1.127
69802.000			-2.253			-1.127
69900.000			-2.254			-1.127
70000.000			-2.253			-1.127
70100.000			-2.252			-1.126
70200.000			-2.253			-1.126
70301.000			-2.253			-1.127
70400.000			-2.254			-1.127
70501.000			-2.253			-1.127
70602.000			-2.252			-1.126
70700.000			-2.252			-1.126
70800.000			-2.254			-1.127
70901.000			-2.254			-1.127
71000.000			-2.253			-1.127
71100.000			-2.254			-1.127
71202.000			-2.252			-1.126
71301.000			-2.252			-1.126
71401.000			-2.252			-1.126
71501.000			-2.252			-1.126
71600.000			-2.253			-1.126
71700.000			-2.251			-1.126
71801.000			-2.251			-1.126
71900.000			-2.251			-1.126
72001.000			-2.251			-1.125
72102.000			-2.251			-1.125
72200.000			-2.252			-1.126
72300.000			-2.253			-1.126
72401.000			-2.252			-1.126
72500.000			-2.251			-1.126
72600.000			-2.251			-1.126
72701.000			-2.251			-1.125
72801.000			-2.251			-1.125
72901.000			-2.252			-1.126
73001.000			-2.251			-1.126
73100.000			-2.252			-1.126
73200.000			-2.252			-1.126
73300.000			-2.252			-1.126
73400.000			-2.251			-1.126
73501.000			-2.252			-1.126
73601.000			-2.251			-1.126
73701.000			-2.251			-1.126
73801.000			-2.251			-1.126
73900.000			-2.251			-1.125
74000.000			-2.251			-1.126
74101.000			-2.250			-1.125
74200.000			-2.250			-1.125
74300.000			-2.251			-1.125
74402.000			-2.251			-1.125
74501.000			-2.250			-1.125
74600.000			-2.251			-1.125
74701.000			-2.250			-1.125
74800.000			-2.251			-1.125
74900.000			-2.251			-1.126
75001.000			-2.251			-1.125
75100.000			-2.251			-1.126
75201.000			-2.251			-1.125
75302.000			-2.251			-1.125
75400.000			-2.251			-1.126
75500.000			-2.250			-1.125
75601.000			-2.249			-1.125
75700.000			-2.249			-1.125
75800.000			-2.250			-1.125
75901.000			-2.249			-1.124
76001.000			-2.249			-1.124
76101.000			-2.249			-1.124
76201.000			-2.250			-1.125
76300.000			-2.249			-1.124
76400.000			-2.249			-1.124
76500.000			-2.250			-1.125
76600.000			-2.249			-1.125
76701.000			-2.249			-1.125
76801.000			-2.249			-1.125
76901.000			-2.248			-1.124
77001.000			-2.247			-1.124
77100.000			-2.249			-1.124
77200.000			-2.249			-1.124
77301.000			-2.250			-1.125
77400.000			-2.249			-1.124
77500.000			-2.248			-1.124
77602.000			-2.249			-1.125
77701.000			-2.249			-1.125
77800.000			-2.248			-1.124
77901.000			-2.247			-1.124
78000.000			-2.247			-1.124
78100.000			-2.248			-1.124
78201.000			-2.249			-1.124
78300.000			-2.247			-1.124
78401.000			-2.247			-1.123
78502.000			-2.249			-1.124
78600.000			-2.248			-1.124
78700.000			-2.248			-1.124
78801.000			-2.247			-1.123
78900.000			-2.247			-1.123
79000.000			-2.248			-1.124
79101.000			-2.247			-1.124
79201.000			-2.247			-1.124
79301.000			-2.247			-1.124
79401.000			-2.248			-1.124
79500.000			-2.248			-1.124
79600.000			-2.247			-1.124
79700.000			-2.248			-1.124
79800.000			-2.248			-1.124
79901.000			-2.249			-1.124
80001.000			-2.246			-1.123
80101.000			-2.247			-1.124
80202.000			-2.248			-1.124
80300.000			-2.248			-1.124
80400.000			-2.247			-1.124
80501.000			-2.247			-1.123
80600.000			-2.247			-1.123
80700.000			-2.248			-1.124
80801.000			-2.248			-1.124
80901.000			-2.247			-1.124
81001.000			-2.247			-1.124
81101.000			-2.247			-1.124
81200.000			-2.247			-1.123
81300.000			-2.247			-1.123
81401.000			-2.246			-1.123
81500.000			-2.246			-1.123
81600.000			-2.247			-1.124
81702.000			-2.247			-1.123
81801.000			-2.246			-1.123
81900.000			-2.247			-1.123
82001.000			-2.247			-1.123
82100.000			-2.247			-1.123
82200.000			-2.247			-1.123
82301.000			-2.246			-1.123
82401.000			-2.246			-1.123
82501.000			-2.246			-1.123
82602.000			-2.246			-1.123
82700.000			-2.245			-1.123
82800.000			-2.245			-1.123
82900.000			-2.246			-1.123
83000.000			-2.247			-1.123
83101.000			-2.246			-1.123
83200.000			-2.246			-1.123
83301.000			-2.247			-1.124
83402.000			-2.246			-1.123
83500.000			-2.246			-1.123
83600.000			-2.246			-1.123
83701.000			-2.246			-1.123
83800.000			-2.246			-1.123
83900.000			-2.245			-1.123
84001.000			-2.245			-1.123
84101.000			-2.246			-1.123
84201.000			-2.246			-1.123
84301.000			-2.245			-1.122
84400.000			-2.245			-1.123
84500.000			-2.246			-1.123
84601.000			-2.246			-1.123
84700.000			-2.245			-1.123
84800.000			-2.245			-1.123
84902.000			-2.245			-1.123
85001.000			-2.245			-1.122
85100.000			-2.245			-1.123
85201.000			-2.245			-1.122
85300.000			-2.245			-1.122
85400.000			-2.245			-1.122
85501.000			-2.244			-1.122
85600.000			-2.244			-1.122
85701.000			-2.245			-1.122
85802.000			-2.245			-1.123
85900.000			-2.244			-1.122
86000.000			-2.245			-1.122
86100.000			-2.245			-1.122
86200.000			-2.245			-1.122
86301.000			-2.245			-1.122
86400.000			-2.245			-1.123
86501.000			-2.244			-1.122
86602.000			-2.245			-1.122
86700.000			-2.244			-1.122
86800.000			-2.243			-1.121
86901.000			-2.243			-1.121
87000.000			-2.243			-1.122
87100.000			-2.244			-1.122
87201.000			-2.245			-1.122
87301.000			-2.244			-1.122
87401.000			-2.243			-1.122
87501.000			-2.243			-1.122
87600.000			-2.244			-1.122
87700.000			-2.242			-1.121
87801.000			-2.243			-1.121
87900.000			-2.245			-1.122
88000.000			-2.243			-1.122
88102.000			-2.244			-1.122
88201.000			-2.244			-1.122
88300.000			-2.243			-1.122
88401.000			-2.243			-1.122
88500.000			-2.244			-1.122
88600.000			-2.244			-1.122
88701.000			-2.243			-1.121
88800.000			-2.242			-1.121
88901.000			-2.242			-1.121
89002.000			-2.243			-1.121
89100.000			-2.243			-1.122
89200.000			-2.243			-1.122
89300.000			-2.243			-1.121
89400.000			-2.243			-1.122
89501.000			-2.243			-1.121
89600.000			-2.243			-1.122
89701.000			-2.243			-1.121
89802.000			-2.242			-1.121
89900.000			-2.242			-1.121
90000.000			-2.242			-1.121
90101.000			-2.243			-1.121
90200.000			-2.243			-1.121
90300.000			-2.243			-1.121
90401.000			-2.242			-1.121
90501.000			-2.242			-1.121
90601.000			-2.242			-1.121
90701.000			-2.242			-1.121
90800.000			-2.241			-1.121
90900.000			-2.241			-1.120
91001.000			-2.242			-1.121
91100.000			-2.241			-1.121
91200.000			-2.242			-1.121
91302.000			-2.241			-1.121
91401.000			-2.242			-1.121
91500.000			-2.242			-1.121
91601.000			-2.241			-1.121
91700.000			-2.241			-1.121
91800.000			-2.241			-1.120
91901.000			-2.241			-1.121
92001.000			-2.241			-1.120
92101.000			-2.241			-1.120
92201.000			-2.241			-1.120
92300.000			-2.241			-1.120
92400.000			-2.241			-1.121
92500.000			-2.241			-1.121
92600.000			-2.241			-1.120
92701.000			-2.240			-1.120
92801.000			-2.240			-1.120
92901.000			-2.240			-1.120
93002.000			-2.240			-1.120
93100.000			-2.241			-1.120
93200.000			-2.241			-1.121
93301.000			-2.241			-1.121
93400.000			-2.241			-1.121
93500.000			-2.241			-1.120
93602.000			-2.240			-1.120
93701.000			-2.240			-1.120
93800.000			-2.240			-1.120
93901.000			-2.241			-1.120
94000.000			-2.241			-1.120
94100.000			-2.241			-1.120
94201.000			-2.240			-1.120
94300.000			-2.239			-1.119
94401.000			-2.239			-1.119
94502.000			-2.239			-1.120
94601.000			-2.239			-1.120
94700.000			-2.239			-1.120
94801.000			-2.240			-1.120
94900.000			-2.240			-1.120
95000.000			-2.238			-1.119
95101.000			-2.239			-1.120
95200.000			-2.239			-1.119
95301.000			-2.239			-1.119
95402.000			-2.239			-1.120
95500.000			-2.239			-1.120
95600.000			-2.239			-1.119
95700.000			-2.238			-1.119
95800.000			-2.238			-1.119
95901.000			-2.239			-1.119
96000.000			-2.239			-1.119
96101.000			-2.238			-1.119
96202.000			-2.237			-1.119
96300.000			-2.238			-1.119
96400.000			-2.237			-1.119
96501.000			-2.238			-1.119
96600.000			-2.238			-1.119
96700.000			-2.238			-1.119
96801.000			-2.238			-1.119
96901.000			-2.238			-1.119
97001.000			-2.238			-1.119
97101.000			-2.238			-1.119
97200.000			-2.238			-1.119
97300.000			-2.238			-1.119
97401.000			-2.237			-1.119
97500.000			-2.237			-1.119
97600.000			-2.237			-1.119
97702.000			-2.237			-1.119
97801.000			-2.237			-1.119
97900.000			-2.237			-1.118
98001.000			-2.237			-1.118
98100.000			-2.237			-1.119
98200.000			-2.236			-1.118
98301.000			-2.237			-1.118
98400.000			-2.237			-1.118
98501.000			-2.237			-1.118
98602.000			-2.236			-1.118
98701.000			-2.235			-1.118
98800.000			-2.235			-1.118
98900.000			-2.237			-1.118
99000.000			-2.237			-1.118
99101.000			-2.236			-1.118
99200.000			-2.236			-1.118
99300.000			-2.236			-1.118
99402.000			-2.236			-1.118
99501.000			-2.236			-1.118
99600.000			-2.236			-1.118
99701.000			-2.236			-1.118
99800.000			-2.237			-1.118
99900.000			-2.236			-1.118
100001.000			-2.236			-1.118
100100.000			-2.235			-1.118
100201.000			-2.236			-1.118
100302.000			-2.236			-1.118
100400.000			-2.235			-1.118
100500.000			-2.235			-1.117
100601.000			-2.236			-1.118
100700.000			-2.236			-1.118
100800.000			-2.235			-1.118
100901.000			-2.236			-1.118
101001.000			-2.235			-1.117
101101.000			-2.236			-1.118
101201.000			-2.236			-1.118
101300.000			-2.235			-1.118
101400.000			-2.235			-1.118
101501.000			-2.236			-1.118
101600.000			-2.235			-1.118
101700.000			-2.234			-1.117
101802.000			-2.235			-1.117
101901.000			-2.234			-1.117
102000.000			-2.235			-1.117
102100.000			-2.236			-1.118
102200.000			-2.234			-1.117
102301.000			-2.235			-1.117
102400.000			-2.235			-1.118
102500.000			-2.234			-1.117
102602.000			-2.235			-1.117
102701.000			-2.235			-1.117
102800.000			-2.235			-1.118
102901.000			-2.235			-1.118
103000.000			-2.235			-1.117
103100.000			-2.235			-1.117
103201.000			-2.234			-1.117
103300.000			-2.234			-1.117
103401.000			-2.234			-1.117
103502.000			-2.234			-1.117
103600.000			-2.234			-1.117
103700.000			-2.233			-1.116
103801.000			-2.233			-1.116
103900.000			-2.234			-1.117
104000.000			-2.234			-1.117
104101.000			-2.234			-1.117
104201.000			-2.234			-1.117
104301.000			-2.234			-1.117
104401.000			-2.233			-1.116
104500.000			-2.233			-1.117
104600.000			-2.233			-1.117
104701.000			-2.233			-1.117
104800.000			-2.233			-1.117
104900.000			-2.233			-1.117
105002.000			-2.233			-1.117
105101.000			-2.232			-1.116
105200.000			-2.233			-1.116
105300.000			-2.233			-1.117
105400.000			-2.233			-1.116
105501.000			-2.233			-1.116
105600.000			-2.232			-1.116
105700.000			-2.232			-1.116
105802.000			-2.232			-1.116
105901.000			-2.232			-1.116
106000.000			-2.233			-1.117
106101.000			-2.233			-1.116
106200.000			-2.232			-1.116
106300.000			-2.232			-1.116
106401.000			-2.232			-1.116
106500.000			-2.233			-1.116
106601.000			-2.233			-1.116
106702.000			-2.232			-1.116
106800.000			-2.232			-1.116
106900.000			-2.232			-1.116
107001.000			-2.231			-1.116
107100.000			-2.232			-1.116
107200.000			-2.233			-1.117
107301.000			-2.233			-1.116
107401.000			-2.232			-1.116
107501.000			-2.231			-1.116
107601.000			-2.231			-1.116
107700.000			-2.231			-1.115
107800.000			-2.231			-1.116
107901.000			-2.231			-1.116
108000.000			-2.231			-1.116
108100.000			-2.231			-1.116
108202.000			-2.231			-1.115
108301.000			-2.232			-1.116
108400.000			-2.231			-1.116
108500.000			-2.231			-1.115
108600.000			-2.232			-1.116
108701.000			-2.232			-1.116
108800.000			-2.233			-1.117
108900.000			-2.232			-1.116
109002.000			-2.231			-1.115
109101.000			-2.231			-1.115
109200.000			-2.231			-1.116
109301.000			-2.231			-1.115
109400.000			-2.232			-1.116
109500.000			-2.233			-1.116
109601.000			-2.232			-1.116
109700.000			-2.231			-1.116
109801.000			-2.232			-1.116
109902.000			-2.231			-1.116
110000.000			-2.231			-1.115
110100.000			-2.230			-1.115
110201.000			-2.231			-1.116
110300.000			-2.230			-1.115
110400.000			-2.230			-1.115
110501.000			-2.231			-1.115
110601.000			-2.230			-1.115
110701.000			-2.230			-1.115
110801.000			-2.230			-1.115
110900.000			-2.231			-1.115
111000.000			-2.231			-1.115
111101.000			-2.231			-1.115
111200.000			-2.230			-1.115
111300.000			-2.230			-1.115
111402.000			-2.230			-1.115
111501.000			-2.231			-1.115
111600.000			-2.231			-1.116
111700.000			-2.231			-1.115
111800.000			-2.230			-1.115
111901.000			-2.230			-1.115
112000.000			-2.230			-1.115
112100.000			-2.230			-1.115
112202.000			-2.229			-1.115
112301.000			-2.230			-1.115
112400.000			-2.230			-1.115
112501.000			-2.229			-1.115
112600.000			-2.229			-1.115
112700.000			-2.230			-1.115
112801.000			-2.229			-1.114
112900.000			-2.228			-1.114
113001.000			-2.229			-1.114
113102.000			-2.229			-1.115
113200.000			-2.229			-1.114
113300.000			-2.229			-1.114
113401.000			-2.229			-1.115
113500.000			-2.230			-1.115
113600.000			-2.230			-1.115
113701.000			-2.230			-1.115
113801.000			-2.229			-1.114
113901.000			-2.229			-1.114
114001.000			-2.228			-1.114
114100.000			-2.229			-1.115
114200.000			-2.230			-1.115
114301.000			-2.229			-1.114
114400.000			-2.229			-1.114
114500.000			-2.228			-1.114
114602.000			-2.229			-1.114
114701.000			-2.229			-1.114
114800.000			-2.228			-1.114
114900.000			-2.229			-1.114
115000.000			-2.229			-1.115
115101.000			-2.230			-1.115
115200.000			-2.229			-1.114
115300.000			-2.228			-1.114
115401.000			-2.229			-1.115
115501.000			-2.229			-1.115
115601.000			-2.229			-1.114
115701.000			-2.229			-1.114
115800.000			-2.228			-1.114
115900.000			-2.229			-1.114
116001.000			-2.229			-1.115
116100.000			-2.229			-1.114
116200.000			-2.229			-1.114
116302.000			-2.229			-1.114
116401.000			-2.229			-1.115
116500.000			-2.229			-1.115
116601.000			-2.228			-1.114
116700.000			-2.228			-1.114
116800.000			-2.229			-1.114
116901.000			-2.228			-1.114
117000.000			-2.228			-1.114
117100.000			-2.227			-1.114
117202.000			-2.228			-1.114
117301.000			-2.228			-1.114
117400.000			-2.228			-1.114
117501.000			-2.228			-1.114
117600.000			-2.228			-1.114
117700.000			-2.228			-1.114
117801.000			-2.228			-1.114
117900.000			-2.227			-1.113
118002.000			-2.227			-1.114
118101.000			-2.227			-1.114
118200.000			-2.227			-1.114
118301.000			-2.227			-1.114
118400.000			-2.227			-1.113
118500.000			-2.227			-1.114
118601.000			-2.227			-1.113
118700.000			-2.227			-1.113
118801.000			-2.227			-1.113
118902.000			-2.228			-1.114
119000.000			-2.229			-1.114
119100.000			-2.228			-1.114
119201.000			-2.227			-1.114
119300.000			-2.227			-1.114
119400.000			-2.228			-1.114
119501.000			-2.228			-1.114
119601.000			-2.227			-1.114
119701.000			-2.226			-1.113
119802.000			-2.227			-1.113
119900.000			-2.226			-1.113
120000.000			-2.226			-1.113
120101.000			-2.226			-1.113
120200.000			-2.227			-1.113
120300.000			-2.227			-1.114
120401.000			-2.227			-1.113
120501.000			-2.226			-1.113
120601.000			-2.227			-1.113
120701.000			-2.227			-1.114
120800.000			-2.227			-1.113
120900.000			-2.226			-1.113
121001.000			-2.226			-1.113
121100.000			-2.227			-1.113
121200.000			-2.226			-1.113
121302.000			-2.225			-1.113
121401.000			-2.227			-1.113
121501.000			-2.227			-1.113
121600.000			-2.226			-1.113
121700.000			-2.226			-1.113
121801.000			-2.227			-1.113
121900.000			-2.226			-1.113
122000.000			-2.225			-1.113
122102.000			-2.226			-1.113
122201.000			-2.226			-1.113
122300.000			-2.226			-1.113
122401.000			-2.226			-1.113
122500.000			-2.227			-1.114
122600.000			-2.227			-1.114
122701.000			-2.227			-1.113
122800.000			-2.226			-1.113
122901.000			-2.227			-1.113
123002.000			-2.226			-1.113
123100.000			-2.226			-1.113
123200.000			-2.225			-1.113
123301.000			-2.226			-1.113
123400.000			-2.226			-1.113
123500.000			-2.226			-1.113
123601.000			-2.226			-1.113
123701.000			-2.226			-1.113
123801.000			-2.225			-1.112
123901.000			-2.225			-1.112
124000.000			-2.226			-1.113
124100.000			-2.225			-1.113
124201.000			-2.225			-1.113
124300.000			-2.226			-1.113
124400.000			-2.226			-1.113
124502.000			-2.227			-1.113
124601.000			-2.226			-1.113
124701.000			-2.226			-1.113
124800.000			-2.226			-1.113
124900.000			-2.226			-1.113
125001.000			-2.227			-1.114
125100.000			-2.227			-1.113
125200.000			-2.227			-1.114
125302.000			-2.227			-1.113
125401.000			-2.226			-1.113
125500.000			-2.226			-1.113
125601.000			-2.225			-1.113
125700.000			-2.225			-1.113
125800.000			-2.227			-1.113
125901.000			-2.225			-1.113
126000.000			-2.225			-1.112
126101.000			-2.225			-1.112
126202.000			-2.224			-1.112
126301.000			-2.224			-1.112
126400.000			-2.224			-1.112
126501.000			-2.224			-1.112
126600.000			-2.224			-1.112
126700.000			-2.225			-1.112
126801.000			-2.225			-1.112
126901.000			-2.224			-1.112
127001.000			-2.224			-1.112
127102.000			-2.224			-1.112
127200.000			-2.225			-1.112
127300.000			-2.224			-1.112
127401.000			-2.224			-1.112
127500.000			-2.224			-1.112
127600.000			-2.223			-1.112
127700.000			-2.223			-1.112
127801.000			-2.223			-1.112
127902.000			-2.224			-1.112
128000.000			-2.224			-1.112
128100.000			-2.224			-1.112
128201.000			-2.222			-1.111
128300.000			-2.222			-1.111
128400.000			-2.222			-1.111
128501.000			-2.224			-1.112
128601.000			-2.225			-1.112
128701.000			-2.223			-1.111
128801.000			-2.223			-1.111
128900.000			-2.223			-1.112
129000.000			-2.223			-1.112
129101.000			-2.224			-1.112
129200.000			-2.224			-1.112
129300.000			-2.223			-1.112
129402.000			-2.223			-1.111
129501.000			-2.223			-1.112
129600.000			-2.222			-1.111
129701.000			-2.223			-1.112
129800.000			-2.224			-1.112
129900.000			-2.223			-1.111
130001.000			-2.222			-1.111
130100.000			-2.223			-1.111
130200.000			-2.222			-1.111
130302.000			-2.223			-1.111
130401.000			-2.223			-1.111
130500.000			-2.223			-1.112
130601.000			-2.224			-1.112
130700.000			-2.224			-1.112
130800.000			-2.223			-1.112
130900.000			-2.223			-1.111
131000.000			-2.223			-1.111
131102.000			-2.224			-1.112
131201.000			-2.222			-1.111
131300.000			-2.222			-1.111
131401.000			-2.222			-1.111
131500.000			-2.223			-1.111
131600.000			-2.223			-1.112
131701.000			-2.223			-1.112
131800.000			-2.223			-1.111
131901.000			-2.222			-1.111
132002.000			-2.223			-1.111
132101.000			-2.223			-1.111
132200.000			-2.223			-1.111
132301.000			-2.222			-1.111
132400.000			-2.222			-1.111
132500.000			-2.222			-1.111
132601.000			-2.222			-1.111
132700.000			-2.221			-1.111
132801.000			-2.221			-1.110
132902.000			-2.222			-1.111
133000.000			-2.223			-1.112
133100.000			-2.222			-1.111
133201.000			-2.223			-1.111
133300.000			-2.223			-1.111
133400.000			-2.222			-1.111
133501.000			-2.222			-1.111
133601.000			-2.221			-1.111
133701.000			-2.222			-1.111
133802.000			-2.222			-1.111
133900.000			-2.222			-1.111
134000.000			-2.222			-1.111
134100.000			-2.223			-1.111
134200.000			-2.222			-1.111
134301.000			-2.221			-1.111
134400.000			-2.222			-1.111
134501.000			-2.221			-1.110
134602.000			-2.221			-1.111
134701.000			-2.221			-1.111
134800.000			-2.221			-1.111
134901.000			-2.221			-1.110
135000.000			-2.221			-1.110
135100.000			-2.220			-1.110
135201.000			-2.221			-1.111
135300.000			-2.222			-1.111
135401.000			-2.222			-1.111
135502.000			-2.222			-1.111
135600.000			-2.221			-1.111
135700.000			-2.221			-1.110
135801.000			-2.221			-1.110
135900.000			-2.222			-1.111
136000.000			-2.222			-1.111
136101.000			-2.221			-1.110
136201.000			-2.220			-1.110
136301.000			-2.221			-1.110
136402.000			-2.221			-1.110
136500.000			-2.220			-1.110
136600.000			-2.221			-1.110
136701.000			-2.221			-1.110
136800.000			-2.222			-1.111
136900.000			-2.221			-1.110
137001.000			-2.221			-1.110
137101.000			-2.221			-1.110
137202.000			-2.220			-1.110
137301.000			-2.220			-1.110
137400.000			-2.221			-1.110
137501.000			-2.220			-1.110
137600.000			-2.221			-1.110
137700.000			-2.220			-1.110
137801.000			-2.220			-1.110
137900.000			-2.220			-1.110
138001.000			-2.221			-1.110
138102.000			-2.219			-1.110
138200.000			-2.220			-1.110
138300.000			-2.220			-1.110
138401.000			-2.219			-1.110
138500.000			-2.220			-1.110
138600.000			-2.219			-1.109
138701.000			-2.220			-1.110
138800.000			-2.220			-1.110
138901.000			-2.220			-1.110
139002.000			-2.220			-1.110
139101.000			-2.219			-1.110
139200.000			-2.219			-1.109
139301.000			-2.218			-1.109
139400.000			-2.219			-1.110
139500.000			-2.219			-1.110
139601.000			-2.220			-1.110
139700.000			-2.218			-1.109
139801.000			-2.219			-1.109
139902.000			-2.219			-1.109
140001.000			-2.220			-1.110
140100.000			-2.220			-1.110
140201.000			-2.220			-1.110
140300.000			-2.220			-1.110
140400.000			-2.219			-1.109
140500.000			-2.218			-1.109
140600.000			-2.219			-1.109
140702.000			-2.219			-1.110
140801.000			-2.220			-1.110
140901.000			-2.219			-1.110
141001.000			-2.219			-1.109
141100.000			-2.219			-1.110
141200.000			-2.219			-1.110
141301.000			-2.219			-1.110
141400.000			-2.219			-1.110
141500.000			-2.219			-1.110
141602.000			-2.218			-1.109
141701.000			-2.218			-1.109
141801.000			-2.218			-1.109
141901.000			-2.218			-1.109
142000.000			-2.218			-1.109
142100.000			-2.219			-1.109
142201.000			-2.218			-1.109
142300.000			-2.218			-1.109
142400.000			-2.218			-1.109
142502.000			-2.218			-1.109
142601.000			-2.217			-1.109
142700.000			-2.217			-1.109
142801.000			-2.218			-1.109
142900.000			-2.218			-1.109
143000.000			-2.218			-1.109
143101.000			-2.218			-1.109
143200.000			-2.219			-1.109
143300.000			-2.217			-1.109
143402.000			-2.218			-1.109
143501.000			-2.219			-1.109
143600.000			-2.218			-1.109
143700.000			-2.216			-1.108
143800.000			-2.216			-1.108
143901.000			-2.216			-1.108
144000.000			-2.217			-1.109
144100.000			-2.217			-1.109
144201.000			-2.217			-1.109
144301.000			-2.217			-1.108
144401.000			-2.216			-1.108
144501.000			-2.216			-1.108
144600.000			-2.217			-1.108
144700.000			-2.217			-1.108
144801.000			-2.217			-1.109
144900.000			-2.218			-1.109
145000.000			-2.218			-1.109
145101.000			-2.218			-1.109
145201.000			-2.217			-1.109
145301.000			-2.217			-1.108
145401.000			-2.217			-1.108
145500.000			-2.216			-1.108
145600.000			-2.216			-1.108
145701.000			-2.217			-1.109
145800.000			-2.216			-1.108
145900.000			-2.217			-1.108
146001.000			-2.217			-1.109
146101.000			-2.217			-1.109
146201.000			-2.216			-1.108
146301.000			-2.216			-1.108
146400.000			-2.217			-1.108
146500.000			-2.217			-1.108
146601.000			-2.217			-1.108
146700.000			-2.216			-1.108
146800.000			-2.216			-1.108
146900.000			-2.216			-1.108
147001.000			-2.217			-1.109
147102.000			-2.217			-1.108
147200.000			-2.215			-1.108
147300.000			-2.216			-1.108
147401.000			-2.217			-1.108
147500.000			-2.216			-1.108
147600.000			-2.216			-1.108
147701.000			-2.216			-1.108
147800.000			-2.215			-1.108
147901.000			-2.215			-1.107
148002.000			-2.215			-1.107
148100.000			-2.215			-1.108
148200.000			-2.215			-1.108
148301.000			-2.216			-1.108
148400.000			-2.216			-1.108
148500.000			-2.216			-1.108
148601.000			-2.216			-1.108
148700.000			-2.215			-1.107
148801.000			-2.216			-1.108
148902.000			-2.216			-1.108
149000.000			-2.215			-1.108
149100.000			-2.215			-1.107
149201.000			-2.215			-1.108
149300.000			-2.215			-1.108
149400.000			-2.215			-1.108
149501.000			-2.216			-1.108
149600.000			-2.215			-1.108
149701.000			-2.214			-1.107
149802.000			-2.215			-1.107
149900.000			-2.215			-1.107
150000.000			-2.214			-1.107
150100.000			-2.214			-1.107
150200.000			-2.215			-1.107
150301.000			-2.215			-1.107
150400.000			-2.215			-1.107
150500.000			-2.214			-1.107
150602.000			-2.214			-1.107
150701.000			-2.214			-1.107
150800.000			-2.215			-1.107
150901.000			-2.215			-1.107
151000.000			-2.214			-1.107
151100.000			-2.214			-1.107
151201.000			-2.214			-1.107
151300.000			-2.215			-1.107
151400.000			-2.215			-1.107
151502.000			-2.214			-1.107
151601.000			-2.214			-1.107
151700.000			-2.213			-1.107
151801.000			-2.213			-1.106
151900.000			-2.213			-1.106
152000.000			-2.214			-1.107
152101.000			-2.214			-1.107
152200.000			-2.214			-1.107
152300.000			-2.213			-1.107
152402.000			-2.214			-1.107
152501.000			-2.214			-1.107
152600.000			-2.214			-1.107
152701.000			-2.214			-1.107
152800.000			-2.213			-1.107
152900.000			-2.212			-1.106
153001.000			-2.212			-1.106
153100.000			-2.213			-1.107
153202.000			-2.214			-1.107
153301.000			-2.214			-1.107
153401.000			-2.213			-1.106
153501.000			-2.213			-1.107
153600.000			-2.213			-1.107
153700.000			-2.213			-1.107
153801.000			-2.213			-1.107
153900.000			-2.213			-1.107
154000.000			-2.213			-1.107
154102.000			-2.213			-1.107
154201.000			-2.213			-1.107
154301.000			-2.214			-1.107
154401.000			-2.213			-1.107
154500.000			-2.212			-1.106
154600.000			-2.212			-1.106
154701.000			-2.212			-1.106
154800.000			-2.212			-1.106
154900.000			-2.211			-1.106
155002.000			-2.211			-1.106
155101.000			-2.212			-1.106
155200.000			-2.212			-1.106
155301.000			-2.213			-1.106
155400.000			-2.213			-1.106
155500.000			-2.211			-1.106
155601.000			-2.212			-1.106
155700.000			-2.212			-1.106
155800.000			-2.212			-1.106
155902.000			-2.212			-1.106
156001.000			-2.212			-1.106
156100.000			-2.212			-1.106
156201.000			-2.212			-1.106
156300.000			-2.212			-1.106
156400.000			-2.212			-1.106
156500.000			-2.212			-1.106
156600.000			-2.212			-1.106
156701.000			-2.211			-1.105
156801.000			-2.211			-1.105
156901.000			-2.211			-1.105
157001.000			-2.212			-1.106
157100.000			-2.211			-1.106
157200.000			-2.212			-1.106
157301.000			-2.211			-1.106
157400.000			-2.210			-1.105
157500.000			-2.212			-1.106
157601.000			-2.212			-1.106
157701.000			-2.211			-1.106
157801.000			-2.212			-1.106
157901.000			-2.212			-1.106
158000.000			-2.211			-1.105
158100.000			-2.212			-1.106
158201.000			-2.211			-1.106
158300.000			-2.211			-1.105
158400.000			-2.210			-1.105
158502.000			-2.212			-1.106
158601.000			-2.212			-1.106
158701.000			-2.212			-1.106
158801.000			-2.211			-1.105
158900.000			-2.211			-1.106
159000.000			-2.211			-1.106
159101.000			-2.211			-1.106
159200.000			-2.211			-1.106
159300.000			-2.210			-1.105
159402.000			-2.211			-1.106
159501.000			-2.212			-1.106
159602.000			-2.211			-1.106
159700.000			-2.211			-1.106
159800.000			-2.211			-1.105
159901.000			-2.209			-1.105
160000.000			-2.210			-1.105
160100.000			-2.210			-1.105
160201.000			-2.210			-1.105
160301.000			-2.209			-1.105
160401.000			-2.210			-1.105
160502.000			-2.210			-1.105
160600.000			-2.209			-1.105
160700.000			-2.209			-1.104
160801.000			-2.210			-1.105
160900.000			-2.209			-1.105
161000.000			-2.209			-1.105
161101.000			-2.209			-1.105
161201.000			-2.209			-1.105
161301.000			-2.209			-1.105
161402.000			-2.209			-1.105
161500.000			-2.209			-1.104
161600.000			-2.209			-1.104
161701.000			-2.209			-1.104
161800.000			-2.210			-1.105
161900.000			-2.209			-1.104
162001.000			-2.209			-1.105
162101.000			-2.210			-1.105
162201.000			-2.210			-1.105
162301.000			-2.210			-1.105
162400.000			-2.209			-1.105
162500.000			-2.208			-1.104
162601.000			-2.209			-1.105
162700.000			-2.210			-1.105
162800.000			-2.210			-1.105
162900.000			-2.208			-1.104
163001.000			-2.209			-1.104
163102.000			-2.209			-1.104
163201.000			-2.209			-1.105
163300.000			-2.209			-1.105
163401.000			-2.209			-1.105
163500.000			-2.210			-1.105
163600.000			-2.209			-1.105
163701.000			-2.209			-1.104
163800.000			-2.209			-1.104
163901.000			-2.209			-1.104
164002.000			-2.209			-1.105
164101.000			-2.209			-1.105
164200.000			-2.209			-1.104
164301.000			-2.208			-1.104
164400.000			-2.207			-1.103
164500.000			-2.208			-1.104
164601.000			-2.208			-1.104
164700.000			-2.208			-1.104
164801.000			-2.209			-1.105
164902.000			-2.209			-1.105
165001.000			-2.209			-1.104
165100.000			-2.209			-1.104
165201.000			-2.209			-1.104
165300.000			-2.209			-1.104
165400.000			-2.209			-1.105
165501.000			-2.208			-1.104
165600.000			-2.208			-1.104
165701.000			-2.208			-1.104
165802.000			-2.208			-1.104
165901.000			-2.208			-1.104
166000.000			-2.208			-1.104
166100.000			-2.208			-1.104
166200.000			-2.209			-1.104
166301.000			-2.208			-1.104
166400.000			-2.208			-1.104
166500.000			-2.208			-1.104
166601.000			-2.208			-1.104
166701.000			-2.209			-1.104
166801.000			-2.209			-1.105
166901.000			-2.209			-1.104
167000.000			-2.209			-1.104
167100.000			-2.208			-1.104
167201.000			-2.208			-1.104
167300.000			-2.208			-1.104
167400.000			-2.208			-1.104
167501.000			-2.208			-1.104
167601.000			-2.208			-1.104
167701.000			-2.208			-1.104
167801.000			-2.207			-1.104
167900.000			-2.208			-1.104
168000.000			-2.208			-1.104
168101.000			-2.207			-1.104
168200.000			-2.208			-1.104
168300.000			-2.207			-1.104
168401.000			-2.207			-1.104
168501.000			-2.208			-1.104
168601.000			-2.208			-1.104
168701.000			-2.208			-1.104
168800.000			-2.208			-1.104
168900.000			-2.209			-1.104
169001.000			-2.209			-1.104
169100.000			-2.209			-1.104
169200.000			-2.208			-1.104
169300.000			-2.208			-1.104
169401.000			-2.208			-1.104
169502.000			-2.209			-1.104
169601.000			-2.208			-1.104
169700.000			-2.208			-1.104
169801.000			-2.208			-1.104
169900.000			-2.208			-1.104
170000.000			-2.208			-1.104
170101.000			-2.208			-1.104
170200.000			-2.208			-1.104
170301.000			-2.208			-1.104
170402.000			-2.208			-1.104
170501.000			-2.208			-1.104
170600.000			-2.207			-1.104
170701.000			-2.206			-1.103
170800.000			-2.207			-1.103
170900.000			-2.207			-1.104
171001.000			-2.208			-1.104
171100.000			-2.208			-1.104
171201.000			-2.208			-1.104
171302.000			-2.207			-1.104
171401.000			-2.206			-1.103
171500.000			-2.207			-1.104
171601.000			-2.207			-1.103
171700.000			-2.206			-1.103
171800.000			-2.206			-1.103
171901.000			-2.207			-1.104
172000.000			-2.208			-1.104
172101.000			-2.207			-1.104
172202.000			-2.207			-1.104
172300.000			-2.207			-1.103
172400.000			-2.206			-1.103
172500.000			-2.206			-1.103
172600.000			-2.207			-1.104
172701.000			-2.207			-1.103
172800.000			-2.207			-1.103
172900.000			-2.207			-1.104
173002.000			-2.207			-1.104
173101.000			-2.206			-1.103
173200.000			-2.206			-1.103
173301.000			-2.206			-1.103
173400.000			-2.207			-1.103
173500.000			-2.207			-1.103
173601.000			-2.206			-1.103
173700.000			-2.206			-1.103
173800.000			-2.206			-1.103
173902.000			-2.206			-1.103
174001.000			-2.206			-1.103
174100.000			-2.207			-1.103
174201.000			-2.207			-1.103
174300.000			-2.206			-1.103
174400.000			-2.206			-1.103
174501.000			-2.206			-1.103
174600.000			-2.206			-1.103
174700.000			-2.206			-1.103
174802.000			-2.206			-1.103
174901.000			-2.205			-1.103
175000.000			-2.205			-1.102
175101.000			-2.205			-1.102
175200.000			-2.205			-1.103
175300.000			-2.206			-1.103
175401.000			-2.206			-1.103
175500.000			-2.205			-1.103
175600.000			-2.205			-1.103
175702.000			-2.206			-1.103
175801.000			-2.206			-1.103
175901.000			-2.205			-1.103
176000.000			-2.205			-1.103
176100.000			-2.206			-1.103
176201.000			-2.206			-1.103
176300.000			-2.206			-1.103
176400.000			-2.206			-1.103
176501.000			-2.206			-1.103
176601.000			-2.206			-1.103
176701.000			-2.205			-1.103
176801.000			-2.206			-1.103
176900.000			-2.206			-1.103
177000.000			-2.205			-1.103
177101.000			-2.205			-1.102
177200.000			-2.204			-1.102
177300.000			-2.203			-1.102
177401.000			-2.204			-1.102
177501.000			-2.205			-1.103
177601.000			-2.206			-1.103
177701.000			-2.205			-1.102
177800.000			-2.206			-1.103
177900.000			-2.206			-1.103
178001.000			-2.205			-1.102
178100.000			-2.204			-1.102
178200.000			-2.205			-1.103
178301.000			-2.204			-1.102
178401.000			-2.204			-1.102
178501.000			-2.204			-1.102
178601.000			-2.205			-1.102
178700.000			-2.206			-1.103
178800.000			-2.206			-1.103
178900.000			-2.205			-1.103
179000.000			-2.205			-1.102
179101.000			-2.204			-1.102
179200.000			-2.203			-1.101
179301.000			-2.203			-1.102
179402.000			-2.204			-1.102
179501.000			-2.205			-1.102
179600.000			-2.203			-1.102
179701.000			-2.204			-1.102
179800.000			-2.204			-1.102
179900.000			-2.204			-1.102
180001.000			-2.205			-1.102
180100.000			-2.204			-1.102
180201.000			-2.204			-1.102
180302.000			-2.204			-1.102
180401.000			-2.203			-1.102
180500.000			-2.204			-1.102
180601.000			-2.204			-1.102
180700.000			-2.205			-1.102
180800.000			-2.204			-1.102
180901.000			-2.204			-1.102
181000.000			-2.204			-1.102
181101.000			-2.204			-1.102
181202.000			-2.204			-1.102
181300.000			-2.204			-1.102
181400.000			-2.205			-1.102
181501.000			-2.203			-1.102
181600.000			-2.204			-1.102
181700.000			-2.205			-1.102
181801.000			-2.204			-1.102
181900.000			-2.204			-1.102
182002.000			-2.204			-1.102
182101.000			-2.204			-1.102
182200.000			-2.203			-1.102
182301.000			-2.202			-1.101
182400.000			-2.203			-1.102
182500.000			-2.203			-1.102
182601.000			-2.204			-1.102
182700.000			-2.203			-1.102
182800.000			-2.204			-1.102
182902.000			-2.204			-1.102
183001.000			-2.204			-1.102
183100.000			-2.203			-1.102
183201.000			-2.204			-1.102
183300.000			-2.203			-1.101
183400.000			-2.204			-1.102
183501.000			-2.204			-1.102
183600.000			-2.204			-1.102
183700.000			-2.203			-1.102
183802.000			-2.203			-1.101
183901.000			-2.203			-1.102
184000.000			-2.203			-1.101
184101.000			-2.203			-1.102
184200.000			-2.203			-1.102
184300.000			-2.203			-1.102
184401.000			-2.203			-1.102
184500.000			-2.203			-1.101
184600.000			-2.202			-1.101
184702.000			-2.204			-1.102
184801.000			-2.204			-1.102
184900.000			-2.203			-1.102
185001.000			-2.203			-1.102
185100.000			-2.204			-1.102
185200.000			-2.203			-1.101
185300.000			-2.203			-1.101
185400.000			-2.204			-1.102
185502.000			-2.203			-1.101
185601.000			-2.203			-1.102
185701.000			-2.203			-1.101
185801.000			-2.203			-1.102
185900.000			-2.203			-1.101
186000.000			-2.202			-1.101
186101.000			-2.204			-1.102
186200.000			-2.203			-1.101
186300.000			-2.202			-1.101
186402.000			-2.202			-1.101
186501.000			-2.203			-1.101
186601.000			-2.203			-1.101
186701.000			-2.202			-1.101
186800.000			-2.202			-1.101
186900.000			-2.203			-1.101
187001.000			-2.203			-1.101
187100.000			-2.203			-1.101
187200.000			-2.202			-1.101
187302.000			-2.203			-1.101
187401.000			-2.202			-1.101
187501.000			-2.202			-1.101
187601.000			-2.203			-1.101
187700.000			-2.202			-1.101
187800.000			-2.202			-1.101
187901.000			-2.202			-1.101
188000.000			-2.202			-1.101
188100.000			-2.203			-1.101
188202.000			-2.202			-1.101
188301.000			-2.202			-1.101
188400.000			-2.201			-1.100
188500.000			-2.201			-1.101
188600.000			-2.202			-1.101
188701.000			-2.202			-1.101
188800.000			-2.201			-1.101
188900.000			-2.201			-1.101
189001.000			-2.201			-1.100
189101.000			-2.201			-1.101
189201.000			-2.201			-1.100
189302.000			-2.200			-1.100
189400.000			-2.201			-1.101
189500.000			-2.202			-1.101
189601.000			-2.202			-1.101
189700.000			-2.201			-1.101
189800.000			-2.202			-1.101
189901.000			-2.202			-1.101
190001.000			-2.202			-1.101
190101.000			-2.202			-1.101
190202.000			-2.202			-1.101
190300.000			-2.203			-1.101
190400.000			-2.202			-1.101
190501.000			-2.200			-1.100
190600.000			-2.200			-1.100
190700.000			-2.201			-1.101
190801.000			-2.201			-1.101
190901.000			-2.201			-1.101
191001.000			-2.201			-1.101
191101.000			-2.201			-1.101
191200.000			-2.202			-1.101
191300.000			-2.201			-1.100
191401.000			-2.201			-1.100
191500.000			-2.200			-1.100
191600.000			-2.201			-1.100
191700.000			-2.201			-1.100
191801.000			-2.201			-1.100
191902.000			-2.201			-1.101
192000.000			-2.201			-1.100
192100.000			-2.202			-1.101
192201.000			-2.200			-1.100
192300.000			-2.201			-1.100
192400.000			-2.201			-1.100
192501.000			-2.201			-1.101
192600.000			-2.201			-1.101
192701.000			-2.200			-1.100
192802.000			-2.201			-1.100
192900.000			-2.200			-1.100
193000.000			-2.201			-1.100
193101.000			-2.201			-1.100
193200.000			-2.200			-1.100
193300.000			-2.200			-1.100
193401.000			-2.200			-1.100
193501.000			-2.201			-1.101
193601.000			-2.201			-1.100
193702.000			-2.201			-1.100
193800.000			-2.200			-1.100
193900.000			-2.200			-1.100
194001.000			-2.201			-1.100
194100.000			-2.200			-1.100
194200.000			-2.199			-1.100
194301.000			-2.200			-1.100
194400.000			-2.201			-1.100
194501.000			-2.200			-1.100
194602.000			-2.200			-1.100
194700.000			-2.200			-1.100
194800.000			-2.200			-1.100
194900.000			-2.200			-1.100
195000.000			-2.199			-1.100
195101.000			-2.200			-1.100
195200.000			-2.201			-1.100
195300.000			-2.200			-1.100
195402.000			-2.199			-1.100
195501.000			-2.200			-1.100
195601.000			-2.201			-1.100
195701.000			-2.201			-1.100
195800.000			-2.200			-1.100
195900.000			-2.199			-1.099
196001.000			-2.199			-1.100
196100.000			-2.200			-1.100
196200.000			-2.200			-1.100
196301.000			-2.200			-1.100
196401.000			-2.199			-1.100
196501.000			-2.200			-1.100
196601.000			-2.199			-1.100
196700.000			-2.199			-1.100
196800.000			-2.200			-1.100
196901.000			-2.199			-1.100
197000.000			-2.199			-1.100
197100.000			-2.199			-1.100
197201.000			-2.200			-1.100
197301.000			-2.199			-1.100
197401.000			-2.199			-1.100
197502.000			-2.199			-1.099
197600.000			-2.198			-1.099
197700.000			-2.198			-1.099
197801.000			-2.199			-1.100
197900.000			-2.199			-1.099
198000.000			-2.199			-1.099
198100.000			-2.199			-1.100
198200.000			-2.199			-1.099
198302.000			-2.199			-1.099
198401.000			-2.200			-1.100
198501.000			-2.200			-1.100
198601.000			-2.200			-1.100
198700.000			-2.199			-1.100
198800.000			-2.199			-1.099
198901.000			-2.199			-1.100
199000.000			-2.200			-1.100
199100.000			-2.200			-1.100
199201.000			-2.199			-1.100
199301.000			-2.198			-1.099
199401.000			-2.198			-1.099
199502.000			-2.199			-1.100
199600.000			-2.199			-1.099
199700.000			-2.199			-1.099
199801.000			-2.199			-1.100
199900.000			-2.199			-1.099
200000.000			-2.198			-1.099
200101.000			-2.199			-1.100
200200.000			-2.199			-1.100
200301.000			-2.199			-1.100
200402.000			-2.200			-1.100
200500.000			-2.198			-1.099
200600.000			-2.198			-1.099
200701.000			-2.198			-1.099
200800.000			-2.198			-1.099
200900.000			-2.198			-1.099
201001.000			-2.198			-1.099
201100.000			-2.198			-1.099
201202.000			-2.199			-1.099
201301.000			-2.198			-1.099
201400.000			-2.198			-1.099
201501.000			-2.199			-1.099
201600.000			-2.198			-1.099
201700.000			-2.198			-1.099
201801.000			-2.199			-1.099
201900.000			-2.199			-1.099
202000.000			-2.198			-1.099
202102.000			-2.198			-1.099
202201.000			-2.197			-1.098
202300.000			-2.198			-1.099
202401.000			-2.199			-1.099
202500.000			-2.199			-1.100
202600.000			-2.199			-1.099
202701.000			-2.198			-1.099
202800.000			-2.198			-1.099
202900.000			-2.198			-1.099
203002.000			-2.196			-1.098
203101.000			-2.196			-1.098
203200.000			-2.197			-1.099
203301.000			-2.198			-1.099
203400.000			-2.197			-1.099
203500.000			-2.197			-1.099
203601.000			-2.198			-1.099
203700.000			-2.198			-1.099
203800.000			-2.198			-1.099
203902.000			-2.197			-1.098
204001.000			-2.198			-1.099
204100.000			-2.197			-1.099
204201.000			-2.197			-1.098
204300.000			-2.198			-1.099
204400.000			-2.197			-1.099
204500.000			-2.198			-1.099
204600.000			-2.198			-1.099
204701.000			-2.198			-1.099
204801.000			-2.197			-1.098
204901.000			-2.197			-1.099
205002.000			-2.198			-1.099
205100.000			-2.197			-1.099
205200.000			-2.198			-1.099
205301.000			-2.198			-1.099
205400.000			-2.198			-1.099
205500.000			-2.198			-1.099
205601.000			-2.198			-1.099
205701.000			-2.197			-1.098
205801.000			-2.198			-1.099
205902.000			-2.197			-1.099
206000.000			-2.196			-1.098
206100.000			-2.197			-1.098
206201.000			-2.196			-1.098
206300.000			-2.196			-1.098
206400.000			-2.196			-1.098
206501.000			-2.197			-1.098
206601.000			-2.197			-1.099
206701.000			-2.197			-1.098
206802.000			-2.196			-1.098
206900.000			-2.196			-1.098
207000.000			-2.197			-1.099
207101.000			-2.197			-1.099
207200.000			-2.196			-1.098
207300.000			-2.196			-1.098
207401.000			-2.197			-1.098
207500.000			-2.197			-1.098
207602.000			-2.196			-1.098
207701.000			-2.195			-1.098
207800.000			-2.196			-1.098
207901.000			-2.197			-1.098
208000.000			-2.197			-1.098
208100.000			-2.196			-1.098
208201.000			-2.197			-1.098
208300.000			-2.196			-1.098
208400.000			-2.196			-1.098
208502.000			-2.197			-1.098
208601.000			-2.197			-1.098
208700.000			-2.196			-1.098
208801.000			-2.196			-1.098
208900.000			-2.196			-1.098
209000.000			-2.196			-1.098
209101.000			-2.197			-1.099
209200.000			-2.198			-1.099
209300.000			-2.196			-1.098
209402.000			-2.194			-1.097
209501.000			-2.195			-1.098
209601.000			-2.195			-1.098
209701.000			-2.196			-1.098
209800.000			-2.196			-1.098
209900.000			-2.196			-1.098
210001.000			-2.196			-1.098
210100.000			-2.196			-1.098
210200.000			-2.196			-1.098
210302.000			-2.197			-1.098
210401.000			-2.196			-1.098
210501.000			-2.196			-1.098
210601.000			-2.196			-1.098
210700.000			-2.196			-1.098
210800.000			-2.197			-1.098
210900.000			-2.196			-1.098
211000.000			-2.196			-1.098
211101.000			-2.197			-1.099
211201.000			-2.197			-1.098
211301.000			-2.197			-1.099
211401.000			-2.196			-1.098
211500.000			-2.197			-1.098
211600.000			-2.196			-1.098
211701.000			-2.196			-1.098
211800.000			-2.197			-1.098
211900.000			-2.196			-1.098
212001.000			-2.196			-1.098
212101.000			-2.196			-1.098
212201.000			-2.196			-1.098
212301.000			-2.196			-1.098
212400.000			-2.196			-1.098
212500.000			-2.197			-1.098
212601.000			-2.196			-1.098
212700.000			-2.195			-1.098
212800.000			-2.196			-1.098
212901.000			-2.196			-1.098
213001.000			-2.196			-1.098
213101.000			-2.197			-1.098
213202.000			-2.195			-1.097
213300.000			-2.195			-1.097
213400.000			-2.196			-1.098
213501.000			-2.196			-1.098
213600.000			-2.195			-1.097
213700.000			-2.194			-1.097
213801.000			-2.195			-1.097
213901.000			-2.195			-1.097
214002.000			-2.194			-1.097
214101.000			-2.195			-1.098
214200.000			-2.196			-1.098
214301.000			-2.194			-1.097
214400.000			-2.194			-1.097
214500.000			-2.195			-1.097
214601.000			-2.195			-1.097
214700.000			-2.195			-1.098
214800.000			-2.195			-1.098
214902.000			-2.195			-1.097
215001.000			-2.195			-1.097
215100.000			-2.194			-1.097
215201.000			-2.194			-1.097
215300.000			-2.195			-1.097
215400.000			-2.195			-1.097
215501.000			-2.195			-1.098
215600.000			-2.195			-1.098
215700.000			-2.194			-1.097
215802.000			-2.194			-1.097
215901.000			-2.194			-1.097
216000.000			-2.195			-1.097
216101.000			-2.195			-1.098
216200.000			-2.195			-1.097
216300.000			-2.194			-1.097
216401.000			-2.194			-1.097
216500.000			-2.194			-1.097
216600.000			-2.193			-1.097
216702.000			-2.195			-1.097
216801.000			-2.194			-1.097
216900.000			-2.194			-1.097
217001.000			-2.194			-1.097
217100.000			-2.195			-1.097
217200.000			-2.194			-1.097
217300.000			-2.193			-1.097
217400.000			-2.194			-1.097
217501.000			-2.193			-1.097
217601.000			-2.193			-1.097
217701.000			-2.193			-1.097
217801.000			-2.194			-1.097
217900.000			-2.194			-1.097
218000.000			-2.194			-1.097
218101.000			-2.194			-1.097
218200.000			-2.196			-1.098
218300.000			-2.195			-1.098
218401.000			-2.194			-1.097
218501.000			-2.194			-1.097
218601.000			-2.194			-1.097
218701.000			-2.194			-1.097
218800.000			-2.194			-1.097
218900.000			-2.194			-1.097
219001.000			-2.194			-1.097
219100.000			-2.194			-1.097
219200.000			-2.194			-1.097
219301.000			-2.195			-1.098
219401.000			-2.194			-1.097
219501.000			-2.193			-1.097
219602.000			-2.193			-1.097
219700.000			-2.194			-1.097
219800.000			-2.194			-1.097
219901.000			-2.194			-1.097
220000.000			-2.193			-1.096
220100.000			-2.192			-1.096
220201.000			-2.193			-1.096
220301.000			-2.194			-1.097
220402.000			-2.194			-1.097
220501.000			-2.193			-1.096
220600.000			-2.192			-1.096
220701.000			-2.193			-1.097
220800.000			-2.193			-1.096
220900.000			-2.192			-1.096
221001.000			-2.193			-1.096
221100.000			-2.194			-1.097
221200.000			-2.194			-1.097
221302.000			-2.194			-1.097
221401.000			-2.193			-1.096
221500.000			-2.192			-1.096
221601.000			-2.193			-1.097
221700.000			-2.193			-1.097
221800.000			-2.194			-1.097
221901.000			-2.193			-1.097
222000.000			-2.193			-1.097
222100.000			-2.193			-1.096
222202.000			-2.193			-1.097
222301.000			-2.193			-1.097
222400.000			-2.193			-1.096
222501.000			-2.193			-1.097
222600.000			-2.193			-1.097
222700.000			-2.193			-1.097
222801.000			-2.194			-1.097
222900.000			-2.194			-1.097
223000.000			-2.194			-1.097
223102.000			-2.193			-1.096
223201.000			-2.194			-1.097
223300.000			-2.194			-1.097
223401.000			-2.193			-1.096
223500.000			-2.193			-1.096
223600.000			-2.193			-1.096
223700.000			-2.193			-1.097
223800.000			-2.192			-1.096
223901.000			-2.192			-1.096
224001.000			-2.192			-1.096
224101.000			-2.194			-1.097
224201.000			-2.193			-1.097
224300.000			-2.193			-1.096
224400.000			-2.193			-1.096
224501.000			-2.193			-1.096
224600.000			-2.193			-1.096
224700.000			-2.193			-1.097
224801.000			-2.192			-1.096
224901.000			-2.192			-1.096
225001.000			-2.193			-1.096
225101.000			-2.193			-1.097
225200.000			-2.193			-1.096
225300.000			-2.192			-1.096
225401.000			-2.192			-1.096
225500.000			-2.192			-1.096
225600.000			-2.193			-1.097
225701.000			-2.193			-1.096
225801.000			-2.193			-1.096
225901.000			-2.192			-1.096
226001.000			-2.192			-1.096
226100.000			-2.193			-1.096
226200.000			-2.193			-1.096
226301.000			-2.192			-1.096
226400.000			-2.192			-1.096
226500.000			-2.192			-1.096
226601.000			-2.193			-1.096
226701.000			-2.192			-1.096
226802.000			-2.192			-1.096
226901.000			-2.192			-1.096
227000.000			-2.192			-1.096
227101.000			-2.192			-1.096
227200.000			-2.192			-1.096
227300.000			-2.192			-1.096
227401.000			-2.192			-1.096
227500.000			-2.192			-1.096
227601.000			-2.192			-1.096
227702.000			-2.193			-1.096
227801.000			-2.192			-1.096
227900.000			-2.191			-1.096
228001.000			-2.191			-1.096
228100.000			-2.192			-1.096
228200.000			-2.191			-1.096
228301.000			-2.191			-1.096
228400.000			-2.192			-1.096
228501.000			-2.192			-1.096
228602.000			-2.192			-1.096
228701.000			-2.192			-1.096
228800.000			-2.192			-1.096
228901.000			-2.191			-1.096
229000.000			-2.191			-1.095
229100.000			-2.191			-1.095
229201.000			-2.192			-1.096
229300.000			-2.193			-1.097
229400.000			-2.192			-1.096
229502.000			-2.191			-1.095
229601.000			-2.191			-1.096
229700.000			-2.192			-1.096
229801.000			-2.192			-1.096
229900.000			-2.192			-1.096
230000.000			-2.192			-1.096
230100.000			-2.192			-1.096
230200.000			-2.192			-1.096
230301.000			-2.193			-1.096
230401.000			-2.192			-1.096
230501.000			-2.191			-1.096
230601.000			-2.191			-1.096
230700.000			-2.191			-1.096
230800.000			-2.191			-1.096
230901.000			-2.192			-1.096
231000.000			-2.191			-1.096
231100.000			-2.191			-1.096
231201.000			-2.192			-1.096
231301.000			-2.191			-1.096
231401.000			-2.191			-1.095
231501.000			-2.191			-1.096
231600.000			-2.192			-1.096
231700.000			-2.191			-1.095
231801.000			-2.190			-1.095
231900.000			-2.191			-1.095
232000.000			-2.192			-1.096
232101.000			-2.192			-1.096
232201.000			-2.192			-1.096
232301.000			-2.192			-1.096
232401.000			-2.192			-1.096
232500.000			-2.192			-1.096
232600.000			-2.191			-1.096
232701.000			-2.192			-1.096
232800.000			-2.192			-1.096
232900.000			-2.192			-1.096
233002.000			-2.192			-1.096
233101.000			-2.192			-1.096
233202.000			-2.191			-1.096
233300.000			-2.192			-1.096
233400.000			-2.191			-1.095
233501.000			-2.191			-1.096
233600.000			-2.191			-1.095
233700.000			-2.191			-1.096
233801.000			-2.191			-1.096
233901.000			-2.190			-1.095
234001.000			-2.190			-1.095
234102.000			-2.191			-1.095
234200.000			-2.191			-1.095
234300.000			-2.192			-1.096
234401.000			-2.191			-1.096
234500.000			-2.191			-1.095
234600.000			-2.190			-1.095
234701.000			-2.190			-1.095
234801.000			-2.191			-1.096
234901.000			-2.191			-1.096
235002.000			-2.191			-1.096
235100.000			-2.191			-1.095
235200.000			-2.191			-1.095
235301.000			-2.191			-1.095
235400.000			-2.192			-1.096
235500.000			-2.191			-1.095
235601.000			-2.191			-1.096
235701.000			-2.191			-1.096
235801.000			-2.191			-1.095
235902.000			-2.190			-1.095
236000.000			-2.191			-1.095
236100.000			-2.190			-1.095
236201.000			-2.190			-1.095
236300.000			-2.192			-1.096
236400.000			-2.189			-1.095
236500.000			-2.190			-1.095
236601.000			-2.190			-1.095
236702.000			-2.190			-1.095
236801.000			-2.190			-1.095
236900.000			-2.190			-1.095
237001.000			-2.189			-1.095
237100.000			-2.190			-1.095
237200.000			-2.190			-1.095
237301.000			-2.190			-1.095
237400.000			-2.191			-1.095
237501.000			-2.191			-1.095
237602.000			-2.190			-1.095
237701.000			-2.190			-1.095
237800.000			-2.190			-1.095
237901.000			-2.190			-1.095
238000.000			-2.189			-1.095
238100.000			-2.190			-1.095
238201.000			-2.190			-1.095
238300.000			-2.189			-1.095
238400.000			-2.190			-1.095
238502.000			-2.190			-1.095
238601.000			-2.191			-1.095
238700.000			-2.190			-1.095
238801.000			-2.191			-1.095
238900.000			-2.190			-1.095
239000.000			-2.190			-1.095
239101.000			-2.189			-1.094
239200.000			-2.189			-1.095
239300.000			-2.189			-1.095
239402.000			-2.190			-1.095
239501.000			-2.190			-1.095
239602.000			-2.189			-1.094
239700.000			-2.190			-1.095
239800.000			-2.191			-1.095
239901.000			-2.189			-1.095
240000.000			-2.188			-1.094
240100.000			-2.190			-1.095
240201.000			-2.189			-1.095
240300.000			-2.189			-1.094
240401.000			-2.189			-1.095
240502.000			-2.189			-1.094
240600.000			-2.188			-1.094
240700.000			-2.188			-1.094
240801.000			-2.188			-1.094
240900.000			-2.189			-1.094
241000.000			-2.188			-1.094
241101.000			-2.189			-1.094
241200.000			-2.189			-1.094
241301.000			-2.188			-1.094
241402.000			-2.189			-1.094
241500.000			-2.188			-1.094
241600.000			-2.189			-1.094
241701.000			-2.188			-1.094
241800.000			-2.189			-1.094
241900.000			-2.188			-1.094
242001.000			-2.189			-1.094
242100.000			-2.189			-1.094
242201.000			-2.188			-1.094
242302.000			-2.188			-1.094
242400.000			-2.188			-1.094
242500.000			-2.188			-1.094
242601.000			-2.188			-1.094
242700.000			-2.188			-1.094
242800.000			-2.187			-1.094
242900.000			-2.188			-1.094
243000.000			-2.190			-1.095
243102.000			-2.189			-1.094
243201.000			-2.187			-1.094
243301.000			-2.187			-1.094
243401.000			-2.187			-1.094
243500.000			-2.187			-1.093
243600.000			-2.188			-1.094
243701.000			-2.187			-1.094
243800.000			-2.188			-1.094
243900.000			-2.188			-1.094
244002.000			-2.188			-1.094
244101.000			-2.189			-1.094
244201.000			-2.189			-1.094
244301.000			-2.188			-1.094
244400.000			-2.187			-1.094
244500.000			-2.187			-1.094
244601.000			-2.187			-1.093
244700.000			-2.187			-1.094
244800.000			-2.187			-1.093
244901.000			-2.187			-1.093
245001.000			-2.186			-1.093
245101.000			-2.188			-1.094
245201.000			-2.188			-1.094
245300.000			-2.188			-1.094
245400.000			-2.188			-1.094
245501.000			-2.188			-1.094
245600.000			-2.188			-1.094
245700.000			-2.187			-1.093
245801.000			-2.187			-1.093
245901.000			-2.187			-1.094
246002.000			-2.187			-1.094
246101.000			-2.188			-1.094
246200.000			-2.188			-1.094
246301.000			-2.187			-1.094
246400.000			-2.188			-1.094
246500.000			-2.187			-1.093
246601.000			-2.186			-1.093
246700.000			-2.186			-1.093
246801.000			-2.187			-1.093
246902.000			-2.187			-1.093
247001.000			-2.188			-1.094
247100.000			-2.188			-1.094
247201.000			-2.188			-1.094
247300.000			-2.187			-1.094
247400.000			-2.187			-1.093
247501.000			-2.186			-1.093
247600.000			-2.186			-1.093
247700.000			-2.187			-1.093
247802.000			-2.186			-1.093
247901.000			-2.187			-1.093
248000.000			-2.186			-1.093
248101.000			-2.187			-1.094
248200.000			-2.188			-1.094
248300.000			-2.188			-1.094
248401.000			-2.186			-1.093
248500.000			-2.186			-1.093
248600.000			-2.186			-1.093
248702.000			-2.186			-1.093
248801.000			-2.187			-1.093
248901.000			-2.187			-1.093
249001.000			-2.186			-1.093
249100.000			-2.186			-1.093
249200.000			-2.186			-1.093
249300.000			-2.186			-1.093
249400.000			-2.187			-1.093
249501.000			-2.185			-1.093
249600.000			-2.186			-1.093
249701.000			-2.187			-1.093
249802.000			-2.187			-1.093
249901.000			-2.186			-1.093
250000.000			-2.186			-1.093
250101.000			-2.187			-1.093
250200.000			-2.187			-1.093
250300.000			-2.186			-1.093
250401.000			-2.187			-1.094
250500.000			-2.187			-1.093
250601.000			-2.186			-1.093
250702.000			-2.186			-1.093
250801.000			-2.186			-1.093
250900.000			-2.185			-1.092
251001.000			-2.187			-1.093
251100.000			-2.187			-1.093
251200.000			-2.187			-1.093
251301.000			-2.186			-1.093
251400.000			-2.185			-1.093
251501.000			-2.185			-1.092
251602.000			-2.185			-1.092
251701.000			-2.187			-1.093
251800.000			-2.186			-1.093
251901.000			-2.186			-1.093
252000.000			-2.186			-1.093
252100.000			-2.186			-1.093
252201.000			-2.186			-1.093
252300.000			-2.186			-1.093
252402.000			-2.186			-1.093
252501.000			-2.185			-1.093
252601.000			-2.185			-1.093
252701.000			-2.185			-1.092
252800.000			-2.186			-1.093
252900.000			-2.187			-1.093
253001.000			-2.185			-1.093
253100.000			-2.185			-1.093
253200.000			-2.185			-1.093
253301.000			-2.185			-1.092
253401.000			-2.185			-1.093
253501.000			-2.186			-1.093
253601.000			-2.184			-1.092
253700.000			-2.184			-1.092
253800.000			-2.184			-1.092
253901.000			-2.186			-1.093
254000.000			-2.186			-1.093
254100.000			-2.186			-1.093
254201.000			-2.186			-1.093
254301.000			-2.186			-1.093
254401.000			-2.185			-1.092
254501.000			-2.185			-1.093
254600.000			-2.185			-1.093
254700.000			-2.184			-1.092
254801.000			-2.183			-1.092
254900.000			-2.184			-1.092
255000.000			-2.184			-1.092
255101.000			-2.185			-1.093
255201.000			-2.186			-1.093
255301.000			-2.185			-1.092
255401.000			-2.185			-1.092
255500.000			-2.186			-1.093
255600.000			-2.186			-1.093
255700.000			-2.186			-1.093
255800.000			-2.184			-1.092
255901.000			-2.184			-1.092
256000.000			-2.185			-1.092
256100.000			-2.184			-1.092
256202.000			-2.183			-1.092
256301.000			-2.184			-1.092
256400.000			-2.185			-1.092
256501.000			-2.184			-1.092
256600.000			-2.185			-1.093
256700.000			-2.184			-1.092
256801.000			-2.185			-1.093
256900.000			-2.185			-1.093
257000.000			-2.185			-1.092
257102.000			-2.185			-1.092
257201.000			-2.184			-1.092
257300.000			-2.183			-1.092
257401.000			-2.184			-1.092
257500.000			-2.185			-1.092
257600.000			-2.184			-1.092
257701.000			-2.185			-1.092
257800.000			-2.185			-1.092
257900.000			-2.184			-1.092
258002.000			-2.185			-1.093
258101.000			-2.184			-1.092
258200.000			-2.184			-1.092
258301.000			-2.185			-1.092
258400.000			-2.184			-1.092
258500.000			-2.185			-1.092
258601.000			-2.184			-1.092
258700.000			-2.184			-1.092
258800.000			-2.184			-1.092
258902.000			-2.184			-1.092
259001.000			-2.184			-1.092
259102.000			-2.183			-1.092
259200.000			-2.184			-1.092
259300.000			-2.184			-1.092
259401.000			-2.183			-1.092
259500.000			-2.183			-1.092
259600.000			-2.184			-1.092
259701.000			-2.184			-1.092
259800.000			-2.184			-1.092
259901.000			-2.183			-1.092
260002.000			-2.184			-1.092
260100.000			-2.184			-1.092
260200.000			-2.183			-1.092
260301.000			-2.184			-1.092
260400.000			-2.183			-1.092
260500.000			-2.184			-1.092
260601.000			-2.184			-1.092
260700.000			-2.184			-1.092
260801.000			-2.183			-1.091
260902.000			-2.183			-1.092
261000.000			-2.184			-1.092
261100.000			-2.183			-1.092
261201.000			-2.183			-1.091
261300.000			-2.183			-1.092
261400.000			-2.183			-1.092
261501.000			-2.183			-1.092
261600.000			-2.183			-1.092
261701.000			-2.184			-1.092
261802.000			-2.183			-1.092
261900.000			-2.183			-1.092
262000.000			-2.185			-1.092
262100.000			-2.184			-1.092
262200.000			-2.183			-1.091
262301.000			-2.183			-1.092
262400.000			-2.184			-1.092
262500.000			-2.184			-1.092
262602.000			-2.183			-1.091
262701.000			-2.182			-1.091
262800.000			-2.182			-1.091
262901.000			-2.183			-1.091
263000.000			-2.183			-1.091
263100.000			-2.183			-1.092
263201.000			-2.182			-1.091
263300.000			-2.183			-1.092
263400.000			-2.183			-1.091
263502.000			-2.184			-1.092
263601.000			-2.184			-1.092
263700.000			-2.183			-1.092
263801.000			-2.183			-1.092
263900.000			-2.183			-1.092
264000.000			-2.183			-1.091
264101.000			-2.183			-1.092
264200.000			-2.182			-1.091
264300.000			-2.183			-1.091
264402.000			-2.183			-1.091
264501.000			-2.183			-1.091
264600.000			-2.182			-1.091
264701.000			-2.182			-1.091
264800.000			-2.183			-1.092
264900.000			-2.184			-1.092
265001.000			-2.184			-1.092
265100.000			-2.182			-1.091
265200.000			-2.182			-1.091
265302.000			-2.182			-1.091
265401.000			-2.183			-1.091
265501.000			-2.183			-1.091
265600.000			-2.183			-1.092
265700.000			-2.184			-1.092
265801.000			-2.182			-1.091
265900.000			-2.183			-1.091
266000.000			-2.183			-1.092
266101.000			-2.182			-1.091
266201.000			-2.183			-1.091
266301.000			-2.183			-1.092
266401.000			-2.183			-1.091
266500.000			-2.183			-1.092
266600.000			-2.182			-1.091
266701.000			-2.183			-1.091
266800.000			-2.183			-1.092
266900.000			-2.183			-1.091
267001.000			-2.182			-1.091
267101.000			-2.183			-1.091
267201.000			-2.183			-1.092
267301.000			-2.183			-1.091
267400.000			-2.181			-1.091
267500.000			-2.182			-1.091
267601.000			-2.182			-1.091
267700.000			-2.181			-1.091
267800.000			-2.182			-1.091
267901.000			-2.183			-1.092
268001.000			-2.183			-1.091
268101.000			-2.182			-1.091
268202.000			-2.183			-1.092
268300.000			-2.182			-1.091
268400.000			-2.183			-1.091
268500.000			-2.183			-1.091
268600.000			-2.182			-1.091
268701.000			-2.182			-1.091
268800.000			-2.182			-1.091
268900.000			-2.183			-1.091
269002.000			-2.184			-1.092
269101.000			-2.183			-1.091
269200.000			-2.182			-1.091
269301.000			-2.182			-1.091
269400.000			-2.181			-1.091
269500.000			-2.182			-1.091
269601.000			-2.182			-1.091
269700.000			-2.182			-1.091
269800.000			-2.183			-1.091
269902.000			-2.182			-1.091
270001.000			-2.183			-1.092
270100.000			-2.183			-1.091
270201.000			-2.183			-1.091
270300.000			-2.183			-1.091
270400.000			-2.182			-1.091
270501.000			-2.182			-1.091
270600.000			-2.181			-1.091
270700.000			-2.182			-1.091
270802.000			-2.183			-1.091
270901.000			-2.182			-1.091
271000.000			-2.182			-1.091
271101.000			-2.181			-1.091
271200.000			-2.181			-1.091
271300.000			-2.182			-1.091
271401.000			-2.181			-1.091
271500.000			-2.181			-1.091
271600.000			-2.181			-1.090
271702.000			-2.181			-1.091
271801.000			-2.183			-1.091
271901.000			-2.183			-1.091
272000.000			-2.182			-1.091
272100.000			-2.183			-1.092
272201.000			-2.182			-1.091
272300.000			-2.181			-1.091
272400.000			-2.182			-1.091
272501.000			-2.182			-1.091
272601.000			-2.182			-1.091
272701.000			-2.182			-1.091
272801.000			-2.182			-1.091
272900.000			-2.182			-1.091
273000.000			-2.182			-1.091
273101.000			-2.181			-1.091
273200.000			-2.181			-1.090
273300.000			-2.182			-1.091
273401.000			-2.182			-1.091
273501.000			-2.181			-1.091
273601.000			-2.182			-1.091
273701.000			-2.182			-1.091
273800.000			-2.181			-1.091
273900.000			-2.181			-1.091
274001.000			-2.182			-1.091
274100.000			-2.182			-1.091
274200.000			-2.182			-1.091
274301.000			-2.180			-1.090
274401.000			-2.181			-1.090
274501.000			-2.181			-1.091
274601.000			-2.181			-1.091
274700.000			-2.181			-1.091
274800.000			-2.180			-1.090
274900.000			-2.181			-1.090
275000.000			-2.181			-1.090
275101.000			-2.181			-1.091
275200.000			-2.182			-1.091
275301.000			-2.181			-1.091
275402.000			-2.181			-1.090
275500.000			-2.181			-1.090
275600.000			-2.181			-1.090
275701.000			-2.182			-1.091
275800.000			-2.181			-1.091
275900.000			-2.181			-1.090
276001.000			-2.180			-1.090
276100.000			-2.180			-1.090
276201.000			-2.181			-1.090
276302.000			-2.181			-1.090
276401.000			-2.180			-1.090
276500.000			-2.182			-1.091
276601.000			-2.182			-1.091
276700.000			-2.182			-1.091
276800.000			-2.181			-1.091
276901.000			-2.181			-1.091
277000.000			-2.181			-1.090
277101.000			-2.181			-1.090
277202.000			-2.181			-1.090
277301.000			-2.182			-1.091
277400.000			-2.181			-1.091
277501.000			-2.181			-1.091
277600.000			-2.182			-1.091
277700.000			-2.181			-1.091
277801.000			-2.180			-1.090
277900.000			-2.179			-1.089
278000.000			-2.179			-1.090
278102.000			-2.179			-1.089
278201.000			-2.180			-1.090
278301.000			-2.181			-1.090
278400.000			-2.180			-1.090
278500.000			-2.179			-1.090
278601.000			-2.180			-1.090
278700.000			-2.180			-1.090
278800.000			-2.180			-1.090
278901.000			-2.181			-1.090
279001.000			-2.180			-1.090
279101.000			-2.180			-1.090
279201.000			-2.180			-1.090
279300.000			-2.180			-1.090
279400.000			-2.181			-1.090
279501.000			-2.180			-1.090
279600.000			-2.181			-1.090
279700.000			-2.181			-1.090
279801.000			-2.180			-1.090
279901.000			-2.180			-1.090
280001.000			-2.180			-1.090
280102.000			-2.180			-1.090
280200.000			-2.180			-1.090
280300.000			-2.180			-1.090
280401.000			-2.181			-1.090
280500.000			-2.180			-1.090
280600.000			-2.180			-1.090
280701.000			-2.180			-1.090
280801.000			-2.181			-1.090
280901.000			-2.180			-1.090
281002.000			-2.181			-1.090
281100.000			-2.180			-1.090
281200.000			-2.181			-1.091
281300.000			-2.180			-1.090
281400.000			-2.180			-1.090
281501.000			-2.181			-1.091
281600.000			-2.181			-1.091
281701.000			-2.181			-1.090
281802.000			-2.180			-1.090
281901.000			-2.180			-1.090
282000.000			-2.180			-1.090
282101.000			-2.180			-1.090
282200.000			-2.180			-1.090
282300.000			-2.180			-1.090
282401.000			-2.180			-1.090
282500.000			-2.180			-1.090
282601.000			-2.179			-1.090
282702.000			-2.180			-1.090
282801.000			-2.180			-1.090
282900.000			-2.180			-1.090
283001.000			-2.178			-1.089
283100.000			-2.179			-1.089
283200.000			-2.179			-1.090
283301.000			-2.179			-1.090
283400.000			-2.180			-1.090
283500.000			-2.180			-1.090
283602.000			-2.180			-1.090
283701.000			-2.180			-1.090
283800.000			-2.179			-1.090
283901.000			-2.180			-1.090
284000.000			-2.180			-1.090
284100.000			-2.180			-1.090
284201.000			-2.180			-1.090
284300.000			-2.180			-1.090
284400.000			-2.179			-1.090
284502.000			-2.179			-1.090
284601.000			-2.180			-1.090
284702.000			-2.179			-1.089
284800.000			-2.178			-1.089
284900.000			-2.179			-1.089
285001.000			-2.180			-1.090
285100.000			-2.179			-1.090
285200.000			-2.179			-1.090
285301.000			-2.179			-1.089
285400.000			-2.180			-1.090
285501.000			-2.179			-1.090
285602.000			-2.179			-1.089
285700.000			-2.179			-1.090
285800.000			-2.180			-1.090
285901.000			-2.179			-1.089
286000.000			-2.179			-1.090
286100.000			-2.179			-1.090
286201.000			-2.180			-1.090
286300.000			-2.179			-1.089
286401.000			-2.178			-1.089
286502.000			-2.179			-1.089
286601.000			-2.179			-1.090
286700.000			-2.179			-1.089
286801.000			-2.178			-1.089
286900.000			-2.179			-1.090
287000.000			-2.179			-1.090
287101.000			-2.179			-1.089
287200.000			-2.179			-1.089
287300.000			-2.179			-1.089
287402.000			-2.179			-1.089
287501.000			-2.178			-1.089
287600.000			-2.178			-1.089
287700.000			-2.179			-1.089
287800.000			-2.178			-1.089
287901.000			-2.178			-1.089
288000.000			-2.179			-1.089
288100.000			-2.178			-1.089
288201.000			-2.177			-1.089
288301.000			-2.179			-1.089
288401.000			-2.179			-1.089
288502.000			-2.178			-1.089
288600.000			-2.178			-1.089
288700.000			-2.179			-1.089
288801.000			-2.179			-1.089
288900.000			-2.179			-1.090
289000.000			-2.178			-1.089
289101.000			-2.178			-1.089
289200.000			-2.178			-1.089
289301.000			-2.178			-1.089
289402.000			-2.178			-1.089
289501.000			-2.178			-1.089
289600.000			-2.178			-1.089
289701.000			-2.178			-1.089
289800.000			-2.178			-1.089
289900.000			-2.178			-1.089
290001.000			-2.178			-1.089
290100.000			-2.178			-1.089
290200.000			-2.179			-1.089
290302.000			-2.179			-1.089
290401.000			-2.178			-1.089
290500.000			-2.179			-1.089
290601.000			-2.178			-1.089
290700.000			-2.178			-1.089
290800.000			-2.179			-1.089
290900.000			-2.178			-1.089
291000.000			-2.178			-1.089
291101.000			-2.178			-1.089
291201.000			-2.178			-1.089
291301.000			-2.178			-1.089
291401.000			-2.177			-1.089
291500.000			-2.178			-1.089
291600.000			-2.178			-1.089
291701.000			-2.179			-1.089
291800.000			-2.178			-1.089
291900.000			-2.179			-1.089
292001.000			-2.179			-1.089
292101.000			-2.177			-1.089
292201.000			-2.178			-1.089
292302.000			-2.177			-1.089
292400.000			-2.176			-1.088
292500.000			-2.178			-1.089
292601.000			-2.177			-1.089
292700.000			-2.178			-1.089
292800.000			-2.178			-1.089
292901.000			-2.177			-1.089
293000.000			-2.177			-1.088
293101.000			-2.177			-1.089
293202.000			-2.178			-1.089
293300.000			-2.177			-1.089
293400.000			-2.177			-1.088
293501.000			-2.176			-1.088
293600.000			-2.177			-1.088
293700.000			-2.177			-1.089
293801.000			-2.178			-1.089
293900.000			-2.178			-1.089
294002.000			-2.177			-1.089
294101.000			-2.177			-1.089
294200.000			-2.178			-1.089
294301.000			-2.178			-1.089
294400.000			-2.178			-1.089
294500.000			-2.178			-1.089
294601.000			-2.178			-1.089
294700.000			-2.177			-1.089
294800.000			-2.177			-1.089
294902.000			-2.177			-1.089
295001.000			-2.178			-1.089
295101.000			-2.178			-1.089
295201.000			-2.177			-1.088
295300.000			-2.178			-1.089
295400.000			-2.177			-1.089
295501.000			-2.176			-1.088
295600.000			-2.177			-1.088
295700.000			-2.177			-1.088
295801.000			-2.177			-1.089
295901.000			-2.177			-1.089
296001.000			-2.177			-1.089
296101.000			-2.177			-1.089
296200.000			-2.177			-1.088
296300.000			-2.177			-1.089
296401.000			-2.177			-1.088
296500.000			-2.177			-1.089
296600.000			-2.177			-1.089
296701.000			-2.178			-1.089
296801.000			-2.177			-1.089
296901.000			-2.177			-1.089
297002.000			-2.177			-1.088
297100.000			-2.177			-1.089
297200.000			-2.178			-1.089
297300.000			-2.177			-1.089
297400.000			-2.176			-1.088
297501.000			-2.177			-1.088
297600.000			-2.177			-1.089
297700.000			-2.177			-1.088
297802.000			-2.177			-1.088
297901.000			-2.177			-1.088
298000.000			-2.178			-1.089
298101.000			-2.178			-1.089
298200.000			-2.177			-1.088
298300.000			-2.177			-1.089
298401.000			-2.178			-1.089
298500.000			-2.177			-1.089
298600.000			-2.177			-1.089
298701.000			-2.177			-1.088
298801.000			-2.177			-1.089
298901.000			-2.177			-1.088
299001.000			-2.178			-1.089
299100.000			-2.177			-1.089
299200.000			-2.177			-1.088
299301.000			-2.177			-1.088
299400.000			-2.177			-1.088
299500.000			-2.177			-1.089
299601.000			-2.177			-1.088
299701.000			-2.177			-1.089
299801.000			-2.178			-1.089
299902.000			-2.177			-1.088
