# Acquired on 26/01/2024 16:55:27 
# SPIDER: Creep_-9mm_GRPCNT1454A-3
# CREEP MEASUREMENT

# time [ms]		force [N]		stiffness [N/mm]
0.000			42.202			-4.689
104.000			42.751			-4.750
204.000			42.606			-4.734
304.000			42.175			-4.686
405.000			41.869			-4.652
504.000			41.636			-4.626
603.000			41.268			-4.585
705.000			41.118			-4.569
804.000			40.983			-4.554
905.000			40.861			-4.540
1004.000			40.748			-4.528
1103.000			40.644			-4.516
1205.000			40.549			-4.505
1304.000			40.377			-4.486
1404.000			40.300			-4.478
1505.000			40.226			-4.470
1604.000			40.156			-4.462
1704.000			40.092			-4.455
1804.000			40.029			-4.448
1904.000			39.970			-4.441
2004.000			39.860			-4.429
2105.000			39.808			-4.423
2204.000			39.758			-4.418
2303.000			39.710			-4.412
2405.000			39.665			-4.407
2504.000			39.622			-4.402
2604.000			39.578			-4.398
2705.000			39.497			-4.389
2804.000			39.458			-4.384
2904.000			39.420			-4.380
3004.000			39.384			-4.376
3104.000			39.349			-4.372
3204.000			39.314			-4.368
3305.000			39.281			-4.365
3404.000			39.249			-4.361
3504.000			39.185			-4.354
3605.000			39.156			-4.351
3703.000			39.126			-4.347
3804.000			39.097			-4.344
3905.000			39.070			-4.341
4004.000			39.043			-4.338
4105.000			39.016			-4.335
4204.000			38.965			-4.329
4304.000			38.940			-4.327
4404.000			38.915			-4.324
4504.000			38.891			-4.321
4604.000			38.868			-4.319
4705.000			38.845			-4.316
4804.000			38.822			-4.314
4903.000			38.779			-4.309
5005.000			38.757			-4.306
5104.000			38.735			-4.304
5204.000			38.716			-4.302
5305.000			38.696			-4.300
5404.000			38.676			-4.297
5504.000			38.657			-4.295
5604.000			38.637			-4.293
5704.000			38.598			-4.289
5804.000			38.580			-4.287
5905.000			38.562			-4.285
6004.000			38.545			-4.283
6104.000			38.528			-4.281
6205.000			38.511			-4.279
6303.000			38.493			-4.277
6404.000			38.460			-4.273
6505.000			38.443			-4.271
6604.000			38.427			-4.270
6704.000			38.411			-4.268
6804.000			38.395			-4.266
6904.000			38.379			-4.264
7004.000			38.364			-4.263
7104.000			38.334			-4.259
7204.000			38.320			-4.258
7305.000			38.305			-4.256
7404.000			38.291			-4.255
7503.000			38.278			-4.253
7605.000			38.263			-4.251
7704.000			38.249			-4.250
7804.000			38.235			-4.248
7905.000			38.209			-4.245
8004.000			38.195			-4.244
8104.000			38.182			-4.242
8204.000			38.170			-4.241
8304.000			38.156			-4.240
8404.000			38.144			-4.238
8505.000			38.131			-4.237
8604.000			38.108			-4.234
8703.000			38.095			-4.233
8805.000			38.083			-4.231
8904.000			38.071			-4.230
9004.000			38.059			-4.229
9105.000			38.046			-4.227
9204.000			38.036			-4.226
9304.000			38.014			-4.224
9404.000			38.003			-4.223
9504.000			37.992			-4.221
9604.000			37.980			-4.220
9705.000			37.969			-4.219
9804.000			37.958			-4.218
9904.000			37.949			-4.217
10005.000			37.929			-4.214
10103.000			37.918			-4.213
10204.000			37.907			-4.212
10305.000			37.897			-4.211
10404.000			37.887			-4.210
10505.000			37.879			-4.209
10604.000			37.869			-4.208
10704.000			37.857			-4.206
10804.000			37.839			-4.204
10904.000			37.829			-4.203
11004.000			37.819			-4.202
11105.000			37.809			-4.201
11204.000			37.800			-4.200
11304.000			37.793			-4.199
11405.000			37.783			-4.198
11503.000			37.765			-4.196
11604.000			37.755			-4.195
11705.000			37.746			-4.194
11804.000			37.737			-4.193
11904.000			37.729			-4.192
12005.000			37.718			-4.191
12104.000			37.710			-4.190
12203.000			37.694			-4.188
12305.000			37.686			-4.187
12404.000			37.677			-4.186
12504.000			37.670			-4.186
12605.000			37.661			-4.185
12704.000			37.653			-4.184
12804.000			37.645			-4.183
12904.000			37.636			-4.182
13004.000			37.620			-4.180
13104.000			37.612			-4.179
13205.000			37.605			-4.178
13304.000			37.598			-4.178
13403.000			37.590			-4.177
13505.000			37.583			-4.176
13604.000			37.576			-4.175
13705.000			37.560			-4.173
13804.000			37.552			-4.172
13904.000			37.545			-4.172
14005.000			37.537			-4.171
14104.000			37.529			-4.170
14204.000			37.522			-4.169
14304.000			37.516			-4.168
14404.000			37.501			-4.167
14504.000			37.494			-4.166
14605.000			37.486			-4.165
14704.000			37.479			-4.164
14803.000			37.471			-4.163
14905.000			37.465			-4.163
15004.000			37.459			-4.162
15104.000			37.444			-4.160
15205.000			37.438			-4.160
15304.000			37.432			-4.159
15404.000			37.425			-4.158
15504.000			37.419			-4.158
15604.000			37.411			-4.157
15704.000			37.405			-4.156
15805.000			37.398			-4.155
15904.000			37.386			-4.154
16004.000			37.379			-4.153
16105.000			37.373			-4.153
16203.000			37.367			-4.152
16304.000			37.361			-4.151
16405.000			37.354			-4.150
16504.000			37.348			-4.150
16604.000			37.335			-4.148
16704.000			37.329			-4.148
16804.000			37.323			-4.147
16903.000			37.318			-4.146
17004.000			37.312			-4.146
17104.000			37.305			-4.145
17205.000			37.299			-4.144
17304.000			37.287			-4.143
17404.000			37.281			-4.142
17505.000			37.276			-4.142
17603.000			37.270			-4.141
17704.000			37.264			-4.140
17805.000			37.258			-4.140
17904.000			37.253			-4.139
18004.000			37.242			-4.138
18105.000			37.236			-4.137
18204.000			37.230			-4.137
18303.000			37.226			-4.136
18405.000			37.220			-4.136
18504.000			37.213			-4.135
18604.000			37.208			-4.134
18705.000			37.203			-4.134
18804.000			37.191			-4.132
18904.000			37.186			-4.132
19004.000			37.181			-4.131
19104.000			37.175			-4.131
19204.000			37.170			-4.130
19305.000			37.165			-4.129
19404.000			37.160			-4.129
19503.000			37.149			-4.128
19605.000			37.144			-4.127
19704.000			37.139			-4.127
19804.000			37.134			-4.126
19905.000			37.129			-4.125
20004.000			37.124			-4.125
20105.000			37.118			-4.124
20203.000			37.107			-4.123
20304.000			37.103			-4.123
20405.000			37.099			-4.122
20504.000			37.093			-4.121
20604.000			37.088			-4.121
20705.000			37.083			-4.120
20804.000			37.078			-4.120
20903.000			37.073			-4.119
21005.000			37.063			-4.118
21104.000			37.059			-4.118
21204.000			37.054			-4.117
21305.000			37.050			-4.117
21404.000			37.044			-4.116
21504.000			37.040			-4.116
21604.000			37.035			-4.115
21704.000			37.026			-4.114
21804.000			37.022			-4.114
21905.000			37.016			-4.113
22004.000			37.012			-4.112
22103.000			37.007			-4.112
22205.000			37.002			-4.111
22304.000			36.998			-4.111
22404.000			36.990			-4.110
22505.000			36.985			-4.109
22604.000			36.980			-4.109
22704.000			36.976			-4.108
22804.000			36.971			-4.108
22904.000			36.967			-4.107
23004.000			36.963			-4.107
23104.000			36.959			-4.107
23204.000			36.949			-4.105
23305.000			36.946			-4.105
23404.000			36.941			-4.105
23503.000			36.936			-4.104
23605.000			36.933			-4.104
23704.000			36.928			-4.103
23804.000			36.923			-4.103
23905.000			36.914			-4.102
24004.000			36.911			-4.101
24104.000			36.907			-4.101
24204.000			36.902			-4.100
24304.000			36.899			-4.100
24404.000			36.894			-4.099
24505.000			36.890			-4.099
24604.000			36.882			-4.098
24704.000			36.878			-4.098
24805.000			36.874			-4.097
24903.000			36.869			-4.097
25004.000			36.865			-4.096
25105.000			36.862			-4.096
25204.000			36.858			-4.095
25304.000			36.849			-4.094
25405.000			36.845			-4.094
25504.000			36.841			-4.093
25603.000			36.837			-4.093
25705.000			36.834			-4.093
25804.000			36.830			-4.092
25904.000			36.825			-4.092
26005.000			36.821			-4.091
26104.000			36.813			-4.090
26204.000			36.810			-4.090
26303.000			36.806			-4.090
26404.000			36.802			-4.089
26505.000			36.798			-4.089
26604.000			36.794			-4.088
26704.000			36.790			-4.088
26805.000			36.783			-4.087
26904.000			36.779			-4.087
27004.000			36.775			-4.086
27105.000			36.772			-4.086
27203.000			36.770			-4.086
27304.000			36.766			-4.085
27405.000			36.761			-4.085
27504.000			36.754			-4.084
27604.000			36.751			-4.083
27705.000			36.747			-4.083
27804.000			36.744			-4.083
27903.000			36.740			-4.082
28005.000			36.735			-4.082
28104.000			36.731			-4.081
28204.000			36.727			-4.081
28305.000			36.721			-4.080
28404.000			36.717			-4.080
28504.000			36.714			-4.079
28604.000			36.711			-4.079
28704.000			36.707			-4.079
28804.000			36.702			-4.078
28905.000			36.699			-4.078
29004.000			36.693			-4.077
29104.000			36.688			-4.076
29205.000			36.685			-4.076
29303.000			36.681			-4.076
29404.000			36.678			-4.075
29505.000			36.674			-4.075
29604.000			36.671			-4.075
29705.000			36.666			-4.074
29804.000			36.662			-4.074
29904.000			36.659			-4.073
30004.000			36.655			-4.073
30104.000			36.651			-4.072
30204.000			36.649			-4.072
30305.000			36.646			-4.072
30404.000			36.639			-4.071
30504.000			36.635			-4.071
30605.000			36.632			-4.070
30703.000			36.629			-4.070
30804.000			36.626			-4.070
30905.000			36.622			-4.069
31004.000			36.619			-4.069
31104.000			36.616			-4.068
31205.000			36.610			-4.068
31304.000			36.607			-4.067
31403.000			36.603			-4.067
31505.000			36.599			-4.067
31604.000			36.597			-4.066
31704.000			36.595			-4.066
31805.000			36.591			-4.066
31904.000			36.584			-4.065
32004.000			36.581			-4.065
32104.000			36.578			-4.064
32204.000			36.575			-4.064
32304.000			36.571			-4.063
32405.000			36.569			-4.063
32504.000			36.567			-4.063
32604.000			36.561			-4.062
32705.000			36.558			-4.062
32803.000			36.554			-4.062
32905.000			36.550			-4.061
33004.000			36.547			-4.061
33104.000			36.545			-4.061
33205.000			36.541			-4.060
33303.000			36.537			-4.060
33404.000			36.533			-4.059
33505.000			36.530			-4.059
33604.000			36.526			-4.058
33704.000			36.522			-4.058
33805.000			36.520			-4.058
33904.000			36.518			-4.058
34003.000			36.514			-4.057
34105.000			36.508			-4.056
34204.000			36.504			-4.056
34304.000			36.502			-4.056
34405.000			36.499			-4.055
34504.000			36.497			-4.055
34604.000			36.494			-4.055
34704.000			36.491			-4.055
34804.000			36.485			-4.054
34904.000			36.482			-4.054
35005.000			36.479			-4.053
35104.000			36.478			-4.053
35204.000			36.474			-4.053
35305.000			36.471			-4.052
35403.000			36.468			-4.052
35504.000			36.462			-4.051
35605.000			36.460			-4.051
35704.000			36.457			-4.051
35804.000			36.455			-4.051
35904.000			36.452			-4.050
36004.000			36.450			-4.050
36103.000			36.446			-4.050
36204.000			36.443			-4.049
36304.000			36.437			-4.049
36405.000			36.436			-4.048
36504.000			36.433			-4.048
36604.000			36.429			-4.048
36705.000			36.427			-4.047
36803.000			36.425			-4.047
36904.000			36.422			-4.047
37005.000			36.416			-4.046
37104.000			36.413			-4.046
37204.000			36.410			-4.046
37304.000			36.406			-4.045
37404.000			36.405			-4.045
37503.000			36.403			-4.045
37605.000			36.401			-4.045
37704.000			36.395			-4.044
37804.000			36.392			-4.044
37905.000			36.389			-4.043
38003.000			36.386			-4.043
38104.000			36.384			-4.043
38205.000			36.381			-4.042
38304.000			36.379			-4.042
38404.000			36.376			-4.042
38505.000			36.371			-4.041
38604.000			36.368			-4.041
38703.000			36.366			-4.041
38805.000			36.363			-4.040
38904.000			36.361			-4.040
39004.000			36.359			-4.040
39105.000			36.356			-4.040
39204.000			36.349			-4.039
39305.000			36.347			-4.039
39404.000			36.345			-4.038
39504.000			36.342			-4.038
39604.000			36.340			-4.038
39704.000			36.338			-4.038
39804.000			36.335			-4.037
39905.000			36.330			-4.037
40004.000			36.328			-4.036
40103.000			36.326			-4.036
40205.000			36.324			-4.036
40304.000			36.321			-4.036
40404.000			36.319			-4.035
40505.000			36.316			-4.035
40604.000			36.310			-4.034
40704.000			36.307			-4.034
40804.000			36.305			-4.034
40904.000			36.303			-4.034
41004.000			36.299			-4.033
41105.000			36.297			-4.033
41204.000			36.295			-4.033
41304.000			36.293			-4.033
41405.000			36.289			-4.032
41503.000			36.286			-4.032
41604.000			36.283			-4.031
41705.000			36.280			-4.031
41804.000			36.278			-4.031
41904.000			36.276			-4.031
42005.000			36.273			-4.030
42104.000			36.268			-4.030
42203.000			36.267			-4.030
42305.000			36.265			-4.029
42404.000			36.262			-4.029
42505.000			36.259			-4.029
42604.000			36.257			-4.029
42704.000			36.255			-4.028
42805.000			36.250			-4.028
42903.000			36.248			-4.028
43004.000			36.245			-4.027
43105.000			36.244			-4.027
43204.000			36.241			-4.027
43304.000			36.238			-4.026
43405.000			36.236			-4.026
43504.000			36.230			-4.026
43603.000			36.228			-4.025
43705.000			36.226			-4.025
43804.000			36.224			-4.025
43904.000			36.222			-4.025
44005.000			36.220			-4.024
44104.000			36.218			-4.024
44204.000			36.216			-4.024
44304.000			36.210			-4.023
44404.000			36.207			-4.023
44504.000			36.205			-4.023
44605.000			36.203			-4.023
44704.000			36.202			-4.022
44803.000			36.199			-4.022
44905.000			36.196			-4.022
45004.000			36.193			-4.021
45104.000			36.191			-4.021
45205.000			36.188			-4.021
45304.000			36.186			-4.021
45404.000			36.184			-4.020
45503.000			36.181			-4.020
45604.000			36.179			-4.020
45705.000			36.175			-4.019
45804.000			36.173			-4.019
45904.000			36.171			-4.019
46005.000			36.168			-4.019
46104.000			36.166			-4.018
46203.000			36.164			-4.018
46305.000			36.163			-4.018
46404.000			36.161			-4.018
46504.000			36.156			-4.017
46605.000			36.154			-4.017
46704.000			36.151			-4.017
46804.000			36.149			-4.017
46904.000			36.146			-4.016
47004.000			36.144			-4.016
47104.000			36.143			-4.016
47205.000			36.139			-4.015
47304.000			36.136			-4.015
47404.000			36.133			-4.015
47505.000			36.131			-4.015
47603.000			36.130			-4.014
47704.000			36.128			-4.014
47805.000			36.127			-4.014
47904.000			36.121			-4.013
48004.000			36.120			-4.013
48104.000			36.119			-4.013
48204.000			36.116			-4.013
48303.000			36.113			-4.013
48405.000			36.112			-4.012
48504.000			36.109			-4.012
48604.000			36.105			-4.012
48705.000			36.103			-4.011
48803.000			36.101			-4.011
48905.000			36.099			-4.011
49004.000			36.098			-4.011
49104.000			36.095			-4.011
49205.000			36.093			-4.010
49304.000			36.091			-4.010
49404.000			36.086			-4.010
49504.000			36.085			-4.009
49604.000			36.083			-4.009
49704.000			36.081			-4.009
49805.000			36.079			-4.009
49904.000			36.077			-4.009
50004.000			36.075			-4.008
50105.000			36.071			-4.008
50203.000			36.069			-4.008
50304.000			36.067			-4.007
50405.000			36.065			-4.007
50504.000			36.063			-4.007
50604.000			36.062			-4.007
50705.000			36.060			-4.007
50804.000			36.055			-4.006
50903.000			36.053			-4.006
51005.000			36.051			-4.006
51104.000			36.050			-4.006
51204.000			36.047			-4.005
51305.000			36.045			-4.005
51404.000			36.044			-4.005
51504.000			36.042			-4.005
51604.000			36.039			-4.004
51704.000			36.036			-4.004
51804.000			36.033			-4.004
51904.000			36.031			-4.003
52004.000			36.029			-4.003
52103.000			36.028			-4.003
52204.000			36.024			-4.003
52304.000			36.022			-4.002
52405.000			36.020			-4.002
52504.000			36.018			-4.002
52604.000			36.016			-4.002
52705.000			36.014			-4.002
52803.000			36.011			-4.001
52904.000			36.010			-4.001
53005.000			36.007			-4.001
53104.000			36.006			-4.001
53204.000			36.004			-4.000
53305.000			36.001			-4.000
53404.000			36.000			-4.000
53503.000			35.998			-4.000
53605.000			35.996			-4.000
53704.000			35.992			-3.999
53804.000			35.990			-3.999
53905.000			35.989			-3.999
54004.000			35.987			-3.999
54104.000			35.985			-3.998
54204.000			35.982			-3.998
54304.000			35.981			-3.998
54404.000			35.979			-3.998
54505.000			35.975			-3.997
54604.000			35.974			-3.997
54704.000			35.971			-3.997
54805.000			35.970			-3.997
54903.000			35.969			-3.997
55004.000			35.966			-3.996
55105.000			35.965			-3.996
55204.000			35.961			-3.996
55305.000			35.958			-3.995
55404.000			35.956			-3.995
55504.000			35.954			-3.995
55604.000			35.954			-3.995
55704.000			35.953			-3.995
55804.000			35.950			-3.994
55905.000			35.947			-3.994
56004.000			35.946			-3.994
56104.000			35.943			-3.994
56205.000			35.941			-3.993
56303.000			35.940			-3.993
56404.000			35.939			-3.993
56505.000			35.937			-3.993
56604.000			35.934			-3.993
56704.000			35.930			-3.992
56805.000			35.929			-3.992
56904.000			35.928			-3.992
57003.000			35.926			-3.992
57105.000			35.924			-3.992
57204.000			35.921			-3.991
57304.000			35.920			-3.991
57405.000			35.918			-3.991
57504.000			35.915			-3.991
57604.000			35.913			-3.990
57704.000			35.911			-3.990
57804.000			35.909			-3.990
57904.000			35.907			-3.990
58005.000			35.905			-3.989
58104.000			35.902			-3.989
58204.000			35.901			-3.989
58305.000			35.899			-3.989
58403.000			35.897			-3.989
58505.000			35.896			-3.988
58604.000			35.895			-3.988
58704.000			35.893			-3.988
58805.000			35.890			-3.988
58904.000			35.888			-3.988
59004.000			35.885			-3.987
59104.000			35.883			-3.987
59204.000			35.882			-3.987
59304.000			35.881			-3.987
59405.000			35.879			-3.987
59504.000			35.878			-3.986
59604.000			35.873			-3.986
59705.000			35.872			-3.986
59803.000			35.871			-3.986
59904.000			35.869			-3.985
60005.000			35.867			-3.985
60104.000			35.866			-3.985
60204.000			35.864			-3.985
60305.000			35.861			-3.985
60404.000			35.859			-3.984
60503.000			35.857			-3.984
60605.000			35.856			-3.984
60704.000			35.855			-3.984
60804.000			35.853			-3.984
60905.000			35.852			-3.984
61004.000			35.849			-3.983
61104.000			35.848			-3.983
61204.000			35.844			-3.983
61304.000			35.842			-3.982
61403.000			35.841			-3.982
61505.000			35.840			-3.982
61604.000			35.839			-3.982
61705.000			35.836			-3.982
61804.000			35.833			-3.981
61903.000			35.832			-3.981
62005.000			35.829			-3.981
62104.000			35.828			-3.981
62204.000			35.828			-3.981
62305.000			35.826			-3.981
62404.000			35.823			-3.980
62504.000			35.820			-3.980
62604.000			35.819			-3.980
62704.000			35.818			-3.980
62804.000			35.816			-3.980
62905.000			35.815			-3.979
63004.000			35.813			-3.979
63104.000			35.811			-3.979
63205.000			35.808			-3.979
63303.000			35.806			-3.978
63404.000			35.804			-3.978
63505.000			35.803			-3.978
63604.000			35.801			-3.978
63704.000			35.800			-3.978
63805.000			35.799			-3.978
63904.000			35.793			-3.977
64003.000			35.792			-3.977
64105.000			35.792			-3.977
64204.000			35.791			-3.977
64304.000			35.791			-3.977
64405.000			35.789			-3.977
64504.000			35.787			-3.976
64604.000			35.785			-3.976
64703.000			35.781			-3.976
64804.000			35.780			-3.976
64905.000			35.779			-3.975
65004.000			35.777			-3.975
65104.000			35.774			-3.975
65205.000			35.773			-3.975
65304.000			35.772			-3.975
65404.000			35.770			-3.974
65505.000			35.768			-3.974
65603.000			35.766			-3.974
65704.000			35.766			-3.974
65805.000			35.764			-3.974
65904.000			35.762			-3.974
66004.000			35.760			-3.973
66105.000			35.756			-3.973
66204.000			35.756			-3.973
66303.000			35.755			-3.973
66405.000			35.754			-3.973
66504.000			35.751			-3.972
66604.000			35.749			-3.972
66705.000			35.747			-3.972
66804.000			35.746			-3.972
66904.000			35.743			-3.971
67004.000			35.743			-3.971
67104.000			35.741			-3.971
67204.000			35.739			-3.971
67305.000			35.738			-3.971
67404.000			35.736			-3.971
67504.000			35.734			-3.970
67605.000			35.731			-3.970
67703.000			35.730			-3.970
67804.000			35.729			-3.970
67905.000			35.727			-3.970
68004.000			35.726			-3.970
68105.000			35.724			-3.969
68204.000			35.723			-3.969
68304.000			35.721			-3.969
68404.000			35.719			-3.969
68504.000			35.717			-3.969
68604.000			35.717			-3.969
68705.000			35.715			-3.968
68804.000			35.714			-3.968
68904.000			35.712			-3.968
69005.000			35.709			-3.968
69104.000			35.708			-3.968
69204.000			35.706			-3.967
69304.000			35.705			-3.967
69404.000			35.703			-3.967
69504.000			35.701			-3.967
69605.000			35.699			-3.967
69704.000			35.699			-3.967
69804.000			35.695			-3.966
69905.000			35.694			-3.966
70003.000			35.693			-3.966
70104.000			35.692			-3.966
70205.000			35.690			-3.966
70304.000			35.689			-3.965
70404.000			35.688			-3.965
70505.000			35.683			-3.965
70604.000			35.684			-3.965
70703.000			35.682			-3.965
70805.000			35.679			-3.964
70904.000			35.678			-3.964
71004.000			35.677			-3.964
71105.000			35.677			-3.964
71204.000			35.673			-3.964
71305.000			35.671			-3.963
71403.000			35.670			-3.963
71504.000			35.669			-3.963
71605.000			35.667			-3.963
71704.000			35.666			-3.963
71804.000			35.664			-3.963
71905.000			35.662			-3.962
72004.000			35.660			-3.962
72103.000			35.659			-3.962
72205.000			35.659			-3.962
72304.000			35.658			-3.962
72404.000			35.656			-3.962
72505.000			35.654			-3.962
72604.000			35.652			-3.961
72704.000			35.650			-3.961
72804.000			35.648			-3.961
72904.000			35.648			-3.961
73004.000			35.646			-3.961
73105.000			35.644			-3.960
73204.000			35.643			-3.960
73304.000			35.641			-3.960
73405.000			35.638			-3.960
73503.000			35.637			-3.960
73604.000			35.636			-3.960
73705.000			35.634			-3.959
73804.000			35.634			-3.959
73904.000			35.631			-3.959
74005.000			35.630			-3.959
74104.000			35.627			-3.959
74203.000			35.626			-3.958
74305.000			35.624			-3.958
74404.000			35.623			-3.958
74505.000			35.621			-3.958
74604.000			35.619			-3.958
74704.000			35.618			-3.958
74805.000			35.618			-3.958
74903.000			35.615			-3.957
75004.000			35.614			-3.957
75105.000			35.613			-3.957
75204.000			35.611			-3.957
75304.000			35.610			-3.957
75405.000			35.609			-3.957
75504.000			35.608			-3.956
75603.000			35.604			-3.956
75705.000			35.604			-3.956
75804.000			35.602			-3.956
75904.000			35.601			-3.956
76005.000			35.600			-3.956
76104.000			35.600			-3.956
76204.000			35.597			-3.955
76304.000			35.594			-3.955
76404.000			35.593			-3.955
76504.000			35.592			-3.955
76605.000			35.592			-3.955
76704.000			35.589			-3.954
76804.000			35.588			-3.954
76905.000			35.587			-3.954
77003.000			35.584			-3.954
77104.000			35.582			-3.954
77205.000			35.580			-3.953
77304.000			35.580			-3.953
77404.000			35.578			-3.953
77504.000			35.578			-3.953
77604.000			35.577			-3.953
77703.000			35.576			-3.953
77804.000			35.572			-3.952
77904.000			35.571			-3.952
78005.000			35.570			-3.952
78104.000			35.569			-3.952
78204.000			35.567			-3.952
78305.000			35.566			-3.952
78403.000			35.565			-3.952
78504.000			35.563			-3.951
78604.000			35.561			-3.951
78704.000			35.560			-3.951
78804.000			35.559			-3.951
78905.000			35.557			-3.951
79004.000			35.556			-3.951
79104.000			35.555			-3.951
79205.000			35.552			-3.950
79303.000			35.551			-3.950
79404.000			35.549			-3.950
79505.000			35.549			-3.950
79604.000			35.548			-3.950
79704.000			35.547			-3.950
79805.000			35.545			-3.949
79904.000			35.543			-3.949
80003.000			35.542			-3.949
80105.000			35.540			-3.949
80204.000			35.538			-3.949
80304.000			35.537			-3.949
80405.000			35.536			-3.948
80504.000			35.535			-3.948
80604.000			35.533			-3.948
80703.000			35.531			-3.948
80804.000			35.529			-3.948
80905.000			35.530			-3.948
81004.000			35.528			-3.948
81104.000			35.527			-3.947
81205.000			35.525			-3.947
81304.000			35.524			-3.947
81403.000			35.522			-3.947
81505.000			35.521			-3.947
81604.000			35.520			-3.947
81704.000			35.518			-3.946
81805.000			35.516			-3.946
81904.000			35.515			-3.946
82004.000			35.514			-3.946
82104.000			35.511			-3.946
82204.000			35.511			-3.946
82304.000			35.510			-3.946
82405.000			35.508			-3.945
82504.000			35.507			-3.945
82604.000			35.505			-3.945
82705.000			35.504			-3.945
82803.000			35.503			-3.945
82904.000			35.500			-3.944
83005.000			35.499			-3.944
83104.000			35.499			-3.944
83204.000			35.497			-3.944
83305.000			35.496			-3.944
83404.000			35.495			-3.944
83503.000			35.494			-3.944
83605.000			35.492			-3.944
83704.000			35.490			-3.943
83804.000			35.489			-3.943
83905.000			35.488			-3.943
84004.000			35.487			-3.943
84105.000			35.486			-3.943
84203.000			35.484			-3.943
84304.000			35.482			-3.942
84405.000			35.482			-3.942
84504.000			35.481			-3.942
84604.000			35.479			-3.942
84705.000			35.477			-3.942
84804.000			35.476			-3.942
84903.000			35.475			-3.942
85005.000			35.475			-3.942
85104.000			35.471			-3.941
85204.000			35.470			-3.941
85305.000			35.469			-3.941
85404.000			35.469			-3.941
85504.000			35.468			-3.941
85604.000			35.466			-3.941
85704.000			35.464			-3.940
85803.000			35.462			-3.940
85905.000			35.461			-3.940
86004.000			35.461			-3.940
86104.000			35.460			-3.940
86205.000			35.458			-3.940
86304.000			35.457			-3.940
86404.000			35.457			-3.940
86504.000			35.454			-3.939
86604.000			35.452			-3.939
86704.000			35.451			-3.939
86805.000			35.451			-3.939
86904.000			35.449			-3.939
87004.000			35.448			-3.939
87105.000			35.446			-3.938
87203.000			35.444			-3.938
87305.000			35.444			-3.938
87404.000			35.443			-3.938
87504.000			35.442			-3.938
87605.000			35.440			-3.938
87704.000			35.440			-3.938
87804.000			35.439			-3.938
87904.000			35.437			-3.937
88004.000			35.435			-3.937
88104.000			35.434			-3.937
88205.000			35.432			-3.937
88304.000			35.431			-3.937
88404.000			35.430			-3.937
88505.000			35.429			-3.937
88603.000			35.429			-3.937
88704.000			35.426			-3.936
88805.000			35.424			-3.936
88904.000			35.423			-3.936
89004.000			35.422			-3.936
89105.000			35.421			-3.936
89204.000			35.420			-3.936
89303.000			35.419			-3.935
89405.000			35.417			-3.935
89504.000			35.416			-3.935
89604.000			35.415			-3.935
89705.000			35.414			-3.935
89804.000			35.413			-3.935
89904.000			35.411			-3.935
90004.000			35.411			-3.935
90104.000			35.409			-3.934
90204.000			35.408			-3.934
90304.000			35.406			-3.934
90404.000			35.404			-3.934
90505.000			35.403			-3.934
90604.000			35.402			-3.934
90703.000			35.400			-3.933
90805.000			35.399			-3.933
90904.000			35.397			-3.933
91004.000			35.397			-3.933
91105.000			35.395			-3.933
91204.000			35.394			-3.933
91304.000			35.392			-3.932
91404.000			35.391			-3.932
91504.000			35.390			-3.932
91604.000			35.389			-3.932
91705.000			35.388			-3.932
91804.000			35.387			-3.932
91904.000			35.386			-3.932
92005.000			35.384			-3.932
92104.000			35.382			-3.931
92204.000			35.381			-3.931
92304.000			35.381			-3.931
92404.000			35.378			-3.931
92504.000			35.378			-3.931
92605.000			35.377			-3.931
92704.000			35.376			-3.931
92804.000			35.376			-3.931
92905.000			35.375			-3.931
93003.000			35.374			-3.930
93104.000			35.372			-3.930
93205.000			35.371			-3.930
93304.000			35.369			-3.930
93404.000			35.368			-3.930
93504.000			35.368			-3.930
93604.000			35.367			-3.930
93703.000			35.366			-3.930
93804.000			35.363			-3.929
93904.000			35.363			-3.929
94005.000			35.362			-3.929
94104.000			35.361			-3.929
94204.000			35.359			-3.929
94305.000			35.359			-3.929
94403.000			35.357			-3.929
94504.000			35.356			-3.928
94605.000			35.355			-3.928
94704.000			35.353			-3.928
94804.000			35.352			-3.928
94905.000			35.351			-3.928
95004.000			35.349			-3.928
95103.000			35.348			-3.928
95205.000			35.346			-3.927
95304.000			35.344			-3.927
95404.000			35.343			-3.927
95505.000			35.342			-3.927
95604.000			35.342			-3.927
95704.000			35.341			-3.927
95804.000			35.339			-3.927
95904.000			35.339			-3.927
96004.000			35.336			-3.926
96105.000			35.334			-3.926
96204.000			35.333			-3.926
96304.000			35.333			-3.926
96405.000			35.332			-3.926
96503.000			35.330			-3.926
96604.000			35.329			-3.925
96705.000			35.328			-3.925
96804.000			35.327			-3.925
96905.000			35.326			-3.925
97004.000			35.325			-3.925
97104.000			35.323			-3.925
97204.000			35.322			-3.925
97304.000			35.320			-3.924
97404.000			35.319			-3.924
97505.000			35.317			-3.924
97604.000			35.316			-3.924
97704.000			35.316			-3.924
97805.000			35.316			-3.924
97903.000			35.315			-3.924
98004.000			35.314			-3.924
98105.000			35.313			-3.924
98204.000			35.312			-3.924
98304.000			35.311			-3.923
98405.000			35.311			-3.923
98504.000			35.310			-3.923
98603.000			35.308			-3.923
98705.000			35.308			-3.923
98804.000			35.308			-3.923
98904.000			35.307			-3.923
99005.000			35.305			-3.923
99104.000			35.303			-3.923
99204.000			35.303			-3.923
99304.000			35.302			-3.922
99404.000			35.301			-3.922
99503.000			35.300			-3.922
99605.000			35.298			-3.922
99704.000			35.298			-3.922
99804.000			35.295			-3.922
99905.000			35.294			-3.922
100004.000			35.292			-3.921
100105.000			35.290			-3.921
100203.000			35.290			-3.921
100304.000			35.289			-3.921
100405.000			35.288			-3.921
100504.000			35.286			-3.921
100604.000			35.285			-3.921
100705.000			35.284			-3.920
100804.000			35.283			-3.920
100903.000			35.283			-3.920
101005.000			35.281			-3.920
101104.000			35.280			-3.920
101204.000			35.279			-3.920
101305.000			35.278			-3.920
101404.000			35.276			-3.920
101504.000			35.274			-3.919
101604.000			35.274			-3.919
101704.000			35.272			-3.919
101804.000			35.271			-3.919
101905.000			35.269			-3.919
102004.000			35.269			-3.919
102104.000			35.268			-3.919
102205.000			35.267			-3.919
102303.000			35.266			-3.918
102404.000			35.265			-3.918
102505.000			35.262			-3.918
102604.000			35.262			-3.918
102704.000			35.261			-3.918
102805.000			35.261			-3.918
102904.000			35.260			-3.918
103003.000			35.258			-3.918
103105.000			35.257			-3.917
103204.000			35.255			-3.917
103305.000			35.254			-3.917
103404.000			35.253			-3.917
103504.000			35.253			-3.917
103605.000			35.252			-3.917
103703.000			35.250			-3.917
103804.000			35.250			-3.917
103905.000			35.249			-3.917
104004.000			35.246			-3.916
104104.000			35.246			-3.916
104205.000			35.246			-3.916
104304.000			35.245			-3.916
104403.000			35.244			-3.916
104505.000			35.243			-3.916
104604.000			35.242			-3.916
104704.000			35.239			-3.915
104805.000			35.238			-3.915
104904.000			35.236			-3.915
105004.000			35.236			-3.915
105104.000			35.234			-3.915
105204.000			35.233			-3.915
105303.000			35.232			-3.915
105405.000			35.231			-3.915
105504.000			35.230			-3.914
105604.000			35.228			-3.914
105705.000			35.227			-3.914
105804.000			35.227			-3.914
105904.000			35.226			-3.914
106004.000			35.225			-3.914
106104.000			35.225			-3.914
106204.000			35.222			-3.914
106304.000			35.221			-3.913
106404.000			35.220			-3.913
106505.000			35.220			-3.913
106604.000			35.218			-3.913
106703.000			35.216			-3.913
106805.000			35.215			-3.913
106904.000			35.215			-3.913
107004.000			35.214			-3.913
107105.000			35.213			-3.913
107204.000			35.212			-3.912
107304.000			35.211			-3.912
107404.000			35.210			-3.912
107504.000			35.209			-3.912
107604.000			35.207			-3.912
107705.000			35.208			-3.912
107804.000			35.206			-3.912
107904.000			35.205			-3.912
108005.000			35.205			-3.912
108103.000			35.204			-3.912
108204.000			35.201			-3.911
108305.000			35.199			-3.911
108404.000			35.199			-3.911
108504.000			35.198			-3.911
108605.000			35.196			-3.911
108704.000			35.195			-3.911
108803.000			35.193			-3.910
108905.000			35.192			-3.910
109004.000			35.192			-3.910
109104.000			35.190			-3.910
109205.000			35.189			-3.910
109304.000			35.189			-3.910
109404.000			35.188			-3.910
109503.000			35.186			-3.910
109604.000			35.186			-3.910
109705.000			35.186			-3.910
109804.000			35.184			-3.909
109904.000			35.183			-3.909
110005.000			35.182			-3.909
110104.000			35.182			-3.909
110203.000			35.181			-3.909
110305.000			35.179			-3.909
110404.000			35.177			-3.909
110504.000			35.178			-3.909
110605.000			35.177			-3.909
110704.000			35.175			-3.908
110804.000			35.175			-3.908
110904.000			35.174			-3.908
111004.000			35.173			-3.908
111103.000			35.173			-3.908
111205.000			35.172			-3.908
111304.000			35.169			-3.908
111404.000			35.169			-3.908
111505.000			35.167			-3.907
111604.000			35.167			-3.907
111704.000			35.166			-3.907
111804.000			35.165			-3.907
111904.000			35.164			-3.907
112004.000			35.163			-3.907
112105.000			35.162			-3.907
112204.000			35.160			-3.907
112304.000			35.160			-3.907
112405.000			35.160			-3.907
112503.000			35.158			-3.906
112604.000			35.156			-3.906
112705.000			35.155			-3.906
112804.000			35.155			-3.906
112905.000			35.154			-3.906
113004.000			35.152			-3.906
113104.000			35.152			-3.906
113204.000			35.151			-3.906
113304.000			35.150			-3.906
113404.000			35.148			-3.905
113505.000			35.147			-3.905
113604.000			35.147			-3.905
113704.000			35.146			-3.905
113805.000			35.145			-3.905
113903.000			35.144			-3.905
114004.000			35.144			-3.905
114105.000			35.143			-3.905
114204.000			35.141			-3.905
114304.000			35.140			-3.904
114405.000			35.139			-3.904
114504.000			35.137			-3.904
114603.000			35.137			-3.904
114705.000			35.136			-3.904
114804.000			35.135			-3.904
114904.000			35.134			-3.904
115005.000			35.134			-3.904
115104.000			35.131			-3.903
115204.000			35.130			-3.903
115304.000			35.130			-3.903
115404.000			35.129			-3.903
115504.000			35.128			-3.903
115605.000			35.128			-3.903
115704.000			35.127			-3.903
115804.000			35.126			-3.903
115905.000			35.124			-3.903
116003.000			35.123			-3.903
116105.000			35.122			-3.902
116204.000			35.121			-3.902
116304.000			35.119			-3.902
116405.000			35.118			-3.902
116504.000			35.117			-3.902
116604.000			35.116			-3.902
116704.000			35.115			-3.902
116804.000			35.115			-3.902
116904.000			35.115			-3.902
117005.000			35.114			-3.902
117104.000			35.112			-3.901
117204.000			35.110			-3.901
117305.000			35.110			-3.901
117403.000			35.110			-3.901
117504.000			35.109			-3.901
117605.000			35.107			-3.901
117704.000			35.106			-3.901
117804.000			35.105			-3.901
117905.000			35.104			-3.900
118004.000			35.103			-3.900
118103.000			35.103			-3.900
118205.000			35.101			-3.900
118304.000			35.100			-3.900
118404.000			35.099			-3.900
118505.000			35.099			-3.900
118604.000			35.099			-3.900
118704.000			35.096			-3.900
118804.000			35.095			-3.899
118904.000			35.094			-3.899
119004.000			35.093			-3.899
119104.000			35.093			-3.899
119204.000			35.092			-3.899
119305.000			35.089			-3.899
119404.000			35.088			-3.899
119503.000			35.089			-3.899
119605.000			35.089			-3.899
119704.000			35.087			-3.899
119804.000			35.086			-3.898
119905.000			35.086			-3.898
120004.000			35.084			-3.898
120104.000			35.083			-3.898
120204.000			35.083			-3.898
120304.000			35.082			-3.898
120403.000			35.080			-3.898
120505.000			35.079			-3.898
120604.000			35.078			-3.898
120704.000			35.078			-3.898
120805.000			35.077			-3.897
120904.000			35.077			-3.897
121004.000			35.076			-3.897
121104.000			35.074			-3.897
121204.000			35.074			-3.897
121304.000			35.073			-3.897
121405.000			35.072			-3.897
121504.000			35.070			-3.897
121604.000			35.069			-3.897
121705.000			35.069			-3.897
121803.000			35.068			-3.896
121904.000			35.068			-3.896
122005.000			35.066			-3.896
122104.000			35.066			-3.896
122204.000			35.064			-3.896
122304.000			35.063			-3.896
122404.000			35.062			-3.896
122503.000			35.062			-3.896
122604.000			35.061			-3.896
122704.000			35.060			-3.896
122805.000			35.059			-3.895
122904.000			35.058			-3.895
123004.000			35.057			-3.895
123105.000			35.056			-3.895
123203.000			35.056			-3.895
123304.000			35.055			-3.895
123405.000			35.054			-3.895
123504.000			35.054			-3.895
123604.000			35.052			-3.895
123705.000			35.052			-3.895
123804.000			35.050			-3.894
123903.000			35.050			-3.894
124005.000			35.049			-3.894
124104.000			35.048			-3.894
124204.000			35.047			-3.894
124305.000			35.047			-3.894
124404.000			35.046			-3.894
124504.000			35.044			-3.894
124604.000			35.043			-3.894
124704.000			35.042			-3.894
124804.000			35.043			-3.894
124905.000			35.043			-3.894
125004.000			35.041			-3.893
125104.000			35.039			-3.893
125205.000			35.039			-3.893
125303.000			35.038			-3.893
125404.000			35.037			-3.893
125505.000			35.037			-3.893
125604.000			35.035			-3.893
125705.000			35.034			-3.893
125804.000			35.033			-3.893
125904.000			35.032			-3.892
126004.000			35.031			-3.892
126104.000			35.030			-3.892
126204.000			35.030			-3.892
126305.000			35.029			-3.892
126404.000			35.028			-3.892
126504.000			35.026			-3.892
126605.000			35.026			-3.892
126703.000			35.025			-3.892
126804.000			35.025			-3.892
126904.000			35.024			-3.892
127004.000			35.023			-3.891
127104.000			35.022			-3.891
127205.000			35.020			-3.891
127304.000			35.020			-3.891
127404.000			35.018			-3.891
127505.000			35.017			-3.891
127603.000			35.016			-3.891
127704.000			35.016			-3.891
127805.000			35.015			-3.891
127904.000			35.014			-3.890
128004.000			35.013			-3.890
128105.000			35.012			-3.890
128204.000			35.012			-3.890
128303.000			35.010			-3.890
128405.000			35.009			-3.890
128504.000			35.008			-3.890
128604.000			35.007			-3.890
128705.000			35.006			-3.890
128804.000			35.005			-3.889
128905.000			35.003			-3.889
129003.000			35.003			-3.889
129104.000			35.002			-3.889
129205.000			35.002			-3.889
129304.000			35.001			-3.889
129404.000			34.999			-3.889
129505.000			34.999			-3.889
129604.000			34.998			-3.889
129703.000			34.998			-3.889
129805.000			34.998			-3.889
129903.000			34.997			-3.889
130004.000			34.996			-3.888
130105.000			34.995			-3.888
130204.000			34.994			-3.888
130304.000			34.993			-3.888
130405.000			34.993			-3.888
130504.000			34.993			-3.888
130603.000			34.992			-3.888
130705.000			34.991			-3.888
130804.000			34.991			-3.888
130904.000			34.990			-3.888
131005.000			34.990			-3.888
131104.000			34.988			-3.888
131204.000			34.989			-3.888
131304.000			34.987			-3.887
131404.000			34.986			-3.887
131503.000			34.986			-3.887
131605.000			34.985			-3.887
131704.000			34.984			-3.887
131804.000			34.982			-3.887
131905.000			34.982			-3.887
132004.000			34.981			-3.887
132105.000			34.980			-3.887
132203.000			34.979			-3.887
132304.000			34.977			-3.886
132404.000			34.976			-3.886
132504.000			34.975			-3.886
132604.000			34.974			-3.886
132705.000			34.974			-3.886
132804.000			34.973			-3.886
132904.000			34.972			-3.886
133005.000			34.972			-3.886
133104.000			34.972			-3.886
133204.000			34.971			-3.886
133304.000			34.970			-3.886
133404.000			34.969			-3.885
133504.000			34.969			-3.885
133605.000			34.969			-3.885
133704.000			34.968			-3.885
133804.000			34.966			-3.885
133905.000			34.966			-3.885
134004.000			34.966			-3.885
134104.000			34.964			-3.885
134204.000			34.962			-3.885
134304.000			34.962			-3.885
134404.000			34.961			-3.885
134505.000			34.960			-3.884
134604.000			34.959			-3.884
134704.000			34.958			-3.884
134805.000			34.958			-3.884
134904.000			34.957			-3.884
135004.000			34.956			-3.884
135103.000			34.956			-3.884
135204.000			34.954			-3.884
135305.000			34.951			-3.883
135404.000			34.951			-3.883
135504.000			34.950			-3.883
135605.000			34.950			-3.883
135704.000			34.949			-3.883
135804.000			34.948			-3.883
135905.000			34.947			-3.883
136003.000			34.946			-3.883
136104.000			34.945			-3.883
136204.000			34.944			-3.883
136304.000			34.944			-3.883
136404.000			34.943			-3.883
136505.000			34.941			-3.882
136604.000			34.941			-3.882
136704.000			34.939			-3.882
136805.000			34.939			-3.882
136904.000			34.939			-3.882
137004.000			34.938			-3.882
137104.000			34.937			-3.882
137204.000			34.937			-3.882
137304.000			34.935			-3.882
137405.000			34.933			-3.881
137504.000			34.934			-3.882
137604.000			34.932			-3.881
137705.000			34.930			-3.881
137804.000			34.929			-3.881
137904.000			34.929			-3.881
138004.000			34.929			-3.881
138104.000			34.927			-3.881
138204.000			34.927			-3.881
138304.000			34.927			-3.881
138404.000			34.925			-3.881
138505.000			34.924			-3.880
138604.000			34.924			-3.880
138704.000			34.922			-3.880
138805.000			34.922			-3.880
138903.000			34.919			-3.880
139004.000			34.918			-3.880
139105.000			34.918			-3.880
139204.000			34.918			-3.880
139304.000			34.918			-3.880
139405.000			34.917			-3.880
139504.000			34.916			-3.880
139604.000			34.914			-3.879
139705.000			34.914			-3.879
139803.000			34.913			-3.879
139904.000			34.912			-3.879
140005.000			34.912			-3.879
140104.000			34.911			-3.879
140204.000			34.911			-3.879
140305.000			34.911			-3.879
140404.000			34.910			-3.879
140504.000			34.910			-3.879
140605.000			34.909			-3.879
140703.000			34.909			-3.879
140804.000			34.909			-3.879
140905.000			34.908			-3.879
141004.000			34.906			-3.878
141104.000			34.905			-3.878
141205.000			34.905			-3.878
141304.000			34.904			-3.878
141404.000			34.903			-3.878
141505.000			34.903			-3.878
141603.000			34.902			-3.878
141705.000			34.901			-3.878
141804.000			34.901			-3.878
141904.000			34.900			-3.878
142005.000			34.899			-3.878
142104.000			34.899			-3.878
142204.000			34.898			-3.878
142305.000			34.896			-3.877
142404.000			34.895			-3.877
142503.000			34.893			-3.877
142605.000			34.892			-3.877
142704.000			34.892			-3.877
142804.000			34.892			-3.877
142905.000			34.891			-3.877
143004.000			34.890			-3.877
143104.000			34.890			-3.877
143205.000			34.889			-3.877
143304.000			34.888			-3.876
143403.000			34.887			-3.876
143505.000			34.886			-3.876
143603.000			34.886			-3.876
143704.000			34.886			-3.876
143805.000			34.885			-3.876
143904.000			34.884			-3.876
144004.000			34.883			-3.876
144105.000			34.882			-3.876
144204.000			34.881			-3.876
144303.000			34.880			-3.876
144405.000			34.880			-3.876
144503.000			34.879			-3.875
144604.000			34.878			-3.875
144705.000			34.876			-3.875
144804.000			34.875			-3.875
144905.000			34.874			-3.875
145004.000			34.873			-3.875
145104.000			34.872			-3.875
145204.000			34.872			-3.875
145304.000			34.872			-3.875
145403.000			34.871			-3.875
145505.000			34.869			-3.874
145604.000			34.868			-3.874
145704.000			34.868			-3.874
145805.000			34.866			-3.874
145904.000			34.866			-3.874
146004.000			34.866			-3.874
146105.000			34.864			-3.874
146204.000			34.863			-3.874
146303.000			34.863			-3.874
146405.000			34.862			-3.874
146504.000			34.861			-3.873
146604.000			34.860			-3.873
146705.000			34.858			-3.873
146804.000			34.858			-3.873
146904.000			34.857			-3.873
147005.000			34.856			-3.873
147104.000			34.856			-3.873
147203.000			34.856			-3.873
147305.000			34.855			-3.873
147404.000			34.853			-3.873
147504.000			34.853			-3.873
147605.000			34.851			-3.872
147704.000			34.850			-3.872
147804.000			34.849			-3.872
147904.000			34.849			-3.872
148004.000			34.849			-3.872
148103.000			34.850			-3.872
148204.000			34.848			-3.872
148303.000			34.847			-3.872
148405.000			34.846			-3.872
148504.000			34.845			-3.872
148604.000			34.844			-3.872
148705.000			34.845			-3.872
148804.000			34.844			-3.872
148904.000			34.844			-3.872
149004.000			34.843			-3.871
149104.000			34.842			-3.871
149203.000			34.841			-3.871
149305.000			34.840			-3.871
149404.000			34.839			-3.871
149504.000			34.837			-3.871
149605.000			34.836			-3.871
149704.000			34.836			-3.871
149804.000			34.835			-3.871
149905.000			34.835			-3.871
150004.000			34.835			-3.871
150103.000			34.834			-3.870
150205.000			34.833			-3.870
150304.000			34.833			-3.870
150404.000			34.833			-3.870
150505.000			34.832			-3.870
150604.000			34.832			-3.870
150704.000			34.831			-3.870
150805.000			34.831			-3.870
150904.000			34.831			-3.870
151003.000			34.829			-3.870
151105.000			34.828			-3.870
151204.000			34.827			-3.870
151305.000			34.827			-3.870
151404.000			34.827			-3.870
151504.000			34.827			-3.870
151605.000			34.824			-3.869
151704.000			34.822			-3.869
151804.000			34.822			-3.869
151904.000			34.822			-3.869
152004.000			34.820			-3.869
152103.000			34.819			-3.869
152205.000			34.819			-3.869
152304.000			34.819			-3.869
152404.000			34.817			-3.869
152505.000			34.817			-3.869
152604.000			34.817			-3.869
152704.000			34.815			-3.868
152804.000			34.814			-3.868
152904.000			34.814			-3.868
153004.000			34.815			-3.868
153105.000			34.814			-3.868
153204.000			34.813			-3.868
153304.000			34.812			-3.868
153405.000			34.811			-3.868
153504.000			34.811			-3.868
153604.000			34.810			-3.868
153704.000			34.810			-3.868
153804.000			34.809			-3.868
153904.000			34.809			-3.868
154005.000			34.809			-3.868
154104.000			34.808			-3.868
154204.000			34.807			-3.867
154305.000			34.807			-3.867
154404.000			34.805			-3.867
154505.000			34.804			-3.867
154603.000			34.805			-3.867
154704.000			34.804			-3.867
154805.000			34.803			-3.867
154904.000			34.801			-3.867
155004.000			34.800			-3.867
155105.000			34.800			-3.867
155204.000			34.799			-3.867
155304.000			34.798			-3.866
155405.000			34.798			-3.866
155503.000			34.797			-3.866
155604.000			34.795			-3.866
155705.000			34.794			-3.866
155804.000			34.793			-3.866
155904.000			34.793			-3.866
156005.000			34.793			-3.866
156104.000			34.793			-3.866
156204.000			34.792			-3.866
156305.000			34.791			-3.866
156403.000			34.790			-3.866
156504.000			34.790			-3.866
156605.000			34.789			-3.865
156704.000			34.789			-3.865
156804.000			34.789			-3.865
156905.000			34.789			-3.865
157004.000			34.788			-3.865
157104.000			34.786			-3.865
157205.000			34.785			-3.865
157304.000			34.784			-3.865
157404.000			34.783			-3.865
157503.000			34.782			-3.865
157604.000			34.783			-3.865
157705.000			34.783			-3.865
157804.000			34.780			-3.864
157904.000			34.780			-3.864
158005.000			34.780			-3.864
158104.000			34.778			-3.864
158204.000			34.778			-3.864
158305.000			34.777			-3.864
158403.000			34.777			-3.864
158504.000			34.775			-3.864
158604.000			34.775			-3.864
158704.000			34.774			-3.864
158804.000			34.773			-3.864
158905.000			34.772			-3.864
159004.000			34.772			-3.864
159104.000			34.770			-3.863
159205.000			34.770			-3.863
159304.000			34.769			-3.863
159404.000			34.768			-3.863
159504.000			34.767			-3.863
159604.000			34.766			-3.863
159704.000			34.765			-3.863
159805.000			34.763			-3.863
159904.000			34.764			-3.863
160004.000			34.763			-3.863
160105.000			34.762			-3.862
160204.000			34.762			-3.862
160304.000			34.763			-3.863
160404.000			34.762			-3.862
160504.000			34.759			-3.862
160604.000			34.758			-3.862
160704.000			34.756			-3.862
160804.000			34.756			-3.862
160905.000			34.756			-3.862
161004.000			34.755			-3.862
161104.000			34.756			-3.862
161205.000			34.754			-3.862
161303.000			34.753			-3.861
161404.000			34.753			-3.861
161505.000			34.751			-3.861
161604.000			34.751			-3.861
161704.000			34.750			-3.861
161805.000			34.749			-3.861
161904.000			34.749			-3.861
162004.000			34.748			-3.861
162105.000			34.747			-3.861
162203.000			34.746			-3.861
162304.000			34.747			-3.861
162405.000			34.745			-3.861
162504.000			34.743			-3.860
162604.000			34.742			-3.860
162705.000			34.743			-3.860
162804.000			34.741			-3.860
162904.000			34.742			-3.860
163005.000			34.740			-3.860
163103.000			34.738			-3.860
163204.000			34.738			-3.860
163305.000			34.739			-3.860
163404.000			34.737			-3.860
163504.000			34.736			-3.860
163605.000			34.736			-3.860
163704.000			34.734			-3.859
163804.000			34.734			-3.859
163905.000			34.734			-3.859
164003.000			34.733			-3.859
164105.000			34.732			-3.859
164204.000			34.731			-3.859
164304.000			34.732			-3.859
164405.000			34.731			-3.859
164504.000			34.731			-3.859
164604.000			34.730			-3.859
164705.000			34.729			-3.859
164804.000			34.729			-3.859
164903.000			34.729			-3.859
165005.000			34.728			-3.859
165104.000			34.727			-3.859
165204.000			34.726			-3.858
165305.000			34.725			-3.858
165404.000			34.726			-3.858
165504.000			34.725			-3.858
165605.000			34.724			-3.858
165704.000			34.724			-3.858
165803.000			34.722			-3.858
165905.000			34.722			-3.858
166003.000			34.720			-3.858
166104.000			34.719			-3.858
166205.000			34.719			-3.858
166304.000			34.719			-3.858
166404.000			34.718			-3.858
166505.000			34.716			-3.857
166604.000			34.716			-3.857
166703.000			34.715			-3.857
166805.000			34.714			-3.857
166903.000			34.714			-3.857
167004.000			34.712			-3.857
167105.000			34.712			-3.857
167204.000			34.710			-3.857
167305.000			34.711			-3.857
167404.000			34.710			-3.857
167504.000			34.708			-3.856
167605.000			34.708			-3.856
167704.000			34.708			-3.856
167803.000			34.706			-3.856
167905.000			34.705			-3.856
168004.000			34.705			-3.856
168104.000			34.705			-3.856
168205.000			34.704			-3.856
168304.000			34.702			-3.856
168404.000			34.702			-3.856
168505.000			34.702			-3.856
168604.000			34.702			-3.856
168703.000			34.700			-3.856
168805.000			34.699			-3.855
168904.000			34.699			-3.855
169004.000			34.698			-3.855
169105.000			34.696			-3.855
169204.000			34.697			-3.855
169304.000			34.695			-3.855
169405.000			34.694			-3.855
169504.000			34.695			-3.855
169603.000			34.695			-3.855
169705.000			34.694			-3.855
169803.000			34.693			-3.855
169904.000			34.692			-3.855
170005.000			34.691			-3.855
170104.000			34.691			-3.855
170204.000			34.689			-3.854
170304.000			34.688			-3.854
170404.000			34.688			-3.854
170503.000			34.687			-3.854
170604.000			34.686			-3.854
170703.000			34.687			-3.854
170805.000			34.687			-3.854
170904.000			34.686			-3.854
171004.000			34.684			-3.854
171105.000			34.683			-3.854
171204.000			34.683			-3.854
171304.000			34.683			-3.854
171405.000			34.683			-3.854
171504.000			34.681			-3.853
171603.000			34.679			-3.853
171705.000			34.680			-3.853
171804.000			34.680			-3.853
171904.000			34.678			-3.853
172005.000			34.677			-3.853
172104.000			34.678			-3.853
172204.000			34.676			-3.853
172305.000			34.676			-3.853
172404.000			34.674			-3.853
172503.000			34.673			-3.853
172605.000			34.673			-3.853
172704.000			34.673			-3.853
172804.000			34.672			-3.852
172905.000			34.671			-3.852
173004.000			34.672			-3.852
173104.000			34.670			-3.852
173205.000			34.669			-3.852
173304.000			34.669			-3.852
173403.000			34.668			-3.852
173505.000			34.667			-3.852
173604.000			34.667			-3.852
173705.000			34.667			-3.852
173804.000			34.665			-3.852
173904.000			34.664			-3.852
174005.000			34.664			-3.852
174104.000			34.663			-3.851
174204.000			34.663			-3.851
174304.000			34.663			-3.851
174404.000			34.662			-3.851
174503.000			34.662			-3.851
174605.000			34.660			-3.851
174704.000			34.659			-3.851
174804.000			34.659			-3.851
174905.000			34.658			-3.851
175004.000			34.658			-3.851
175104.000			34.657			-3.851
175204.000			34.657			-3.851
175304.000			34.656			-3.851
175403.000			34.656			-3.851
175505.000			34.655			-3.851
175604.000			34.655			-3.851
175704.000			34.654			-3.850
175805.000			34.652			-3.850
175904.000			34.652			-3.850
176004.000			34.652			-3.850
176105.000			34.651			-3.850
176204.000			34.651			-3.850
176303.000			34.650			-3.850
176405.000			34.649			-3.850
176504.000			34.648			-3.850
176604.000			34.648			-3.850
176705.000			34.647			-3.850
176804.000			34.646			-3.850
176905.000			34.645			-3.849
177004.000			34.644			-3.849
177104.000			34.644			-3.849
177204.000			34.644			-3.849
177304.000			34.643			-3.849
177404.000			34.643			-3.849
177505.000			34.641			-3.849
177604.000			34.641			-3.849
177704.000			34.641			-3.849
177805.000			34.640			-3.849
177904.000			34.638			-3.849
178004.000			34.637			-3.849
178104.000			34.637			-3.849
178204.000			34.637			-3.849
178303.000			34.637			-3.849
178405.000			34.636			-3.848
178504.000			34.636			-3.848
178604.000			34.636			-3.848
178705.000			34.634			-3.848
178804.000			34.634			-3.848
178904.000			34.633			-3.848
179004.000			34.633			-3.848
179104.000			34.632			-3.848
179203.000			34.631			-3.848
179305.000			34.630			-3.848
179404.000			34.630			-3.848
179504.000			34.630			-3.848
179605.000			34.629			-3.848
179704.000			34.628			-3.848
179804.000			34.627			-3.847
179904.000			34.626			-3.847
180004.000			34.627			-3.847
180103.000			34.626			-3.847
180204.000			34.625			-3.847
180304.000			34.624			-3.847
180405.000			34.623			-3.847
180504.000			34.621			-3.847
180604.000			34.621			-3.847
180705.000			34.621			-3.847
180803.000			34.620			-3.847
180904.000			34.619			-3.847
181004.000			34.619			-3.847
181104.000			34.619			-3.847
181204.000			34.619			-3.847
181305.000			34.619			-3.847
181404.000			34.618			-3.846
181504.000			34.617			-3.846
181605.000			34.617			-3.846
181703.000			34.616			-3.846
181804.000			34.614			-3.846
181904.000			34.614			-3.846
182004.000			34.614			-3.846
182104.000			34.613			-3.846
182205.000			34.613			-3.846
182304.000			34.614			-3.846
182404.000			34.612			-3.846
182505.000			34.612			-3.846
182603.000			34.611			-3.846
182704.000			34.610			-3.846
182804.000			34.610			-3.846
182904.000			34.609			-3.845
183004.000			34.607			-3.845
183104.000			34.607			-3.845
183204.000			34.606			-3.845
183305.000			34.607			-3.845
183404.000			34.606			-3.845
183503.000			34.605			-3.845
183605.000			34.604			-3.845
183704.000			34.604			-3.845
183804.000			34.604			-3.845
183905.000			34.602			-3.845
184004.000			34.603			-3.845
184104.000			34.601			-3.845
184205.000			34.601			-3.845
184304.000			34.600			-3.844
184403.000			34.599			-3.844
184505.000			34.599			-3.844
184604.000			34.598			-3.844
184704.000			34.597			-3.844
184805.000			34.597			-3.844
184904.000			34.596			-3.844
185004.000			34.596			-3.844
185105.000			34.596			-3.844
185204.000			34.594			-3.844
185304.000			34.594			-3.844
185405.000			34.594			-3.844
185503.000			34.592			-3.844
185604.000			34.592			-3.844
185705.000			34.591			-3.843
185804.000			34.590			-3.843
185904.000			34.591			-3.843
186005.000			34.591			-3.843
186104.000			34.589			-3.843
186204.000			34.588			-3.843
186305.000			34.588			-3.843
186403.000			34.587			-3.843
186505.000			34.587			-3.843
186604.000			34.587			-3.843
186704.000			34.586			-3.843
186805.000			34.586			-3.843
186904.000			34.585			-3.843
187004.000			34.584			-3.843
187105.000			34.583			-3.843
187204.000			34.583			-3.843
187304.000			34.582			-3.842
187405.000			34.581			-3.842
187503.000			34.580			-3.842
187604.000			34.580			-3.842
187705.000			34.580			-3.842
187804.000			34.580			-3.842
187904.000			34.580			-3.842
188005.000			34.578			-3.842
188104.000			34.578			-3.842
188204.000			34.578			-3.842
188305.000			34.578			-3.842
188403.000			34.576			-3.842
188504.000			34.574			-3.842
188604.000			34.574			-3.842
188704.000			34.574			-3.842
188804.000			34.574			-3.842
188905.000			34.573			-3.841
189004.000			34.571			-3.841
189104.000			34.571			-3.841
189205.000			34.571			-3.841
189304.000			34.570			-3.841
189404.000			34.570			-3.841
189503.000			34.569			-3.841
189604.000			34.568			-3.841
189705.000			34.568			-3.841
189804.000			34.567			-3.841
189904.000			34.566			-3.841
190005.000			34.565			-3.841
190104.000			34.564			-3.840
190204.000			34.564			-3.840
190305.000			34.564			-3.840
190403.000			34.563			-3.840
190504.000			34.563			-3.840
190604.000			34.563			-3.840
190704.000			34.562			-3.840
190804.000			34.560			-3.840
190905.000			34.559			-3.840
191004.000			34.558			-3.840
191104.000			34.558			-3.840
191205.000			34.558			-3.840
191303.000			34.558			-3.840
191404.000			34.558			-3.840
191504.000			34.557			-3.840
191604.000			34.556			-3.840
191704.000			34.555			-3.839
191805.000			34.556			-3.840
191904.000			34.555			-3.839
192004.000			34.554			-3.839
192105.000			34.554			-3.839
192204.000			34.554			-3.839
192304.000			34.552			-3.839
192404.000			34.551			-3.839
192504.000			34.550			-3.839
192604.000			34.550			-3.839
192704.000			34.550			-3.839
192804.000			34.548			-3.839
192905.000			34.549			-3.839
193004.000			34.549			-3.839
193104.000			34.548			-3.839
193205.000			34.547			-3.839
193303.000			34.546			-3.838
193404.000			34.545			-3.838
193505.000			34.543			-3.838
193604.000			34.543			-3.838
193704.000			34.544			-3.838
193805.000			34.543			-3.838
193904.000			34.542			-3.838
194004.000			34.542			-3.838
194105.000			34.541			-3.838
194203.000			34.540			-3.838
194304.000			34.540			-3.838
194405.000			34.540			-3.838
194504.000			34.540			-3.838
194604.000			34.538			-3.838
194705.000			34.537			-3.837
194804.000			34.538			-3.838
194904.000			34.537			-3.837
195005.000			34.536			-3.837
195103.000			34.535			-3.837
195204.000			34.535			-3.837
195305.000			34.535			-3.837
195404.000			34.535			-3.837
195504.000			34.535			-3.837
195605.000			34.534			-3.837
195704.000			34.532			-3.837
195804.000			34.531			-3.837
195905.000			34.531			-3.837
196003.000			34.531			-3.837
196105.000			34.530			-3.837
196204.000			34.530			-3.837
196304.000			34.529			-3.837
196405.000			34.528			-3.836
196504.000			34.527			-3.836
196604.000			34.526			-3.836
196705.000			34.526			-3.836
196804.000			34.525			-3.836
196903.000			34.525			-3.836
197005.000			34.525			-3.836
197104.000			34.524			-3.836
197204.000			34.524			-3.836
197305.000			34.523			-3.836
197404.000			34.523			-3.836
197504.000			34.523			-3.836
197605.000			34.520			-3.836
197704.000			34.520			-3.836
197803.000			34.520			-3.836
197905.000			34.518			-3.835
198003.000			34.518			-3.835
198104.000			34.518			-3.835
198205.000			34.518			-3.835
198304.000			34.517			-3.835
198404.000			34.516			-3.835
198505.000			34.516			-3.835
198604.000			34.514			-3.835
198703.000			34.514			-3.835
198805.000			34.515			-3.835
198903.000			34.514			-3.835
199004.000			34.513			-3.835
199105.000			34.513			-3.835
199204.000			34.512			-3.835
199305.000			34.512			-3.835
199404.000			34.512			-3.835
199504.000			34.511			-3.835
199605.000			34.510			-3.834
199704.000			34.509			-3.834
199803.000			34.509			-3.834
199905.000			34.509			-3.834
200004.000			34.507			-3.834
200104.000			34.507			-3.834
200205.000			34.507			-3.834
200304.000			34.507			-3.834
200404.000			34.506			-3.834
200504.000			34.506			-3.834
200604.000			34.505			-3.834
200703.000			34.504			-3.834
200805.000			34.504			-3.834
200904.000			34.503			-3.834
201004.000			34.501			-3.833
201105.000			34.501			-3.833
201204.000			34.501			-3.833
201304.000			34.501			-3.833
201404.000			34.501			-3.833
201504.000			34.500			-3.833
201604.000			34.499			-3.833
201705.000			34.499			-3.833
201804.000			34.498			-3.833
201904.000			34.497			-3.833
202005.000			34.496			-3.833
202104.000			34.496			-3.833
202204.000			34.495			-3.833
202303.000			34.495			-3.833
202404.000			34.494			-3.833
202505.000			34.494			-3.833
202604.000			34.493			-3.833
202704.000			34.493			-3.833
202805.000			34.493			-3.833
202904.000			34.491			-3.832
203004.000			34.491			-3.832
203105.000			34.490			-3.832
203203.000			34.490			-3.832
203304.000			34.490			-3.832
203405.000			34.489			-3.832
203504.000			34.488			-3.832
203604.000			34.488			-3.832
203705.000			34.487			-3.832
203804.000			34.488			-3.832
203904.000			34.486			-3.832
204005.000			34.486			-3.832
204103.000			34.485			-3.832
204204.000			34.485			-3.832
204305.000			34.484			-3.832
204404.000			34.484			-3.832
204504.000			34.483			-3.831
204605.000			34.482			-3.831
204704.000			34.483			-3.831
204804.000			34.483			-3.831
204905.000			34.482			-3.831
205003.000			34.480			-3.831
205104.000			34.479			-3.831
205205.000			34.477			-3.831
205304.000			34.477			-3.831
205404.000			34.476			-3.831
205504.000			34.476			-3.831
205604.000			34.477			-3.831
205705.000			34.476			-3.831
205804.000			34.476			-3.831
205903.000			34.475			-3.831
206005.000			34.474			-3.830
206104.000			34.473			-3.830
206204.000			34.473			-3.830
206305.000			34.473			-3.830
206404.000			34.473			-3.830
206504.000			34.472			-3.830
206605.000			34.470			-3.830
206704.000			34.470			-3.830
206803.000			34.470			-3.830
206905.000			34.469			-3.830
207004.000			34.468			-3.830
207104.000			34.467			-3.830
207205.000			34.468			-3.830
207304.000			34.466			-3.830
207404.000			34.465			-3.829
207505.000			34.466			-3.830
207604.000			34.465			-3.829
207703.000			34.465			-3.829
207805.000			34.465			-3.829
207904.000			34.466			-3.830
208004.000			34.465			-3.829
208105.000			34.465			-3.829
208204.000			34.464			-3.829
208304.000			34.463			-3.829
208405.000			34.463			-3.829
208504.000			34.462			-3.829
208603.000			34.462			-3.829
208705.000			34.462			-3.829
208804.000			34.462			-3.829
208905.000			34.461			-3.829
209004.000			34.460			-3.829
209104.000			34.459			-3.829
209205.000			34.460			-3.829
209304.000			34.459			-3.829
209404.000			34.459			-3.829
209504.000			34.458			-3.829
209604.000			34.457			-3.829
209704.000			34.457			-3.829
209805.000			34.456			-3.828
209904.000			34.456			-3.828
210004.000			34.456			-3.828
210105.000			34.455			-3.828
210204.000			34.452			-3.828
210304.000			34.453			-3.828
210404.000			34.452			-3.828
210504.000			34.451			-3.828
210604.000			34.450			-3.828
210705.000			34.451			-3.828
210804.000			34.451			-3.828
210904.000			34.450			-3.828
211005.000			34.448			-3.828
211104.000			34.448			-3.828
211204.000			34.448			-3.828
211304.000			34.447			-3.827
211404.000			34.447			-3.827
211504.000			34.447			-3.827
211605.000			34.445			-3.827
211704.000			34.445			-3.827
211804.000			34.444			-3.827
211905.000			34.444			-3.827
212003.000			34.444			-3.827
212105.000			34.443			-3.827
212204.000			34.443			-3.827
212304.000			34.443			-3.827
212405.000			34.441			-3.827
212504.000			34.441			-3.827
212604.000			34.441			-3.827
212705.000			34.440			-3.827
212804.000			34.438			-3.826
212903.000			34.438			-3.826
213005.000			34.438			-3.826
213104.000			34.437			-3.826
213204.000			34.437			-3.826
213305.000			34.436			-3.826
213404.000			34.436			-3.826
213504.000			34.436			-3.826
213604.000			34.436			-3.826
213704.000			34.435			-3.826
213803.000			34.435			-3.826
213905.000			34.434			-3.826
214004.000			34.433			-3.826
214104.000			34.433			-3.826
214205.000			34.433			-3.826
214304.000			34.431			-3.826
214404.000			34.431			-3.826
214504.000			34.432			-3.826
214604.000			34.429			-3.825
214703.000			34.429			-3.825
214805.000			34.429			-3.825
214904.000			34.428			-3.825
215004.000			34.427			-3.825
215105.000			34.427			-3.825
215204.000			34.427			-3.825
215305.000			34.425			-3.825
215403.000			34.425			-3.825
215504.000			34.423			-3.825
215605.000			34.423			-3.825
215704.000			34.423			-3.825
215804.000			34.423			-3.825
215905.000			34.422			-3.825
216004.000			34.421			-3.825
216104.000			34.420			-3.824
216205.000			34.421			-3.825
216303.000			34.419			-3.824
216404.000			34.418			-3.824
216505.000			34.418			-3.824
216604.000			34.417			-3.824
216704.000			34.417			-3.824
216805.000			34.417			-3.824
216904.000			34.417			-3.824
217004.000			34.417			-3.824
217105.000			34.416			-3.824
217203.000			34.415			-3.824
217304.000			34.414			-3.824
217405.000			34.413			-3.824
217504.000			34.414			-3.824
217604.000			34.413			-3.824
217705.000			34.412			-3.824
217804.000			34.411			-3.823
217903.000			34.412			-3.824
218005.000			34.412			-3.824
218103.000			34.411			-3.823
218204.000			34.410			-3.823
218305.000			34.410			-3.823
218404.000			34.409			-3.823
218505.000			34.408			-3.823
218604.000			34.409			-3.823
218704.000			34.409			-3.823
218804.000			34.409			-3.823
218904.000			34.408			-3.823
219003.000			34.408			-3.823
219105.000			34.407			-3.823
219204.000			34.406			-3.823
219304.000			34.405			-3.823
219405.000			34.404			-3.823
219504.000			34.404			-3.823
219604.000			34.404			-3.823
219704.000			34.403			-3.823
219804.000			34.403			-3.823
219904.000			34.403			-3.823
220005.000			34.403			-3.823
220104.000			34.401			-3.822
220204.000			34.400			-3.822
220305.000			34.400			-3.822
220404.000			34.400			-3.822
220504.000			34.400			-3.822
220604.000			34.399			-3.822
220704.000			34.398			-3.822
220804.000			34.397			-3.822
220905.000			34.395			-3.822
221004.000			34.396			-3.822
221104.000			34.395			-3.822
221205.000			34.394			-3.822
221304.000			34.393			-3.821
221404.000			34.393			-3.821
221503.000			34.393			-3.821
221604.000			34.393			-3.821
221705.000			34.392			-3.821
221804.000			34.391			-3.821
221904.000			34.391			-3.821
222005.000			34.390			-3.821
222104.000			34.390			-3.821
222204.000			34.389			-3.821
222305.000			34.388			-3.821
222403.000			34.388			-3.821
222504.000			34.388			-3.821
222605.000			34.387			-3.821
222704.000			34.385			-3.821
222804.000			34.386			-3.821
222905.000			34.386			-3.821
223004.000			34.385			-3.821
223103.000			34.383			-3.820
223205.000			34.383			-3.820
223303.000			34.382			-3.820
223404.000			34.383			-3.820
223505.000			34.382			-3.820
223604.000			34.382			-3.820
223704.000			34.382			-3.820
223805.000			34.380			-3.820
223904.000			34.380			-3.820
224003.000			34.380			-3.820
224105.000			34.380			-3.820
224203.000			34.379			-3.820
224304.000			34.379			-3.820
224405.000			34.378			-3.820
224504.000			34.378			-3.820
224604.000			34.377			-3.820
224704.000			34.377			-3.820
224804.000			34.375			-3.819
224903.000			34.375			-3.819
225004.000			34.375			-3.819
225103.000			34.375			-3.819
225205.000			34.374			-3.819
225304.000			34.373			-3.819
225404.000			34.373			-3.819
225505.000			34.371			-3.819
225604.000			34.371			-3.819
225704.000			34.372			-3.819
225804.000			34.371			-3.819
225904.000			34.370			-3.819
226003.000			34.370			-3.819
226105.000			34.369			-3.819
226204.000			34.369			-3.819
226304.000			34.368			-3.819
226405.000			34.367			-3.819
226504.000			34.366			-3.818
226604.000			34.367			-3.819
226704.000			34.368			-3.819
226804.000			34.366			-3.818
226903.000			34.366			-3.818
227005.000			34.365			-3.818
227104.000			34.365			-3.818
227204.000			34.364			-3.818
227305.000			34.364			-3.818
227404.000			34.364			-3.818
227504.000			34.363			-3.818
227604.000			34.362			-3.818
227704.000			34.361			-3.818
227803.000			34.362			-3.818
227905.000			34.361			-3.818
228004.000			34.360			-3.818
228105.000			34.360			-3.818
228204.000			34.359			-3.818
228304.000			34.359			-3.818
228405.000			34.358			-3.818
228504.000			34.358			-3.818
228604.000			34.358			-3.818
228704.000			34.356			-3.817
228804.000			34.355			-3.817
228904.000			34.355			-3.817
229005.000			34.357			-3.817
229104.000			34.355			-3.817
229204.000			34.354			-3.817
229305.000			34.353			-3.817
229404.000			34.353			-3.817
229504.000			34.353			-3.817
229604.000			34.353			-3.817
229704.000			34.353			-3.817
229804.000			34.351			-3.817
229905.000			34.351			-3.817
230004.000			34.351			-3.817
230104.000			34.350			-3.817
230205.000			34.350			-3.817
230304.000			34.351			-3.817
230404.000			34.350			-3.817
230504.000			34.349			-3.817
230604.000			34.347			-3.816
230704.000			34.346			-3.816
230805.000			34.345			-3.816
230904.000			34.345			-3.816
231004.000			34.344			-3.816
231105.000			34.345			-3.816
231203.000			34.346			-3.816
231305.000			34.344			-3.816
231403.000			34.344			-3.816
231504.000			34.343			-3.816
231605.000			34.342			-3.816
231704.000			34.342			-3.816
231804.000			34.342			-3.816
231905.000			34.341			-3.816
232004.000			34.342			-3.816
232103.000			34.341			-3.816
232205.000			34.339			-3.815
232304.000			34.339			-3.815
232404.000			34.339			-3.815
232505.000			34.338			-3.815
232604.000			34.339			-3.815
232704.000			34.338			-3.815
232805.000			34.336			-3.815
232904.000			34.336			-3.815
233003.000			34.335			-3.815
233105.000			34.335			-3.815
233204.000			34.335			-3.815
233304.000			34.334			-3.815
233405.000			34.333			-3.815
233504.000			34.333			-3.815
233604.000			34.333			-3.815
233705.000			34.333			-3.815
233804.000			34.332			-3.815
233903.000			34.331			-3.815
234005.000			34.331			-3.815
234104.000			34.331			-3.815
234204.000			34.329			-3.814
234305.000			34.329			-3.814
234404.000			34.329			-3.814
234505.000			34.329			-3.814
234604.000			34.328			-3.814
234704.000			34.328			-3.814
234804.000			34.327			-3.814
234904.000			34.327			-3.814
235004.000			34.326			-3.814
235105.000			34.326			-3.814
235204.000			34.325			-3.814
235304.000			34.325			-3.814
235405.000			34.325			-3.814
235504.000			34.325			-3.814
235604.000			34.324			-3.814
235704.000			34.323			-3.814
235804.000			34.321			-3.813
235904.000			34.322			-3.814
236005.000			34.322			-3.814
236104.000			34.321			-3.813
236204.000			34.321			-3.813
236305.000			34.320			-3.813
236403.000			34.318			-3.813
236504.000			34.318			-3.813
236605.000			34.318			-3.813
236704.000			34.319			-3.813
236804.000			34.318			-3.813
236905.000			34.317			-3.813
237004.000			34.317			-3.813
237104.000			34.315			-3.813
237205.000			34.315			-3.813
237303.000			34.315			-3.813
237404.000			34.315			-3.813
237505.000			34.314			-3.813
237604.000			34.313			-3.813
237705.000			34.313			-3.813
237804.000			34.313			-3.813
237904.000			34.312			-3.812
238005.000			34.311			-3.812
238104.000			34.312			-3.812
238203.000			34.310			-3.812
238305.000			34.309			-3.812
238404.000			34.310			-3.812
238504.000			34.311			-3.812
238605.000			34.310			-3.812
238704.000			34.308			-3.812
238804.000			34.307			-3.812
238905.000			34.308			-3.812
239004.000			34.307			-3.812
239103.000			34.307			-3.812
239205.000			34.307			-3.812
239304.000			34.304			-3.812
239404.000			34.304			-3.812
239505.000			34.303			-3.811
239604.000			34.304			-3.812
239704.000			34.304			-3.812
239804.000			34.303			-3.811
239904.000			34.302			-3.811
240003.000			34.301			-3.811
240105.000			34.301			-3.811
240204.000			34.300			-3.811
240304.000			34.300			-3.811
240405.000			34.301			-3.811
240504.000			34.300			-3.811
240604.000			34.301			-3.811
240703.000			34.299			-3.811
240804.000			34.298			-3.811
240905.000			34.298			-3.811
241004.000			34.297			-3.811
241104.000			34.297			-3.811
241205.000			34.296			-3.811
241304.000			34.296			-3.811
241404.000			34.296			-3.811
241505.000			34.295			-3.811
241603.000			34.294			-3.810
241704.000			34.293			-3.810
241805.000			34.294			-3.810
241904.000			34.293			-3.810
242004.000			34.293			-3.810
242105.000			34.293			-3.810
242204.000			34.290			-3.810
242304.000			34.290			-3.810
242405.000			34.290			-3.810
242503.000			34.291			-3.810
242604.000			34.290			-3.810
242705.000			34.289			-3.810
242804.000			34.289			-3.810
242904.000			34.288			-3.810
243005.000			34.288			-3.810
243104.000			34.288			-3.810
243204.000			34.287			-3.810
243305.000			34.287			-3.810
243403.000			34.287			-3.810
243504.000			34.286			-3.810
243605.000			34.285			-3.809
243704.000			34.285			-3.809
243804.000			34.283			-3.809
243904.000			34.282			-3.809
244004.000			34.283			-3.809
244105.000			34.284			-3.809
244204.000			34.283			-3.809
244303.000			34.282			-3.809
244405.000			34.281			-3.809
244504.000			34.280			-3.809
244604.000			34.280			-3.809
244705.000			34.280			-3.809
244804.000			34.280			-3.809
244904.000			34.279			-3.809
245005.000			34.279			-3.809
245104.000			34.278			-3.809
245203.000			34.276			-3.808
245305.000			34.276			-3.808
245404.000			34.277			-3.809
245504.000			34.276			-3.808
245605.000			34.276			-3.808
245704.000			34.276			-3.808
245804.000			34.275			-3.808
245905.000			34.273			-3.808
246004.000			34.273			-3.808
246103.000			34.273			-3.808
246205.000			34.273			-3.808
246304.000			34.273			-3.808
246404.000			34.273			-3.808
246505.000			34.273			-3.808
246604.000			34.272			-3.808
246704.000			34.271			-3.808
246805.000			34.270			-3.808
246904.000			34.271			-3.808
247003.000			34.271			-3.808
247105.000			34.271			-3.808
247204.000			34.271			-3.808
247305.000			34.271			-3.808
247404.000			34.270			-3.808
247504.000			34.269			-3.808
247605.000			34.269			-3.808
247704.000			34.269			-3.808
247804.000			34.268			-3.808
247904.000			34.268			-3.808
248004.000			34.268			-3.808
248103.000			34.267			-3.807
248205.000			34.266			-3.807
248304.000			34.267			-3.807
248404.000			34.268			-3.808
248505.000			34.267			-3.807
248604.000			34.266			-3.807
248704.000			34.265			-3.807
248804.000			34.264			-3.807
248904.000			34.264			-3.807
249003.000			34.263			-3.807
249105.000			34.264			-3.807
249204.000			34.265			-3.807
249304.000			34.263			-3.807
249405.000			34.262			-3.807
249504.000			34.261			-3.807
249604.000			34.261			-3.807
249705.000			34.261			-3.807
249804.000			34.261			-3.807
249903.000			34.261			-3.807
250005.000			34.260			-3.807
250104.000			34.259			-3.807
250204.000			34.258			-3.806
250305.000			34.257			-3.806
250404.000			34.256			-3.806
250505.000			34.256			-3.806
250604.000			34.257			-3.806
250704.000			34.256			-3.806
250804.000			34.255			-3.806
250904.000			34.254			-3.806
251004.000			34.254			-3.806
251105.000			34.255			-3.806
251204.000			34.254			-3.806
251304.000			34.253			-3.806
251405.000			34.252			-3.806
251503.000			34.252			-3.806
251604.000			34.252			-3.806
251704.000			34.251			-3.806
251804.000			34.251			-3.806
251904.000			34.249			-3.805
252005.000			34.249			-3.805
252104.000			34.248			-3.805
252204.000			34.249			-3.805
252305.000			34.248			-3.805
252403.000			34.247			-3.805
252504.000			34.248			-3.805
252604.000			34.248			-3.805
252704.000			34.247			-3.805
252804.000			34.245			-3.805
252905.000			34.245			-3.805
253004.000			34.246			-3.805
253104.000			34.245			-3.805
253205.000			34.243			-3.805
253303.000			34.243			-3.805
253404.000			34.243			-3.805
253503.000			34.244			-3.805
253604.000			34.242			-3.805
253705.000			34.242			-3.805
253804.000			34.241			-3.805
253904.000			34.240			-3.804
254005.000			34.240			-3.804
254104.000			34.240			-3.804
254203.000			34.239			-3.804
254305.000			34.238			-3.804
254404.000			34.238			-3.804
254504.000			34.238			-3.804
254605.000			34.237			-3.804
254704.000			34.236			-3.804
254804.000			34.235			-3.804
254905.000			34.234			-3.804
255004.000			34.235			-3.804
255103.000			34.235			-3.804
255205.000			34.234			-3.804
255304.000			34.234			-3.804
255404.000			34.232			-3.804
255505.000			34.232			-3.804
255604.000			34.232			-3.804
255704.000			34.232			-3.804
255805.000			34.230			-3.803
255904.000			34.230			-3.803
256003.000			34.231			-3.803
256105.000			34.229			-3.803
256204.000			34.229			-3.803
256304.000			34.229			-3.803
256405.000			34.229			-3.803
256504.000			34.228			-3.803
256604.000			34.228			-3.803
256704.000			34.227			-3.803
256804.000			34.226			-3.803
256903.000			34.225			-3.803
257004.000			34.225			-3.803
257104.000			34.225			-3.803
257205.000			34.224			-3.803
257304.000			34.222			-3.802
257404.000			34.222			-3.802
257505.000			34.223			-3.803
257604.000			34.223			-3.803
257704.000			34.222			-3.802
257804.000			34.222			-3.802
257904.000			34.221			-3.802
258004.000			34.220			-3.802
258105.000			34.220			-3.802
258204.000			34.219			-3.802
258304.000			34.218			-3.802
258405.000			34.217			-3.802
258503.000			34.217			-3.802
258604.000			34.216			-3.802
258704.000			34.216			-3.802
258804.000			34.217			-3.802
258904.000			34.216			-3.802
259005.000			34.215			-3.802
259104.000			34.214			-3.802
259204.000			34.215			-3.802
259305.000			34.214			-3.802
259403.000			34.214			-3.802
259504.000			34.213			-3.801
259604.000			34.214			-3.802
259704.000			34.213			-3.801
259804.000			34.213			-3.801
259904.000			34.212			-3.801
260004.000			34.212			-3.801
260105.000			34.211			-3.801
260204.000			34.211			-3.801
260303.000			34.210			-3.801
260405.000			34.209			-3.801
260504.000			34.210			-3.801
260604.000			34.209			-3.801
260705.000			34.209			-3.801
260804.000			34.209			-3.801
260904.000			34.208			-3.801
261005.000			34.207			-3.801
261104.000			34.206			-3.801
261203.000			34.206			-3.801
261305.000			34.206			-3.801
261404.000			34.204			-3.800
261504.000			34.203			-3.800
261605.000			34.204			-3.800
261704.000			34.204			-3.800
261804.000			34.203			-3.800
261905.000			34.202			-3.800
262004.000			34.202			-3.800
262103.000			34.203			-3.800
262205.000			34.202			-3.800
262304.000			34.202			-3.800
262404.000			34.201			-3.800
262505.000			34.201			-3.800
262604.000			34.200			-3.800
262704.000			34.199			-3.800
262804.000			34.199			-3.800
262904.000			34.199			-3.800
263003.000			34.199			-3.800
263105.000			34.198			-3.800
263204.000			34.198			-3.800
263305.000			34.196			-3.800
263404.000			34.195			-3.799
263504.000			34.196			-3.800
263605.000			34.195			-3.799
263703.000			34.194			-3.799
263804.000			34.194			-3.799
263904.000			34.194			-3.799
264004.000			34.194			-3.799
264104.000			34.192			-3.799
264205.000			34.192			-3.799
264304.000			34.192			-3.799
264404.000			34.192			-3.799
264505.000			34.192			-3.799
264603.000			34.191			-3.799
264704.000			34.190			-3.799
264805.000			34.190			-3.799
264904.000			34.189			-3.799
265004.000			34.189			-3.799
265105.000			34.188			-3.799
265204.000			34.188			-3.799
265304.000			34.188			-3.799
265405.000			34.187			-3.799
265503.000			34.188			-3.799
265604.000			34.188			-3.799
265704.000			34.187			-3.799
265804.000			34.186			-3.798
265904.000			34.185			-3.798
266005.000			34.185			-3.798
266104.000			34.185			-3.798
266204.000			34.185			-3.798
266305.000			34.184			-3.798
266403.000			34.183			-3.798
266505.000			34.184			-3.798
266603.000			34.184			-3.798
266704.000			34.184			-3.798
266805.000			34.183			-3.798
266904.000			34.183			-3.798
267004.000			34.183			-3.798
267105.000			34.183			-3.798
267204.000			34.183			-3.798
267303.000			34.182			-3.798
267405.000			34.181			-3.798
267503.000			34.180			-3.798
267604.000			34.181			-3.798
267705.000			34.181			-3.798
267804.000			34.181			-3.798
267904.000			34.180			-3.798
268005.000			34.178			-3.798
268104.000			34.179			-3.798
268203.000			34.179			-3.798
268305.000			34.179			-3.798
268403.000			34.179			-3.798
268504.000			34.177			-3.797
268605.000			34.177			-3.797
268704.000			34.177			-3.797
268804.000			34.176			-3.797
268905.000			34.176			-3.797
269004.000			34.175			-3.797
269104.000			34.175			-3.797
269205.000			34.174			-3.797
269303.000			34.174			-3.797
269404.000			34.173			-3.797
269505.000			34.173			-3.797
269604.000			34.172			-3.797
269705.000			34.171			-3.797
269804.000			34.170			-3.797
269904.000			34.171			-3.797
270005.000			34.171			-3.797
270104.000			34.170			-3.797
270203.000			34.169			-3.797
270305.000			34.169			-3.797
270404.000			34.169			-3.797
270504.000			34.168			-3.796
270605.000			34.167			-3.796
270704.000			34.167			-3.796
270804.000			34.167			-3.796
270905.000			34.166			-3.796
271004.000			34.165			-3.796
271103.000			34.165			-3.796
271205.000			34.164			-3.796
271304.000			34.163			-3.796
271404.000			34.164			-3.796
271505.000			34.164			-3.796
271604.000			34.163			-3.796
271704.000			34.162			-3.796
271805.000			34.162			-3.796
271904.000			34.161			-3.796
272003.000			34.160			-3.796
272105.000			34.159			-3.795
272204.000			34.159			-3.795
272304.000			34.160			-3.796
272405.000			34.159			-3.795
272504.000			34.158			-3.795
272604.000			34.157			-3.795
272704.000			34.157			-3.795
272804.000			34.157			-3.795
272903.000			34.156			-3.795
273004.000			34.156			-3.795
273104.000			34.156			-3.795
273205.000			34.155			-3.795
273304.000			34.155			-3.795
273404.000			34.155			-3.795
273505.000			34.153			-3.795
273604.000			34.154			-3.795
273704.000			34.153			-3.795
273804.000			34.154			-3.795
273904.000			34.153			-3.795
274004.000			34.151			-3.795
274105.000			34.152			-3.795
274204.000			34.152			-3.795
274304.000			34.151			-3.795
274405.000			34.150			-3.794
274503.000			34.150			-3.794
274604.000			34.150			-3.794
274704.000			34.149			-3.794
274804.000			34.148			-3.794
274904.000			34.149			-3.794
275005.000			34.148			-3.794
275104.000			34.146			-3.794
275204.000			34.146			-3.794
275305.000			34.145			-3.794
275403.000			34.146			-3.794
275504.000			34.145			-3.794
275604.000			34.144			-3.794
275704.000			34.144			-3.794
275804.000			34.144			-3.794
275904.000			34.144			-3.794
276004.000			34.144			-3.794
276105.000			34.143			-3.794
276204.000			34.142			-3.794
276303.000			34.141			-3.793
276405.000			34.141			-3.793
276504.000			34.140			-3.793
276604.000			34.141			-3.793
276705.000			34.140			-3.793
276804.000			34.140			-3.793
276904.000			34.140			-3.793
277005.000			34.139			-3.793
277104.000			34.138			-3.793
277203.000			34.138			-3.793
277305.000			34.136			-3.793
277404.000			34.136			-3.793
277504.000			34.137			-3.793
277605.000			34.137			-3.793
277704.000			34.136			-3.793
277804.000			34.136			-3.793
277905.000			34.134			-3.793
278004.000			34.134			-3.793
278103.000			34.135			-3.793
278205.000			34.134			-3.793
278304.000			34.134			-3.793
278404.000			34.133			-3.793
278505.000			34.133			-3.793
278604.000			34.133			-3.793
278704.000			34.132			-3.792
278805.000			34.132			-3.792
278904.000			34.132			-3.792
279003.000			34.131			-3.792
279105.000			34.130			-3.792
279203.000			34.130			-3.792
279305.000			34.130			-3.792
279404.000			34.129			-3.792
279504.000			34.129			-3.792
279605.000			34.128			-3.792
279704.000			34.128			-3.792
279804.000			34.127			-3.792
279904.000			34.127			-3.792
280004.000			34.127			-3.792
280103.000			34.127			-3.792
280205.000			34.126			-3.792
280304.000			34.125			-3.792
280404.000			34.125			-3.792
280505.000			34.124			-3.792
280604.000			34.123			-3.791
280704.000			34.123			-3.791
280804.000			34.123			-3.791
280904.000			34.123			-3.791
281003.000			34.123			-3.791
281105.000			34.122			-3.791
281204.000			34.122			-3.791
281304.000			34.122			-3.791
281405.000			34.122			-3.791
281504.000			34.121			-3.791
281604.000			34.120			-3.791
281704.000			34.119			-3.791
281804.000			34.119			-3.791
281904.000			34.120			-3.791
282005.000			34.119			-3.791
282104.000			34.118			-3.791
282204.000			34.117			-3.791
282305.000			34.117			-3.791
282404.000			34.117			-3.791
282505.000			34.116			-3.791
282603.000			34.116			-3.791
282704.000			34.116			-3.791
282805.000			34.117			-3.791
282904.000			34.116			-3.791
283004.000			34.115			-3.791
283105.000			34.114			-3.790
283204.000			34.114			-3.790
283303.000			34.114			-3.790
283405.000			34.113			-3.790
283503.000			34.113			-3.790
283604.000			34.112			-3.790
283705.000			34.112			-3.790
283804.000			34.112			-3.790
283904.000			34.111			-3.790
284005.000			34.110			-3.790
284104.000			34.110			-3.790
284203.000			34.110			-3.790
284305.000			34.110			-3.790
284404.000			34.109			-3.790
284504.000			34.109			-3.790
284605.000			34.108			-3.790
284704.000			34.108			-3.790
284804.000			34.107			-3.790
284905.000			34.107			-3.790
285004.000			34.107			-3.790
285103.000			34.107			-3.790
285205.000			34.106			-3.790
285304.000			34.107			-3.790
285404.000			34.106			-3.790
285505.000			34.105			-3.789
285604.000			34.105			-3.789
285705.000			34.104			-3.789
285804.000			34.104			-3.789
285904.000			34.103			-3.789
286004.000			34.103			-3.789
286104.000			34.102			-3.789
286204.000			34.100			-3.789
286305.000			34.100			-3.789
286404.000			34.101			-3.789
286504.000			34.101			-3.789
286605.000			34.100			-3.789
286704.000			34.099			-3.789
286804.000			34.099			-3.789
286904.000			34.099			-3.789
287004.000			34.100			-3.789
287104.000			34.099			-3.789
287205.000			34.098			-3.789
287304.000			34.099			-3.789
287404.000			34.097			-3.789
287505.000			34.097			-3.789
287604.000			34.097			-3.789
287704.000			34.097			-3.789
287804.000			34.096			-3.788
287904.000			34.095			-3.788
288004.000			34.095			-3.788
288105.000			34.094			-3.788
288204.000			34.094			-3.788
288304.000			34.094			-3.788
288405.000			34.094			-3.788
288504.000			34.094			-3.788
288604.000			34.093			-3.788
288703.000			34.093			-3.788
288804.000			34.091			-3.788
288903.000			34.092			-3.788
289004.000			34.091			-3.788
289104.000			34.091			-3.788
289205.000			34.091			-3.788
289304.000			34.089			-3.788
289404.000			34.090			-3.788
289505.000			34.090			-3.788
289603.000			34.089			-3.788
289704.000			34.088			-3.788
289804.000			34.088			-3.788
289904.000			34.087			-3.787
290004.000			34.087			-3.787
290105.000			34.087			-3.787
290204.000			34.088			-3.788
290304.000			34.087			-3.787
290405.000			34.086			-3.787
290504.000			34.086			-3.787
290604.000			34.085			-3.787
290704.000			34.084			-3.787
290804.000			34.084			-3.787
290904.000			34.083			-3.787
291005.000			34.082			-3.787
291104.000			34.082			-3.787
291204.000			34.081			-3.787
291305.000			34.082			-3.787
291404.000			34.082			-3.787
291504.000			34.081			-3.787
291604.000			34.081			-3.787
291704.000			34.081			-3.787
291804.000			34.082			-3.787
291904.000			34.080			-3.787
292004.000			34.079			-3.787
292105.000			34.078			-3.786
292204.000			34.079			-3.787
292303.000			34.079			-3.787
292405.000			34.079			-3.787
292503.000			34.078			-3.786
292604.000			34.078			-3.786
292705.000			34.076			-3.786
292804.000			34.077			-3.786
292904.000			34.077			-3.786
293005.000			34.076			-3.786
293104.000			34.076			-3.786
293203.000			34.076			-3.786
293305.000			34.075			-3.786
293403.000			34.074			-3.786
293504.000			34.074			-3.786
293605.000			34.073			-3.786
293704.000			34.073			-3.786
293804.000			34.073			-3.786
293905.000			34.073			-3.786
294004.000			34.073			-3.786
294103.000			34.071			-3.786
294205.000			34.072			-3.786
294303.000			34.070			-3.786
294404.000			34.069			-3.785
294505.000			34.068			-3.785
294604.000			34.068			-3.785
294704.000			34.069			-3.785
294805.000			34.069			-3.785
294904.000			34.069			-3.785
295003.000			34.068			-3.785
295105.000			34.067			-3.785
295203.000			34.067			-3.785
295305.000			34.067			-3.785
295404.000			34.067			-3.785
295504.000			34.066			-3.785
295605.000			34.066			-3.785
295704.000			34.064			-3.785
295804.000			34.064			-3.785
295904.000			34.064			-3.785
296004.000			34.063			-3.785
296103.000			34.065			-3.785
296205.000			34.064			-3.785
296304.000			34.063			-3.785
296404.000			34.063			-3.785
296505.000			34.062			-3.785
296604.000			34.061			-3.785
296704.000			34.061			-3.785
296804.000			34.061			-3.785
296904.000			34.061			-3.785
297003.000			34.060			-3.784
297105.000			34.059			-3.784
297204.000			34.059			-3.784
297304.000			34.059			-3.784
297405.000			34.059			-3.784
297504.000			34.058			-3.784
297604.000			34.058			-3.784
297705.000			34.058			-3.784
297804.000			34.058			-3.784
297903.000			34.057			-3.784
298005.000			34.056			-3.784
298104.000			34.056			-3.784
298204.000			34.056			-3.784
298305.000			34.055			-3.784
298404.000			34.054			-3.784
298505.000			34.054			-3.784
298604.000			34.054			-3.784
298704.000			34.053			-3.784
298804.000			34.053			-3.784
298904.000			34.053			-3.784
299004.000			34.052			-3.784
299105.000			34.051			-3.783
299204.000			34.053			-3.784
299304.000			34.052			-3.784
299405.000			34.053			-3.784
299504.000			34.051			-3.783
299604.000			34.051			-3.783
299704.000			34.051			-3.783
299804.000			34.050			-3.783
299903.000			34.049			-3.783
