# Acquired on 30/01/2024 12:34:53 
# SPIDER: Creep_-11mm_HM077x145x38AA-2
# CREEP MEASUREMENT

# time [ms]		force [N]		stiffness [N/mm]
2.000			67.069			-6.097
104.000			68.367			-6.215
204.000			68.648			-6.241
305.000			68.368			-6.215
404.000			67.943			-6.177
504.000			67.800			-6.164
605.000			67.675			-6.152
703.000			67.565			-6.142
804.000			67.466			-6.133
905.000			67.376			-6.125
1004.000			67.293			-6.118
1104.000			67.149			-6.104
1204.000			67.085			-6.099
1304.000			67.024			-6.093
1404.000			66.966			-6.088
1505.000			66.912			-6.083
1604.000			66.858			-6.078
1704.000			66.808			-6.073
1805.000			66.715			-6.065
1903.000			66.672			-6.061
2004.000			66.630			-6.057
2105.000			66.588			-6.053
2204.000			66.549			-6.050
2304.000			66.511			-6.046
2404.000			66.474			-6.043
2504.000			66.440			-6.040
2603.000			66.372			-6.034
2704.000			66.340			-6.031
2804.000			66.309			-6.028
2905.000			66.279			-6.025
3004.000			66.251			-6.023
3103.000			66.222			-6.020
3205.000			66.193			-6.018
3304.000			66.140			-6.013
3404.000			66.114			-6.010
3505.000			66.090			-6.008
3604.000			66.065			-6.006
3704.000			66.040			-6.004
3804.000			66.018			-6.002
3904.000			65.995			-6.000
4004.000			65.949			-5.995
4105.000			65.927			-5.993
4204.000			65.907			-5.992
4304.000			65.886			-5.990
4405.000			65.864			-5.988
4503.000			65.844			-5.986
4604.000			65.825			-5.984
4705.000			65.787			-5.981
4804.000			65.769			-5.979
4904.000			65.750			-5.977
5005.000			65.731			-5.976
5104.000			65.713			-5.974
5203.000			65.696			-5.972
5305.000			65.679			-5.971
5404.000			65.661			-5.969
5504.000			65.630			-5.966
5605.000			65.614			-5.965
5704.000			65.598			-5.963
5805.000			65.582			-5.962
5903.000			65.567			-5.961
6004.000			65.551			-5.959
6105.000			65.534			-5.958
6204.000			65.505			-5.955
6304.000			65.490			-5.954
6404.000			65.475			-5.952
6504.000			65.463			-5.951
6604.000			65.448			-5.950
6705.000			65.433			-5.948
6804.000			65.420			-5.947
6904.000			65.394			-5.945
7005.000			65.381			-5.944
7103.000			65.368			-5.943
7204.000			65.356			-5.941
7305.000			65.342			-5.940
7404.000			65.328			-5.939
7504.000			65.316			-5.938
7605.000			65.293			-5.936
7704.000			65.281			-5.935
7803.000			65.269			-5.934
7905.000			65.257			-5.932
8004.000			65.245			-5.931
8104.000			65.234			-5.930
8205.000			65.223			-5.929
8303.000			65.212			-5.928
8404.000			65.189			-5.926
8505.000			65.179			-5.925
8604.000			65.168			-5.924
8704.000			65.157			-5.923
8804.000			65.145			-5.922
8904.000			65.134			-5.921
9003.000			65.124			-5.920
9104.000			65.103			-5.918
9204.000			65.093			-5.918
9305.000			65.083			-5.917
9404.000			65.074			-5.916
9504.000			65.065			-5.915
9605.000			65.054			-5.914
9703.000			65.044			-5.913
9804.000			65.024			-5.911
9905.000			65.015			-5.910
10004.000			65.006			-5.910
10104.000			64.996			-5.909
10204.000			64.987			-5.908
10304.000			64.978			-5.907
10403.000			64.968			-5.906
10505.000			64.952			-5.905
10604.000			64.942			-5.904
10704.000			64.932			-5.903
10805.000			64.923			-5.902
10904.000			64.914			-5.901
11004.000			64.908			-5.901
11104.000			64.900			-5.900
11204.000			64.890			-5.899
11304.000			64.872			-5.897
11405.000			64.864			-5.897
11504.000			64.855			-5.896
11603.000			64.846			-5.895
11705.000			64.839			-5.894
11804.000			64.831			-5.894
11904.000			64.822			-5.893
12005.000			64.806			-5.891
12104.000			64.800			-5.891
12205.000			64.792			-5.890
12303.000			64.784			-5.889
12404.000			64.776			-5.889
12505.000			64.768			-5.888
12604.000			64.761			-5.887
12704.000			64.745			-5.886
12805.000			64.738			-5.885
12904.000			64.731			-5.885
13003.000			64.723			-5.884
13105.000			64.716			-5.883
13204.000			64.709			-5.883
13304.000			64.702			-5.882
13405.000			64.687			-5.881
13504.000			64.679			-5.880
13604.000			64.673			-5.879
13704.000			64.665			-5.879
13804.000			64.658			-5.878
13904.000			64.651			-5.877
14005.000			64.645			-5.877
14104.000			64.637			-5.876
14204.000			64.624			-5.875
14305.000			64.617			-5.874
14403.000			64.611			-5.874
14504.000			64.604			-5.873
14605.000			64.598			-5.873
14704.000			64.591			-5.872
14804.000			64.584			-5.871
14905.000			64.570			-5.870
15004.000			64.564			-5.869
15103.000			64.557			-5.869
15205.000			64.552			-5.868
15304.000			64.546			-5.868
15405.000			64.539			-5.867
15504.000			64.533			-5.867
15604.000			64.520			-5.865
15705.000			64.514			-5.865
15803.000			64.508			-5.864
15904.000			64.503			-5.864
16005.000			64.497			-5.863
16104.000			64.492			-5.863
16204.000			64.486			-5.862
16305.000			64.471			-5.861
16404.000			64.465			-5.860
16503.000			64.460			-5.860
16605.000			64.453			-5.859
16704.000			64.447			-5.859
16804.000			64.440			-5.858
16905.000			64.435			-5.858
17004.000			64.429			-5.857
17104.000			64.418			-5.856
17204.000			64.413			-5.856
17304.000			64.409			-5.855
17404.000			64.402			-5.855
17505.000			64.397			-5.854
17604.000			64.392			-5.854
17704.000			64.385			-5.853
17805.000			64.373			-5.852
17903.000			64.368			-5.852
18004.000			64.363			-5.851
18105.000			64.359			-5.851
18204.000			64.353			-5.850
18304.000			64.347			-5.850
18404.000			64.341			-5.849
18504.000			64.331			-5.848
18603.000			64.326			-5.848
18704.000			64.320			-5.847
18804.000			64.315			-5.847
18905.000			64.310			-5.846
19004.000			64.305			-5.846
19104.000			64.301			-5.846
19205.000			64.288			-5.844
19303.000			64.283			-5.844
19404.000			64.279			-5.844
19505.000			64.275			-5.843
19604.000			64.269			-5.843
19704.000			64.263			-5.842
19805.000			64.258			-5.842
19904.000			64.254			-5.841
20003.000			64.244			-5.840
20105.000			64.239			-5.840
20204.000			64.234			-5.839
20304.000			64.229			-5.839
20405.000			64.224			-5.839
20503.000			64.219			-5.838
20604.000			64.214			-5.838
20705.000			64.205			-5.837
20804.000			64.201			-5.836
20904.000			64.197			-5.836
21005.000			64.193			-5.836
21104.000			64.187			-5.835
21203.000			64.182			-5.835
21305.000			64.178			-5.834
21404.000			64.168			-5.833
21504.000			64.164			-5.833
21605.000			64.159			-5.833
21704.000			64.154			-5.832
21805.000			64.151			-5.832
21903.000			64.144			-5.831
22004.000			64.139			-5.831
22105.000			64.132			-5.830
22204.000			64.128			-5.830
22304.000			64.123			-5.829
22405.000			64.119			-5.829
22504.000			64.115			-5.829
22603.000			64.108			-5.828
22705.000			64.103			-5.828
22804.000			64.100			-5.827
22904.000			64.092			-5.827
23005.000			64.087			-5.826
23104.000			64.083			-5.826
23204.000			64.079			-5.825
23304.000			64.075			-5.825
23404.000			64.069			-5.824
23504.000			64.065			-5.824
23605.000			64.056			-5.823
23704.000			64.053			-5.823
23803.000			64.049			-5.823
23905.000			64.044			-5.822
24004.000			64.040			-5.822
24104.000			64.036			-5.821
24205.000			64.032			-5.821
24304.000			64.023			-5.820
24404.000			64.019			-5.820
24504.000			64.014			-5.819
24604.000			64.011			-5.819
24704.000			64.006			-5.819
24804.000			64.003			-5.818
24904.000			64.000			-5.818
25005.000			63.990			-5.817
25104.000			63.987			-5.817
25203.000			63.983			-5.817
25305.000			63.979			-5.816
25404.000			63.974			-5.816
25504.000			63.969			-5.815
25605.000			63.965			-5.815
25704.000			63.961			-5.815
25804.000			63.954			-5.814
25904.000			63.950			-5.814
26004.000			63.947			-5.813
26104.000			63.942			-5.813
26205.000			63.938			-5.813
26304.000			63.935			-5.812
26404.000			63.930			-5.812
26505.000			63.924			-5.811
26603.000			63.920			-5.811
26704.000			63.916			-5.811
26805.000			63.911			-5.810
26904.000			63.908			-5.810
27004.000			63.905			-5.810
27105.000			63.901			-5.809
27204.000			63.894			-5.809
27303.000			63.891			-5.808
27405.000			63.887			-5.808
27504.000			63.883			-5.808
27604.000			63.880			-5.807
27705.000			63.876			-5.807
27804.000			63.871			-5.806
27904.000			63.864			-5.806
28003.000			63.859			-5.805
28104.000			63.856			-5.805
28205.000			63.852			-5.805
28304.000			63.849			-5.804
28404.000			63.845			-5.804
28505.000			63.843			-5.804
28604.000			63.839			-5.804
28703.000			63.832			-5.803
28805.000			63.828			-5.803
28904.000			63.824			-5.802
29004.000			63.821			-5.802
29105.000			63.819			-5.802
29204.000			63.814			-5.801
29304.000			63.811			-5.801
29404.000			63.803			-5.800
29504.000			63.799			-5.800
29604.000			63.796			-5.800
29705.000			63.793			-5.799
29804.000			63.790			-5.799
29904.000			63.787			-5.799
30005.000			63.783			-5.798
30104.000			63.776			-5.798
30204.000			63.773			-5.798
30304.000			63.771			-5.797
30404.000			63.767			-5.797
30504.000			63.764			-5.797
30605.000			63.759			-5.796
30704.000			63.756			-5.796
30803.000			63.750			-5.795
30905.000			63.746			-5.795
31004.000			63.743			-5.795
31104.000			63.740			-5.795
31205.000			63.738			-5.794
31304.000			63.735			-5.794
31405.000			63.732			-5.794
31503.000			63.727			-5.793
31604.000			63.722			-5.793
31705.000			63.718			-5.793
31804.000			63.715			-5.792
31904.000			63.711			-5.792
32005.000			63.708			-5.792
32104.000			63.706			-5.791
32203.000			63.701			-5.791
32305.000			63.695			-5.790
32404.000			63.691			-5.790
32504.000			63.689			-5.790
32605.000			63.687			-5.790
32704.000			63.684			-5.789
32804.000			63.681			-5.789
32904.000			63.678			-5.789
33004.000			63.671			-5.788
33104.000			63.667			-5.788
33205.000			63.664			-5.788
33304.000			63.661			-5.787
33404.000			63.658			-5.787
33505.000			63.655			-5.787
33603.000			63.651			-5.786
33704.000			63.645			-5.786
33805.000			63.643			-5.786
33904.000			63.639			-5.785
34004.000			63.635			-5.785
34105.000			63.633			-5.785
34204.000			63.633			-5.785
34303.000			63.629			-5.784
34405.000			63.623			-5.784
34504.000			63.620			-5.784
34605.000			63.618			-5.783
34704.000			63.614			-5.783
34804.000			63.610			-5.783
34905.000			63.607			-5.782
35003.000			63.604			-5.782
35104.000			63.601			-5.782
35205.000			63.596			-5.781
35304.000			63.593			-5.781
35404.000			63.590			-5.781
35505.000			63.586			-5.781
35604.000			63.584			-5.780
35703.000			63.582			-5.780
35805.000			63.579			-5.780
35904.000			63.574			-5.779
36004.000			63.570			-5.779
36105.000			63.566			-5.779
36204.000			63.564			-5.779
36304.000			63.561			-5.778
36404.000			63.558			-5.778
36504.000			63.556			-5.778
36604.000			63.551			-5.777
36705.000			63.548			-5.777
36804.000			63.545			-5.777
36904.000			63.542			-5.777
37005.000			63.538			-5.776
37103.000			63.536			-5.776
37204.000			63.533			-5.776
37305.000			63.527			-5.775
37404.000			63.524			-5.775
37504.000			63.522			-5.775
37604.000			63.521			-5.775
37704.000			63.517			-5.774
37803.000			63.513			-5.774
37904.000			63.510			-5.774
38004.000			63.508			-5.773
38105.000			63.503			-5.773
38204.000			63.500			-5.773
38304.000			63.497			-5.772
38405.000			63.494			-5.772
38503.000			63.492			-5.772
38604.000			63.489			-5.772
38705.000			63.486			-5.771
38804.000			63.482			-5.771
38904.000			63.480			-5.771
39005.000			63.476			-5.771
39104.000			63.473			-5.770
39203.000			63.472			-5.770
39305.000			63.467			-5.770
39404.000			63.464			-5.769
39504.000			63.460			-5.769
39605.000			63.458			-5.769
39704.000			63.456			-5.769
39804.000			63.454			-5.769
39904.000			63.451			-5.768
40004.000			63.448			-5.768
40104.000			63.446			-5.768
40205.000			63.440			-5.767
40304.000			63.437			-5.767
40404.000			63.434			-5.767
40505.000			63.432			-5.767
40603.000			63.429			-5.766
40704.000			63.427			-5.766
40805.000			63.425			-5.766
40904.000			63.423			-5.766
41005.000			63.418			-5.765
41104.000			63.415			-5.765
41204.000			63.414			-5.765
41305.000			63.411			-5.765
41404.000			63.408			-5.764
41504.000			63.407			-5.764
41605.000			63.404			-5.764
41704.000			63.397			-5.763
41803.000			63.396			-5.763
41905.000			63.394			-5.763
42004.000			63.391			-5.763
42104.000			63.389			-5.763
42205.000			63.387			-5.762
42304.000			63.384			-5.762
42404.000			63.379			-5.762
42504.000			63.377			-5.762
42604.000			63.374			-5.761
42704.000			63.372			-5.761
42805.000			63.370			-5.761
42904.000			63.367			-5.761
43004.000			63.365			-5.760
43105.000			63.359			-5.760
43203.000			63.357			-5.760
43304.000			63.356			-5.760
43405.000			63.353			-5.759
43504.000			63.350			-5.759
43604.000			63.347			-5.759
43705.000			63.345			-5.759
43804.000			63.344			-5.759
43903.000			63.339			-5.758
44005.000			63.337			-5.758
44104.000			63.334			-5.758
44205.000			63.330			-5.757
44304.000			63.327			-5.757
44404.000			63.326			-5.757
44505.000			63.324			-5.757
44603.000			63.319			-5.756
44704.000			63.316			-5.756
44805.000			63.315			-5.756
44904.000			63.312			-5.756
45004.000			63.310			-5.755
45105.000			63.309			-5.755
45204.000			63.306			-5.755
45303.000			63.301			-5.755
45405.000			63.299			-5.754
45504.000			63.298			-5.754
45604.000			63.295			-5.754
45705.000			63.292			-5.754
45804.000			63.290			-5.754
45904.000			63.287			-5.753
46004.000			63.281			-5.753
46104.000			63.280			-5.753
46204.000			63.277			-5.752
46305.000			63.276			-5.752
46404.000			63.273			-5.752
46504.000			63.270			-5.752
46605.000			63.269			-5.752
46703.000			63.267			-5.752
46804.000			63.262			-5.751
46905.000			63.261			-5.751
47004.000			63.259			-5.751
47104.000			63.256			-5.751
47204.000			63.253			-5.750
47304.000			63.251			-5.750
47403.000			63.248			-5.750
47504.000			63.244			-5.749
47604.000			63.242			-5.749
47705.000			63.239			-5.749
47804.000			63.238			-5.749
47904.000			63.236			-5.749
48005.000			63.234			-5.749
48103.000			63.232			-5.748
48204.000			63.227			-5.748
48305.000			63.225			-5.748
48404.000			63.222			-5.747
48504.000			63.221			-5.747
48604.000			63.219			-5.747
48704.000			63.218			-5.747
48803.000			63.216			-5.747
48905.000			63.210			-5.746
49004.000			63.208			-5.746
49104.000			63.206			-5.746
49205.000			63.203			-5.746
49303.000			63.201			-5.746
49404.000			63.200			-5.745
49505.000			63.198			-5.745
49604.000			63.196			-5.745
49704.000			63.192			-5.745
49805.000			63.189			-5.744
49904.000			63.187			-5.744
50003.000			63.185			-5.744
50105.000			63.182			-5.744
50204.000			63.180			-5.744
50304.000			63.177			-5.743
50405.000			63.175			-5.743
50504.000			63.173			-5.743
50605.000			63.170			-5.743
50703.000			63.168			-5.743
50804.000			63.166			-5.742
50905.000			63.164			-5.742
51004.000			63.161			-5.742
51104.000			63.157			-5.742
51205.000			63.156			-5.741
51304.000			63.156			-5.741
51403.000			63.153			-5.741
51505.000			63.151			-5.741
51604.000			63.148			-5.741
51704.000			63.145			-5.740
51805.000			63.143			-5.740
51904.000			63.140			-5.740
52004.000			63.137			-5.740
52104.000			63.136			-5.740
52204.000			63.135			-5.740
52304.000			63.132			-5.739
52405.000			63.129			-5.739
52504.000			63.127			-5.739
52603.000			63.124			-5.739
52705.000			63.122			-5.738
52804.000			63.119			-5.738
52904.000			63.117			-5.738
53005.000			63.115			-5.738
53104.000			63.113			-5.738
53204.000			63.111			-5.737
53304.000			63.107			-5.737
53404.000			63.105			-5.737
53504.000			63.103			-5.737
53604.000			63.102			-5.737
53704.000			63.100			-5.736
53805.000			63.098			-5.736
53904.000			63.094			-5.736
54003.000			63.090			-5.735
54105.000			63.089			-5.735
54204.000			63.088			-5.735
54304.000			63.086			-5.735
54405.000			63.084			-5.735
54504.000			63.082			-5.735
54604.000			63.079			-5.734
54704.000			63.076			-5.734
54804.000			63.074			-5.734
54904.000			63.071			-5.734
55005.000			63.069			-5.734
55104.000			63.068			-5.733
55204.000			63.067			-5.733
55305.000			63.065			-5.733
55403.000			63.062			-5.733
55504.000			63.058			-5.733
55605.000			63.056			-5.732
55704.000			63.054			-5.732
55804.000			63.054			-5.732
55904.000			63.052			-5.732
56004.000			63.050			-5.732
56103.000			63.047			-5.732
56205.000			63.043			-5.731
56304.000			63.042			-5.731
56404.000			63.040			-5.731
56505.000			63.038			-5.731
56603.000			63.036			-5.731
56704.000			63.034			-5.730
56805.000			63.032			-5.730
56904.000			63.030			-5.730
57005.000			63.027			-5.730
57104.000			63.025			-5.730
57204.000			63.024			-5.729
57304.000			63.021			-5.729
57404.000			63.020			-5.729
57504.000			63.018			-5.729
57605.000			63.015			-5.729
57704.000			63.012			-5.728
57804.000			63.009			-5.728
57905.000			63.009			-5.728
58003.000			63.007			-5.728
58104.000			63.005			-5.728
58205.000			63.003			-5.728
58304.000			63.001			-5.727
58404.000			62.999			-5.727
58505.000			62.997			-5.727
58604.000			62.994			-5.727
58703.000			62.993			-5.727
58805.000			62.991			-5.726
58904.000			62.988			-5.726
59004.000			62.987			-5.726
59105.000			62.983			-5.726
59204.000			62.982			-5.726
59304.000			62.980			-5.725
59404.000			62.978			-5.725
59504.000			62.976			-5.725
59604.000			62.974			-5.725
59705.000			62.972			-5.725
59804.000			62.968			-5.724
59904.000			62.966			-5.724
60005.000			62.964			-5.724
60103.000			62.963			-5.724
60205.000			62.961			-5.724
60304.000			62.960			-5.724
60404.000			62.958			-5.723
60505.000			62.955			-5.723
60604.000			62.954			-5.723
60704.000			62.951			-5.723
60804.000			62.950			-5.723
60904.000			62.949			-5.723
61003.000			62.947			-5.722
61105.000			62.946			-5.722
61204.000			62.943			-5.722
61304.000			62.939			-5.722
61405.000			62.937			-5.722
61503.000			62.936			-5.721
61604.000			62.934			-5.721
61705.000			62.932			-5.721
61804.000			62.931			-5.721
61904.000			62.930			-5.721
62005.000			62.925			-5.720
62104.000			62.923			-5.720
62203.000			62.923			-5.720
62305.000			62.920			-5.720
62404.000			62.917			-5.720
62504.000			62.917			-5.720
62605.000			62.915			-5.720
62704.000			62.911			-5.719
62804.000			62.910			-5.719
62904.000			62.909			-5.719
63004.000			62.908			-5.719
63104.000			62.905			-5.719
63204.000			62.902			-5.718
63304.000			62.901			-5.718
63405.000			62.899			-5.718
63504.000			62.897			-5.718
63603.000			62.894			-5.718
63705.000			62.892			-5.717
63804.000			62.892			-5.717
63904.000			62.891			-5.717
64005.000			62.889			-5.717
64104.000			62.887			-5.717
64204.000			62.883			-5.717
64304.000			62.882			-5.717
64404.000			62.881			-5.716
64504.000			62.880			-5.716
64605.000			62.879			-5.716
64704.000			62.876			-5.716
64804.000			62.873			-5.716
64905.000			62.869			-5.715
65003.000			62.868			-5.715
65104.000			62.867			-5.715
65205.000			62.866			-5.715
65304.000			62.864			-5.715
65404.000			62.861			-5.715
65505.000			62.860			-5.715
65604.000			62.857			-5.714
65704.000			62.856			-5.714
65805.000			62.854			-5.714
65903.000			62.853			-5.714
66004.000			62.851			-5.714
66105.000			62.849			-5.714
66204.000			62.847			-5.713
66304.000			62.845			-5.713
66404.000			62.844			-5.713
66504.000			62.841			-5.713
66603.000			62.839			-5.713
66704.000			62.837			-5.712
66804.000			62.836			-5.712
66905.000			62.834			-5.712
67004.000			62.833			-5.712
67104.000			62.830			-5.712
67205.000			62.828			-5.712
67303.000			62.826			-5.711
67404.000			62.824			-5.711
67505.000			62.823			-5.711
67604.000			62.821			-5.711
67704.000			62.819			-5.711
67805.000			62.817			-5.711
67904.000			62.814			-5.710
68003.000			62.813			-5.710
68105.000			62.813			-5.710
68204.000			62.811			-5.710
68304.000			62.808			-5.710
68405.000			62.807			-5.710
68504.000			62.804			-5.709
68604.000			62.802			-5.709
68704.000			62.800			-5.709
68804.000			62.799			-5.709
68903.000			62.798			-5.709
69005.000			62.797			-5.709
69104.000			62.797			-5.709
69204.000			62.793			-5.708
69305.000			62.789			-5.708
69404.000			62.788			-5.708
69504.000			62.787			-5.708
69603.000			62.785			-5.708
69704.000			62.784			-5.708
69805.000			62.783			-5.708
69904.000			62.778			-5.707
70004.000			62.778			-5.707
70105.000			62.777			-5.707
70204.000			62.776			-5.707
70303.000			62.774			-5.707
70405.000			62.773			-5.707
70504.000			62.770			-5.706
70604.000			62.768			-5.706
70705.000			62.766			-5.706
70804.000			62.765			-5.706
70904.000			62.764			-5.706
71004.000			62.763			-5.706
71104.000			62.762			-5.706
71204.000			62.760			-5.705
71305.000			62.757			-5.705
71404.000			62.752			-5.705
71504.000			62.751			-5.705
71605.000			62.750			-5.705
71703.000			62.748			-5.704
71804.000			62.746			-5.704
71905.000			62.745			-5.704
72004.000			62.745			-5.704
72104.000			62.741			-5.704
72205.000			62.740			-5.704
72304.000			62.739			-5.704
72403.000			62.738			-5.703
72505.000			62.736			-5.703
72604.000			62.735			-5.703
72704.000			62.734			-5.703
72805.000			62.732			-5.703
72904.000			62.729			-5.703
73005.000			62.727			-5.702
73103.000			62.726			-5.702
73204.000			62.725			-5.702
73305.000			62.724			-5.702
73404.000			62.722			-5.702
73504.000			62.719			-5.702
73605.000			62.715			-5.701
73704.000			62.715			-5.701
73803.000			62.714			-5.701
73905.000			62.713			-5.701
74004.000			62.712			-5.701
74104.000			62.710			-5.701
74205.000			62.708			-5.701
74304.000			62.707			-5.701
74404.000			62.705			-5.700
74504.000			62.704			-5.700
74604.000			62.702			-5.700
74704.000			62.701			-5.700
74805.000			62.698			-5.700
74904.000			62.697			-5.700
75004.000			62.695			-5.700
75105.000			62.691			-5.699
75203.000			62.691			-5.699
75304.000			62.690			-5.699
75405.000			62.688			-5.699
75504.000			62.687			-5.699
75604.000			62.687			-5.699
75705.000			62.682			-5.698
75804.000			62.680			-5.698
75903.000			62.680			-5.698
76005.000			62.678			-5.698
76104.000			62.676			-5.698
76205.000			62.675			-5.698
76304.000			62.674			-5.698
76404.000			62.672			-5.697
76505.000			62.668			-5.697
76603.000			62.667			-5.697
76704.000			62.666			-5.697
76805.000			62.665			-5.697
76904.000			62.663			-5.697
77004.000			62.663			-5.697
77105.000			62.662			-5.697
77204.000			62.659			-5.696
77303.000			62.658			-5.696
77405.000			62.657			-5.696
77504.000			62.654			-5.696
77604.000			62.652			-5.696
77705.000			62.650			-5.695
77804.000			62.650			-5.695
77904.000			62.647			-5.695
78005.000			62.645			-5.695
78104.000			62.643			-5.695
78203.000			62.642			-5.695
78305.000			62.640			-5.695
78404.000			62.638			-5.694
78504.000			62.638			-5.694
78605.000			62.635			-5.694
78704.000			62.634			-5.694
78804.000			62.633			-5.694
78904.000			62.631			-5.694
79004.000			62.630			-5.694
79104.000			62.628			-5.693
79204.000			62.627			-5.693
79304.000			62.624			-5.693
79405.000			62.623			-5.693
79504.000			62.622			-5.693
79603.000			62.621			-5.693
79705.000			62.619			-5.693
79803.000			62.618			-5.693
79904.000			62.616			-5.692
80005.000			62.616			-5.692
80104.000			62.613			-5.692
80204.000			62.612			-5.692
80305.000			62.609			-5.692
80404.000			62.608			-5.692
80503.000			62.606			-5.691
80605.000			62.605			-5.691
80704.000			62.604			-5.691
80804.000			62.601			-5.691
80905.000			62.601			-5.691
81004.000			62.600			-5.691
81104.000			62.598			-5.691
81205.000			62.597			-5.691
81304.000			62.595			-5.690
81404.000			62.594			-5.690
81505.000			62.592			-5.690
81604.000			62.590			-5.690
81704.000			62.588			-5.690
81805.000			62.586			-5.690
81903.000			62.584			-5.689
82004.000			62.583			-5.689
82105.000			62.582			-5.689
82204.000			62.580			-5.689
82304.000			62.578			-5.689
82404.000			62.576			-5.689
82504.000			62.575			-5.689
82603.000			62.575			-5.689
82704.000			62.574			-5.689
82804.000			62.572			-5.688
82905.000			62.571			-5.688
83004.000			62.568			-5.688
83104.000			62.566			-5.688
83205.000			62.565			-5.688
83304.000			62.563			-5.688
83404.000			62.562			-5.687
83504.000			62.561			-5.687
83604.000			62.560			-5.687
83704.000			62.557			-5.687
83805.000			62.556			-5.687
83904.000			62.556			-5.687
84004.000			62.555			-5.687
84105.000			62.553			-5.687
84203.000			62.550			-5.686
84304.000			62.550			-5.686
84405.000			62.548			-5.686
84504.000			62.546			-5.686
84604.000			62.545			-5.686
84705.000			62.544			-5.686
84804.000			62.541			-5.686
84903.000			62.542			-5.686
85005.000			62.541			-5.686
85104.000			62.537			-5.685
85204.000			62.536			-5.685
85305.000			62.535			-5.685
85404.000			62.532			-5.685
85504.000			62.532			-5.685
85603.000			62.531			-5.685
85704.000			62.530			-5.685
85805.000			62.528			-5.684
85904.000			62.526			-5.684
86004.000			62.525			-5.684
86105.000			62.522			-5.684
86204.000			62.521			-5.684
86303.000			62.521			-5.684
86405.000			62.520			-5.684
86504.000			62.519			-5.684
86604.000			62.517			-5.683
86705.000			62.516			-5.683
86804.000			62.514			-5.683
86904.000			62.513			-5.683
87004.000			62.512			-5.683
87104.000			62.510			-5.683
87204.000			62.509			-5.683
87305.000			62.506			-5.682
87404.000			62.506			-5.682
87504.000			62.504			-5.682
87605.000			62.501			-5.682
87703.000			62.500			-5.682
87804.000			62.499			-5.682
87905.000			62.498			-5.682
88004.000			62.495			-5.681
88104.000			62.495			-5.681
88205.000			62.492			-5.681
88304.000			62.491			-5.681
88403.000			62.490			-5.681
88505.000			62.489			-5.681
88604.000			62.488			-5.681
88704.000			62.487			-5.681
88805.000			62.484			-5.680
88904.000			62.483			-5.680
89005.000			62.482			-5.680
89104.000			62.480			-5.680
89204.000			62.479			-5.680
89304.000			62.478			-5.680
89404.000			62.477			-5.680
89504.000			62.476			-5.680
89605.000			62.474			-5.679
89704.000			62.472			-5.679
89804.000			62.471			-5.679
89905.000			62.470			-5.679
90003.000			62.469			-5.679
90104.000			62.469			-5.679
90205.000			62.464			-5.679
90304.000			62.464			-5.679
90404.000			62.463			-5.678
90505.000			62.461			-5.678
90604.000			62.462			-5.678
90703.000			62.460			-5.678
90805.000			62.457			-5.678
90904.000			62.456			-5.678
91004.000			62.454			-5.678
91105.000			62.452			-5.677
91204.000			62.451			-5.677
91304.000			62.452			-5.677
91404.000			62.451			-5.677
91504.000			62.450			-5.677
91604.000			62.448			-5.677
91705.000			62.444			-5.677
91804.000			62.444			-5.677
91904.000			62.443			-5.677
92005.000			62.442			-5.677
92103.000			62.440			-5.676
92205.000			62.440			-5.676
92304.000			62.438			-5.676
92404.000			62.435			-5.676
92505.000			62.434			-5.676
92604.000			62.433			-5.676
92704.000			62.432			-5.676
92804.000			62.431			-5.676
92904.000			62.429			-5.675
93004.000			62.428			-5.675
93105.000			62.426			-5.675
93204.000			62.424			-5.675
93304.000			62.423			-5.675
93405.000			62.422			-5.675
93503.000			62.422			-5.675
93604.000			62.421			-5.675
93705.000			62.418			-5.674
93804.000			62.418			-5.674
93904.000			62.416			-5.674
94005.000			62.413			-5.674
94104.000			62.412			-5.674
94203.000			62.411			-5.674
94305.000			62.410			-5.674
94404.000			62.410			-5.674
94504.000			62.409			-5.674
94605.000			62.407			-5.673
94704.000			62.406			-5.673
94804.000			62.405			-5.673
94904.000			62.404			-5.673
95004.000			62.402			-5.673
95104.000			62.400			-5.673
95204.000			62.399			-5.673
95304.000			62.396			-5.672
95405.000			62.394			-5.672
95504.000			62.393			-5.672
95603.000			62.393			-5.672
95705.000			62.392			-5.672
95804.000			62.392			-5.672
95904.000			62.390			-5.672
96005.000			62.388			-5.672
96104.000			62.388			-5.672
96204.000			62.387			-5.672
96304.000			62.385			-5.671
96404.000			62.383			-5.671
96504.000			62.382			-5.671
96605.000			62.380			-5.671
96704.000			62.378			-5.671
96804.000			62.378			-5.671
96905.000			62.377			-5.671
97003.000			62.374			-5.670
97104.000			62.374			-5.670
97205.000			62.373			-5.670
97304.000			62.371			-5.670
97404.000			62.370			-5.670
97505.000			62.368			-5.670
97604.000			62.367			-5.670
97703.000			62.367			-5.670
97805.000			62.365			-5.670
97904.000			62.364			-5.669
98004.000			62.363			-5.669
98105.000			62.362			-5.669
98204.000			62.358			-5.669
98304.000			62.357			-5.669
98403.000			62.356			-5.669
98504.000			62.356			-5.669
98605.000			62.356			-5.669
98704.000			62.354			-5.669
98804.000			62.353			-5.668
98905.000			62.353			-5.668
99004.000			62.351			-5.668
99103.000			62.349			-5.668
99205.000			62.347			-5.668
99303.000			62.346			-5.668
99404.000			62.345			-5.668
99505.000			62.343			-5.668
99604.000			62.341			-5.667
99704.000			62.339			-5.667
99805.000			62.338			-5.667
99904.000			62.338			-5.667
100003.000			62.338			-5.667
100105.000			62.337			-5.667
100204.000			62.335			-5.667
100304.000			62.333			-5.667
100405.000			62.332			-5.667
100504.000			62.331			-5.666
100604.000			62.329			-5.666
100704.000			62.326			-5.666
100804.000			62.326			-5.666
100904.000			62.325			-5.666
101005.000			62.324			-5.666
101104.000			62.323			-5.666
101204.000			62.322			-5.666
101305.000			62.321			-5.666
101403.000			62.320			-5.665
101504.000			62.319			-5.665
101605.000			62.317			-5.665
101704.000			62.316			-5.665
101805.000			62.313			-5.665
101904.000			62.312			-5.665
102004.000			62.312			-5.665
102104.000			62.311			-5.665
102204.000			62.310			-5.665
102304.000			62.308			-5.664
102405.000			62.306			-5.664
102504.000			62.305			-5.664
102604.000			62.304			-5.664
102705.000			62.303			-5.664
102803.000			62.302			-5.664
102904.000			62.299			-5.664
103005.000			62.299			-5.664
103104.000			62.299			-5.664
103204.000			62.295			-5.663
103305.000			62.296			-5.663
103404.000			62.296			-5.663
103503.000			62.294			-5.663
103605.000			62.291			-5.663
103704.000			62.290			-5.663
103804.000			62.290			-5.663
103905.000			62.289			-5.663
104004.000			62.287			-5.662
104104.000			62.287			-5.662
104204.000			62.284			-5.662
104304.000			62.283			-5.662
104404.000			62.283			-5.662
104505.000			62.282			-5.662
104604.000			62.280			-5.662
104704.000			62.279			-5.662
104805.000			62.277			-5.662
104903.000			62.276			-5.661
105005.000			62.275			-5.661
105104.000			62.273			-5.661
105204.000			62.272			-5.661
105305.000			62.272			-5.661
105404.000			62.270			-5.661
105504.000			62.269			-5.661
105604.000			62.268			-5.661
105704.000			62.266			-5.661
105803.000			62.265			-5.660
105905.000			62.264			-5.660
106004.000			62.264			-5.660
106104.000			62.262			-5.660
106205.000			62.261			-5.660
106304.000			62.261			-5.660
106404.000			62.258			-5.660
106504.000			62.257			-5.660
106604.000			62.256			-5.660
106704.000			62.256			-5.660
106805.000			62.256			-5.660
106904.000			62.253			-5.659
107004.000			62.251			-5.659
107105.000			62.250			-5.659
107203.000			62.250			-5.659
107304.000			62.250			-5.659
107405.000			62.249			-5.659
107504.000			62.247			-5.659
107604.000			62.244			-5.659
107705.000			62.244			-5.659
107804.000			62.241			-5.658
107903.000			62.240			-5.658
108005.000			62.240			-5.658
108104.000			62.239			-5.658
108205.000			62.237			-5.658
108304.000			62.236			-5.658
108404.000			62.235			-5.658
108505.000			62.234			-5.658
108603.000			62.233			-5.658
108704.000			62.232			-5.657
108805.000			62.231			-5.657
108904.000			62.230			-5.657
109004.000			62.228			-5.657
109105.000			62.227			-5.657
109204.000			62.225			-5.657
109303.000			62.225			-5.657
109405.000			62.224			-5.657
109504.000			62.222			-5.657
109604.000			62.222			-5.657
109705.000			62.222			-5.657
109804.000			62.219			-5.656
109904.000			62.218			-5.656
110004.000			62.218			-5.656
110104.000			62.217			-5.656
110204.000			62.215			-5.656
110305.000			62.214			-5.656
110404.000			62.212			-5.656
110504.000			62.211			-5.656
110605.000			62.211			-5.656
110703.000			62.210			-5.655
110804.000			62.208			-5.655
110905.000			62.207			-5.655
111004.000			62.206			-5.655
111104.000			62.205			-5.655
111204.000			62.202			-5.655
111304.000			62.201			-5.655
111403.000			62.200			-5.655
111504.000			62.200			-5.655
111604.000			62.200			-5.655
111705.000			62.198			-5.654
111804.000			62.197			-5.654
111904.000			62.194			-5.654
112005.000			62.193			-5.654
112103.000			62.193			-5.654
112204.000			62.193			-5.654
112305.000			62.192			-5.654
112404.000			62.190			-5.654
112504.000			62.189			-5.654
112605.000			62.188			-5.653
112704.000			62.185			-5.653
112804.000			62.185			-5.653
112905.000			62.183			-5.653
113003.000			62.182			-5.653
113104.000			62.182			-5.653
113205.000			62.181			-5.653
113304.000			62.180			-5.653
113404.000			62.178			-5.653
113505.000			62.177			-5.652
113604.000			62.176			-5.652
113703.000			62.175			-5.652
113805.000			62.173			-5.652
113904.000			62.172			-5.652
114004.000			62.171			-5.652
114105.000			62.170			-5.652
114204.000			62.168			-5.652
114304.000			62.168			-5.652
114403.000			62.168			-5.652
114504.000			62.167			-5.652
114605.000			62.166			-5.651
114704.000			62.164			-5.651
114804.000			62.162			-5.651
114905.000			62.161			-5.651
115004.000			62.161			-5.651
115103.000			62.160			-5.651
115205.000			62.159			-5.651
115304.000			62.158			-5.651
115404.000			62.157			-5.651
115505.000			62.155			-5.650
115604.000			62.153			-5.650
115704.000			62.152			-5.650
115804.000			62.151			-5.650
115904.000			62.151			-5.650
116004.000			62.150			-5.650
116105.000			62.149			-5.650
116204.000			62.147			-5.650
116304.000			62.146			-5.650
116405.000			62.144			-5.649
116503.000			62.143			-5.649
116604.000			62.143			-5.649
116705.000			62.143			-5.649
116804.000			62.142			-5.649
116904.000			62.141			-5.649
117005.000			62.139			-5.649
117104.000			62.137			-5.649
117203.000			62.135			-5.649
117305.000			62.134			-5.649
117404.000			62.134			-5.649
117504.000			62.133			-5.648
117605.000			62.133			-5.648
117704.000			62.130			-5.648
117805.000			62.130			-5.648
117903.000			62.129			-5.648
118004.000			62.127			-5.648
118105.000			62.126			-5.648
118204.000			62.126			-5.648
118304.000			62.125			-5.648
118405.000			62.124			-5.648
118504.000			62.122			-5.647
118603.000			62.121			-5.647
118705.000			62.121			-5.647
118804.000			62.120			-5.647
118904.000			62.117			-5.647
119005.000			62.117			-5.647
119104.000			62.116			-5.647
119204.000			62.114			-5.647
119304.000			62.113			-5.647
119404.000			62.113			-5.647
119503.000			62.112			-5.647
119605.000			62.110			-5.646
119704.000			62.110			-5.646
119804.000			62.109			-5.646
119905.000			62.107			-5.646
120004.000			62.107			-5.646
120104.000			62.107			-5.646
120204.000			62.105			-5.646
120304.000			62.105			-5.646
120404.000			62.105			-5.646
120505.000			62.103			-5.646
120604.000			62.100			-5.645
120703.000			62.099			-5.645
120805.000			62.098			-5.645
120903.000			62.096			-5.645
121005.000			62.096			-5.645
121104.000			62.095			-5.645
121204.000			62.094			-5.645
121305.000			62.094			-5.645
121404.000			62.093			-5.645
121504.000			62.091			-5.645
121604.000			62.088			-5.644
121704.000			62.087			-5.644
121804.000			62.087			-5.644
121905.000			62.087			-5.644
122004.000			62.086			-5.644
122104.000			62.084			-5.644
122205.000			62.082			-5.644
122303.000			62.082			-5.644
122404.000			62.081			-5.644
122505.000			62.080			-5.644
122604.000			62.081			-5.644
122704.000			62.080			-5.644
122805.000			62.077			-5.643
122904.000			62.077			-5.643
123003.000			62.075			-5.643
123105.000			62.075			-5.643
123204.000			62.075			-5.643
123304.000			62.074			-5.643
123405.000			62.071			-5.643
123504.000			62.069			-5.643
123604.000			62.069			-5.643
123704.000			62.068			-5.643
123804.000			62.067			-5.642
123904.000			62.067			-5.642
124004.000			62.066			-5.642
124104.000			62.065			-5.642
124205.000			62.063			-5.642
124304.000			62.063			-5.642
124403.000			62.062			-5.642
124505.000			62.060			-5.642
124604.000			62.059			-5.642
124704.000			62.058			-5.642
124805.000			62.057			-5.642
124904.000			62.056			-5.641
125004.000			62.053			-5.641
125104.000			62.053			-5.641
125204.000			62.053			-5.641
125304.000			62.053			-5.641
125405.000			62.051			-5.641
125504.000			62.050			-5.641
125604.000			62.049			-5.641
125705.000			62.049			-5.641
125804.000			62.047			-5.641
125904.000			62.045			-5.640
126004.000			62.044			-5.640
126104.000			62.043			-5.640
126204.000			62.042			-5.640
126305.000			62.042			-5.640
126404.000			62.041			-5.640
126504.000			62.039			-5.640
126605.000			62.038			-5.640
126703.000			62.037			-5.640
126804.000			62.037			-5.640
126905.000			62.035			-5.640
127004.000			62.034			-5.639
127104.000			6.320			-0.575
127204.000			30.879			-2.807
127304.000			62.031			-5.639
127403.000			62.029			-5.639
127504.000			62.029			-5.639
127604.000			62.027			-5.639
127705.000			62.027			-5.639
127804.000			62.027			-5.639
127904.000			62.026			-5.639
128005.000			62.024			-5.639
128103.000			62.022			-5.638
128204.000			62.021			-5.638
128305.000			62.020			-5.638
128404.000			62.019			-5.638
128504.000			62.020			-5.638
128605.000			62.018			-5.638
128704.000			62.018			-5.638
128803.000			62.018			-5.638
128905.000			62.017			-5.638
129004.000			62.016			-5.638
129104.000			62.014			-5.638
129205.000			62.012			-5.637
129304.000			62.010			-5.637
129404.000			62.010			-5.637
129504.000			62.009			-5.637
129604.000			62.008			-5.637
129704.000			62.008			-5.637
129805.000			62.006			-5.637
129904.000			62.006			-5.637
130004.000			62.005			-5.637
130105.000			62.002			-5.637
130203.000			62.003			-5.637
130304.000			62.001			-5.636
130405.000			62.001			-5.636
130504.000			62.000			-5.636
130605.000			61.999			-5.636
130704.000			61.999			-5.636
130804.000			61.997			-5.636
130904.000			61.996			-5.636
131004.000			61.994			-5.636
131103.000			61.993			-5.636
131205.000			61.993			-5.636
131304.000			61.991			-5.636
131404.000			61.990			-5.635
131505.000			61.989			-5.635
131604.000			61.989			-5.635
131704.000			61.988			-5.635
131804.000			61.988			-5.635
131904.000			61.986			-5.635
132003.000			61.985			-5.635
132105.000			61.984			-5.635
132204.000			61.982			-5.635
132304.000			61.982			-5.635
132405.000			61.982			-5.635
132504.000			61.980			-5.635
132604.000			61.979			-5.634
132704.000			61.979			-5.634
132804.000			61.978			-5.634
132903.000			61.976			-5.634
133005.000			61.974			-5.634
133104.000			61.973			-5.634
133204.000			61.973			-5.634
133305.000			61.973			-5.634
133404.000			61.972			-5.634
133504.000			61.970			-5.634
133604.000			61.968			-5.633
133704.000			61.968			-5.633
133803.000			61.967			-5.633
133904.000			61.966			-5.633
134004.000			61.966			-5.633
134105.000			61.965			-5.633
134204.000			61.964			-5.633
134304.000			61.964			-5.633
134405.000			61.962			-5.633
134504.000			61.962			-5.633
134604.000			61.961			-5.633
134704.000			61.960			-5.633
134804.000			61.958			-5.633
134904.000			61.958			-5.633
135005.000			61.957			-5.632
135104.000			61.956			-5.632
135204.000			61.955			-5.632
135305.000			61.953			-5.632
135404.000			61.951			-5.632
135504.000			61.951			-5.632
135604.000			61.951			-5.632
135704.000			61.950			-5.632
135804.000			61.947			-5.632
135905.000			61.947			-5.632
136004.000			61.946			-5.631
136104.000			61.944			-5.631
136205.000			61.943			-5.631
136304.000			61.944			-5.631
136404.000			61.944			-5.631
136504.000			61.942			-5.631
136604.000			61.942			-5.631
136704.000			61.941			-5.631
136804.000			61.940			-5.631
136904.000			61.939			-5.631
137005.000			61.938			-5.631
137104.000			61.937			-5.631
137204.000			61.935			-5.630
137305.000			61.935			-5.630
137403.000			61.934			-5.630
137504.000			61.933			-5.630
137605.000			61.933			-5.630
137704.000			61.932			-5.630
137804.000			61.931			-5.630
137905.000			61.929			-5.630
138004.000			61.927			-5.630
138104.000			61.927			-5.630
138205.000			61.926			-5.630
138303.000			61.925			-5.630
138404.000			61.925			-5.630
138505.000			61.924			-5.629
138604.000			61.924			-5.629
138704.000			61.921			-5.629
138805.000			61.920			-5.629
138904.000			61.920			-5.629
139004.000			61.919			-5.629
139105.000			61.917			-5.629
139203.000			61.917			-5.629
139304.000			61.916			-5.629
139404.000			61.915			-5.629
139504.000			61.914			-5.629
139604.000			61.914			-5.629
139705.000			61.912			-5.628
139804.000			61.912			-5.628
139904.000			61.911			-5.628
140005.000			61.910			-5.628
140103.000			61.908			-5.628
140205.000			61.909			-5.628
140303.000			61.907			-5.628
140404.000			61.905			-5.628
140505.000			61.905			-5.628
140604.000			61.904			-5.628
140704.000			61.904			-5.628
140805.000			61.903			-5.628
140904.000			61.901			-5.627
141003.000			61.900			-5.627
141105.000			61.898			-5.627
141204.000			61.897			-5.627
141304.000			61.896			-5.627
141405.000			61.896			-5.627
141504.000			61.896			-5.627
141604.000			61.895			-5.627
141705.000			61.894			-5.627
141804.000			61.893			-5.627
141903.000			61.891			-5.626
142005.000			61.890			-5.626
142103.000			61.890			-5.626
142204.000			61.891			-5.626
142305.000			61.890			-5.626
142404.000			61.887			-5.626
142504.000			61.887			-5.626
142605.000			61.886			-5.626
142704.000			61.885			-5.626
142803.000			61.884			-5.626
142905.000			61.882			-5.626
143003.000			61.881			-5.626
143104.000			61.880			-5.625
143205.000			61.880			-5.625
143304.000			61.880			-5.625
143405.000			61.879			-5.625
143504.000			61.877			-5.625
143604.000			61.876			-5.625
143704.000			61.875			-5.625
143804.000			61.874			-5.625
143903.000			61.872			-5.625
144005.000			61.872			-5.625
144104.000			61.871			-5.625
144204.000			61.871			-5.625
144305.000			61.871			-5.625
144404.000			61.871			-5.625
144504.000			61.867			-5.624
144604.000			61.868			-5.624
144704.000			61.866			-5.624
144803.000			61.865			-5.624
144905.000			61.864			-5.624
145004.000			61.864			-5.624
145104.000			61.864			-5.624
145205.000			61.863			-5.624
145304.000			61.861			-5.624
145404.000			61.860			-5.624
145505.000			61.859			-5.624
145604.000			61.858			-5.623
145703.000			61.857			-5.623
145805.000			61.857			-5.623
145904.000			61.857			-5.623
146004.000			61.855			-5.623
146105.000			61.853			-5.623
146204.000			61.854			-5.623
146304.000			61.853			-5.623
146404.000			61.851			-5.623
146504.000			61.850			-5.623
146603.000			61.849			-5.623
146704.000			61.848			-5.623
146803.000			61.847			-5.622
146905.000			61.846			-5.622
147004.000			61.845			-5.622
147104.000			61.845			-5.622
147205.000			61.844			-5.622
147304.000			61.843			-5.622
147404.000			61.841			-5.622
147504.000			61.841			-5.622
147604.000			61.840			-5.622
147703.000			61.839			-5.622
147805.000			61.838			-5.622
147904.000			61.837			-5.622
148004.000			61.838			-5.622
148105.000			61.837			-5.622
148204.000			61.835			-5.621
148304.000			61.833			-5.621
148405.000			61.834			-5.621
148504.000			61.833			-5.621
148603.000			61.832			-5.621
148705.000			61.831			-5.621
148804.000			61.830			-5.621
148904.000			61.828			-5.621
149005.000			61.828			-5.621
149104.000			61.827			-5.621
149204.000			61.826			-5.621
149305.000			61.826			-5.621
149404.000			61.826			-5.621
149503.000			61.825			-5.620
149605.000			61.824			-5.620
149704.000			61.824			-5.620
149805.000			61.823			-5.620
149904.000			61.820			-5.620
150004.000			61.820			-5.620
150105.000			61.819			-5.620
150204.000			61.817			-5.620
150304.000			61.816			-5.620
150404.000			61.815			-5.620
150504.000			61.815			-5.620
150604.000			61.815			-5.620
150705.000			61.815			-5.620
150804.000			61.814			-5.619
150904.000			61.813			-5.619
151005.000			61.812			-5.619
151104.000			61.809			-5.619
151204.000			61.809			-5.619
151304.000			61.809			-5.619
151404.000			61.809			-5.619
151504.000			61.807			-5.619
151605.000			61.806			-5.619
151704.000			61.807			-5.619
151804.000			61.805			-5.619
151905.000			61.804			-5.619
152004.000			61.804			-5.619
152104.000			61.802			-5.618
152204.000			61.800			-5.618
152304.000			61.799			-5.618
152404.000			61.799			-5.618
152505.000			61.797			-5.618
152604.000			61.797			-5.618
152704.000			61.796			-5.618
152805.000			61.796			-5.618
152904.000			61.795			-5.618
153005.000			61.794			-5.618
153103.000			61.793			-5.618
153204.000			61.790			-5.617
153305.000			61.792			-5.617
153404.000			61.791			-5.617
153504.000			61.790			-5.617
153605.000			61.788			-5.617
153704.000			61.787			-5.617
153804.000			61.786			-5.617
153905.000			61.785			-5.617
154003.000			61.786			-5.617
154104.000			61.785			-5.617
154204.000			61.784			-5.617
154304.000			61.783			-5.617
154404.000			61.783			-5.617
154505.000			61.782			-5.617
154604.000			61.781			-5.616
154704.000			61.779			-5.616
154805.000			61.779			-5.616
154903.000			61.778			-5.616
155004.000			61.778			-5.616
155104.000			61.777			-5.616
155204.000			61.776			-5.616
155304.000			61.775			-5.616
155405.000			61.773			-5.616
155504.000			61.772			-5.616
155604.000			61.770			-5.615
155705.000			61.770			-5.615
155803.000			61.770			-5.615
155904.000			61.769			-5.615
156003.000			61.768			-5.615
156104.000			61.768			-5.615
156205.000			61.767			-5.615
156304.000			61.767			-5.615
156404.000			61.765			-5.615
156505.000			61.764			-5.615
156604.000			61.763			-5.615
156703.000			61.763			-5.615
156805.000			61.763			-5.615
156903.000			61.762			-5.615
157004.000			61.761			-5.615
157105.000			61.759			-5.614
157204.000			61.758			-5.614
157304.000			61.757			-5.614
157405.000			61.757			-5.614
157504.000			61.757			-5.614
157604.000			61.756			-5.614
157705.000			61.755			-5.614
157803.000			61.754			-5.614
157904.000			61.753			-5.614
158005.000			61.752			-5.614
158104.000			61.751			-5.614
158204.000			61.750			-5.614
158305.000			61.748			-5.613
158404.000			61.748			-5.613
158504.000			61.749			-5.614
158605.000			61.747			-5.613
158703.000			61.746			-5.613
158804.000			61.745			-5.613
158905.000			61.744			-5.613
159004.000			61.741			-5.613
159104.000			61.741			-5.613
159204.000			61.742			-5.613
159304.000			61.742			-5.613
159405.000			61.741			-5.613
159504.000			61.740			-5.613
159603.000			61.739			-5.613
159705.000			61.737			-5.612
159804.000			61.737			-5.612
159904.000			61.737			-5.612
160005.000			61.736			-5.612
160104.000			61.735			-5.612
160204.000			61.735			-5.612
160305.000			61.733			-5.612
160404.000			61.732			-5.612
160503.000			61.731			-5.612
160605.000			61.730			-5.612
160704.000			61.730			-5.612
160804.000			61.729			-5.612
160905.000			61.728			-5.612
161004.000			61.728			-5.612
161104.000			61.727			-5.612
161205.000			61.727			-5.612
161304.000			61.726			-5.611
161403.000			61.726			-5.611
161505.000			61.725			-5.611
161604.000			61.723			-5.611
161704.000			61.722			-5.611
161805.000			61.721			-5.611
161904.000			61.721			-5.611
162004.000			61.719			-5.611
162105.000			61.717			-5.611
162204.000			61.717			-5.611
162303.000			61.717			-5.611
162405.000			61.716			-5.611
162504.000			61.715			-5.610
162605.000			61.714			-5.610
162704.000			61.713			-5.610
162804.000			61.713			-5.610
162905.000			61.713			-5.610
163004.000			61.713			-5.610
163104.000			61.711			-5.610
163204.000			61.710			-5.610
163304.000			61.708			-5.610
163404.000			61.706			-5.610
163505.000			61.706			-5.610
163604.000			61.707			-5.610
163704.000			61.707			-5.610
163805.000			61.706			-5.610
163904.000			61.705			-5.610
164004.000			61.705			-5.610
164104.000			61.702			-5.609
164204.000			61.701			-5.609
164304.000			61.701			-5.609
164405.000			61.700			-5.609
164504.000			61.700			-5.609
164604.000			61.699			-5.609
164705.000			61.698			-5.609
164803.000			61.696			-5.609
164904.000			61.696			-5.609
165004.000			61.694			-5.609
165104.000			61.694			-5.609
165204.000			61.692			-5.608
165305.000			61.692			-5.608
165404.000			61.692			-5.608
165504.000			61.691			-5.608
165605.000			61.690			-5.608
165704.000			61.689			-5.608
165805.000			61.688			-5.608
165903.000			61.688			-5.608
166004.000			61.688			-5.608
166105.000			61.687			-5.608
166204.000			61.685			-5.608
166304.000			61.684			-5.608
166405.000			61.684			-5.608
166504.000			61.683			-5.608
166604.000			61.682			-5.607
166705.000			61.681			-5.607
166803.000			61.681			-5.607
166904.000			61.680			-5.607
167005.000			61.679			-5.607
167104.000			61.678			-5.607
167204.000			61.678			-5.607
167305.000			61.678			-5.607
167404.000			61.676			-5.607
167504.000			61.676			-5.607
167605.000			61.676			-5.607
167703.000			61.674			-5.607
167804.000			61.673			-5.607
167904.000			61.673			-5.607
168004.000			61.672			-5.607
168104.000			61.671			-5.606
168205.000			61.670			-5.606
168304.000			61.670			-5.606
168404.000			61.668			-5.606
168505.000			61.666			-5.606
168604.000			61.666			-5.606
168704.000			61.665			-5.606
168803.000			61.664			-5.606
168904.000			61.664			-5.606
169005.000			61.663			-5.606
169104.000			61.663			-5.606
169204.000			61.662			-5.606
169305.000			61.661			-5.606
169404.000			61.660			-5.605
169504.000			61.659			-5.605
169605.000			61.659			-5.605
169703.000			61.658			-5.605
169804.000			61.657			-5.605
169904.000			61.656			-5.605
170004.000			61.656			-5.605
170104.000			61.655			-5.605
170205.000			61.655			-5.605
170304.000			61.654			-5.605
170404.000			61.653			-5.605
170505.000			61.652			-5.605
170603.000			61.650			-5.605
170704.000			61.650			-5.605
170804.000			61.651			-5.605
170904.000			61.651			-5.605
171004.000			61.649			-5.604
171105.000			61.647			-5.604
171204.000			61.646			-5.604
171304.000			61.645			-5.604
171405.000			61.645			-5.604
171503.000			61.645			-5.604
171604.000			61.644			-5.604
171704.000			61.644			-5.604
171804.000			61.642			-5.604
171904.000			61.641			-5.604
172004.000			61.640			-5.604
172104.000			61.640			-5.604
172205.000			61.639			-5.604
172304.000			61.638			-5.603
172403.000			61.637			-5.603
172505.000			61.636			-5.603
172603.000			61.636			-5.603
172704.000			61.636			-5.603
172805.000			61.634			-5.603
172904.000			61.632			-5.603
173004.000			61.631			-5.603
173105.000			61.631			-5.603
173204.000			61.631			-5.603
173303.000			61.631			-5.603
173405.000			61.629			-5.603
173504.000			61.629			-5.603
173604.000			61.628			-5.603
173705.000			61.627			-5.602
173804.000			61.627			-5.602
173904.000			61.625			-5.602
174005.000			61.625			-5.602
174104.000			61.624			-5.602
174203.000			61.622			-5.602
174305.000			61.622			-5.602
174404.000			61.621			-5.602
174504.000			61.621			-5.602
174605.000			61.621			-5.602
174704.000			61.621			-5.602
174804.000			61.619			-5.602
174905.000			61.617			-5.602
175004.000			61.616			-5.601
175103.000			61.615			-5.601
175205.000			61.616			-5.601
175304.000			61.616			-5.601
175405.000			61.616			-5.601
175504.000			61.613			-5.601
175604.000			61.613			-5.601
175705.000			61.613			-5.601
175804.000			61.612			-5.601
175904.000			61.611			-5.601
176004.000			61.611			-5.601
176104.000			61.609			-5.601
176203.000			61.607			-5.601
176305.000			61.607			-5.601
176404.000			61.607			-5.601
176504.000			61.606			-5.601
176605.000			61.606			-5.601
176704.000			61.606			-5.601
176804.000			61.603			-5.600
176904.000			61.602			-5.600
177004.000			61.602			-5.600
177103.000			61.600			-5.600
177205.000			61.600			-5.600
177304.000			61.600			-5.600
177404.000			61.599			-5.600
177505.000			61.598			-5.600
177604.000			61.597			-5.600
177704.000			61.597			-5.600
177805.000			61.597			-5.600
177904.000			61.595			-5.600
178003.000			61.595			-5.600
178105.000			61.594			-5.599
178204.000			61.593			-5.599
178304.000			61.593			-5.599
178405.000			61.593			-5.599
178504.000			61.592			-5.599
178605.000			61.589			-5.599
178704.000			61.589			-5.599
178804.000			61.589			-5.599
178905.000			61.588			-5.599
179004.000			61.587			-5.599
179103.000			61.586			-5.599
179205.000			61.586			-5.599
179304.000			61.583			-5.598
179404.000			61.582			-5.598
179505.000			61.582			-5.598
179604.000			61.582			-5.598
179704.000			61.582			-5.598
179805.000			61.582			-5.598
179904.000			61.581			-5.598
180003.000			61.578			-5.598
180105.000			61.578			-5.598
180204.000			61.577			-5.598
180304.000			61.577			-5.598
180405.000			61.577			-5.598
180504.000			61.577			-5.598
180604.000			61.575			-5.598
180705.000			61.573			-5.598
180804.000			61.573			-5.598
180903.000			61.573			-5.598
181005.000			61.572			-5.597
181103.000			61.571			-5.597
181204.000			61.571			-5.597
181305.000			61.570			-5.597
181404.000			61.568			-5.597
181504.000			61.569			-5.597
181604.000			61.568			-5.597
181704.000			61.567			-5.597
181803.000			61.566			-5.597
181904.000			61.564			-5.597
182003.000			61.563			-5.597
182105.000			61.564			-5.597
182204.000			61.563			-5.597
182304.000			61.562			-5.597
182405.000			61.562			-5.597
182504.000			61.561			-5.596
182604.000			61.560			-5.596
182704.000			61.560			-5.596
182804.000			61.558			-5.596
182903.000			61.557			-5.596
183005.000			61.556			-5.596
183104.000			61.555			-5.596
183204.000			61.556			-5.596
183305.000			61.556			-5.596
183404.000			61.555			-5.596
183504.000			61.554			-5.596
183604.000			61.553			-5.596
183704.000			61.551			-5.596
183803.000			61.551			-5.596
183905.000			61.550			-5.595
184004.000			61.549			-5.595
184104.000			61.548			-5.595
184205.000			61.548			-5.595
184304.000			61.547			-5.595
184404.000			61.546			-5.595
184504.000			61.547			-5.595
184604.000			61.546			-5.595
184703.000			61.545			-5.595
184805.000			61.545			-5.595
184904.000			61.544			-5.595
185005.000			61.543			-5.595
185104.000			61.543			-5.595
185204.000			61.542			-5.595
185305.000			61.541			-5.595
185404.000			61.540			-5.595
185504.000			61.540			-5.595
185604.000			61.538			-5.594
185704.000			61.537			-5.594
185804.000			61.538			-5.594
185905.000			61.537			-5.594
186004.000			61.537			-5.594
186104.000			61.535			-5.594
186205.000			61.534			-5.594
186304.000			61.533			-5.594
186404.000			61.532			-5.594
186504.000			61.531			-5.594
186604.000			61.532			-5.594
186704.000			61.531			-5.594
186805.000			61.530			-5.594
186904.000			61.529			-5.594
187004.000			61.529			-5.594
187105.000			61.528			-5.593
187204.000			61.527			-5.593
187304.000			61.526			-5.593
187404.000			61.525			-5.593
187504.000			61.525			-5.593
187604.000			61.524			-5.593
187705.000			61.523			-5.593
187804.000			61.522			-5.593
187904.000			61.522			-5.593
188005.000			61.519			-5.593
188104.000			61.519			-5.593
188205.000			61.520			-5.593
188303.000			61.520			-5.593
188404.000			61.519			-5.593
188505.000			61.518			-5.593
188604.000			61.517			-5.592
188704.000			61.517			-5.592
188805.000			61.516			-5.592
188904.000			61.515			-5.592
189004.000			61.513			-5.592
189105.000			61.515			-5.592
189203.000			61.515			-5.592
189304.000			61.514			-5.592
189404.000			61.512			-5.592
189504.000			61.512			-5.592
189604.000			61.511			-5.592
189705.000			61.509			-5.592
189804.000			61.508			-5.592
189904.000			61.508			-5.592
190005.000			61.508			-5.592
190103.000			61.508			-5.592
190204.000			61.506			-5.591
190304.000			61.504			-5.591
190404.000			61.503			-5.591
190504.000			61.503			-5.591
190605.000			61.503			-5.591
190704.000			61.503			-5.591
190804.000			61.502			-5.591
190905.000			61.500			-5.591
191003.000			61.500			-5.591
191104.000			61.499			-5.591
191203.000			61.499			-5.591
191304.000			61.499			-5.591
191405.000			61.498			-5.591
191504.000			61.497			-5.591
191604.000			61.496			-5.591
191705.000			61.496			-5.591
191804.000			61.495			-5.590
191904.000			61.494			-5.590
192005.000			61.493			-5.590
192103.000			61.492			-5.590
192204.000			61.491			-5.590
192305.000			61.490			-5.590
192404.000			61.489			-5.590
192504.000			61.489			-5.590
192605.000			61.489			-5.590
192704.000			61.489			-5.590
192804.000			61.487			-5.590
192905.000			61.487			-5.590
193003.000			61.487			-5.590
193104.000			61.486			-5.590
193205.000			61.485			-5.590
193304.000			61.484			-5.589
193404.000			61.484			-5.589
193505.000			61.483			-5.589
193604.000			61.484			-5.589
193704.000			61.482			-5.589
193805.000			61.481			-5.589
193903.000			61.480			-5.589
194004.000			61.480			-5.589
194105.000			61.481			-5.589
194204.000			61.479			-5.589
194304.000			61.478			-5.589
194404.000			61.478			-5.589
194504.000			61.476			-5.589
194605.000			61.476			-5.589
194704.000			61.475			-5.589
194803.000			61.474			-5.589
194905.000			61.474			-5.589
195003.000			61.474			-5.589
195104.000			61.472			-5.588
195205.000			61.470			-5.588
195304.000			61.469			-5.588
195404.000			61.468			-5.588
195505.000			61.468			-5.588
195604.000			61.469			-5.588
195704.000			61.469			-5.588
195805.000			61.468			-5.588
195903.000			61.466			-5.588
196004.000			61.465			-5.588
196105.000			61.465			-5.588
196204.000			61.464			-5.588
196304.000			61.464			-5.588
196405.000			61.463			-5.588
196504.000			61.462			-5.587
196604.000			61.461			-5.587
196705.000			61.460			-5.587
196803.000			61.460			-5.587
196904.000			61.460			-5.587
197005.000			61.460			-5.587
197104.000			61.458			-5.587
197204.000			61.458			-5.587
197305.000			61.458			-5.587
197404.000			61.456			-5.587
197504.000			61.455			-5.587
197605.000			61.454			-5.587
197703.000			61.454			-5.587
197805.000			61.453			-5.587
197903.000			61.453			-5.587
198004.000			61.452			-5.587
198105.000			61.451			-5.586
198204.000			61.450			-5.586
198304.000			61.449			-5.586
198405.000			61.449			-5.586
198504.000			61.449			-5.586
198604.000			61.448			-5.586
198705.000			61.448			-5.586
198803.000			61.445			-5.586
198904.000			61.445			-5.586
199005.000			61.445			-5.586
199104.000			61.445			-5.586
199204.000			61.444			-5.586
199305.000			61.443			-5.586
199404.000			61.443			-5.586
199504.000			61.442			-5.586
199605.000			61.441			-5.586
199703.000			61.441			-5.586
199804.000			61.441			-5.586
199905.000			61.440			-5.585
200004.000			61.439			-5.585
200104.000			61.439			-5.585
200205.000			61.439			-5.585
200304.000			61.437			-5.585
200404.000			61.437			-5.585
200505.000			61.436			-5.585
200603.000			61.434			-5.585
200704.000			61.435			-5.585
200805.000			61.433			-5.585
200904.000			61.433			-5.585
201005.000			61.433			-5.585
201104.000			61.431			-5.585
201204.000			61.430			-5.585
201305.000			61.430			-5.585
201404.000			61.428			-5.584
201503.000			61.428			-5.584
201605.000			61.428			-5.584
201704.000			61.427			-5.584
201804.000			61.427			-5.584
201905.000			61.426			-5.584
202004.000			61.426			-5.584
202104.000			61.425			-5.584
202204.000			61.424			-5.584
202304.000			61.423			-5.584
202403.000			61.423			-5.584
202505.000			61.422			-5.584
202604.000			61.422			-5.584
202704.000			61.421			-5.584
202805.000			61.421			-5.584
202904.000			61.420			-5.584
203004.000			61.418			-5.583
203104.000			61.418			-5.583
203204.000			61.418			-5.583
203304.000			61.417			-5.583
203405.000			61.416			-5.583
203504.000			61.416			-5.583
203604.000			61.415			-5.583
203705.000			61.414			-5.583
203804.000			61.414			-5.583
203904.000			61.413			-5.583
204003.000			61.412			-5.583
204104.000			61.412			-5.583
204205.000			61.412			-5.583
204304.000			61.411			-5.583
204404.000			61.408			-5.583
204505.000			61.409			-5.583
204604.000			61.409			-5.583
204703.000			61.408			-5.583
204805.000			61.408			-5.583
204904.000			61.407			-5.582
205004.000			61.406			-5.582
205105.000			61.405			-5.582
205204.000			61.403			-5.582
205304.000			61.404			-5.582
205405.000			61.403			-5.582
205504.000			61.403			-5.582
205603.000			61.401			-5.582
205705.000			61.400			-5.582
205804.000			61.400			-5.582
205904.000			61.400			-5.582
206005.000			61.399			-5.582
206104.000			61.399			-5.582
206204.000			61.397			-5.582
206305.000			61.397			-5.582
206404.000			61.396			-5.581
206503.000			61.397			-5.582
206605.000			61.397			-5.582
206704.000			61.395			-5.581
206804.000			61.394			-5.581
206905.000			61.394			-5.581
207004.000			61.393			-5.581
207104.000			61.392			-5.581
207204.000			61.392			-5.581
207304.000			61.391			-5.581
207403.000			61.390			-5.581
207504.000			61.389			-5.581
207604.000			61.388			-5.581
207705.000			61.388			-5.581
207804.000			61.387			-5.581
207904.000			61.386			-5.581
208005.000			61.386			-5.581
208104.000			61.385			-5.580
208204.000			61.385			-5.580
208304.000			61.384			-5.580
208404.000			61.384			-5.580
208504.000			61.383			-5.580
208605.000			61.383			-5.580
208704.000			61.381			-5.580
208804.000			61.380			-5.580
208905.000			61.380			-5.580
209004.000			61.379			-5.580
209104.000			61.379			-5.580
209204.000			61.378			-5.580
209304.000			61.377			-5.580
209404.000			61.377			-5.580
209505.000			61.376			-5.580
209604.000			61.376			-5.580
209704.000			61.375			-5.580
209805.000			61.374			-5.579
209904.000			61.374			-5.579
210004.000			61.375			-5.580
210104.000			61.373			-5.579
210204.000			61.371			-5.579
210304.000			61.371			-5.579
210404.000			61.371			-5.579
210504.000			61.371			-5.579
210605.000			61.369			-5.579
210704.000			61.368			-5.579
210804.000			61.369			-5.579
210905.000			61.369			-5.579
211003.000			61.368			-5.579
211104.000			61.367			-5.579
211205.000			61.366			-5.579
211304.000			61.365			-5.579
211404.000			61.365			-5.579
211505.000			61.365			-5.579
211604.000			61.364			-5.579
211704.000			61.363			-5.578
211805.000			61.363			-5.578
211903.000			61.361			-5.578
212004.000			61.359			-5.578
212105.000			61.360			-5.578
212204.000			61.359			-5.578
212304.000			61.359			-5.578
212405.000			61.359			-5.578
212504.000			61.357			-5.578
212603.000			61.358			-5.578
212705.000			61.357			-5.578
212804.000			61.357			-5.578
212904.000			61.355			-5.578
213005.000			61.354			-5.578
213104.000			61.355			-5.578
213204.000			61.355			-5.578
213305.000			61.353			-5.578
213404.000			61.353			-5.578
213503.000			61.352			-5.577
213605.000			61.351			-5.577
213704.000			61.350			-5.577
213805.000			61.348			-5.577
213904.000			61.349			-5.577
214004.000			61.349			-5.577
214105.000			61.349			-5.577
214204.000			61.347			-5.577
214304.000			61.346			-5.577
214404.000			61.346			-5.577
214504.000			61.346			-5.577
214604.000			61.344			-5.577
214705.000			61.345			-5.577
214804.000			61.344			-5.577
214904.000			61.344			-5.577
215005.000			61.343			-5.577
215103.000			61.342			-5.577
215204.000			61.341			-5.576
215304.000			61.340			-5.576
215404.000			61.340			-5.576
215504.000			61.340			-5.576
215605.000			61.338			-5.576
215704.000			61.337			-5.576
215804.000			61.337			-5.576
215905.000			61.336			-5.576
216003.000			61.336			-5.576
216104.000			61.336			-5.576
216204.000			61.335			-5.576
216304.000			61.335			-5.576
216404.000			61.335			-5.576
216505.000			61.333			-5.576
216604.000			61.333			-5.576
216704.000			61.332			-5.576
216805.000			61.331			-5.576
216903.000			61.331			-5.576
217005.000			61.329			-5.575
217104.000			61.329			-5.575
217204.000			61.330			-5.575
217305.000			61.328			-5.575
217404.000			61.327			-5.575
217504.000			61.327			-5.575
217605.000			61.326			-5.575
217704.000			61.325			-5.575
217803.000			61.326			-5.575
217905.000			61.326			-5.575
218004.000			61.324			-5.575
218104.000			61.322			-5.575
218205.000			61.322			-5.575
218304.000			61.322			-5.575
218404.000			61.322			-5.575
218505.000			61.321			-5.575
218604.000			61.321			-5.575
218703.000			61.321			-5.575
218805.000			61.320			-5.575
218904.000			61.320			-5.575
219004.000			61.318			-5.574
219105.000			61.317			-5.574
219204.000			61.316			-5.574
219304.000			61.317			-5.574
219404.000			61.316			-5.574
219504.000			61.315			-5.574
219603.000			61.315			-5.574
219705.000			61.315			-5.574
219804.000			61.313			-5.574
219904.000			61.312			-5.574
220005.000			61.312			-5.574
220104.000			61.311			-5.574
220205.000			61.310			-5.574
220303.000			61.309			-5.574
220404.000			61.309			-5.574
220505.000			61.308			-5.573
220604.000			61.307			-5.573
220704.000			61.307			-5.573
220805.000			61.308			-5.573
220904.000			61.308			-5.573
221004.000			61.308			-5.573
221105.000			61.306			-5.573
221203.000			61.306			-5.573
221304.000			61.304			-5.573
221405.000			61.303			-5.573
221504.000			61.302			-5.573
221604.000			61.301			-5.573
221705.000			61.301			-5.573
221804.000			61.301			-5.573
221903.000			61.301			-5.573
222005.000			61.300			-5.573
222104.000			61.298			-5.573
222204.000			61.298			-5.573
222305.000			61.298			-5.573
222404.000			61.297			-5.572
222504.000			61.296			-5.572
222605.000			61.296			-5.572
222704.000			61.296			-5.572
222803.000			61.296			-5.572
222905.000			61.295			-5.572
223004.000			61.293			-5.572
223104.000			61.293			-5.572
223205.000			61.292			-5.572
223304.000			61.292			-5.572
223405.000			61.292			-5.572
223504.000			61.290			-5.572
223604.000			61.289			-5.572
223704.000			61.289			-5.572
223804.000			61.288			-5.572
223904.000			61.287			-5.572
224005.000			61.287			-5.572
224104.000			61.289			-5.572
224204.000			61.288			-5.572
224305.000			61.287			-5.572
224404.000			61.285			-5.571
224504.000			61.285			-5.571
224604.000			61.284			-5.571
224704.000			61.283			-5.571
224803.000			61.282			-5.571
224905.000			61.282			-5.571
225004.000			61.281			-5.571
225104.000			61.281			-5.571
225205.000			61.281			-5.571
225304.000			61.281			-5.571
225404.000			61.280			-5.571
225504.000			61.279			-5.571
225604.000			61.279			-5.571
225703.000			61.277			-5.571
225805.000			61.276			-5.571
225904.000			61.275			-5.570
226004.000			61.275			-5.570
226105.000			61.274			-5.570
226204.000			61.274			-5.570
226304.000			61.274			-5.570
226403.000			61.272			-5.570
226504.000			61.271			-5.570
226603.000			61.271			-5.570
226704.000			61.272			-5.570
226804.000			61.269			-5.570
226905.000			61.269			-5.570
227004.000			61.269			-5.570
227104.000			61.270			-5.570
227205.000			61.269			-5.570
227304.000			61.268			-5.570
227404.000			61.267			-5.570
227504.000			61.267			-5.570
227604.000			61.266			-5.570
227704.000			61.266			-5.570
227805.000			61.266			-5.570
227904.000			61.264			-5.569
228004.000			61.263			-5.569
228105.000			61.262			-5.569
228204.000			61.263			-5.569
228304.000			61.263			-5.569
228404.000			61.262			-5.569
228504.000			61.261			-5.569
228604.000			61.260			-5.569
228705.000			61.260			-5.569
228804.000			61.260			-5.569
228904.000			61.259			-5.569
229005.000			61.259			-5.569
229104.000			61.258			-5.569
229204.000			61.257			-5.569
229304.000			61.256			-5.569
229404.000			61.255			-5.569
229504.000			61.254			-5.569
229604.000			61.254			-5.569
229704.000			61.252			-5.568
229805.000			61.252			-5.568
229904.000			61.252			-5.568
230004.000			61.253			-5.568
230105.000			61.252			-5.568
230203.000			61.252			-5.568
230304.000			61.252			-5.568
230404.000			61.250			-5.568
230504.000			61.249			-5.568
230604.000			61.248			-5.568
230705.000			61.248			-5.568
230804.000			61.248			-5.568
230904.000			61.246			-5.568
231005.000			61.245			-5.568
231103.000			61.244			-5.568
231204.000			61.246			-5.568
231305.000			61.245			-5.568
231404.000			61.243			-5.568
231504.000			61.243			-5.568
231605.000			61.244			-5.568
231704.000			61.244			-5.568
231804.000			61.242			-5.567
231905.000			61.241			-5.567
232003.000			61.240			-5.567
232104.000			61.240			-5.567
232205.000			61.239			-5.567
232304.000			61.238			-5.567
232404.000			61.238			-5.567
232505.000			61.237			-5.567
232604.000			61.237			-5.567
232703.000			61.236			-5.567
232805.000			61.237			-5.567
232903.000			61.235			-5.567
233005.000			61.233			-5.567
233104.000			61.233			-5.567
233204.000			61.234			-5.567
233305.000			61.234			-5.567
233404.000			61.232			-5.567
233504.000			61.231			-5.566
233604.000			61.231			-5.566
233704.000			61.231			-5.566
233804.000			61.232			-5.567
233905.000			61.231			-5.566
234004.000			61.229			-5.566
234104.000			61.229			-5.566
234205.000			61.227			-5.566
234304.000			61.227			-5.566
234404.000			61.225			-5.566
234504.000			61.225			-5.566
234604.000			61.225			-5.566
234704.000			61.224			-5.566
234805.000			61.223			-5.566
234904.000			61.223			-5.566
235004.000			61.223			-5.566
235105.000			61.222			-5.566
235203.000			61.222			-5.566
235304.000			61.221			-5.566
235404.000			61.220			-5.565
235504.000			61.219			-5.565
235604.000			61.219			-5.565
235705.000			61.218			-5.565
235804.000			61.219			-5.565
235904.000			61.217			-5.565
236005.000			61.217			-5.565
236103.000			61.216			-5.565
236205.000			61.217			-5.565
236304.000			61.216			-5.565
236404.000			61.215			-5.565
236505.000			61.215			-5.565
236604.000			61.214			-5.565
236704.000			61.213			-5.565
236805.000			61.213			-5.565
236904.000			61.213			-5.565
237003.000			61.212			-5.565
237105.000			61.210			-5.565
237204.000			61.210			-5.565
237304.000			61.210			-5.565
237405.000			61.209			-5.564
237504.000			61.208			-5.564
237604.000			61.208			-5.564
237705.000			61.207			-5.564
237804.000			61.207			-5.564
237903.000			61.207			-5.564
238005.000			61.205			-5.564
238104.000			61.204			-5.564
238204.000			61.203			-5.564
238305.000			61.202			-5.564
238404.000			61.203			-5.564
238504.000			61.202			-5.564
238604.000			61.202			-5.564
238704.000			61.202			-5.564
238803.000			61.201			-5.564
238905.000			61.200			-5.564
239004.000			61.199			-5.564
239104.000			61.199			-5.564
239205.000			61.199			-5.564
239304.000			61.198			-5.563
239405.000			61.198			-5.563
239503.000			61.196			-5.563
239604.000			61.196			-5.563
239704.000			61.196			-5.563
239804.000			61.195			-5.563
239904.000			61.194			-5.563
240005.000			61.194			-5.563
240104.000			61.194			-5.563
240204.000			61.193			-5.563
240305.000			61.192			-5.563
240404.000			61.192			-5.563
240504.000			61.192			-5.563
240604.000			61.191			-5.563
240704.000			61.190			-5.563
240804.000			61.190			-5.563
240905.000			61.188			-5.563
241004.000			61.188			-5.563
241104.000			61.187			-5.562
241205.000			61.186			-5.562
241303.000			61.186			-5.562
241404.000			61.186			-5.562
241504.000			61.186			-5.562
241604.000			61.184			-5.562
241704.000			61.183			-5.562
241805.000			61.184			-5.562
241904.000			61.184			-5.562
242004.000			61.183			-5.562
242105.000			61.182			-5.562
242203.000			61.182			-5.562
242304.000			61.181			-5.562
242405.000			61.181			-5.562
242504.000			61.181			-5.562
242605.000			61.181			-5.562
242704.000			61.180			-5.562
242804.000			61.178			-5.562
242905.000			61.177			-5.562
243004.000			61.178			-5.562
243103.000			61.176			-5.561
243205.000			61.175			-5.561
243304.000			61.175			-5.561
243404.000			61.175			-5.561
243505.000			61.175			-5.561
243604.000			61.175			-5.561
243704.000			61.174			-5.561
243805.000			61.173			-5.561
243904.000			61.172			-5.561
244003.000			61.171			-5.561
244105.000			61.172			-5.561
244204.000			61.171			-5.561
244304.000			61.171			-5.561
244405.000			61.170			-5.561
244504.000			61.168			-5.561
244604.000			61.169			-5.561
244705.000			61.168			-5.561
244804.000			61.168			-5.561
244903.000			61.168			-5.561
245005.000			61.167			-5.561
245104.000			61.166			-5.561
245204.000			61.165			-5.560
245305.000			61.165			-5.560
245404.000			61.164			-5.560
245504.000			61.163			-5.560
245604.000			61.163			-5.560
245704.000			61.163			-5.560
245803.000			61.163			-5.560
245904.000			61.162			-5.560
246004.000			61.161			-5.560
246105.000			61.161			-5.560
246204.000			61.161			-5.560
246304.000			61.159			-5.560
246405.000			61.159			-5.560
246504.000			61.159			-5.560
246604.000			61.158			-5.560
246704.000			61.157			-5.560
246804.000			61.157			-5.560
246904.000			61.156			-5.560
247005.000			61.156			-5.560
247104.000			61.154			-5.559
247204.000			61.153			-5.559
247305.000			61.154			-5.559
247404.000			61.154			-5.559
247504.000			61.153			-5.559
247604.000			61.154			-5.559
247704.000			61.153			-5.559
247804.000			61.152			-5.559
247905.000			61.150			-5.559
248004.000			61.151			-5.559
248104.000			61.151			-5.559
248205.000			61.148			-5.559
248304.000			61.147			-5.559
248404.000			61.147			-5.559
248504.000			61.146			-5.559
248604.000			61.146			-5.559
248704.000			61.146			-5.559
248804.000			61.145			-5.559
248904.000			61.146			-5.559
249005.000			61.145			-5.559
249104.000			61.144			-5.559
249204.000			61.144			-5.559
249305.000			61.145			-5.559
249403.000			61.143			-5.558
249504.000			61.142			-5.558
249605.000			61.140			-5.558
249704.000			61.140			-5.558
249804.000			61.140			-5.558
249905.000			61.140			-5.558
250004.000			61.139			-5.558
250104.000			61.138			-5.558
250205.000			61.138			-5.558
250303.000			61.138			-5.558
250404.000			61.137			-5.558
250505.000			61.135			-5.558
250604.000			61.134			-5.558
250704.000			61.134			-5.558
250805.000			61.134			-5.558
250904.000			61.134			-5.558
251003.000			61.134			-5.558
251105.000			61.133			-5.558
251204.000			61.133			-5.558
251304.000			61.132			-5.557
251405.000			61.132			-5.557
251504.000			61.131			-5.557
251604.000			61.130			-5.557
251705.000			61.131			-5.557
251804.000			61.130			-5.557
251903.000			61.129			-5.557
252005.000			61.129			-5.557
252104.000			61.127			-5.557
252205.000			61.127			-5.557
252304.000			61.128			-5.557
252404.000			61.126			-5.557
252505.000			61.126			-5.557
252604.000			61.125			-5.557
252704.000			61.124			-5.557
252804.000			61.124			-5.557
252904.000			61.125			-5.557
253004.000			61.124			-5.557
253105.000			61.123			-5.557
253204.000			61.121			-5.556
253304.000			61.121			-5.556
253405.000			61.120			-5.556
253503.000			61.120			-5.556
253604.000			61.120			-5.556
253705.000			61.119			-5.556
253804.000			61.119			-5.556
253904.000			61.118			-5.556
254005.000			61.118			-5.556
254104.000			61.117			-5.556
254204.000			61.115			-5.556
254305.000			61.114			-5.556
254403.000			61.115			-5.556
254504.000			61.115			-5.556
254605.000			61.115			-5.556
254704.000			61.113			-5.556
254804.000			61.113			-5.556
254905.000			61.113			-5.556
255004.000			61.113			-5.556
255104.000			61.113			-5.556
255205.000			61.112			-5.556
255303.000			61.112			-5.556
255405.000			61.109			-5.555
255504.000			61.109			-5.555
255604.000			61.109			-5.555
255705.000			61.109			-5.555
255804.000			61.108			-5.555
255904.000			61.107			-5.555
256004.000			61.107			-5.555
256104.000			61.105			-5.555
256203.000			61.105			-5.555
256305.000			61.105			-5.555
256404.000			61.104			-5.555
256504.000			61.103			-5.555
256605.000			61.104			-5.555
256704.000			61.104			-5.555
256804.000			61.102			-5.555
256904.000			61.101			-5.555
257004.000			61.100			-5.555
257104.000			61.101			-5.555
257205.000			61.100			-5.555
257304.000			61.100			-5.555
257404.000			61.100			-5.555
257505.000			61.098			-5.554
257604.000			61.097			-5.554
257704.000			61.097			-5.554
257804.000			61.097			-5.554
257904.000			61.097			-5.554
258004.000			61.096			-5.554
258105.000			61.096			-5.554
258204.000			61.095			-5.554
258304.000			61.094			-5.554
258405.000			61.094			-5.554
258504.000			61.094			-5.554
258605.000			61.093			-5.554
258703.000			61.093			-5.554
258804.000			61.092			-5.554
258904.000			61.091			-5.554
259004.000			61.091			-5.554
259104.000			61.089			-5.554
259205.000			61.089			-5.554
259304.000			61.089			-5.554
259404.000			61.089			-5.554
259505.000			61.089			-5.554
259604.000			61.088			-5.553
259704.000			61.088			-5.553
259804.000			61.086			-5.553
259904.000			61.085			-5.553
260004.000			61.085			-5.553
260105.000			61.085			-5.553
260204.000			61.084			-5.553
260304.000			61.084			-5.553
260405.000			61.084			-5.553
260504.000			61.083			-5.553
260604.000			61.082			-5.553
260704.000			61.082			-5.553
260804.000			61.082			-5.553
260904.000			61.082			-5.553
261005.000			61.081			-5.553
261104.000			61.080			-5.553
261204.000			61.080			-5.553
261305.000			61.079			-5.553
261404.000			61.078			-5.553
261504.000			61.078			-5.553
261603.000			61.077			-5.552
261704.000			61.076			-5.552
261805.000			61.076			-5.552
261904.000			61.076			-5.552
262004.000			61.076			-5.552
262105.000			61.076			-5.552
262204.000			61.075			-5.552
262304.000			61.075			-5.552
262405.000			61.075			-5.552
262503.000			61.074			-5.552
262604.000			61.073			-5.552
262705.000			61.071			-5.552
262804.000			61.070			-5.552
262904.000			61.070			-5.552
263005.000			61.070			-5.552
263104.000			61.070			-5.552
263203.000			61.070			-5.552
263305.000			61.070			-5.552
263403.000			61.069			-5.552
263504.000			61.068			-5.552
263605.000			61.068			-5.552
263704.000			61.067			-5.552
263804.000			61.066			-5.551
263905.000			61.065			-5.551
264004.000			61.064			-5.551
264103.000			61.065			-5.551
264205.000			61.064			-5.551
264304.000			61.064			-5.551
264404.000			61.064			-5.551
264505.000			61.063			-5.551
264604.000			61.062			-5.551
264704.000			61.061			-5.551
264804.000			61.061			-5.551
264904.000			61.061			-5.551
265003.000			61.060			-5.551
265104.000			61.059			-5.551
265204.000			61.058			-5.551
265305.000			61.058			-5.551
265404.000			61.058			-5.551
265504.000			61.058			-5.551
265605.000			61.057			-5.551
265704.000			61.055			-5.550
265804.000			61.055			-5.550
265904.000			61.055			-5.550
266004.000			61.054			-5.550
266104.000			61.054			-5.550
266205.000			61.053			-5.550
266304.000			61.054			-5.550
266404.000			61.053			-5.550
266505.000			61.053			-5.550
266604.000			61.052			-5.550
266704.000			61.051			-5.550
266804.000			61.050			-5.550
266904.000			61.050			-5.550
267004.000			61.049			-5.550
267105.000			61.048			-5.550
267204.000			61.048			-5.550
267304.000			61.048			-5.550
267405.000			61.047			-5.550
267504.000			61.047			-5.550
267604.000			61.046			-5.550
267704.000			61.047			-5.550
267804.000			61.046			-5.550
267903.000			61.045			-5.550
268005.000			61.044			-5.549
268104.000			61.044			-5.549
268205.000			61.043			-5.549
268304.000			61.043			-5.549
268404.000			61.043			-5.549
268505.000			61.041			-5.549
268603.000			61.041			-5.549
268704.000			61.041			-5.549
268805.000			61.040			-5.549
268904.000			61.041			-5.549
269004.000			61.041			-5.549
269105.000			61.041			-5.549
269204.000			61.039			-5.549
269304.000			61.039			-5.549
269405.000			61.039			-5.549
269503.000			61.038			-5.549
269604.000			61.036			-5.549
269705.000			61.036			-5.549
269804.000			61.036			-5.549
269904.000			61.034			-5.549
270005.000			61.033			-5.548
270104.000			61.033			-5.548
270204.000			61.034			-5.549
270305.000			61.035			-5.549
270403.000			61.034			-5.549
270504.000			61.034			-5.549
270605.000			61.032			-5.548
270704.000			61.030			-5.548
270804.000			61.029			-5.548
270905.000			61.028			-5.548
271004.000			61.029			-5.548
271103.000			61.029			-5.548
271205.000			61.029			-5.548
271303.000			61.029			-5.548
271405.000			61.027			-5.548
271504.000			61.027			-5.548
271604.000			61.026			-5.548
271705.000			61.025			-5.548
271804.000			61.025			-5.548
271904.000			61.025			-5.548
272004.000			61.025			-5.548
272104.000			61.025			-5.548
272203.000			61.023			-5.548
272305.000			61.021			-5.547
272404.000			61.022			-5.547
272504.000			61.022			-5.547
272605.000			61.021			-5.547
272704.000			61.021			-5.547
272804.000			61.021			-5.547
272904.000			61.021			-5.547
273004.000			61.020			-5.547
273104.000			61.020			-5.547
273205.000			61.019			-5.547
273304.000			61.019			-5.547
273404.000			61.018			-5.547
273505.000			61.017			-5.547
273603.000			61.016			-5.547
273704.000			61.014			-5.547
273804.000			61.014			-5.547
273904.000			61.015			-5.547
274004.000			61.015			-5.547
274105.000			61.015			-5.547
274204.000			61.013			-5.547
274304.000			61.011			-5.546
274405.000			61.011			-5.546
274503.000			61.010			-5.546
274605.000			61.011			-5.546
274704.000			61.011			-5.546
274804.000			61.011			-5.546
274905.000			61.010			-5.546
275004.000			61.009			-5.546
275104.000			61.009			-5.546
275205.000			61.009			-5.546
275304.000			61.008			-5.546
275403.000			61.007			-5.546
275505.000			61.007			-5.546
275604.000			61.006			-5.546
275704.000			61.006			-5.546
275805.000			61.006			-5.546
275904.000			61.006			-5.546
276004.000			61.004			-5.546
276104.000			61.003			-5.546
276204.000			61.004			-5.546
276303.000			61.003			-5.546
276405.000			61.003			-5.546
276504.000			61.002			-5.546
276604.000			61.000			-5.545
276705.000			61.000			-5.545
276804.000			61.001			-5.546
276904.000			61.000			-5.545
277004.000			60.999			-5.545
277104.000			60.999			-5.545
277203.000			60.998			-5.545
277305.000			60.998			-5.545
277404.000			60.996			-5.545
277504.000			60.996			-5.545
277605.000			60.997			-5.545
277704.000			60.996			-5.545
277805.000			60.995			-5.545
277904.000			60.995			-5.545
278004.000			60.994			-5.545
278104.000			60.994			-5.545
278204.000			60.994			-5.545
278304.000			60.994			-5.545
278405.000			60.993			-5.545
278504.000			60.992			-5.545
278604.000			60.991			-5.545
278705.000			60.991			-5.545
278804.000			60.990			-5.545
278904.000			60.990			-5.545
279004.000			60.990			-5.545
279104.000			60.989			-5.544
279203.000			60.988			-5.544
279305.000			60.988			-5.544
279404.000			60.988			-5.544
279504.000			60.988			-5.544
279605.000			60.987			-5.544
279704.000			60.987			-5.544
279804.000			60.986			-5.544
279905.000			60.986			-5.544
280004.000			60.985			-5.544
280103.000			60.985			-5.544
280205.000			60.984			-5.544
280303.000			60.983			-5.544
280404.000			60.984			-5.544
280505.000			60.984			-5.544
280604.000			60.982			-5.544
280704.000			60.982			-5.544
280804.000			60.981			-5.544
280904.000			60.980			-5.544
281005.000			60.980			-5.544
281104.000			60.980			-5.544
281203.000			60.980			-5.544
281305.000			60.979			-5.544
281404.000			60.978			-5.543
281504.000			60.977			-5.543
281605.000			60.977			-5.543
281704.000			60.976			-5.543
281804.000			60.977			-5.543
281905.000			60.977			-5.543
282004.000			60.976			-5.543
282103.000			60.974			-5.543
282205.000			60.974			-5.543
282304.000			60.974			-5.543
282404.000			60.975			-5.543
282505.000			60.973			-5.543
282604.000			60.971			-5.543
282704.000			60.971			-5.543
282805.000			60.971			-5.543
282904.000			60.971			-5.543
283003.000			60.969			-5.543
283105.000			60.968			-5.543
283203.000			60.969			-5.543
283304.000			60.968			-5.543
283405.000			60.968			-5.543
283504.000			60.967			-5.542
283604.000			60.967			-5.542
283705.000			60.968			-5.543
283804.000			60.966			-5.542
283903.000			60.965			-5.542
284005.000			60.964			-5.542
284103.000			60.965			-5.542
284205.000			60.964			-5.542
284304.000			60.964			-5.542
284404.000			60.963			-5.542
284505.000			60.962			-5.542
284604.000			60.962			-5.542
284704.000			60.962			-5.542
284805.000			60.961			-5.542
284904.000			60.960			-5.542
285003.000			60.960			-5.542
285105.000			60.960			-5.542
285204.000			60.959			-5.542
285304.000			60.958			-5.542
285405.000			60.957			-5.542
285504.000			60.956			-5.541
285604.000			60.957			-5.542
285705.000			60.957			-5.542
285804.000			60.957			-5.542
285903.000			60.956			-5.541
286005.000			60.955			-5.541
286103.000			60.955			-5.541
286204.000			60.955			-5.541
286305.000			60.955			-5.541
286404.000			60.954			-5.541
286504.000			60.954			-5.541
286605.000			60.952			-5.541
286704.000			60.953			-5.541
286804.000			60.951			-5.541
286905.000			60.951			-5.541
287003.000			60.951			-5.541
287104.000			60.950			-5.541
287205.000			60.950			-5.541
287304.000			60.950			-5.541
287405.000			60.950			-5.541
287504.000			60.948			-5.541
287604.000			60.948			-5.541
287705.000			60.946			-5.541
287804.000			60.947			-5.541
287903.000			60.948			-5.541
288005.000			60.946			-5.541
288103.000			60.945			-5.540
288204.000			60.945			-5.540
288305.000			60.944			-5.540
288404.000			60.945			-5.540
288504.000			60.945			-5.540
288605.000			60.943			-5.540
288704.000			60.944			-5.540
288804.000			60.941			-5.540
288905.000			60.941			-5.540
289003.000			60.940			-5.540
289104.000			60.940			-5.540
289205.000			60.941			-5.540
289304.000			60.939			-5.540
289404.000			60.939			-5.540
289505.000			60.939			-5.540
289604.000			60.939			-5.540
289704.000			60.938			-5.540
289805.000			60.939			-5.540
289903.000			60.938			-5.540
290004.000			60.936			-5.540
290104.000			60.936			-5.540
290204.000			60.937			-5.540
290304.000			60.936			-5.540
290404.000			60.935			-5.540
290504.000			60.934			-5.539
290605.000			60.933			-5.539
290704.000			60.932			-5.539
290803.000			60.932			-5.539
290905.000			60.931			-5.539
291003.000			60.931			-5.539
291104.000			60.931			-5.539
291205.000			60.930			-5.539
291304.000			60.930			-5.539
291404.000			60.930			-5.539
291505.000			60.929			-5.539
291604.000			60.929			-5.539
291703.000			60.929			-5.539
291805.000			60.927			-5.539
291903.000			60.927			-5.539
292004.000			60.928			-5.539
292105.000			60.928			-5.539
292204.000			60.926			-5.539
292304.000			60.926			-5.539
292405.000			60.925			-5.539
292504.000			60.924			-5.539
292604.000			60.924			-5.539
292705.000			60.924			-5.539
292803.000			60.924			-5.539
292904.000			60.923			-5.538
293005.000			60.924			-5.539
293104.000			60.923			-5.538
293204.000			60.922			-5.538
293305.000			60.921			-5.538
293404.000			60.921			-5.538
293504.000			60.921			-5.538
293605.000			60.920			-5.538
293703.000			60.920			-5.538
293805.000			60.918			-5.538
293904.000			60.917			-5.538
294004.000			60.916			-5.538
294105.000			60.917			-5.538
294204.000			60.917			-5.538
294304.000			60.917			-5.538
294405.000			60.917			-5.538
294504.000			60.915			-5.538
294603.000			60.913			-5.538
294705.000			60.913			-5.538
294804.000			60.914			-5.538
294904.000			60.913			-5.538
295005.000			60.913			-5.538
295104.000			60.912			-5.537
295204.000			60.912			-5.537
295305.000			60.912			-5.537
295404.000			60.911			-5.537
295503.000			60.911			-5.537
295605.000			60.911			-5.537
295704.000			60.910			-5.537
295804.000			60.910			-5.537
295905.000			60.909			-5.537
296004.000			60.908			-5.537
296104.000			60.908			-5.537
296205.000			60.907			-5.537
296304.000			60.906			-5.537
296403.000			60.907			-5.537
296505.000			60.907			-5.537
296604.000			60.905			-5.537
296704.000			60.904			-5.537
296805.000			60.904			-5.537
296904.000			60.904			-5.537
297005.000			60.904			-5.537
297104.000			60.903			-5.537
297204.000			60.903			-5.537
297304.000			60.902			-5.537
297404.000			60.902			-5.537
297503.000			60.902			-5.537
297605.000			60.901			-5.536
297704.000			60.900			-5.536
297804.000			60.899			-5.536
297905.000			60.900			-5.536
298004.000			60.899			-5.536
298104.000			60.900			-5.536
298205.000			60.898			-5.536
298304.000			60.898			-5.536
298403.000			60.897			-5.536
298505.000			60.896			-5.536
298604.000			60.897			-5.536
298704.000			60.896			-5.536
298805.000			60.896			-5.536
298904.000			60.895			-5.536
299004.000			60.896			-5.536
299105.000			60.894			-5.536
299204.000			60.894			-5.536
299304.000			60.894			-5.536
299405.000			60.893			-5.536
299503.000			60.893			-5.536
299604.000			60.890			-5.535
299705.000			60.891			-5.536
299804.000			60.891			-5.536
299904.000			60.890			-5.535
