# Acquired on 21/12/2023 15:53:19 
# SPIDER: Creep_-9mm_0771453C
# CREEP MEASUREMENT

# time [ms]		force [N]		stiffness [N/mm]
0.000			55.388			-6.154
100.000			58.952			-6.550
201.000			60.711			-6.746
300.000			60.245			-6.694
402.000			59.963			-6.663
501.000			59.760			-6.640
600.000			59.593			-6.621
701.000			59.450			-6.606
800.000			59.326			-6.592
900.000			59.118			-6.569
1001.000			59.027			-6.559
1100.000			58.942			-6.549
1201.000			58.865			-6.541
1302.000			58.794			-6.533
1400.000			58.727			-6.525
1500.000			58.664			-6.518
1601.000			58.547			-6.505
1700.000			58.493			-6.499
1800.000			58.442			-6.494
1902.000			58.394			-6.488
2001.000			58.349			-6.483
2101.000			58.305			-6.478
2201.000			58.263			-6.474
2300.000			58.222			-6.469
2400.000			58.145			-6.461
2501.000			58.108			-6.456
2600.000			58.074			-6.453
2701.000			58.039			-6.449
2802.000			58.005			-6.445
2900.000			57.973			-6.441
3000.000			57.943			-6.438
3101.000			57.882			-6.431
3200.000			57.854			-6.428
3300.000			57.826			-6.425
3401.000			57.797			-6.422
3501.000			57.770			-6.419
3602.000			57.745			-6.416
3700.000			57.720			-6.413
3800.000			57.670			-6.408
3901.000			57.645			-6.405
4000.000			57.622			-6.402
4100.000			57.600			-6.400
4201.000			57.577			-6.397
4301.000			57.556			-6.395
4401.000			57.534			-6.393
4501.000			57.512			-6.390
4600.000			57.471			-6.386
4700.000			57.451			-6.383
4801.000			57.432			-6.381
4900.000			57.412			-6.379
5000.000			57.393			-6.377
5102.000			57.374			-6.375
5201.000			57.357			-6.373
5300.000			57.322			-6.369
5401.000			57.303			-6.367
5500.000			57.287			-6.365
5600.000			57.271			-6.363
5701.000			57.254			-6.362
5801.000			57.237			-6.360
5901.000			57.221			-6.358
6001.000			57.190			-6.354
6100.000			57.175			-6.353
6200.000			57.159			-6.351
6301.000			57.145			-6.349
6400.000			57.130			-6.348
6500.000			57.115			-6.346
6602.000			57.102			-6.345
6701.000			57.088			-6.343
6800.000			57.060			-6.340
6900.000			57.046			-6.338
7000.000			57.032			-6.337
7101.000			57.020			-6.336
7200.000			57.007			-6.334
7300.000			56.994			-6.333
7402.000			56.981			-6.331
7501.000			56.956			-6.328
7600.000			56.943			-6.327
7701.000			56.930			-6.326
7800.000			56.916			-6.324
7900.000			56.903			-6.323
8001.000			56.891			-6.321
8100.000			56.879			-6.320
8201.000			56.854			-6.317
8302.000			56.843			-6.316
8400.000			56.832			-6.315
8500.000			56.822			-6.314
8601.000			56.810			-6.312
8700.000			56.799			-6.311
8800.000			56.788			-6.310
8901.000			56.774			-6.308
9001.000			56.753			-6.306
9101.000			56.742			-6.305
9201.000			56.731			-6.303
9300.000			56.722			-6.302
9400.000			56.712			-6.301
9501.000			56.701			-6.300
9600.000			56.689			-6.299
9700.000			56.670			-6.297
9802.000			56.660			-6.296
9901.000			56.650			-6.294
10000.000			56.641			-6.293
10100.000			56.632			-6.292
10200.000			56.624			-6.292
10301.000			56.614			-6.290
10400.000			56.595			-6.288
10501.000			56.586			-6.287
10602.000			56.577			-6.286
10701.000			56.568			-6.285
10800.000			56.560			-6.284
10901.000			56.552			-6.284
11000.000			56.543			-6.283
11100.000			56.533			-6.281
11201.000			56.518			-6.280
11301.000			56.509			-6.279
11401.000			56.501			-6.278
11501.000			56.492			-6.277
11600.000			56.485			-6.276
11700.000			56.476			-6.275
11801.000			56.468			-6.274
11900.000			56.453			-6.273
12000.000			56.444			-6.272
12102.000			56.436			-6.271
12201.000			56.429			-6.270
12300.000			56.421			-6.269
12401.000			56.413			-6.268
12500.000			56.405			-6.267
12600.000			56.390			-6.266
12701.000			56.383			-6.265
12800.000			56.375			-6.264
12901.000			56.368			-6.263
13002.000			56.362			-6.262
13100.000			56.354			-6.262
13200.000			56.347			-6.261
13300.000			56.341			-6.260
13400.000			56.325			-6.258
13501.000			56.319			-6.258
13600.000			56.312			-6.257
13701.000			56.305			-6.256
13802.000			56.298			-6.255
13900.000			56.293			-6.255
14000.000			56.286			-6.254
14101.000			56.271			-6.252
14200.000			56.264			-6.252
14300.000			56.258			-6.251
14401.000			56.251			-6.250
14501.000			56.244			-6.249
14601.000			56.239			-6.249
14701.000			56.233			-6.248
14800.000			56.220			-6.247
14900.000			56.214			-6.246
15001.000			56.207			-6.245
15100.000			56.201			-6.245
15200.000			56.195			-6.244
15302.000			56.189			-6.243
15401.000			56.184			-6.243
15500.000			56.172			-6.241
15601.000			56.165			-6.241
15700.000			56.158			-6.240
15800.000			56.153			-6.239
15901.000			56.147			-6.239
16000.000			56.140			-6.238
16101.000			56.135			-6.237
16202.000			56.129			-6.237
16300.000			56.116			-6.235
16400.000			56.112			-6.235
16500.000			56.106			-6.234
16600.000			56.100			-6.233
16701.000			56.095			-6.233
16800.000			56.090			-6.232
16901.000			56.084			-6.232
17002.000			56.072			-6.230
17100.000			56.065			-6.229
17200.000			56.060			-6.229
17301.000			56.054			-6.228
17400.000			56.049			-6.228
17500.000			56.045			-6.227
17601.000			56.039			-6.227
17701.000			56.027			-6.225
17801.000			56.021			-6.225
17901.000			56.016			-6.224
18000.000			56.010			-6.223
18100.000			56.006			-6.223
18201.000			56.001			-6.222
18300.000			55.996			-6.222
18400.000			55.989			-6.221
18502.000			55.980			-6.220
18601.000			55.975			-6.219
18700.000			55.969			-6.219
18801.000			55.965			-6.218
18900.000			55.961			-6.218
19000.000			55.955			-6.217
19101.000			55.950			-6.217
19200.000			55.941			-6.216
19301.000			55.935			-6.215
19402.000			55.929			-6.214
19501.000			55.925			-6.214
19600.000			55.921			-6.213
19700.000			55.916			-6.213
19800.000			55.911			-6.212
19901.000			55.902			-6.211
20000.000			55.898			-6.211
20100.000			55.894			-6.210
20202.000			55.890			-6.210
20301.000			55.885			-6.209
20400.000			55.879			-6.209
20501.000			55.875			-6.208
20600.000			55.870			-6.208
20700.000			55.859			-6.207
20801.000			55.854			-6.206
20900.000			55.849			-6.205
21001.000			55.845			-6.205
21102.000			55.841			-6.205
21200.000			55.836			-6.204
21300.000			55.832			-6.204
21401.000			55.824			-6.203
21500.000			55.818			-6.202
21600.000			55.813			-6.201
21701.000			55.810			-6.201
21801.000			55.806			-6.201
21901.000			55.802			-6.200
22001.000			55.797			-6.200
22100.000			55.788			-6.199
22200.000			55.784			-6.198
22301.000			55.780			-6.198
22400.000			55.775			-6.197
22500.000			55.770			-6.197
22602.000			55.766			-6.196
22701.000			55.763			-6.196
22800.000			55.759			-6.195
22900.000			55.750			-6.194
23000.000			55.745			-6.194
23101.000			55.742			-6.194
23200.000			55.739			-6.193
23300.000			55.735			-6.193
23402.000			55.730			-6.192
23501.000			55.726			-6.192
23600.000			55.719			-6.191
23701.000			55.715			-6.191
23800.000			55.711			-6.190
23900.000			55.707			-6.190
24001.000			55.703			-6.189
24100.000			55.699			-6.189
24201.000			55.695			-6.188
24302.000			55.686			-6.187
24400.000			55.682			-6.187
24500.000			55.679			-6.187
24601.000			55.674			-6.186
24700.000			55.671			-6.186
24800.000			55.666			-6.185
24901.000			55.662			-6.185
25001.000			55.658			-6.184
25101.000			55.651			-6.183
25201.000			55.647			-6.183
25300.000			55.644			-6.183
25400.000			55.640			-6.182
25501.000			55.635			-6.182
25600.000			55.632			-6.181
25700.000			55.629			-6.181
25802.000			55.623			-6.180
25901.000			55.618			-6.180
26000.000			55.614			-6.179
26100.000			55.610			-6.179
26200.000			55.607			-6.179
26301.000			55.604			-6.178
26400.000			55.600			-6.178
26500.000			55.594			-6.177
26602.000			55.590			-6.177
26701.000			55.586			-6.176
26801.000			55.582			-6.176
26901.000			55.578			-6.175
27000.000			55.575			-6.175
27100.000			55.573			-6.175
27201.000			55.569			-6.174
27300.000			55.562			-6.174
27400.000			55.557			-6.173
27502.000			55.553			-6.173
27601.000			55.550			-6.172
27700.000			55.546			-6.172
27801.000			55.544			-6.172
27900.000			55.541			-6.171
28000.000			55.534			-6.170
28101.000			55.531			-6.170
28200.000			55.527			-6.170
28301.000			55.524			-6.169
28402.000			55.520			-6.169
28500.000			55.517			-6.169
28600.000			55.514			-6.168
28701.000			55.506			-6.167
28800.000			55.503			-6.167
28900.000			55.500			-6.167
29001.000			55.497			-6.166
29101.000			55.495			-6.166
29202.000			55.492			-6.166
29300.000			55.488			-6.165
29400.000			55.484			-6.165
29501.000			55.476			-6.164
29600.000			55.473			-6.164
29700.000			55.471			-6.163
29801.000			55.468			-6.163
29901.000			55.466			-6.163
30001.000			55.462			-6.162
30101.000			55.459			-6.162
30200.000			55.452			-6.161
30300.000			55.449			-6.161
30401.000			55.446			-6.161
30500.000			55.442			-6.160
30600.000			55.440			-6.160
30702.000			55.437			-6.160
30801.000			55.433			-6.159
30900.000			55.428			-6.159
31001.000			55.424			-6.158
31100.000			55.420			-6.158
31200.000			55.418			-6.158
31301.000			55.415			-6.157
31400.000			55.413			-6.157
31501.000			55.411			-6.157
31602.000			55.404			-6.156
31700.000			55.400			-6.156
31800.000			55.399			-6.155
31901.000			55.395			-6.155
32000.000			55.390			-6.154
32100.000			55.387			-6.154
32201.000			55.385			-6.154
32301.000			55.383			-6.154
32402.000			55.378			-6.153
32500.000			55.374			-6.153
32600.000			55.371			-6.152
32701.000			55.368			-6.152
32800.000			55.364			-6.152
32900.000			55.362			-6.151
33001.000			55.360			-6.151
33101.000			55.355			-6.151
33201.000			55.352			-6.150
33301.000			55.348			-6.150
33400.000			55.346			-6.150
33500.000			55.343			-6.149
33601.000			55.340			-6.149
33700.000			55.338			-6.149
33800.000			55.331			-6.148
33902.000			55.329			-6.148
34001.000			55.326			-6.147
34100.000			55.322			-6.147
34201.000			55.320			-6.147
34300.000			55.317			-6.146
34400.000			55.314			-6.146
34501.000			55.312			-6.146
34600.000			55.304			-6.145
34701.000			55.302			-6.145
34802.000			55.299			-6.144
34900.000			55.297			-6.144
35000.000			55.294			-6.144
35101.000			55.292			-6.144
35200.000			55.290			-6.143
35300.000			55.284			-6.143
35401.000			55.282			-6.142
35501.000			55.280			-6.142
35602.000			55.277			-6.142
35700.000			55.274			-6.142
35800.000			55.271			-6.141
35901.000			55.268			-6.141
36000.000			55.264			-6.140
36100.000			55.261			-6.140
36201.000			55.258			-6.140
36301.000			55.255			-6.139
36401.000			55.252			-6.139
36501.000			55.250			-6.139
36600.000			55.247			-6.139
36700.000			55.244			-6.138
36801.000			55.240			-6.138
36900.000			55.237			-6.137
37000.000			55.235			-6.137
37102.000			55.232			-6.137
37201.000			55.228			-6.136
37300.000			55.225			-6.136
37401.000			55.222			-6.136
37500.000			55.217			-6.135
37600.000			55.215			-6.135
37701.000			55.212			-6.135
37800.000			55.210			-6.134
37901.000			55.206			-6.134
38002.000			55.205			-6.134
38100.000			55.203			-6.134
38200.000			55.198			-6.133
38301.000			55.195			-6.133
38400.000			55.193			-6.133
38500.000			55.189			-6.132
38601.000			55.187			-6.132
38701.000			55.185			-6.132
38802.000			55.182			-6.131
38901.000			55.180			-6.131
39000.000			55.175			-6.131
39101.000			55.173			-6.130
39200.000			55.171			-6.130
39300.000			55.168			-6.130
39401.000			55.167			-6.130
39501.000			55.165			-6.129
39601.000			55.163			-6.129
39702.000			55.157			-6.129
39800.000			55.155			-6.128
39900.000			55.152			-6.128
40001.000			55.150			-6.128
40100.000			55.149			-6.128
40200.000			55.146			-6.127
40301.000			55.143			-6.127
40401.000			55.138			-6.126
40501.000			55.135			-6.126
40601.000			55.134			-6.126
40700.000			55.133			-6.126
40800.000			55.132			-6.126
40901.000			55.129			-6.125
41000.000			55.126			-6.125
41100.000			55.122			-6.125
41202.000			55.117			-6.124
41301.000			55.115			-6.124
41400.000			55.112			-6.124
41501.000			55.111			-6.123
41600.000			55.109			-6.123
41700.000			55.106			-6.123
41801.000			55.104			-6.123
41901.000			55.099			-6.122
42002.000			55.098			-6.122
42100.000			55.096			-6.122
42200.000			55.093			-6.121
42301.000			55.092			-6.121
42400.000			55.090			-6.121
42500.000			55.088			-6.121
42601.000			55.083			-6.120
42701.000			55.081			-6.120
42801.000			55.079			-6.120
42901.000			55.076			-6.120
43000.000			55.073			-6.119
43100.000			55.069			-6.119
43201.000			55.068			-6.119
43300.000			55.066			-6.118
43400.000			55.061			-6.118
43502.000			55.058			-6.118
43601.000			55.055			-6.117
43700.000			55.054			-6.117
43801.000			55.054			-6.117
43900.000			55.053			-6.117
44000.000			55.051			-6.117
44101.000			55.044			-6.116
44200.000			55.042			-6.116
44301.000			55.040			-6.116
44402.000			55.038			-6.115
44500.000			55.036			-6.115
44600.000			55.034			-6.115
44701.000			55.031			-6.115
44800.000			55.027			-6.114
44900.000			55.026			-6.114
45001.000			55.024			-6.114
45101.000			55.020			-6.113
45202.000			55.018			-6.113
45300.000			55.016			-6.113
45400.000			55.013			-6.113
45501.000			55.013			-6.113
45600.000			55.008			-6.112
45700.000			55.006			-6.112
45801.000			55.005			-6.112
45901.000			55.002			-6.111
46001.000			55.000			-6.111
46101.000			54.998			-6.111
46200.000			54.996			-6.111
46300.000			54.993			-6.110
46401.000			54.990			-6.110
46500.000			54.988			-6.110
46600.000			54.986			-6.110
46702.000			54.984			-6.109
46801.000			54.982			-6.109
46900.000			54.980			-6.109
47001.000			54.976			-6.108
47100.000			54.973			-6.108
47200.000			54.971			-6.108
47301.000			54.970			-6.108
47400.000			54.968			-6.108
47501.000			54.965			-6.107
47602.000			54.963			-6.107
47701.000			54.962			-6.107
47800.000			54.957			-6.106
47901.000			54.955			-6.106
48000.000			54.954			-6.106
48100.000			54.952			-6.106
48201.000			54.949			-6.105
48300.000			54.946			-6.105
48402.000			54.944			-6.105
48501.000			54.940			-6.104
48600.000			54.938			-6.104
48701.000			54.937			-6.104
48800.000			54.936			-6.104
48900.000			54.934			-6.104
49001.000			54.932			-6.104
49100.000			54.928			-6.103
49201.000			54.924			-6.103
49302.000			54.922			-6.102
49400.000			54.920			-6.102
49500.000			54.918			-6.102
49601.000			54.916			-6.102
49700.000			54.915			-6.102
49800.000			54.914			-6.102
49901.000			54.912			-6.101
50001.000			54.906			-6.101
50101.000			54.906			-6.101
50201.000			54.905			-6.101
50300.000			54.903			-6.100
50400.000			54.902			-6.100
50501.000			54.900			-6.100
50600.000			54.897			-6.100
50700.000			54.892			-6.099
50802.000			54.890			-6.099
50901.000			54.889			-6.099
51001.000			54.887			-6.099
51101.000			54.884			-6.098
51200.000			54.883			-6.098
51300.000			54.881			-6.098
51401.000			54.877			-6.097
51500.000			54.876			-6.097
51600.000			54.874			-6.097
51702.000			54.872			-6.097
51801.000			54.871			-6.097
51901.000			54.870			-6.097
52000.000			54.869			-6.097
52100.000			54.866			-6.096
52201.000			54.861			-6.096
52300.000			54.859			-6.095
52400.000			54.857			-6.095
52502.000			54.856			-6.095
52601.000			54.854			-6.095
52700.000			54.852			-6.095
52801.000			54.851			-6.095
52900.000			54.847			-6.094
53000.000			54.845			-6.094
53101.000			54.842			-6.094
53200.000			54.840			-6.093
53301.000			54.840			-6.093
53402.000			54.838			-6.093
53500.000			54.836			-6.093
53600.000			54.833			-6.093
53701.000			54.830			-6.092
53800.000			54.828			-6.092
53900.000			54.827			-6.092
54001.000			54.826			-6.092
54101.000			54.825			-6.092
54201.000			54.824			-6.092
54301.000			54.819			-6.091
54400.000			54.818			-6.091
54500.000			54.816			-6.091
54601.000			54.814			-6.090
54700.000			54.812			-6.090
54800.000			54.810			-6.090
54902.000			54.807			-6.090
55001.000			54.805			-6.089
55101.000			54.802			-6.089
55200.000			54.799			-6.089
55300.000			54.797			-6.089
55401.000			54.797			-6.089
55500.000			54.796			-6.088
55600.000			54.794			-6.088
55702.000			54.792			-6.088
55801.000			54.788			-6.088
55901.000			54.787			-6.087
56001.000			54.785			-6.087
56100.000			54.782			-6.087
56200.000			54.780			-6.087
56301.000			54.778			-6.086
56400.000			54.777			-6.086
56500.000			54.775			-6.086
56602.000			54.772			-6.086
56701.000			54.772			-6.086
56800.000			54.773			-6.086
56901.000			54.771			-6.086
57000.000			54.768			-6.085
57100.000			54.766			-6.085
57201.000			54.764			-6.085
57300.000			54.758			-6.084
57401.000			54.758			-6.084
57502.000			54.757			-6.084
57600.000			54.755			-6.084
57700.000			54.752			-6.084
57801.000			54.751			-6.083
57900.000			54.749			-6.083
58000.000			54.746			-6.083
58100.000			54.744			-6.083
58200.000			54.743			-6.083
58302.000			54.741			-6.082
58401.000			54.741			-6.082
58500.000			54.740			-6.082
58601.000			54.739			-6.082
58700.000			54.735			-6.082
58800.000			54.731			-6.081
58901.000			54.730			-6.081
59000.000			54.729			-6.081
59101.000			54.727			-6.081
59202.000			54.725			-6.081
59300.000			54.724			-6.080
59400.000			54.722			-6.080
59501.000			54.718			-6.080
59600.000			54.716			-6.080
59700.000			54.716			-6.080
59801.000			54.715			-6.079
59901.000			54.714			-6.079
60001.000			54.712			-6.079
60101.000			54.710			-6.079
60200.000			54.706			-6.078
60300.000			54.703			-6.078
60401.000			54.702			-6.078
60500.000			54.701			-6.078
60600.000			54.700			-6.078
60702.000			54.698			-6.078
60801.000			54.696			-6.077
60900.000			54.692			-6.077
61001.000			54.691			-6.077
61100.000			54.690			-6.077
61200.000			54.688			-6.076
61300.000			54.686			-6.076
61400.000			54.685			-6.076
61501.000			54.685			-6.076
61601.000			54.682			-6.076
61701.000			54.679			-6.075
61801.000			54.678			-6.075
61900.000			54.675			-6.075
62000.000			54.674			-6.075
62101.000			54.673			-6.075
62200.000			54.672			-6.075
62300.000			54.670			-6.074
62402.000			54.666			-6.074
62501.000			54.664			-6.074
62600.000			54.663			-6.074
62701.000			54.662			-6.074
62800.000			54.660			-6.073
62900.000			54.659			-6.073
63001.000			54.658			-6.073
63100.000			54.656			-6.073
63201.000			54.655			-6.073
63302.000			54.654			-6.073
63400.000			54.652			-6.072
63500.000			54.649			-6.072
63601.000			54.648			-6.072
63700.000			54.648			-6.072
63800.000			54.646			-6.072
63901.000			54.643			-6.071
64001.000			54.641			-6.071
64101.000			54.640			-6.071
64201.000			54.638			-6.071
64300.000			54.634			-6.070
64400.000			54.632			-6.070
64500.000			54.630			-6.070
64600.000			54.625			-6.069
64701.000			54.623			-6.069
64801.000			54.622			-6.069
64901.000			54.622			-6.069
65001.000			54.623			-6.069
65100.000			54.625			-6.069
65200.000			54.624			-6.069
65301.000			54.621			-6.069
65400.000			54.620			-6.069
65500.000			54.618			-6.069
65602.000			54.614			-6.068
65701.000			54.611			-6.068
65801.000			54.609			-6.068
65901.000			54.608			-6.068
66000.000			54.608			-6.068
66100.000			54.605			-6.067
66201.000			54.603			-6.067
66300.000			54.602			-6.067
66400.000			54.602			-6.067
66502.000			54.599			-6.067
66601.000			54.595			-6.066
66700.000			54.592			-6.066
66801.000			54.590			-6.066
66900.000			54.588			-6.065
67000.000			54.587			-6.065
67101.000			54.587			-6.065
67200.000			54.587			-6.065
67301.000			54.586			-6.065
67402.000			54.585			-6.065
67500.000			54.582			-6.065
67600.000			54.580			-6.064
67700.000			54.579			-6.064
67800.000			54.577			-6.064
67901.000			54.575			-6.064
68000.000			54.573			-6.064
68100.000			54.572			-6.064
68202.000			54.570			-6.063
68301.000			54.566			-6.063
68400.000			54.564			-6.063
68501.000			54.563			-6.063
68600.000			54.563			-6.063
68700.000			54.561			-6.062
68801.000			54.560			-6.062
68900.000			54.559			-6.062
69001.000			54.556			-6.062
69102.000			54.555			-6.062
69200.000			54.554			-6.062
69300.000			54.553			-6.061
69401.000			54.551			-6.061
69500.000			54.549			-6.061
69600.000			54.548			-6.061
69701.000			54.546			-6.061
69800.000			54.544			-6.060
69901.000			54.542			-6.060
70002.000			54.541			-6.060
70100.000			54.539			-6.060
70200.000			54.537			-6.060
70301.000			54.536			-6.060
70400.000			54.536			-6.060
70500.000			54.533			-6.059
70601.000			54.532			-6.059
70701.000			54.530			-6.059
70802.000			54.529			-6.059
70900.000			54.527			-6.059
71000.000			54.526			-6.058
71101.000			54.524			-6.058
71200.000			54.521			-6.058
71300.000			54.519			-6.058
71401.000			54.518			-6.058
71501.000			54.519			-6.058
71601.000			54.517			-6.057
71701.000			54.517			-6.057
71800.000			54.516			-6.057
71900.000			54.511			-6.057
72001.000			54.510			-6.057
72100.000			54.510			-6.057
72200.000			54.509			-6.057
72302.000			54.507			-6.056
72401.000			54.504			-6.056
72500.000			54.502			-6.056
72601.000			54.501			-6.056
72700.000			54.501			-6.056
72800.000			54.498			-6.055
72901.000			54.495			-6.055
73000.000			54.495			-6.055
73101.000			54.494			-6.055
73202.000			54.493			-6.055
73300.000			54.490			-6.054
73400.000			54.488			-6.054
73501.000			54.488			-6.054
73600.000			54.487			-6.054
73700.000			54.486			-6.054
73801.000			54.484			-6.054
73901.000			54.483			-6.054
74002.000			54.481			-6.053
74101.000			54.478			-6.053
74200.000			54.477			-6.053
74301.000			54.475			-6.053
74400.000			54.474			-6.053
74500.000			54.473			-6.053
74601.000			54.472			-6.052
74700.000			54.470			-6.052
74801.000			54.470			-6.052
74902.000			54.468			-6.052
75000.000			54.467			-6.052
75100.000			54.466			-6.052
75201.000			54.466			-6.052
75300.000			54.464			-6.052
75400.000			54.463			-6.051
75501.000			54.462			-6.051
75601.000			54.458			-6.051
75701.000			54.457			-6.051
75801.000			54.455			-6.051
75900.000			54.454			-6.050
76000.000			54.451			-6.050
76101.000			54.450			-6.050
76200.000			54.449			-6.050
76300.000			54.446			-6.050
76401.000			54.445			-6.049
76501.000			54.444			-6.049
76601.000			54.443			-6.049
76701.000			54.442			-6.049
76800.000			54.440			-6.049
76900.000			54.439			-6.049
77001.000			54.439			-6.049
77100.000			54.435			-6.048
77200.000			54.434			-6.048
77302.000			54.432			-6.048
77401.000			54.432			-6.048
77501.000			54.429			-6.048
77600.000			54.428			-6.048
77700.000			54.428			-6.048
77801.000			54.425			-6.047
77900.000			54.424			-6.047
78000.000			54.424			-6.047
78102.000			54.423			-6.047
78201.000			54.421			-6.047
78300.000			54.419			-6.047
78401.000			54.420			-6.047
78500.000			54.417			-6.046
78600.000			54.415			-6.046
78701.000			54.413			-6.046
78800.000			54.412			-6.046
78900.000			54.411			-6.046
79002.000			54.409			-6.045
79101.000			54.407			-6.045
79200.000			54.407			-6.045
79301.000			54.405			-6.045
79400.000			54.404			-6.045
79500.000			54.404			-6.045
79601.000			54.401			-6.045
79700.000			54.401			-6.045
79801.000			54.400			-6.044
79902.000			54.397			-6.044
80000.000			54.395			-6.044
80100.000			54.393			-6.044
80201.000			54.392			-6.044
80300.000			54.391			-6.043
80400.000			54.389			-6.043
80500.000			54.388			-6.043
80601.000			54.387			-6.043
80702.000			54.385			-6.043
80801.000			54.384			-6.043
80900.000			54.382			-6.042
81001.000			54.381			-6.042
81100.000			54.379			-6.042
81200.000			54.378			-6.042
81301.000			54.378			-6.042
81400.000			54.377			-6.042
81501.000			54.374			-6.042
81602.000			54.374			-6.042
81700.000			54.373			-6.041
81800.000			54.371			-6.041
81901.000			54.370			-6.041
82000.000			54.369			-6.041
82100.000			54.368			-6.041
82201.000			54.365			-6.041
82301.000			54.365			-6.041
82401.000			54.364			-6.040
82501.000			54.363			-6.040
82600.000			54.362			-6.040
82700.000			54.361			-6.040
82801.000			54.360			-6.040
82900.000			54.357			-6.040
83000.000			54.357			-6.040
83102.000			54.357			-6.040
83201.000			54.354			-6.039
83300.000			54.352			-6.039
83401.000			54.350			-6.039
83500.000			54.350			-6.039
83600.000			54.348			-6.039
83700.000			54.346			-6.038
83800.000			54.344			-6.038
83901.000			54.343			-6.038
84001.000			54.342			-6.038
84101.000			54.341			-6.038
84201.000			54.340			-6.038
84300.000			54.339			-6.038
84400.000			54.338			-6.038
84501.000			54.336			-6.037
84600.000			54.335			-6.037
84700.000			54.334			-6.037
84802.000			54.332			-6.037
84901.000			54.330			-6.037
85000.000			54.330			-6.037
85101.000			54.328			-6.036
85200.000			54.327			-6.036
85300.000			54.325			-6.036
85401.000			54.325			-6.036
85500.000			54.324			-6.036
85601.000			54.322			-6.036
85702.000			54.321			-6.036
85800.000			54.319			-6.035
85900.000			54.318			-6.035
86001.000			54.317			-6.035
86100.000			54.316			-6.035
86200.000			54.315			-6.035
86301.000			54.314			-6.035
86401.000			54.313			-6.035
86501.000			54.311			-6.035
86601.000			54.309			-6.034
86700.000			54.308			-6.034
86800.000			54.306			-6.034
86900.000			54.306			-6.034
87000.000			54.306			-6.034
87101.000			54.304			-6.034
87201.000			54.302			-6.034
87301.000			54.300			-6.033
87401.000			54.299			-6.033
87500.000			54.298			-6.033
87600.000			54.297			-6.033
87701.000			54.296			-6.033
87800.000			54.296			-6.033
87900.000			54.295			-6.033
88001.000			54.293			-6.033
88101.000			54.291			-6.032
88201.000			54.289			-6.032
88301.000			54.288			-6.032
88400.000			54.288			-6.032
88500.000			54.286			-6.032
88601.000			54.285			-6.032
88700.000			54.285			-6.032
88800.000			54.282			-6.031
88902.000			54.280			-6.031
89001.000			54.278			-6.031
89101.000			54.278			-6.031
89201.000			54.277			-6.031
89300.000			54.276			-6.031
89400.000			54.275			-6.031
89501.000			54.273			-6.030
89600.000			54.272			-6.030
89700.000			54.271			-6.030
89802.000			54.270			-6.030
89901.000			54.270			-6.030
90000.000			54.269			-6.030
90100.000			54.269			-6.030
90200.000			54.267			-6.030
90301.000			54.265			-6.029
90400.000			54.264			-6.029
90500.000			54.262			-6.029
90601.000			54.261			-6.029
90701.000			54.260			-6.029
90801.000			54.258			-6.029
90901.000			54.256			-6.028
91000.000			54.254			-6.028
91100.000			54.253			-6.028
91201.000			54.253			-6.028
91300.000			54.252			-6.028
91400.000			54.249			-6.028
91502.000			54.248			-6.028
91601.000			54.248			-6.028
91700.000			54.245			-6.027
91801.000			54.245			-6.027
91900.000			54.244			-6.027
92000.000			54.242			-6.027
92101.000			54.240			-6.027
92200.000			54.241			-6.027
92301.000			54.240			-6.027
92402.000			54.237			-6.026
92500.000			54.237			-6.026
92600.000			54.236			-6.026
92701.000			54.234			-6.026
92800.000			54.233			-6.026
92900.000			54.231			-6.026
93001.000			54.230			-6.026
93101.000			54.231			-6.026
93202.000			54.228			-6.025
93300.000			54.228			-6.025
93400.000			54.226			-6.025
93501.000			54.224			-6.025
93600.000			54.223			-6.025
93700.000			54.223			-6.025
93801.000			54.222			-6.025
93901.000			54.221			-6.025
94001.000			54.218			-6.024
94101.000			54.218			-6.024
94200.000			54.217			-6.024
94300.000			54.216			-6.024
94401.000			54.215			-6.024
94500.000			54.214			-6.024
94600.000			54.213			-6.024
94702.000			54.210			-6.023
94801.000			54.209			-6.023
94900.000			54.208			-6.023
95001.000			54.208			-6.023
95100.000			54.207			-6.023
95200.000			54.205			-6.023
95301.000			54.204			-6.023
95400.000			54.203			-6.023
95501.000			54.203			-6.023
95602.000			54.202			-6.022
95701.000			54.201			-6.022
95800.000			54.198			-6.022
95901.000			54.198			-6.022
96000.000			54.197			-6.022
96100.000			54.194			-6.022
96201.000			54.194			-6.022
96300.000			54.193			-6.021
96402.000			54.192			-6.021
96501.000			54.192			-6.021
96600.000			54.192			-6.021
96701.000			54.190			-6.021
96800.000			54.187			-6.021
96900.000			54.186			-6.021
97001.000			54.185			-6.021
97100.000			54.185			-6.021
97201.000			54.183			-6.020
97302.000			54.182			-6.020
97401.000			54.182			-6.020
97500.000			54.180			-6.020
97601.000			54.178			-6.020
97700.000			54.176			-6.020
97800.000			54.176			-6.020
97901.000			54.176			-6.020
98000.000			54.175			-6.019
98101.000			54.173			-6.019
98202.000			54.173			-6.019
98300.000			54.170			-6.019
98400.000			54.170			-6.019
98501.000			54.169			-6.019
98600.000			54.168			-6.019
98700.000			54.166			-6.018
98801.000			54.166			-6.018
98901.000			54.165			-6.018
99001.000			54.162			-6.018
99102.000			54.162			-6.018
99200.000			54.161			-6.018
99300.000			54.160			-6.018
99401.000			54.159			-6.018
99500.000			54.157			-6.017
99600.000			54.156			-6.017
99700.000			54.155			-6.017
99801.000			54.154			-6.017
99902.000			54.153			-6.017
100000.000			54.152			-6.017
100100.000			54.151			-6.017
100201.000			54.150			-6.017
100300.000			54.149			-6.017
100400.000			54.149			-6.017
100501.000			54.148			-6.016
100601.000			54.147			-6.016
100701.000			54.145			-6.016
100801.000			54.144			-6.016
100900.000			54.143			-6.016
101000.000			54.143			-6.016
101101.000			54.142			-6.016
101200.000			54.139			-6.015
101300.000			54.139			-6.015
101402.000			54.138			-6.015
101501.000			54.136			-6.015
101601.000			54.135			-6.015
101701.000			54.135			-6.015
101800.000			54.133			-6.015
101900.000			54.131			-6.015
102001.000			54.129			-6.014
102100.000			54.128			-6.014
102200.000			54.129			-6.014
102302.000			54.127			-6.014
102401.000			54.126			-6.014
102500.000			54.125			-6.014
102601.000			54.123			-6.014
102700.000			54.123			-6.014
102800.000			54.121			-6.013
102900.000			54.121			-6.013
103000.000			54.120			-6.013
103102.000			54.119			-6.013
103201.000			54.117			-6.013
103300.000			54.115			-6.013
103401.000			54.116			-6.013
103500.000			54.115			-6.013
103600.000			54.115			-6.013
103701.000			54.114			-6.013
103800.000			54.114			-6.013
103901.000			54.113			-6.013
104002.000			54.111			-6.012
104100.000			54.108			-6.012
104200.000			54.108			-6.012
104301.000			54.107			-6.012
104400.000			54.106			-6.012
104500.000			54.106			-6.012
104601.000			54.104			-6.012
104701.000			54.103			-6.011
104801.000			54.102			-6.011
104901.000			54.098			-6.011
105000.000			54.098			-6.011
105100.000			54.098			-6.011
105201.000			54.096			-6.011
105300.000			54.094			-6.010
105400.000			54.093			-6.010
105502.000			54.092			-6.010
105601.000			54.092			-6.010
105701.000			54.090			-6.010
105801.000			54.090			-6.010
105900.000			54.088			-6.010
106000.000			54.087			-6.010
106100.000			54.086			-6.010
106200.000			54.086			-6.010
106301.000			54.083			-6.009
106401.000			54.083			-6.009
106501.000			54.081			-6.009
106601.000			54.080			-6.009
106700.000			54.079			-6.009
106800.000			54.079			-6.009
106901.000			54.078			-6.009
107000.000			54.077			-6.009
107100.000			54.075			-6.008
107202.000			54.074			-6.008
107301.000			54.074			-6.008
107400.000			54.073			-6.008
107501.000			54.072			-6.008
107600.000			54.071			-6.008
107700.000			54.071			-6.008
107801.000			54.069			-6.008
107900.000			54.068			-6.008
108000.000			54.067			-6.007
108102.000			54.066			-6.007
108201.000			54.064			-6.007
108300.000			54.063			-6.007
108401.000			54.063			-6.007
108500.000			54.060			-6.007
108600.000			54.059			-6.007
108701.000			54.058			-6.006
108800.000			54.058			-6.006
108901.000			54.058			-6.006
109002.000			54.057			-6.006
109101.000			54.056			-6.006
109200.000			54.055			-6.006
109300.000			54.055			-6.006
109400.000			54.053			-6.006
109501.000			54.051			-6.006
109600.000			54.050			-6.006
109700.000			54.049			-6.005
109802.000			54.049			-6.005
109901.000			54.048			-6.005
110000.000			54.046			-6.005
110101.000			54.045			-6.005
110200.000			54.045			-6.005
110300.000			54.043			-6.005
110401.000			54.042			-6.005
110500.000			54.041			-6.005
110601.000			54.040			-6.004
110702.000			54.039			-6.004
110800.000			54.038			-6.004
110900.000			54.038			-6.004
111001.000			54.037			-6.004
111100.000			54.036			-6.004
111200.000			54.035			-6.004
111301.000			54.033			-6.004
111401.000			54.032			-6.004
111501.000			54.031			-6.003
111601.000			54.031			-6.003
111700.000			54.029			-6.003
111800.000			54.029			-6.003
111901.000			54.028			-6.003
112000.000			54.027			-6.003
112100.000			54.026			-6.003
112202.000			54.025			-6.003
112301.000			54.023			-6.003
112400.000			54.023			-6.003
112500.000			54.022			-6.002
112600.000			54.021			-6.002
112701.000			54.019			-6.002
112800.000			54.019			-6.002
112900.000			54.017			-6.002
113001.000			54.017			-6.002
113101.000			54.016			-6.002
113201.000			54.015			-6.002
113301.000			54.013			-6.001
113400.000			54.013			-6.001
113500.000			54.011			-6.001
113601.000			54.010			-6.001
113700.000			54.010			-6.001
113800.000			54.008			-6.001
113902.000			54.007			-6.001
114001.000			54.006			-6.001
114100.000			54.007			-6.001
114201.000			54.005			-6.001
114300.000			54.005			-6.001
114400.000			54.002			-6.000
114501.000			54.002			-6.000
114600.000			54.003			-6.000
114701.000			54.002			-6.000
114802.000			54.001			-6.000
114900.000			54.001			-6.000
115000.000			53.999			-6.000
115101.000			53.997			-6.000
115200.000			53.997			-6.000
115300.000			53.996			-6.000
115401.000			53.995			-5.999
115501.000			53.995			-5.999
115602.000			53.994			-5.999
115701.000			53.993			-5.999
115800.000			53.991			-5.999
115901.000			53.990			-5.999
116000.000			53.989			-5.999
116100.000			53.988			-5.999
116201.000			53.988			-5.999
116300.000			53.987			-5.999
116400.000			53.986			-5.998
116502.000			53.985			-5.998
116601.000			53.984			-5.998
116700.000			53.984			-5.998
116801.000			53.982			-5.998
116900.000			53.982			-5.998
117000.000			53.981			-5.998
117101.000			53.979			-5.998
117200.000			53.978			-5.998
117300.000			53.977			-5.997
117402.000			53.977			-5.997
117501.000			53.975			-5.997
117600.000			53.974			-5.997
117701.000			53.974			-5.997
117800.000			53.973			-5.997
117900.000			53.971			-5.997
118001.000			53.970			-5.997
118100.000			53.969			-5.997
118201.000			53.967			-5.996
118302.000			53.967			-5.996
118401.000			53.967			-5.996
118500.000			53.966			-5.996
118601.000			53.964			-5.996
118700.000			53.963			-5.996
118800.000			53.963			-5.996
118900.000			53.962			-5.996
119000.000			53.961			-5.996
119102.000			53.960			-5.996
119201.000			53.959			-5.995
119301.000			53.959			-5.995
119401.000			53.958			-5.995
119500.000			53.957			-5.995
119600.000			53.955			-5.995
119701.000			53.954			-5.995
119800.000			53.954			-5.995
119900.000			53.953			-5.995
120002.000			53.953			-5.995
120101.000			53.952			-5.995
120201.000			53.950			-5.994
120301.000			53.949			-5.994
120400.000			53.949			-5.994
120500.000			53.948			-5.994
120601.000			53.947			-5.994
120700.000			53.946			-5.994
120800.000			53.947			-5.994
120902.000			53.946			-5.994
121001.000			53.944			-5.994
121100.000			53.942			-5.994
121201.000			53.942			-5.994
121300.000			53.941			-5.993
121400.000			53.940			-5.993
121501.000			53.939			-5.993
121600.000			53.937			-5.993
121700.000			53.937			-5.993
121802.000			53.935			-5.993
121901.000			53.934			-5.993
122000.000			53.933			-5.993
122100.000			53.932			-5.992
122200.000			53.932			-5.992
122301.000			53.931			-5.992
122400.000			53.930			-5.992
122500.000			53.928			-5.992
122602.000			53.927			-5.992
122701.000			53.926			-5.992
122800.000			53.926			-5.992
122901.000			53.925			-5.992
123000.000			53.924			-5.992
123100.000			53.923			-5.991
123201.000			53.923			-5.991
123300.000			53.922			-5.991
123400.000			53.921			-5.991
123502.000			53.920			-5.991
123601.000			53.921			-5.991
123700.000			53.921			-5.991
123801.000			53.920			-5.991
123900.000			53.918			-5.991
124000.000			53.917			-5.991
124101.000			53.918			-5.991
124200.000			53.916			-5.991
124301.000			53.915			-5.991
124402.000			53.914			-5.990
124501.000			53.913			-5.990
124600.000			53.913			-5.990
124701.000			53.912			-5.990
124800.000			53.911			-5.990
124900.000			53.909			-5.990
125001.000			53.909			-5.990
125100.000			53.908			-5.990
125202.000			53.907			-5.990
125301.000			53.906			-5.990
125400.000			53.904			-5.989
125501.000			53.903			-5.989
125600.000			53.902			-5.989
125700.000			53.901			-5.989
125801.000			53.901			-5.989
125900.000			53.901			-5.989
126001.000			53.899			-5.989
126102.000			53.897			-5.989
126201.000			53.896			-5.988
126300.000			53.895			-5.988
126401.000			53.894			-5.988
126500.000			53.893			-5.988
126600.000			53.892			-5.988
126701.000			53.891			-5.988
126800.000			53.890			-5.988
126901.000			53.889			-5.988
127002.000			53.889			-5.988
127101.000			53.889			-5.988
127200.000			53.887			-5.987
127301.000			53.886			-5.987
127400.000			53.886			-5.987
127500.000			53.885			-5.987
127601.000			53.884			-5.987
127700.000			53.882			-5.987
127801.000			53.882			-5.987
127902.000			53.881			-5.987
128001.000			53.879			-5.987
128100.000			53.879			-5.987
128201.000			53.879			-5.987
128300.000			53.877			-5.986
128400.000			53.875			-5.986
128500.000			53.876			-5.986
128600.000			53.875			-5.986
128702.000			53.873			-5.986
128801.000			53.874			-5.986
128901.000			53.874			-5.986
129001.000			53.872			-5.986
129100.000			53.871			-5.986
129200.000			53.870			-5.986
129301.000			53.870			-5.986
129400.000			53.869			-5.985
129500.000			53.867			-5.985
129602.000			53.866			-5.985
129701.000			53.867			-5.985
129801.000			53.866			-5.985
129901.000			53.864			-5.985
130000.000			53.863			-5.985
130100.000			53.863			-5.985
130201.000			53.863			-5.985
130300.000			53.863			-5.985
130400.000			53.861			-5.985
130502.000			53.860			-5.984
130601.000			53.858			-5.984
130700.000			53.858			-5.984
130801.000			53.856			-5.984
130900.000			53.856			-5.984
131000.000			53.855			-5.984
131101.000			53.854			-5.984
131200.000			53.854			-5.984
131300.000			53.853			-5.984
131402.000			53.852			-5.984
131501.000			53.851			-5.983
131600.000			53.850			-5.983
131700.000			53.851			-5.983
131800.000			53.849			-5.983
131901.000			53.848			-5.983
132000.000			53.848			-5.983
132100.000			53.846			-5.983
132201.000			53.846			-5.983
132301.000			53.845			-5.983
132401.000			53.844			-5.983
132501.000			53.844			-5.983
132600.000			53.843			-5.983
132700.000			53.843			-5.983
132801.000			53.841			-5.982
132900.000			53.841			-5.982
133000.000			53.841			-5.982
133101.000			53.840			-5.982
133201.000			53.841			-5.982
133301.000			53.840			-5.982
133402.000			53.837			-5.982
133500.000			53.836			-5.982
133600.000			53.836			-5.982
133701.000			53.835			-5.982
133800.000			53.835			-5.982
133900.000			53.834			-5.982
134001.000			53.834			-5.982
134100.000			53.833			-5.981
134201.000			53.830			-5.981
134302.000			53.828			-5.981
134400.000			53.827			-5.981
134500.000			53.826			-5.981
134601.000			53.825			-5.981
134700.000			53.825			-5.981
134800.000			53.825			-5.981
134900.000			53.824			-5.980
135000.000			53.823			-5.980
135102.000			53.821			-5.980
135201.000			53.821			-5.980
135300.000			53.819			-5.980
135401.000			53.818			-5.980
135500.000			53.818			-5.980
135600.000			53.817			-5.980
135701.000			53.816			-5.980
135800.000			53.815			-5.979
135900.000			53.813			-5.979
136001.000			53.814			-5.979
136101.000			53.813			-5.979
136201.000			53.812			-5.979
136301.000			53.810			-5.979
136400.000			53.809			-5.979
136500.000			53.811			-5.979
136601.000			53.810			-5.979
136700.000			53.808			-5.979
136800.000			53.807			-5.979
136901.000			53.806			-5.978
137001.000			53.805			-5.978
137101.000			53.803			-5.978
137201.000			53.802			-5.978
137300.000			53.801			-5.978
137400.000			53.799			-5.978
137501.000			53.798			-5.978
137600.000			53.799			-5.978
137700.000			53.799			-5.978
137801.000			53.798			-5.978
137901.000			53.798			-5.978
138002.000			53.797			-5.977
138101.000			53.797			-5.977
138200.000			53.796			-5.977
138301.000			53.795			-5.977
138400.000			53.795			-5.977
138500.000			53.792			-5.977
138601.000			53.792			-5.977
138700.000			53.792			-5.977
138800.000			53.791			-5.977
138902.000			53.791			-5.977
139001.000			53.790			-5.977
139101.000			53.789			-5.977
139201.000			53.788			-5.976
139300.000			53.787			-5.976
139400.000			53.787			-5.976
139501.000			53.785			-5.976
139600.000			53.785			-5.976
139700.000			53.785			-5.976
139801.000			53.784			-5.976
139901.000			53.783			-5.976
140001.000			53.782			-5.976
140101.000			53.782			-5.976
140200.000			53.780			-5.976
140300.000			53.779			-5.975
140401.000			53.779			-5.975
140500.000			53.779			-5.975
140600.000			53.779			-5.975
140701.000			53.777			-5.975
140801.000			53.776			-5.975
140901.000			53.776			-5.975
141002.000			53.774			-5.975
141100.000			53.772			-5.975
141200.000			53.773			-5.975
141300.000			53.773			-5.975
141400.000			53.772			-5.975
141501.000			53.769			-5.974
141600.000			53.768			-5.974
141700.000			53.768			-5.974
141802.000			53.768			-5.974
141901.000			53.767			-5.974
142000.000			53.767			-5.974
142101.000			53.767			-5.974
142200.000			53.764			-5.974
142300.000			53.764			-5.974
142401.000			53.763			-5.974
142500.000			53.762			-5.974
142600.000			53.762			-5.974
142702.000			53.760			-5.973
142801.000			53.759			-5.973
142901.000			53.758			-5.973
143001.000			53.759			-5.973
143100.000			53.758			-5.973
143200.000			53.756			-5.973
143301.000			53.756			-5.973
143400.000			53.755			-5.973
143500.000			53.754			-5.973
143601.000			53.754			-5.973
143701.000			53.752			-5.972
143801.000			53.751			-5.972
143901.000			53.752			-5.972
144000.000			53.750			-5.972
144100.000			53.750			-5.972
144201.000			53.749			-5.972
144300.000			53.749			-5.972
144400.000			53.747			-5.972
144500.000			53.747			-5.972
144601.000			53.747			-5.972
144702.000			53.746			-5.972
144801.000			53.745			-5.972
144900.000			53.744			-5.972
145001.000			53.743			-5.971
145100.000			53.743			-5.971
145200.000			53.743			-5.971
145301.000			53.741			-5.971
145400.000			53.741			-5.971
145500.000			53.741			-5.971
145602.000			53.740			-5.971
145701.000			53.739			-5.971
145800.000			53.738			-5.971
145901.000			53.736			-5.971
146000.000			53.735			-5.971
146100.000			53.735			-5.971
146201.000			53.734			-5.970
146300.000			53.732			-5.970
146400.000			53.733			-5.970
146502.000			53.733			-5.970
146601.000			53.732			-5.970
146701.000			53.731			-5.970
146801.000			53.730			-5.970
146900.000			53.730			-5.970
147000.000			53.730			-5.970
147101.000			53.730			-5.970
147200.000			53.729			-5.970
147300.000			53.727			-5.970
147401.000			53.726			-5.970
147501.000			53.725			-5.969
147602.000			53.724			-5.969
147700.000			53.724			-5.969
147800.000			53.723			-5.969
147901.000			53.721			-5.969
148000.000			53.719			-5.969
148100.000			53.717			-5.969
148201.000			53.716			-5.968
148300.000			53.717			-5.969
148400.000			53.716			-5.968
148502.000			53.716			-5.968
148601.000			53.716			-5.968
148700.000			53.715			-5.968
148801.000			53.713			-5.968
148900.000			53.712			-5.968
149000.000			53.712			-5.968
149101.000			53.711			-5.968
149200.000			53.711			-5.968
149300.000			53.710			-5.968
149402.000			53.708			-5.968
149501.000			53.709			-5.968
149601.000			53.709			-5.968
149701.000			53.709			-5.968
149800.000			53.708			-5.968
149900.000			53.706			-5.967
150001.000			53.705			-5.967
150100.000			53.705			-5.967
150200.000			53.703			-5.967
150301.000			53.701			-5.967
150401.000			53.701			-5.967
150501.000			53.701			-5.967
150601.000			53.701			-5.967
150700.000			53.701			-5.967
150800.000			53.701			-5.967
150900.000			53.699			-5.967
151000.000			53.698			-5.966
151101.000			53.698			-5.966
151200.000			53.697			-5.966
151301.000			53.697			-5.966
151402.000			53.696			-5.966
151500.000			53.696			-5.966
151600.000			53.695			-5.966
151701.000			53.692			-5.966
151800.000			53.692			-5.966
151900.000			53.690			-5.966
152001.000			53.689			-5.965
152100.000			53.689			-5.965
152201.000			53.689			-5.965
152302.000			53.688			-5.965
152401.000			53.687			-5.965
152500.000			53.686			-5.965
152601.000			53.685			-5.965
152700.000			53.686			-5.965
152800.000			53.685			-5.965
152901.000			53.684			-5.965
153000.000			53.682			-5.965
153100.000			53.682			-5.965
153202.000			53.683			-5.965
153301.000			53.681			-5.965
153400.000			53.679			-5.964
153501.000			53.677			-5.964
153600.000			53.678			-5.964
153700.000			53.677			-5.964
153801.000			53.676			-5.964
153900.000			53.675			-5.964
154000.000			53.675			-5.964
154100.000			53.674			-5.964
154201.000			53.673			-5.964
154302.000			53.673			-5.964
154400.000			53.672			-5.964
154500.000			53.671			-5.963
154601.000			53.670			-5.963
154700.000			53.670			-5.963
154800.000			53.669			-5.963
154901.000			53.668			-5.963
155000.000			53.667			-5.963
155101.000			53.666			-5.963
155202.000			53.666			-5.963
155301.000			53.665			-5.963
155400.000			53.664			-5.963
155501.000			53.663			-5.963
155600.000			53.663			-5.963
155700.000			53.663			-5.963
155801.000			53.663			-5.963
155900.000			53.661			-5.962
156000.000			53.660			-5.962
156102.000			53.660			-5.962
156201.000			53.658			-5.962
156301.000			53.657			-5.962
156401.000			53.658			-5.962
156500.000			53.657			-5.962
156600.000			53.656			-5.962
156701.000			53.656			-5.962
156800.000			53.655			-5.962
156900.000			53.654			-5.962
157001.000			53.654			-5.962
157101.000			53.653			-5.961
157202.000			53.652			-5.961
157300.000			53.652			-5.961
157400.000			53.651			-5.961
157501.000			53.650			-5.961
157600.000			53.649			-5.961
157700.000			53.648			-5.961
157801.000			53.648			-5.961
157900.000			53.647			-5.961
158000.000			53.647			-5.961
158102.000			53.647			-5.961
158201.000			53.647			-5.961
158300.000			53.645			-5.961
158401.000			53.645			-5.961
158500.000			53.645			-5.961
158600.000			53.643			-5.960
158701.000			53.643			-5.960
158800.000			53.642			-5.960
158900.000			53.641			-5.960
159002.000			53.639			-5.960
159101.000			53.638			-5.960
159201.000			53.638			-5.960
159301.000			53.637			-5.960
159400.000			53.637			-5.960
159500.000			53.637			-5.960
159601.000			53.635			-5.959
159700.000			53.634			-5.959
159800.000			53.633			-5.959
159901.000			53.633			-5.959
160001.000			53.632			-5.959
160101.000			53.632			-5.959
160201.000			53.632			-5.959
160300.000			53.631			-5.959
160400.000			53.630			-5.959
160500.000			53.629			-5.959
160600.000			53.628			-5.959
160701.000			53.626			-5.958
160800.000			53.626			-5.958
160900.000			53.625			-5.958
161002.000			53.625			-5.958
161101.000			53.624			-5.958
161200.000			53.624			-5.958
161301.000			53.623			-5.958
161400.000			53.622			-5.958
161500.000			53.621			-5.958
161601.000			53.622			-5.958
161700.000			53.621			-5.958
161800.000			53.620			-5.958
161902.000			53.619			-5.958
162001.000			53.618			-5.958
162100.000			53.618			-5.958
162201.000			53.616			-5.957
162300.000			53.615			-5.957
162400.000			53.616			-5.957
162501.000			53.616			-5.957
162600.000			53.615			-5.957
162700.000			53.614			-5.957
162802.000			53.612			-5.957
162901.000			53.612			-5.957
163000.000			53.611			-5.957
163101.000			53.610			-5.957
163200.000			53.610			-5.957
163300.000			53.610			-5.957
163401.000			53.607			-5.956
163500.000			53.606			-5.956
163600.000			53.607			-5.956
163702.000			53.607			-5.956
163801.000			53.607			-5.956
163902.000			53.606			-5.956
164000.000			53.605			-5.956
164100.000			53.605			-5.956
164201.000			53.605			-5.956
164300.000			53.604			-5.956
164400.000			53.603			-5.956
164501.000			53.603			-5.956
164600.000			53.603			-5.956
164701.000			53.602			-5.956
164802.000			53.601			-5.956
164900.000			53.600			-5.956
165000.000			53.599			-5.955
165101.000			53.599			-5.955
165200.000			53.597			-5.955
165300.000			53.596			-5.955
165401.000			53.596			-5.955
165500.000			53.596			-5.955
165601.000			53.593			-5.955
165702.000			53.593			-5.955
165801.000			53.593			-5.955
165900.000			53.593			-5.955
166001.000			53.593			-5.955
166100.000			53.592			-5.955
166200.000			53.591			-5.955
166301.000			53.590			-5.954
166400.000			53.588			-5.954
166500.000			53.589			-5.954
166602.000			53.588			-5.954
166701.000			53.586			-5.954
166802.000			53.586			-5.954
166900.000			53.585			-5.954
167000.000			53.584			-5.954
167101.000			53.583			-5.954
167200.000			53.584			-5.954
167300.000			53.583			-5.954
167401.000			53.583			-5.954
167500.000			53.582			-5.954
167601.000			53.580			-5.953
167702.000			53.580			-5.953
167801.000			53.579			-5.953
167900.000			53.578			-5.953
168001.000			53.578			-5.953
168100.000			53.578			-5.953
168200.000			53.577			-5.953
168301.000			53.577			-5.953
168400.000			53.576			-5.953
168500.000			53.575			-5.953
168602.000			53.574			-5.953
168701.000			53.573			-5.953
168800.000			53.574			-5.953
168901.000			53.574			-5.953
169000.000			53.573			-5.953
169100.000			53.572			-5.952
169201.000			53.571			-5.952
169300.000			53.570			-5.952
169400.000			53.569			-5.952
169502.000			53.570			-5.952
169601.000			53.568			-5.952
169701.000			53.565			-5.952
169801.000			53.565			-5.952
169900.000			53.564			-5.952
170000.000			53.564			-5.952
170100.000			53.564			-5.952
170200.000			53.563			-5.951
170301.000			53.561			-5.951
170400.000			53.562			-5.951
170501.000			53.561			-5.951
170602.000			53.560			-5.951
170701.000			53.559			-5.951
170800.000			53.559			-5.951
170901.000			53.558			-5.951
171000.000			53.557			-5.951
171100.000			53.557			-5.951
171201.000			53.557			-5.951
171300.000			53.556			-5.951
171400.000			53.556			-5.951
171502.000			53.555			-5.951
171601.000			53.554			-5.950
171700.000			53.554			-5.950
171801.000			53.553			-5.950
171900.000			53.552			-5.950
172000.000			53.552			-5.950
172101.000			53.551			-5.950
172200.000			53.550			-5.950
172300.000			53.551			-5.950
172402.000			53.550			-5.950
172501.000			53.549			-5.950
172601.000			53.549			-5.950
172701.000			53.549			-5.950
172800.000			53.549			-5.950
172900.000			53.547			-5.950
173001.000			53.547			-5.950
173100.000			53.546			-5.950
173200.000			53.545			-5.949
173300.000			53.545			-5.949
173401.000			53.545			-5.949
173502.000			53.543			-5.949
173600.000			53.542			-5.949
173700.000			53.542			-5.949
173801.000			53.539			-5.949
173900.000			53.539			-5.949
174000.000			53.539			-5.949
174101.000			53.539			-5.949
174200.000			53.537			-5.949
174301.000			53.536			-5.948
174402.000			53.537			-5.949
174501.000			53.535			-5.948
174600.000			53.534			-5.948
174701.000			53.534			-5.948
174800.000			53.534			-5.948
174900.000			53.534			-5.948
175001.000			53.535			-5.948
175100.000			53.530			-5.948
175200.000			53.530			-5.948
175302.000			53.530			-5.948
175401.000			53.529			-5.948
175500.000			53.527			-5.947
175601.000			53.528			-5.948
175700.000			53.528			-5.948
175800.000			53.528			-5.948
175901.000			53.528			-5.948
176000.000			53.527			-5.947
176100.000			53.525			-5.947
176202.000			53.525			-5.947
176301.000			53.524			-5.947
176402.000			53.522			-5.947
176500.000			53.522			-5.947
176600.000			53.522			-5.947
176701.000			53.521			-5.947
176800.000			53.520			-5.947
176900.000			53.520			-5.947
177001.000			53.521			-5.947
177100.000			53.520			-5.947
177201.000			53.520			-5.947
177302.000			53.518			-5.946
177400.000			53.518			-5.946
177500.000			53.517			-5.946
177601.000			53.517			-5.946
177700.000			53.516			-5.946
177800.000			53.515			-5.946
177901.000			53.515			-5.946
178000.000			53.513			-5.946
178101.000			53.513			-5.946
178202.000			53.513			-5.946
178301.000			53.512			-5.946
178400.000			53.512			-5.946
178501.000			53.510			-5.946
178600.000			53.509			-5.945
178700.000			53.509			-5.945
178801.000			53.508			-5.945
178900.000			53.507			-5.945
179000.000			53.507			-5.945
179102.000			53.507			-5.945
179201.000			53.507			-5.945
179300.000			53.506			-5.945
179401.000			53.506			-5.945
179500.000			53.504			-5.945
179600.000			53.503			-5.945
179700.000			53.503			-5.945
179800.000			53.503			-5.945
179901.000			53.503			-5.945
180001.000			53.501			-5.945
180101.000			53.500			-5.944
180202.000			53.501			-5.945
180300.000			53.499			-5.944
180400.000			53.498			-5.944
180501.000			53.497			-5.944
180600.000			53.497			-5.944
180700.000			53.497			-5.944
180801.000			53.497			-5.944
180900.000			53.495			-5.944
181001.000			53.495			-5.944
181102.000			53.495			-5.944
181201.000			53.494			-5.944
181300.000			53.493			-5.944
181401.000			53.494			-5.944
181500.000			53.494			-5.944
181600.000			53.493			-5.944
181701.000			53.491			-5.943
181800.000			53.490			-5.943
181900.000			53.490			-5.943
182002.000			53.489			-5.943
182101.000			53.487			-5.943
182200.000			53.487			-5.943
182301.000			53.486			-5.943
182400.000			53.487			-5.943
182500.000			53.486			-5.943
182601.000			53.486			-5.943
182700.000			53.486			-5.943
182800.000			53.485			-5.943
182902.000			53.483			-5.943
183001.000			53.482			-5.942
183102.000			53.481			-5.942
183200.000			53.481			-5.942
183300.000			53.480			-5.942
183401.000			53.479			-5.942
183500.000			53.480			-5.942
183600.000			53.480			-5.942
183701.000			53.479			-5.942
183800.000			53.477			-5.942
183901.000			53.477			-5.942
184002.000			53.476			-5.942
184101.000			53.476			-5.942
184200.000			53.476			-5.942
184301.000			53.474			-5.942
184400.000			53.472			-5.941
184500.000			53.471			-5.941
184601.000			53.472			-5.941
184700.000			53.471			-5.941
184801.000			53.472			-5.941
184902.000			53.472			-5.941
185001.000			53.470			-5.941
185100.000			53.470			-5.941
185201.000			53.470			-5.941
185300.000			53.468			-5.941
185400.000			53.468			-5.941
185501.000			53.469			-5.941
185600.000			53.468			-5.941
185700.000			53.467			-5.941
185802.000			53.467			-5.941
185901.000			53.468			-5.941
186002.000			53.465			-5.941
186100.000			53.464			-5.940
186200.000			53.464			-5.940
186301.000			53.464			-5.940
186400.000			53.463			-5.940
186500.000			53.462			-5.940
186601.000			53.462			-5.940
186700.000			53.461			-5.940
186801.000			53.461			-5.940
186902.000			53.461			-5.940
187000.000			53.459			-5.940
187100.000			53.458			-5.940
187201.000			53.458			-5.940
187300.000			53.458			-5.940
187400.000			53.456			-5.940
187501.000			53.455			-5.939
187600.000			53.455			-5.939
187700.000			53.456			-5.940
187802.000			53.454			-5.939
187901.000			53.453			-5.939
188000.000			53.452			-5.939
188101.000			53.451			-5.939
188200.000			53.452			-5.939
188300.000			53.450			-5.939
188401.000			53.450			-5.939
188500.000			53.451			-5.939
188600.000			53.451			-5.939
188702.000			53.449			-5.939
188801.000			53.449			-5.939
188901.000			53.449			-5.939
189001.000			53.447			-5.939
189100.000			53.447			-5.939
189200.000			53.447			-5.939
189300.000			53.447			-5.939
189400.000			53.447			-5.939
189501.000			53.445			-5.938
189600.000			53.444			-5.938
189701.000			53.444			-5.938
189802.000			53.443			-5.938
189901.000			53.442			-5.938
190000.000			53.443			-5.938
190101.000			53.442			-5.938
190200.000			53.441			-5.938
190300.000			53.440			-5.938
190401.000			53.438			-5.938
190500.000			53.437			-5.937
190600.000			53.436			-5.937
190702.000			53.437			-5.937
190801.000			53.436			-5.937
190900.000			53.434			-5.937
191001.000			53.435			-5.937
191100.000			53.435			-5.937
191200.000			53.434			-5.937
191301.000			53.434			-5.937
191400.000			53.433			-5.937
191500.000			53.431			-5.937
191602.000			53.431			-5.937
191701.000			53.431			-5.937
191800.000			53.430			-5.937
191901.000			53.429			-5.937
192000.000			53.428			-5.936
192100.000			53.428			-5.936
192201.000			53.427			-5.936
192300.000			53.427			-5.936
192400.000			53.427			-5.936
192502.000			53.426			-5.936
192601.000			53.426			-5.936
192702.000			53.426			-5.936
192800.000			53.425			-5.936
192900.000			53.424			-5.936
193001.000			53.423			-5.936
193100.000			53.423			-5.936
193200.000			53.424			-5.936
193301.000			53.423			-5.936
193400.000			53.422			-5.936
193501.000			53.421			-5.936
193602.000			53.420			-5.936
193701.000			53.420			-5.936
193800.000			53.419			-5.935
193901.000			53.418			-5.935
194000.000			53.418			-5.935
194100.000			53.418			-5.935
194201.000			53.416			-5.935
194300.000			53.416			-5.935
194401.000			53.417			-5.935
194502.000			53.417			-5.935
194601.000			53.416			-5.935
194700.000			53.415			-5.935
194801.000			53.413			-5.935
194900.000			53.412			-5.935
195000.000			53.412			-5.935
195101.000			53.412			-5.935
195200.000			53.412			-5.935
195300.000			53.411			-5.935
195402.000			53.410			-5.934
195501.000			53.408			-5.934
195600.000			53.408			-5.934
195700.000			53.408			-5.934
195800.000			53.407			-5.934
195901.000			53.406			-5.934
196000.000			53.406			-5.934
196100.000			53.407			-5.934
196201.000			53.406			-5.934
196301.000			53.405			-5.934
196401.000			53.405			-5.934
196501.000			53.404			-5.934
196600.000			53.403			-5.934
196700.000			53.403			-5.934
196801.000			53.402			-5.934
196900.000			53.402			-5.934
197000.000			53.402			-5.934
197101.000			53.401			-5.933
197201.000			53.399			-5.933
197301.000			53.398			-5.933
197402.000			53.397			-5.933
197500.000			53.397			-5.933
197600.000			53.397			-5.933
197701.000			53.397			-5.933
197800.000			53.397			-5.933
197900.000			53.398			-5.933
198001.000			53.397			-5.933
198100.000			53.397			-5.933
198201.000			53.396			-5.933
198302.000			53.395			-5.933
198401.000			53.396			-5.933
198500.000			53.394			-5.933
198601.000			53.392			-5.932
198700.000			53.392			-5.932
198800.000			53.392			-5.932
198900.000			53.391			-5.932
199000.000			53.390			-5.932
199101.000			53.391			-5.932
199201.000			53.389			-5.932
199301.000			53.389			-5.932
199402.000			53.388			-5.932
199500.000			53.387			-5.932
199600.000			53.387			-5.932
199701.000			53.386			-5.932
199800.000			53.385			-5.932
199900.000			53.385			-5.932
200001.000			53.384			-5.932
200100.000			53.382			-5.931
200201.000			53.382			-5.931
200302.000			53.382			-5.931
200401.000			53.381			-5.931
200500.000			53.382			-5.931
200601.000			53.381			-5.931
200700.000			53.379			-5.931
200800.000			53.378			-5.931
200901.000			53.379			-5.931
201000.000			53.380			-5.931
201101.000			53.379			-5.931
201202.000			53.378			-5.931
201301.000			53.377			-5.931
201400.000			53.377			-5.931
201501.000			53.377			-5.931
201600.000			53.376			-5.931
201700.000			53.374			-5.930
201801.000			53.374			-5.930
201900.000			53.376			-5.931
202000.000			53.377			-5.931
202102.000			53.373			-5.930
202201.000			53.374			-5.930
202301.000			53.372			-5.930
202400.000			53.372			-5.930
202500.000			53.372			-5.930
202601.000			53.371			-5.930
202700.000			53.371			-5.930
202800.000			53.371			-5.930
202901.000			53.369			-5.930
203001.000			53.368			-5.930
203101.000			53.368			-5.930
203201.000			53.367			-5.930
203300.000			53.368			-5.930
203400.000			53.367			-5.930
203501.000			53.366			-5.930
203600.000			53.365			-5.929
203700.000			53.364			-5.929
203801.000			53.362			-5.929
203901.000			53.360			-5.929
204001.000			53.362			-5.929
204102.000			53.361			-5.929
204200.000			53.362			-5.929
204300.000			53.360			-5.929
204401.000			53.359			-5.929
204500.000			53.358			-5.929
204600.000			53.358			-5.929
204701.000			53.358			-5.929
204801.000			53.359			-5.929
204901.000			53.358			-5.929
205002.000			53.358			-5.929
205100.000			53.357			-5.929
205200.000			53.356			-5.928
205300.000			53.356			-5.928
205400.000			53.356			-5.928
205501.000			53.355			-5.928
205600.000			53.354			-5.928
205700.000			53.354			-5.928
205802.000			53.352			-5.928
205901.000			53.352			-5.928
206000.000			53.351			-5.928
206101.000			53.351			-5.928
206200.000			53.350			-5.928
206300.000			53.351			-5.928
206401.000			53.351			-5.928
206500.000			53.349			-5.928
206600.000			53.349			-5.928
206702.000			53.348			-5.928
206801.000			53.347			-5.927
206900.000			53.347			-5.927
207001.000			53.346			-5.927
207100.000			53.345			-5.927
207200.000			53.343			-5.927
207301.000			53.344			-5.927
207400.000			53.343			-5.927
207500.000			53.343			-5.927
207602.000			53.342			-5.927
207701.000			53.342			-5.927
207801.000			53.341			-5.927
207901.000			53.341			-5.927
208000.000			53.341			-5.927
208100.000			53.341			-5.927
208201.000			53.340			-5.927
208300.000			53.338			-5.926
208400.000			53.338			-5.926
208502.000			53.338			-5.926
208601.000			53.337			-5.926
208702.000			53.337			-5.926
208800.000			53.337			-5.926
208900.000			53.336			-5.926
209001.000			53.336			-5.926
209100.000			53.335			-5.926
209200.000			53.335			-5.926
209301.000			53.334			-5.926
209400.000			53.332			-5.926
209501.000			53.333			-5.926
209602.000			53.332			-5.926
209700.000			53.332			-5.926
209800.000			53.331			-5.926
209901.000			53.329			-5.925
210000.000			53.329			-5.925
210100.000			53.329			-5.925
210201.000			53.328			-5.925
210300.000			53.328			-5.925
210401.000			53.327			-5.925
210502.000			53.326			-5.925
210600.000			53.327			-5.925
210700.000			53.327			-5.925
210801.000			53.326			-5.925
210900.000			53.326			-5.925
211000.000			53.326			-5.925
211101.000			53.325			-5.925
211200.000			53.325			-5.925
211301.000			53.324			-5.925
211402.000			53.323			-5.925
211500.000			53.322			-5.925
211600.000			53.321			-5.925
211700.000			53.321			-5.925
211800.000			53.320			-5.924
211901.000			53.318			-5.924
212000.000			53.318			-5.924
212100.000			53.319			-5.924
212202.000			53.318			-5.924
212301.000			53.318			-5.924
212400.000			53.318			-5.924
212501.000			53.317			-5.924
212600.000			53.316			-5.924
212700.000			53.315			-5.924
212801.000			53.315			-5.924
212900.000			53.314			-5.924
213000.000			53.314			-5.924
213102.000			53.313			-5.924
213201.000			53.313			-5.924
213300.000			53.312			-5.924
213401.000			53.311			-5.923
213500.000			53.311			-5.923
213600.000			53.311			-5.923
213701.000			53.310			-5.923
213800.000			53.311			-5.923
213901.000			53.311			-5.923
214002.000			53.311			-5.923
214101.000			53.309			-5.923
214200.000			53.309			-5.923
214301.000			53.309			-5.923
214400.000			53.309			-5.923
214500.000			53.306			-5.923
214601.000			53.305			-5.923
214700.000			53.305			-5.923
214802.000			53.305			-5.923
214901.000			53.304			-5.923
215001.000			53.302			-5.922
215101.000			53.302			-5.922
215200.000			53.303			-5.923
215300.000			53.301			-5.922
215401.000			53.301			-5.922
215500.000			53.301			-5.922
215600.000			53.301			-5.922
215702.000			53.301			-5.922
215801.000			53.300			-5.922
215900.000			53.299			-5.922
216001.000			53.299			-5.922
216100.000			53.298			-5.922
216200.000			53.298			-5.922
216301.000			53.298			-5.922
216400.000			53.296			-5.922
216500.000			53.295			-5.922
216601.000			53.295			-5.922
216701.000			53.295			-5.922
216801.000			53.294			-5.922
216901.000			53.293			-5.921
217000.000			53.293			-5.921
217100.000			53.293			-5.921
217201.000			53.292			-5.921
217300.000			53.292			-5.921
217400.000			53.291			-5.921
217501.000			53.291			-5.921
217601.000			53.291			-5.921
217701.000			53.291			-5.921
217802.000			53.289			-5.921
217900.000			53.289			-5.921
218000.000			53.289			-5.921
218100.000			53.288			-5.921
218200.000			53.288			-5.921
218301.000			53.287			-5.921
218400.000			53.287			-5.921
218500.000			53.287			-5.921
218602.000			53.285			-5.921
218701.000			53.285			-5.921
218800.000			53.284			-5.920
218901.000			53.284			-5.920
219000.000			53.283			-5.920
219100.000			53.283			-5.920
219201.000			53.283			-5.920
219300.000			53.282			-5.920
219400.000			53.281			-5.920
219502.000			53.282			-5.920
219601.000			53.281			-5.920
219701.000			53.280			-5.920
219801.000			53.279			-5.920
219900.000			53.278			-5.920
220000.000			53.278			-5.920
220101.000			53.278			-5.920
220200.000			53.277			-5.920
220300.000			53.276			-5.920
220401.000			53.276			-5.920
220501.000			53.276			-5.920
220601.000			53.275			-5.919
220701.000			53.275			-5.919
220800.000			53.275			-5.919
220900.000			53.273			-5.919
221001.000			53.273			-5.919
221100.000			53.273			-5.919
221200.000			53.273			-5.919
221300.000			53.273			-5.919
221401.000			53.272			-5.919
221502.000			53.271			-5.919
221600.000			53.271			-5.919
221700.000			53.271			-5.919
221801.000			53.269			-5.919
221900.000			53.268			-5.919
222000.000			53.268			-5.919
222101.000			53.267			-5.919
222200.000			53.266			-5.918
222301.000			53.266			-5.918
222402.000			53.265			-5.918
222500.000			53.264			-5.918
222600.000			53.265			-5.918
222701.000			53.263			-5.918
222800.000			53.262			-5.918
222900.000			53.263			-5.918
223001.000			53.263			-5.918
223100.000			53.263			-5.918
223201.000			53.261			-5.918
223302.000			53.262			-5.918
223400.000			53.261			-5.918
223500.000			53.261			-5.918
223601.000			53.260			-5.918
223700.000			53.260			-5.918
223800.000			53.259			-5.918
223901.000			53.258			-5.918
224000.000			53.257			-5.917
224101.000			53.257			-5.917
224202.000			53.256			-5.917
224301.000			53.255			-5.917
224400.000			53.255			-5.917
224500.000			53.256			-5.917
224600.000			53.255			-5.917
224701.000			53.254			-5.917
224800.000			53.254			-5.917
224900.000			53.253			-5.917
225001.000			53.252			-5.917
225101.000			53.251			-5.917
225201.000			53.252			-5.917
225301.000			53.250			-5.917
225400.000			53.248			-5.916
225500.000			53.250			-5.917
225601.000			53.249			-5.917
225700.000			53.250			-5.917
225800.000			53.249			-5.917
225901.000			53.249			-5.917
226001.000			53.249			-5.917
226101.000			53.248			-5.916
226202.000			53.248			-5.916
226300.000			53.247			-5.916
226400.000			53.246			-5.916
226501.000			53.246			-5.916
226600.000			53.246			-5.916
226700.000			53.246			-5.916
226801.000			53.245			-5.916
226901.000			53.245			-5.916
227001.000			53.245			-5.916
227102.000			53.244			-5.916
227200.000			53.242			-5.916
227300.000			53.243			-5.916
227401.000			53.242			-5.916
227500.000			53.241			-5.916
227600.000			53.241			-5.916
227700.000			53.240			-5.916
227800.000			53.240			-5.916
227902.000			53.239			-5.915
228001.000			53.237			-5.915
228100.000			53.237			-5.915
228201.000			53.237			-5.915
228300.000			53.236			-5.915
228400.000			53.235			-5.915
228501.000			53.235			-5.915
228600.000			53.235			-5.915
228700.000			53.234			-5.915
228802.000			53.233			-5.915
228901.000			53.233			-5.915
229001.000			53.232			-5.915
229101.000			53.231			-5.915
229200.000			53.231			-5.915
229300.000			53.231			-5.915
229401.000			53.231			-5.915
229500.000			53.230			-5.914
229600.000			53.230			-5.914
229702.000			53.229			-5.914
229801.000			53.228			-5.914
229901.000			53.228			-5.914
230001.000			53.228			-5.914
230100.000			53.228			-5.914
230200.000			53.226			-5.914
230301.000			53.227			-5.914
230400.000			53.228			-5.914
230500.000			53.227			-5.914
230601.000			53.226			-5.914
230701.000			53.226			-5.914
230802.000			53.225			-5.914
230900.000			53.223			-5.914
231000.000			53.222			-5.914
231101.000			53.221			-5.913
231200.000			53.220			-5.913
231300.000			53.220			-5.913
231401.000			53.219			-5.913
231500.000			53.220			-5.913
231601.000			53.220			-5.913
231702.000			53.220			-5.913
231800.000			53.220			-5.913
231900.000			53.219			-5.913
232001.000			53.218			-5.913
232100.000			53.218			-5.913
232200.000			53.218			-5.913
232301.000			53.218			-5.913
232400.000			53.217			-5.913
232501.000			53.217			-5.913
232602.000			53.217			-5.913
232700.000			53.215			-5.913
232800.000			53.214			-5.913
232901.000			53.213			-5.913
233000.000			53.212			-5.912
233100.000			53.212			-5.912
233201.000			53.211			-5.912
233301.000			53.210			-5.912
233401.000			53.210			-5.912
233502.000			53.210			-5.912
233600.000			53.209			-5.912
233700.000			53.208			-5.912
233801.000			53.208			-5.912
233900.000			53.209			-5.912
234000.000			53.208			-5.912
234100.000			53.207			-5.912
234200.000			53.207			-5.912
234302.000			53.207			-5.912
234401.000			53.207			-5.912
234500.000			53.206			-5.912
234601.000			53.205			-5.912
234700.000			53.205			-5.912
234800.000			53.205			-5.912
234901.000			53.205			-5.912
235000.000			53.203			-5.911
235100.000			53.202			-5.911
235202.000			53.202			-5.911
235301.000			53.202			-5.911
235400.000			53.201			-5.911
235501.000			53.201			-5.911
235600.000			53.200			-5.911
235700.000			53.200			-5.911
235801.000			53.199			-5.911
235900.000			53.198			-5.911
236000.000			53.198			-5.911
236102.000			53.198			-5.911
236201.000			53.198			-5.911
236300.000			53.197			-5.911
236401.000			53.196			-5.911
236500.000			53.196			-5.911
236600.000			53.196			-5.911
236701.000			53.195			-5.911
236800.000			53.194			-5.910
236900.000			53.194			-5.910
237002.000			53.194			-5.910
237101.000			53.194			-5.910
237202.000			53.193			-5.910
237300.000			53.192			-5.910
237400.000			53.192			-5.910
237501.000			53.193			-5.910
237600.000			53.192			-5.910
237700.000			53.192			-5.910
237801.000			53.191			-5.910
237900.000			53.191			-5.910
238001.000			53.190			-5.910
238102.000			53.188			-5.910
238200.000			53.187			-5.910
238300.000			53.188			-5.910
238401.000			53.188			-5.910
238500.000			53.188			-5.910
238600.000			53.185			-5.909
238701.000			53.185			-5.909
238800.000			53.185			-5.909
238900.000			53.185			-5.909
239002.000			53.185			-5.909
239101.000			53.184			-5.909
239200.000			53.184			-5.909
239301.000			53.183			-5.909
239400.000			53.183			-5.909
239500.000			53.182			-5.909
239601.000			53.181			-5.909
239700.000			53.181			-5.909
239800.000			53.180			-5.909
239902.000			53.180			-5.909
240001.000			53.179			-5.909
240100.000			53.179			-5.909
240201.000			53.179			-5.909
240300.000			53.178			-5.909
240400.000			53.177			-5.909
240500.000			53.178			-5.909
240600.000			53.177			-5.909
240701.000			53.177			-5.909
240801.000			53.175			-5.908
240901.000			53.175			-5.908
241002.000			53.174			-5.908
241100.000			53.175			-5.908
241200.000			53.175			-5.908
241301.000			53.175			-5.908
241400.000			53.174			-5.908
241500.000			53.174			-5.908
241601.000			53.174			-5.908
241700.000			53.173			-5.908
241801.000			53.173			-5.908
241902.000			53.172			-5.908
242000.000			53.172			-5.908
242100.000			53.171			-5.908
242201.000			53.171			-5.908
242300.000			53.168			-5.908
242400.000			53.168			-5.908
242501.000			53.168			-5.908
242600.000			53.167			-5.907
242701.000			53.166			-5.907
242802.000			53.167			-5.907
242901.000			53.166			-5.907
243000.000			53.165			-5.907
243101.000			53.165			-5.907
243200.000			53.166			-5.907
243300.000			53.165			-5.907
243401.000			53.163			-5.907
243500.000			53.164			-5.907
243602.000			53.164			-5.907
243701.000			53.163			-5.907
243801.000			53.163			-5.907
243901.000			53.162			-5.907
244000.000			53.161			-5.907
244100.000			53.161			-5.907
244201.000			53.160			-5.907
244300.000			53.160			-5.907
244400.000			53.159			-5.907
244501.000			53.159			-5.907
244601.000			53.159			-5.907
244701.000			53.158			-5.906
244801.000			53.158			-5.906
244900.000			53.158			-5.906
245000.000			53.157			-5.906
245101.000			53.156			-5.906
245200.000			53.156			-5.906
245300.000			53.156			-5.906
245401.000			53.156			-5.906
245501.000			53.155			-5.906
245601.000			53.154			-5.906
245701.000			53.153			-5.906
245800.000			53.154			-5.906
245900.000			53.153			-5.906
246001.000			53.152			-5.906
246100.000			53.152			-5.906
246200.000			53.151			-5.906
246301.000			53.150			-5.906
246401.000			53.151			-5.906
246501.000			53.151			-5.906
246601.000			53.149			-5.905
246700.000			53.148			-5.905
246800.000			53.147			-5.905
246900.000			53.147			-5.905
247000.000			53.147			-5.905
247101.000			53.146			-5.905
247200.000			53.146			-5.905
247300.000			53.146			-5.905
247402.000			53.146			-5.905
247501.000			53.144			-5.905
247600.000			53.144			-5.905
247701.000			53.145			-5.905
247800.000			53.143			-5.905
247900.000			53.142			-5.905
248001.000			53.142			-5.905
248100.000			53.142			-5.905
248200.000			53.141			-5.905
248302.000			53.140			-5.904
248401.000			53.141			-5.905
248500.000			53.140			-5.904
248601.000			53.139			-5.904
248700.000			53.140			-5.904
248800.000			53.139			-5.904
248901.000			53.139			-5.904
249000.000			53.137			-5.904
249100.000			53.136			-5.904
249202.000			53.136			-5.904
249301.000			53.137			-5.904
249401.000			53.136			-5.904
249501.000			53.136			-5.904
249600.000			53.136			-5.904
249700.000			53.136			-5.904
249801.000			53.136			-5.904
249900.000			53.136			-5.904
250000.000			53.135			-5.904
250100.000			53.134			-5.904
250201.000			53.134			-5.904
250302.000			53.132			-5.904
250400.000			53.131			-5.903
250500.000			53.130			-5.903
250601.000			53.131			-5.903
250700.000			53.130			-5.903
250800.000			53.130			-5.903
250901.000			53.129			-5.903
251000.000			53.128			-5.903
251101.000			53.130			-5.903
251202.000			53.129			-5.903
251300.000			53.129			-5.903
251400.000			53.128			-5.903
251501.000			53.127			-5.903
251600.000			53.128			-5.903
251700.000			53.128			-5.903
251801.000			53.127			-5.903
251900.000			53.126			-5.903
252001.000			53.126			-5.903
252102.000			53.125			-5.903
252200.000			53.125			-5.903
252300.000			53.124			-5.903
252401.000			53.124			-5.903
252500.000			53.123			-5.903
252600.000			53.123			-5.903
252701.000			53.121			-5.902
252800.000			53.121			-5.902
252901.000			53.121			-5.902
253002.000			53.121			-5.902
253100.000			53.120			-5.902
253200.000			53.120			-5.902
253300.000			53.118			-5.902
253400.000			53.118			-5.902
253501.000			53.118			-5.902
253600.000			53.117			-5.902
253700.000			53.117			-5.902
253802.000			53.116			-5.902
253901.000			53.116			-5.902
254000.000			53.115			-5.902
254101.000			53.115			-5.902
254200.000			53.114			-5.902
254300.000			53.114			-5.902
254401.000			53.115			-5.902
254500.000			53.115			-5.902
254600.000			53.115			-5.902
254702.000			53.113			-5.901
254801.000			53.112			-5.901
254901.000			53.112			-5.901
255001.000			53.112			-5.901
255100.000			53.113			-5.901
255200.000			53.112			-5.901
255301.000			53.111			-5.901
255400.000			53.110			-5.901
255500.000			53.110			-5.901
255602.000			53.109			-5.901
255701.000			53.109			-5.901
255801.000			53.108			-5.901
255901.000			53.108			-5.901
256000.000			53.108			-5.901
256100.000			53.107			-5.901
256201.000			53.105			-5.901
256300.000			53.106			-5.901
256400.000			53.105			-5.901
256500.000			53.105			-5.901
256601.000			53.105			-5.901
256702.000			53.103			-5.900
256800.000			53.103			-5.900
256900.000			53.102			-5.900
257001.000			53.102			-5.900
257100.000			53.101			-5.900
257200.000			53.101			-5.900
257301.000			53.101			-5.900
257400.000			53.102			-5.900
257501.000			53.100			-5.900
257602.000			53.100			-5.900
257701.000			53.099			-5.900
257800.000			53.099			-5.900
257901.000			53.098			-5.900
258000.000			53.099			-5.900
258100.000			53.099			-5.900
258201.000			53.098			-5.900
258300.000			53.097			-5.900
258400.000			53.096			-5.900
258502.000			53.095			-5.899
258601.000			53.094			-5.899
258700.000			53.093			-5.899
258801.000			53.093			-5.899
258900.000			53.094			-5.899
259000.000			53.093			-5.899
259101.000			53.092			-5.899
259200.000			53.091			-5.899
259300.000			53.090			-5.899
259402.000			53.090			-5.899
259501.000			53.091			-5.899
259602.000			53.091			-5.899
259700.000			53.090			-5.899
259800.000			53.089			-5.899
259901.000			53.089			-5.899
260000.000			53.089			-5.899
260100.000			53.089			-5.899
260201.000			53.089			-5.899
260300.000			53.090			-5.899
260401.000			53.089			-5.899
260502.000			53.088			-5.899
260600.000			53.088			-5.899
260700.000			53.088			-5.899
260801.000			53.087			-5.899
260900.000			53.087			-5.899
261000.000			53.085			-5.898
261101.000			53.084			-5.898
261200.000			53.084			-5.898
261301.000			53.084			-5.898
261402.000			53.082			-5.898
261501.000			53.082			-5.898
261600.000			53.082			-5.898
261701.000			53.082			-5.898
261800.000			53.082			-5.898
261900.000			53.082			-5.898
262001.000			53.081			-5.898
262100.000			53.081			-5.898
262200.000			53.080			-5.898
262302.000			53.079			-5.898
262401.000			53.079			-5.898
262500.000			53.079			-5.898
262601.000			53.078			-5.898
262700.000			53.077			-5.897
262800.000			53.076			-5.897
262900.000			53.076			-5.897
263000.000			53.076			-5.897
263101.000			53.075			-5.897
263201.000			53.075			-5.897
263301.000			53.074			-5.897
263402.000			53.074			-5.897
263500.000			53.075			-5.897
263600.000			53.076			-5.897
263701.000			53.074			-5.897
263800.000			53.074			-5.897
263900.000			53.074			-5.897
264001.000			53.073			-5.897
264101.000			53.072			-5.897
264201.000			53.071			-5.897
264302.000			53.070			-5.897
264400.000			53.070			-5.897
264500.000			53.070			-5.897
264601.000			53.069			-5.897
264700.000			53.068			-5.896
264800.000			53.069			-5.897
264901.000			53.070			-5.897
265000.000			53.069			-5.897
265101.000			53.069			-5.897
265202.000			53.069			-5.897
265300.000			53.069			-5.897
265400.000			53.069			-5.897
265501.000			53.067			-5.896
265600.000			53.068			-5.896
265700.000			53.067			-5.896
265801.000			53.066			-5.896
265900.000			53.065			-5.896
266002.000			53.064			-5.896
266101.000			53.065			-5.896
266201.000			53.064			-5.896
266301.000			53.064			-5.896
266400.000			53.062			-5.896
266500.000			53.060			-5.896
266601.000			53.061			-5.896
266700.000			53.061			-5.896
266800.000			53.060			-5.896
266902.000			53.059			-5.895
267001.000			53.058			-5.895
267101.000			53.058			-5.895
267201.000			53.056			-5.895
267300.000			53.056			-5.895
267400.000			53.058			-5.895
267501.000			53.058			-5.895
267600.000			53.058			-5.895
267700.000			53.057			-5.895
267801.000			53.055			-5.895
267901.000			53.055			-5.895
268001.000			53.056			-5.895
268101.000			53.055			-5.895
268200.000			53.054			-5.895
268300.000			53.054			-5.895
268401.000			53.055			-5.895
268500.000			53.054			-5.895
268600.000			53.053			-5.895
268701.000			53.052			-5.895
268801.000			53.052			-5.895
268901.000			53.052			-5.895
269002.000			53.052			-5.895
269100.000			53.052			-5.895
269200.000			53.051			-5.895
269300.000			53.052			-5.895
269400.000			53.049			-5.894
269501.000			53.048			-5.894
269600.000			53.049			-5.894
269700.000			53.050			-5.894
269802.000			53.049			-5.894
269901.000			53.048			-5.894
270000.000			53.048			-5.894
270101.000			53.046			-5.894
270200.000			53.046			-5.894
270300.000			53.047			-5.894
270401.000			53.045			-5.894
270500.000			53.045			-5.894
270600.000			53.045			-5.894
270702.000			53.045			-5.894
270801.000			53.042			-5.894
270900.000			53.043			-5.894
271001.000			53.042			-5.894
271100.000			53.042			-5.894
271200.000			53.042			-5.894
271301.000			53.042			-5.894
271400.000			53.041			-5.893
271500.000			53.040			-5.893
271602.000			53.040			-5.893
271701.000			53.040			-5.893
271801.000			53.039			-5.893
271901.000			53.039			-5.893
272000.000			53.038			-5.893
272100.000			53.037			-5.893
272201.000			53.037			-5.893
272300.000			53.036			-5.893
272400.000			53.036			-5.893
272502.000			53.036			-5.893
272601.000			53.036			-5.893
272702.000			53.035			-5.893
272800.000			53.035			-5.893
272900.000			53.035			-5.893
273001.000			53.033			-5.893
273100.000			53.033			-5.893
273200.000			53.033			-5.893
273301.000			53.033			-5.893
273401.000			53.034			-5.893
273501.000			53.034			-5.893
273601.000			53.033			-5.893
273700.000			53.032			-5.892
273800.000			53.031			-5.892
273901.000			53.031			-5.892
274000.000			53.031			-5.892
274100.000			53.030			-5.892
274201.000			53.031			-5.892
274301.000			53.030			-5.892
274401.000			53.029			-5.892
274502.000			53.028			-5.892
274600.000			53.029			-5.892
274700.000			53.028			-5.892
274801.000			53.027			-5.892
274900.000			53.027			-5.892
275000.000			53.026			-5.892
275101.000			53.026			-5.892
275200.000			53.025			-5.892
275301.000			53.025			-5.892
275402.000			53.023			-5.891
275500.000			53.024			-5.892
275600.000			53.023			-5.891
275700.000			53.022			-5.891
275800.000			53.021			-5.891
275901.000			53.022			-5.891
276000.000			53.021			-5.891
276100.000			53.020			-5.891
276202.000			53.020			-5.891
276301.000			53.019			-5.891
276400.000			53.019			-5.891
276501.000			53.018			-5.891
276600.000			53.020			-5.891
276700.000			53.018			-5.891
276801.000			53.018			-5.891
276900.000			53.018			-5.891
277000.000			53.018			-5.891
277102.000			53.018			-5.891
277201.000			53.018			-5.891
277301.000			53.017			-5.891
277401.000			53.017			-5.891
277500.000			53.018			-5.891
277600.000			53.017			-5.891
277701.000			53.015			-5.891
277800.000			53.015			-5.891
277900.000			53.015			-5.891
278002.000			53.016			-5.891
278101.000			53.015			-5.891
278201.000			53.015			-5.891
278301.000			53.014			-5.890
278400.000			53.013			-5.890
278500.000			53.012			-5.890
278601.000			53.012			-5.890
278700.000			53.011			-5.890
278800.000			53.011			-5.890
278900.000			53.011			-5.890
279001.000			53.009			-5.890
279102.000			53.008			-5.890
279200.000			53.008			-5.890
279300.000			53.007			-5.890
279401.000			53.008			-5.890
279500.000			53.006			-5.890
279600.000			53.006			-5.890
279701.000			53.007			-5.890
279800.000			53.006			-5.890
279901.000			53.005			-5.889
280002.000			53.004			-5.889
280101.000			53.004			-5.889
280200.000			53.004			-5.889
280301.000			53.003			-5.889
280400.000			53.003			-5.889
280500.000			53.003			-5.889
280601.000			53.002			-5.889
280700.000			53.002			-5.889
280801.000			53.002			-5.889
280902.000			53.002			-5.889
281001.000			53.001			-5.889
281100.000			52.999			-5.889
281201.000			52.999			-5.889
281300.000			52.999			-5.889
281400.000			53.000			-5.889
281501.000			53.000			-5.889
281600.000			52.999			-5.889
281700.000			52.998			-5.889
281802.000			52.998			-5.889
281901.000			52.998			-5.889
282002.000			52.999			-5.889
282100.000			52.998			-5.889
282200.000			52.996			-5.888
282301.000			52.995			-5.888
282400.000			52.996			-5.888
282500.000			52.996			-5.888
282601.000			52.995			-5.888
282700.000			52.994			-5.888
282800.000			52.993			-5.888
282902.000			52.993			-5.888
283001.000			52.993			-5.888
283100.000			52.992			-5.888
283201.000			52.992			-5.888
283300.000			52.991			-5.888
283400.000			52.991			-5.888
283501.000			52.991			-5.888
283600.000			52.991			-5.888
283700.000			52.989			-5.888
283802.000			52.989			-5.888
283901.000			52.988			-5.888
284001.000			52.987			-5.887
284101.000			52.987			-5.887
284200.000			52.987			-5.887
284300.000			52.988			-5.888
284401.000			52.986			-5.887
284500.000			52.987			-5.887
284600.000			52.987			-5.887
284701.000			52.985			-5.887
284801.000			52.986			-5.887
284901.000			52.985			-5.887
285002.000			52.985			-5.887
285100.000			52.983			-5.887
285200.000			52.984			-5.887
285300.000			52.985			-5.887
285400.000			52.984			-5.887
285501.000			52.983			-5.887
285600.000			52.985			-5.887
285700.000			52.984			-5.887
285802.000			52.982			-5.887
285901.000			52.982			-5.887
286001.000			52.982			-5.887
286101.000			52.982			-5.887
286200.000			52.980			-5.887
286300.000			52.979			-5.887
286401.000			52.978			-5.886
286500.000			52.978			-5.886
286600.000			52.977			-5.886
286701.000			52.977			-5.886
286801.000			52.978			-5.886
286901.000			52.977			-5.886
287002.000			52.976			-5.886
287100.000			52.976			-5.886
287200.000			52.977			-5.886
287301.000			52.975			-5.886
287400.000			52.975			-5.886
287500.000			52.975			-5.886
287601.000			52.973			-5.886
287700.000			52.973			-5.886
287800.000			52.973			-5.886
287902.000			52.973			-5.886
288001.000			52.972			-5.886
288100.000			52.973			-5.886
288201.000			52.972			-5.886
288300.000			52.972			-5.886
288400.000			52.970			-5.886
288500.000			52.971			-5.886
288600.000			52.972			-5.886
288701.000			52.971			-5.886
288800.000			52.969			-5.885
288901.000			52.970			-5.886
289002.000			52.968			-5.885
289100.000			52.968			-5.885
289200.000			52.969			-5.885
289301.000			52.970			-5.886
289400.000			52.969			-5.885
289500.000			52.968			-5.885
289601.000			52.967			-5.885
289700.000			52.968			-5.885
289800.000			52.967			-5.885
289902.000			52.966			-5.885
290001.000			52.964			-5.885
290100.000			52.964			-5.885
290201.000			52.964			-5.885
290300.000			52.964			-5.885
290400.000			52.963			-5.885
290501.000			52.962			-5.885
290600.000			52.962			-5.885
290700.000			52.961			-5.885
290802.000			52.961			-5.885
290901.000			52.961			-5.885
291001.000			52.961			-5.885
291101.000			52.960			-5.884
291200.000			52.959			-5.884
291300.000			52.960			-5.884
291401.000			52.961			-5.885
291500.000			52.961			-5.885
291600.000			52.960			-5.884
291700.000			52.959			-5.884
291801.000			52.958			-5.884
291902.000			52.957			-5.884
292001.000			52.957			-5.884
292100.000			52.957			-5.884
292201.000			52.957			-5.884
292300.000			52.955			-5.884
292400.000			52.954			-5.884
292501.000			52.954			-5.884
292600.000			52.955			-5.884
292700.000			52.953			-5.884
292802.000			52.952			-5.884
292901.000			52.954			-5.884
293001.000			52.954			-5.884
293101.000			52.953			-5.884
293200.000			52.953			-5.884
293300.000			52.952			-5.884
293401.000			52.953			-5.884
293500.000			52.951			-5.883
293600.000			52.951			-5.883
293701.000			52.951			-5.883
293801.000			52.951			-5.883
293901.000			52.950			-5.883
294001.000			52.950			-5.883
294100.000			52.948			-5.883
294200.000			52.948			-5.883
294301.000			52.948			-5.883
294400.000			52.948			-5.883
294500.000			52.948			-5.883
294601.000			52.947			-5.883
294701.000			52.945			-5.883
294802.000			52.945			-5.883
294901.000			52.945			-5.883
295000.000			52.946			-5.883
295101.000			52.945			-5.883
295200.000			52.944			-5.883
295300.000			52.944			-5.883
295401.000			52.945			-5.883
295500.000			52.945			-5.883
295600.000			52.945			-5.883
295701.000			52.944			-5.883
295801.000			52.944			-5.883
295901.000			52.943			-5.883
296001.000			52.943			-5.883
296100.000			52.943			-5.883
296200.000			52.943			-5.883
296301.000			52.942			-5.882
296400.000			52.941			-5.882
296500.000			52.940			-5.882
296601.000			52.940			-5.882
296701.000			52.940			-5.882
296801.000			52.939			-5.882
296902.000			52.938			-5.882
297000.000			52.938			-5.882
297100.000			52.936			-5.882
297201.000			52.937			-5.882
297300.000			52.936			-5.882
297400.000			52.935			-5.882
297501.000			52.935			-5.882
297600.000			52.935			-5.882
297701.000			52.935			-5.882
297802.000			52.934			-5.882
297901.000			52.933			-5.881
298000.000			52.934			-5.882
298100.000			52.934			-5.882
298200.000			52.933			-5.881
298301.000			52.933			-5.881
298400.000			52.932			-5.881
298500.000			52.931			-5.881
298601.000			52.931			-5.881
298701.000			52.931			-5.881
298801.000			52.930			-5.881
298902.000			52.929			-5.881
299000.000			52.929			-5.881
299100.000			52.930			-5.881
299201.000			52.929			-5.881
299300.000			52.928			-5.881
299400.000			52.927			-5.881
299501.000			52.926			-5.881
299600.000			52.927			-5.881
299701.000			52.928			-5.881
299802.000			52.929			-5.881
299901.000			52.927			-5.881
