# Acquired on 10/01/2024 12:23:09 
# SPIDER: Creep_-3mm_07714532C-2
# CREEP MEASUREMENT

# time [ms]		force [N]		stiffness [N/mm]
0.000			3.666			-1.222
100.000			4.286			-1.429
200.000			4.711			-1.570
301.000			4.703			-1.568
401.000			4.685			-1.562
501.000			4.671			-1.557
601.000			4.660			-1.553
700.000			4.651			-1.550
800.000			4.643			-1.548
901.000			4.629			-1.543
1000.000			4.622			-1.541
1100.000			4.618			-1.539
1202.000			4.613			-1.538
1301.000			4.608			-1.536
1400.000			4.603			-1.534
1501.000			4.599			-1.533
1600.000			4.591			-1.530
1700.000			4.587			-1.529
1801.000			4.584			-1.528
1901.000			4.580			-1.527
2002.000			4.577			-1.526
2101.000			4.574			-1.525
2200.000			4.571			-1.524
2301.000			4.567			-1.522
2400.000			4.563			-1.521
2500.000			4.560			-1.520
2601.000			4.558			-1.519
2701.000			4.556			-1.519
2801.000			4.553			-1.518
2901.000			4.551			-1.517
3000.000			4.550			-1.517
3100.000			4.545			-1.515
3201.000			4.543			-1.514
3300.000			4.539			-1.513
3400.000			4.538			-1.513
3502.000			4.537			-1.512
3601.000			4.536			-1.512
3700.000			4.534			-1.511
3801.000			4.530			-1.510
3900.000			4.528			-1.509
4000.000			4.527			-1.509
4101.000			4.526			-1.509
4200.000			4.525			-1.508
4301.000			4.523			-1.508
4402.000			4.522			-1.507
4500.000			4.518			-1.506
4600.000			4.517			-1.506
4701.000			4.517			-1.506
4800.000			4.515			-1.505
4900.000			4.513			-1.504
5002.000			4.513			-1.504
5101.000			4.512			-1.504
5200.000			4.509			-1.503
5300.000			4.507			-1.502
5400.000			4.505			-1.502
5501.000			4.504			-1.501
5600.000			4.503			-1.501
5700.000			4.502			-1.501
5802.000			4.500			-1.500
5901.000			4.500			-1.500
6000.000			4.499			-1.500
6101.000			4.498			-1.499
6200.000			4.496			-1.499
6300.000			4.494			-1.498
6401.000			4.494			-1.498
6500.000			4.493			-1.498
6601.000			4.491			-1.497
6702.000			4.490			-1.497
6800.000			4.489			-1.496
6900.000			4.488			-1.496
7001.000			4.488			-1.496
7100.000			4.488			-1.496
7200.000			4.485			-1.495
7302.000			4.483			-1.494
7401.000			4.481			-1.494
7501.000			4.481			-1.494
7601.000			4.480			-1.493
7700.000			4.480			-1.493
7800.000			4.479			-1.493
7901.000			4.477			-1.492
8000.000			4.476			-1.492
8101.000			4.474			-1.491
8202.000			4.473			-1.491
8300.000			4.473			-1.491
8400.000			4.473			-1.491
8500.000			4.473			-1.491
8600.000			4.472			-1.491
8701.000			4.470			-1.490
8800.000			4.469			-1.490
8901.000			4.467			-1.489
9002.000			4.466			-1.489
9100.000			4.465			-1.488
9200.000			4.465			-1.488
9301.000			4.463			-1.488
9400.000			4.462			-1.487
9500.000			4.462			-1.487
9601.000			4.461			-1.487
9701.000			4.460			-1.487
9801.000			4.459			-1.486
9901.000			4.458			-1.486
10000.000			4.458			-1.486
10100.000			4.457			-1.486
10201.000			4.456			-1.485
10300.000			4.454			-1.485
10401.000			4.454			-1.485
10502.000			4.453			-1.484
10600.000			4.454			-1.485
10700.000			4.453			-1.484
10801.000			4.451			-1.484
10900.000			4.451			-1.484
11000.000			4.451			-1.484
11101.000			4.450			-1.483
11201.000			4.449			-1.483
11301.000			4.448			-1.483
11401.000			4.448			-1.483
11500.000			4.447			-1.482
11600.000			4.448			-1.483
11700.000			4.447			-1.482
11800.000			4.448			-1.483
11901.000			4.446			-1.482
12001.000			4.445			-1.482
12101.000			4.445			-1.482
12201.000			4.445			-1.482
12300.000			4.444			-1.481
12400.000			4.443			-1.481
12501.000			4.442			-1.481
12600.000			4.441			-1.480
12700.000			4.441			-1.480
12802.000			4.441			-1.480
12901.000			4.440			-1.480
13000.000			4.441			-1.480
13101.000			4.440			-1.480
13200.000			4.438			-1.479
13300.000			4.437			-1.479
13401.000			4.437			-1.479
13500.000			4.437			-1.479
13601.000			4.436			-1.479
13702.000			4.434			-1.478
13800.000			4.435			-1.478
13900.000			4.435			-1.478
14001.000			4.434			-1.478
14100.000			4.434			-1.478
14200.000			4.433			-1.478
14301.000			4.431			-1.477
14401.000			4.431			-1.477
14501.000			4.431			-1.477
14601.000			4.431			-1.477
14700.000			4.430			-1.477
14800.000			4.429			-1.476
14900.000			4.429			-1.476
15000.000			4.428			-1.476
15101.000			4.429			-1.476
15201.000			4.428			-1.476
15301.000			4.427			-1.476
15401.000			4.426			-1.475
15500.000			4.425			-1.475
15600.000			4.425			-1.475
15701.000			4.425			-1.475
15800.000			4.424			-1.475
15900.000			4.423			-1.474
16002.000			4.424			-1.475
16101.000			4.423			-1.474
16200.000			4.421			-1.474
16301.000			4.420			-1.473
16400.000			4.420			-1.473
16500.000			4.419			-1.473
16601.000			4.419			-1.473
16700.000			4.419			-1.473
16801.000			4.419			-1.473
16902.000			4.417			-1.472
17000.000			4.417			-1.472
17100.000			4.417			-1.472
17201.000			4.416			-1.472
17300.000			4.416			-1.472
17400.000			4.416			-1.472
17501.000			4.417			-1.472
17601.000			4.415			-1.472
17701.000			4.415			-1.472
17801.000			4.414			-1.471
17900.000			4.413			-1.471
18000.000			4.412			-1.471
18100.000			4.412			-1.471
18200.000			4.412			-1.471
18301.000			4.411			-1.470
18401.000			4.412			-1.471
18501.000			4.411			-1.470
18601.000			4.411			-1.470
18700.000			4.410			-1.470
18800.000			4.409			-1.470
18901.000			4.410			-1.470
19000.000			4.411			-1.470
19100.000			4.409			-1.470
19202.000			4.408			-1.469
19301.000			4.408			-1.469
19400.000			4.407			-1.469
19501.000			4.406			-1.469
19600.000			4.405			-1.468
19700.000			4.407			-1.469
19801.000			4.406			-1.469
19900.000			4.405			-1.468
20001.000			4.405			-1.468
20102.000			4.405			-1.468
20200.000			4.404			-1.468
20300.000			4.403			-1.468
20401.000			4.403			-1.468
20500.000			4.403			-1.468
20600.000			4.402			-1.467
20702.000			4.402			-1.467
20801.000			4.402			-1.467
20900.000			4.402			-1.467
21001.000			4.401			-1.467
21100.000			4.400			-1.467
21200.000			4.400			-1.467
21300.000			4.399			-1.466
21400.000			4.399			-1.466
21502.000			4.399			-1.466
21601.000			4.399			-1.466
21700.000			4.399			-1.466
21801.000			4.398			-1.466
21900.000			4.398			-1.466
22000.000			4.398			-1.466
22101.000			4.398			-1.466
22200.000			4.397			-1.466
22301.000			4.398			-1.466
22402.000			4.397			-1.466
22500.000			4.396			-1.465
22600.000			4.397			-1.466
22701.000			4.395			-1.465
22800.000			4.395			-1.465
22900.000			4.395			-1.465
23001.000			4.395			-1.465
23101.000			4.393			-1.464
23201.000			4.393			-1.464
23301.000			4.393			-1.464
23400.000			4.392			-1.464
23500.000			4.392			-1.464
23601.000			4.392			-1.464
23700.000			4.392			-1.464
23800.000			4.392			-1.464
23902.000			4.391			-1.464
24001.000			4.392			-1.464
24100.000			4.390			-1.463
24201.000			4.390			-1.463
24300.000			4.390			-1.463
24400.000			4.390			-1.463
24500.000			4.390			-1.463
24600.000			4.389			-1.463
24702.000			4.389			-1.463
24801.000			4.389			-1.463
24900.000			4.388			-1.463
25001.000			4.389			-1.463
25100.000			4.388			-1.463
25200.000			4.388			-1.463
25301.000			4.388			-1.463
25400.000			4.387			-1.462
25501.000			4.387			-1.462
25602.000			4.386			-1.462
25701.000			4.386			-1.462
25800.000			4.386			-1.462
25901.000			4.385			-1.462
26000.000			4.385			-1.462
26100.000			4.384			-1.461
26201.000			4.385			-1.462
26301.000			4.384			-1.461
26401.000			4.384			-1.461
26501.000			4.384			-1.461
26600.000			4.384			-1.461
26700.000			4.383			-1.461
26801.000			4.383			-1.461
26900.000			4.383			-1.461
27000.000			4.383			-1.461
27101.000			4.382			-1.461
27201.000			4.381			-1.460
27301.000			4.381			-1.460
27401.000			4.382			-1.461
27500.000			4.382			-1.461
27600.000			4.382			-1.461
27700.000			4.382			-1.461
27800.000			4.382			-1.461
27902.000			4.383			-1.461
28001.000			4.382			-1.461
28101.000			4.382			-1.461
28201.000			4.382			-1.461
28300.000			4.381			-1.460
28400.000			4.381			-1.460
28501.000			4.380			-1.460
28600.000			4.381			-1.460
28701.000			4.381			-1.460
28802.000			4.380			-1.460
28901.000			4.380			-1.460
29000.000			4.379			-1.460
29101.000			4.379			-1.460
29200.000			4.378			-1.459
29300.000			4.379			-1.460
29401.000			4.378			-1.459
29500.000			4.379			-1.460
29601.000			4.378			-1.459
29702.000			4.378			-1.459
29800.000			4.378			-1.459
29900.000			4.378			-1.459
30001.000			4.377			-1.459
30100.000			4.377			-1.459
30200.000			4.378			-1.459
30301.000			4.378			-1.459
30401.000			4.378			-1.459
30501.000			4.377			-1.459
30601.000			4.377			-1.459
30700.000			4.375			-1.458
30800.000			4.375			-1.458
30900.000			4.376			-1.459
31000.000			4.376			-1.459
31101.000			4.375			-1.458
31201.000			4.375			-1.458
31301.000			4.376			-1.459
31401.000			4.376			-1.459
31500.000			4.375			-1.458
31600.000			4.374			-1.458
31701.000			4.374			-1.458
31800.000			4.375			-1.458
31900.000			4.374			-1.458
32002.000			4.373			-1.458
32101.000			4.372			-1.457
32200.000			4.373			-1.458
32301.000			4.373			-1.458
32400.000			4.373			-1.458
32500.000			4.373			-1.458
32601.000			4.372			-1.457
32700.000			4.372			-1.457
32801.000			4.371			-1.457
32902.000			4.371			-1.457
33000.000			4.371			-1.457
33100.000			4.372			-1.457
33201.000			4.373			-1.458
33300.000			4.373			-1.458
33400.000			4.370			-1.457
33501.000			4.370			-1.457
33601.000			4.371			-1.457
33701.000			4.369			-1.456
33801.000			4.368			-1.456
33900.000			4.369			-1.456
34000.000			4.370			-1.457
34100.000			4.369			-1.456
34200.000			4.369			-1.456
34301.000			4.369			-1.456
34401.000			4.369			-1.456
34501.000			4.368			-1.456
34601.000			4.368			-1.456
34700.000			4.368			-1.456
34800.000			4.367			-1.456
34901.000			4.367			-1.456
35000.000			4.367			-1.456
35100.000			4.367			-1.456
35202.000			4.367			-1.456
35301.000			4.366			-1.455
35400.000			4.366			-1.455
35501.000			4.366			-1.455
35600.000			4.366			-1.455
35700.000			4.366			-1.455
35801.000			4.365			-1.455
35900.000			4.365			-1.455
36001.000			4.366			-1.455
36102.000			4.365			-1.455
36200.000			4.365			-1.455
36300.000			4.365			-1.455
36401.000			4.364			-1.455
36500.000			4.364			-1.455
36600.000			4.364			-1.455
36701.000			4.364			-1.455
36801.000			4.365			-1.455
36901.000			4.365			-1.455
37001.000			4.364			-1.455
37100.000			4.363			-1.454
37200.000			4.363			-1.454
37300.000			4.363			-1.454
37400.000			4.362			-1.454
37501.000			4.362			-1.454
37601.000			4.362			-1.454
37701.000			4.362			-1.454
37801.000			4.360			-1.453
37900.000			4.360			-1.453
38000.000			4.360			-1.453
38101.000			4.361			-1.454
38200.000			4.360			-1.453
38300.000			4.359			-1.453
38402.000			4.359			-1.453
38501.000			4.358			-1.453
38600.000			4.359			-1.453
38701.000			4.357			-1.452
38800.000			4.357			-1.452
38900.000			4.357			-1.452
39001.000			4.357			-1.452
39100.000			4.356			-1.452
39201.000			4.356			-1.452
39302.000			4.356			-1.452
39401.000			4.356			-1.452
39500.000			4.356			-1.452
39601.000			4.355			-1.452
39700.000			4.355			-1.452
39800.000			4.355			-1.452
39901.000			4.354			-1.451
40001.000			4.353			-1.451
40101.000			4.354			-1.451
40201.000			4.354			-1.451
40300.000			4.353			-1.451
40400.000			4.353			-1.451
40500.000			4.353			-1.451
40600.000			4.353			-1.451
40701.000			4.353			-1.451
40801.000			4.352			-1.451
40901.000			4.352			-1.451
41001.000			4.351			-1.450
41100.000			4.351			-1.450
41200.000			4.352			-1.451
41301.000			4.351			-1.450
41400.000			4.350			-1.450
41500.000			4.350			-1.450
41602.000			4.351			-1.450
41701.000			4.350			-1.450
41800.000			4.351			-1.450
41901.000			4.351			-1.450
42000.000			4.350			-1.450
42100.000			4.350			-1.450
42201.000			4.349			-1.450
42301.000			4.349			-1.450
42401.000			4.350			-1.450
42501.000			4.348			-1.449
42600.000			4.348			-1.449
42700.000			4.349			-1.450
42801.000			4.348			-1.449
42900.000			4.349			-1.450
43000.000			4.348			-1.449
43102.000			4.348			-1.449
43201.000			4.348			-1.449
43300.000			4.349			-1.450
43401.000			4.348			-1.449
43500.000			4.347			-1.449
43600.000			4.347			-1.449
43700.000			4.347			-1.449
43800.000			4.347			-1.449
43902.000			4.347			-1.449
44001.000			4.345			-1.448
44100.000			4.345			-1.448
44201.000			4.346			-1.449
44300.000			4.346			-1.449
44400.000			4.346			-1.449
44501.000			4.344			-1.448
44600.000			4.344			-1.448
44701.000			4.345			-1.448
44802.000			4.345			-1.448
44900.000			4.345			-1.448
45000.000			4.345			-1.448
45101.000			4.345			-1.448
45200.000			4.344			-1.448
45300.000			4.345			-1.448
45401.000			4.344			-1.448
45501.000			4.344			-1.448
45601.000			4.344			-1.448
45701.000			4.343			-1.448
45800.000			4.342			-1.447
45900.000			4.343			-1.448
46001.000			4.343			-1.448
46100.000			4.342			-1.447
46200.000			4.342			-1.447
46302.000			4.342			-1.447
46401.000			4.342			-1.447
46500.000			4.342			-1.447
46601.000			4.343			-1.448
46700.000			4.341			-1.447
46800.000			4.341			-1.447
46900.000			4.340			-1.447
47000.000			4.340			-1.447
47102.000			4.340			-1.447
47201.000			4.341			-1.447
47300.000			4.341			-1.447
47401.000			4.339			-1.446
47500.000			4.339			-1.446
47600.000			4.339			-1.446
47701.000			4.340			-1.447
47800.000			4.340			-1.447
47901.000			4.339			-1.446
48002.000			4.339			-1.446
48100.000			4.339			-1.446
48200.000			4.340			-1.447
48301.000			4.339			-1.446
48400.000			4.339			-1.446
48500.000			4.338			-1.446
48601.000			4.337			-1.446
48701.000			4.338			-1.446
48801.000			4.338			-1.446
48901.000			4.338			-1.446
49000.000			4.338			-1.446
49100.000			4.338			-1.446
49201.000			4.338			-1.446
49300.000			4.337			-1.446
49400.000			4.337			-1.446
49502.000			4.336			-1.445
49601.000			4.337			-1.446
49700.000			4.337			-1.446
49801.000			4.336			-1.445
49900.000			4.335			-1.445
50000.000			4.335			-1.445
50100.000			4.335			-1.445
50200.000			4.336			-1.445
50302.000			4.336			-1.445
50401.000			4.336			-1.445
50500.000			4.336			-1.445
50601.000			4.335			-1.445
50700.000			4.336			-1.445
50800.000			4.335			-1.445
50901.000			4.334			-1.445
51000.000			4.334			-1.445
51101.000			4.334			-1.445
51202.000			4.334			-1.445
51300.000			4.334			-1.445
51400.000			4.334			-1.445
51501.000			4.334			-1.445
51600.000			4.333			-1.444
51700.000			4.334			-1.445
51802.000			4.333			-1.444
51901.000			4.332			-1.444
52000.000			4.332			-1.444
52101.000			4.334			-1.445
52200.000			4.333			-1.444
52300.000			4.332			-1.444
52401.000			4.331			-1.444
52500.000			4.333			-1.444
52601.000			4.331			-1.444
52702.000			4.331			-1.444
52800.000			4.331			-1.444
52900.000			4.331			-1.444
53001.000			4.332			-1.444
53100.000			4.331			-1.444
53200.000			4.332			-1.444
53300.000			4.331			-1.444
53401.000			4.331			-1.444
53502.000			4.330			-1.443
53600.000			4.331			-1.444
53700.000			4.330			-1.443
53801.000			4.329			-1.443
53900.000			4.331			-1.444
54000.000			4.331			-1.444
54102.000			4.330			-1.443
54201.000			4.330			-1.443
54300.000			4.329			-1.443
54401.000			4.329			-1.443
54500.000			4.330			-1.443
54600.000			4.330			-1.443
54701.000			4.330			-1.443
54800.000			4.330			-1.443
54901.000			4.329			-1.443
55002.000			4.329			-1.443
55101.000			4.329			-1.443
55200.000			4.329			-1.443
55301.000			4.329			-1.443
55400.000			4.328			-1.443
55500.000			4.328			-1.443
55601.000			4.328			-1.443
55701.000			4.329			-1.443
55801.000			4.328			-1.443
55901.000			4.328			-1.443
56000.000			4.328			-1.443
56100.000			4.328			-1.443
56201.000			4.327			-1.442
56300.000			4.326			-1.442
56400.000			4.327			-1.442
56502.000			4.326			-1.442
56601.000			4.326			-1.442
56701.000			4.327			-1.442
56800.000			4.326			-1.442
56900.000			4.326			-1.442
57001.000			4.326			-1.442
57100.000			4.326			-1.442
57200.000			4.325			-1.442
57302.000			4.325			-1.442
57401.000			4.326			-1.442
57500.000			4.326			-1.442
57601.000			4.325			-1.442
57700.000			4.325			-1.442
57800.000			4.325			-1.442
57901.000			4.325			-1.442
58000.000			4.324			-1.441
58101.000			4.324			-1.441
58202.000			4.325			-1.442
58300.000			4.325			-1.442
58400.000			4.324			-1.441
58501.000			4.325			-1.442
58600.000			4.324			-1.441
58700.000			4.324			-1.441
58801.000			4.324			-1.441
58901.000			4.324			-1.441
59001.000			4.324			-1.441
59101.000			4.324			-1.441
59200.000			4.324			-1.441
59300.000			4.323			-1.441
59401.000			4.323			-1.441
59500.000			4.324			-1.441
59600.000			4.323			-1.441
59702.000			4.322			-1.441
59801.000			4.322			-1.441
59901.000			4.322			-1.441
60000.000			4.323			-1.441
60100.000			4.323			-1.441
60201.000			4.323			-1.441
60300.000			4.322			-1.441
60400.000			4.321			-1.440
60502.000			4.322			-1.441
60601.000			4.322			-1.441
60700.000			4.321			-1.440
60801.000			4.321			-1.440
60900.000			4.321			-1.440
61000.000			4.322			-1.441
61101.000			4.321			-1.440
61200.000			4.321			-1.440
61301.000			4.322			-1.441
61401.000			4.320			-1.440
61500.000			4.320			-1.440
61600.000			4.321			-1.440
61701.000			4.321			-1.440
61800.000			4.320			-1.440
61900.000			4.320			-1.440
62002.000			4.320			-1.440
62101.000			4.320			-1.440
62200.000			4.320			-1.440
62301.000			4.320			-1.440
62400.000			4.319			-1.440
62500.000			4.319			-1.440
62601.000			4.319			-1.440
62700.000			4.317			-1.439
62802.000			4.319			-1.440
62901.000			4.319			-1.440
63000.000			4.319			-1.440
63101.000			4.319			-1.440
63200.000			4.319			-1.440
63300.000			4.319			-1.440
63401.000			4.318			-1.439
63500.000			4.319			-1.440
63601.000			4.318			-1.439
63702.000			4.318			-1.439
63800.000			4.318			-1.439
63900.000			4.317			-1.439
64001.000			4.318			-1.439
64100.000			4.317			-1.439
64200.000			4.316			-1.439
64301.000			4.317			-1.439
64401.000			4.318			-1.439
64501.000			4.317			-1.439
64601.000			4.317			-1.439
64700.000			4.317			-1.439
64800.000			4.317			-1.439
64901.000			4.317			-1.439
65000.000			4.317			-1.439
65100.000			4.317			-1.439
65202.000			4.315			-1.438
65301.000			4.316			-1.439
65400.000			4.316			-1.439
65501.000			4.316			-1.439
65600.000			4.316			-1.439
65700.000			4.316			-1.439
65801.000			4.315			-1.438
65900.000			4.315			-1.438
66002.000			4.315			-1.438
66101.000			4.315			-1.438
66200.000			4.314			-1.438
66301.000			4.315			-1.438
66400.000			4.313			-1.438
66500.000			4.314			-1.438
66601.000			4.315			-1.438
66700.000			4.315			-1.438
66801.000			4.315			-1.438
66902.000			4.315			-1.438
67000.000			4.313			-1.438
67100.000			4.314			-1.438
67201.000			4.314			-1.438
67300.000			4.314			-1.438
67400.000			4.314			-1.438
67501.000			4.314			-1.438
67601.000			4.314			-1.438
67701.000			4.313			-1.438
67801.000			4.314			-1.438
67900.000			4.314			-1.438
68000.000			4.313			-1.438
68101.000			4.313			-1.438
68200.000			4.313			-1.438
68300.000			4.313			-1.438
68402.000			4.313			-1.438
68501.000			4.313			-1.438
68600.000			4.313			-1.438
68701.000			4.312			-1.437
68800.000			4.311			-1.437
68900.000			4.311			-1.437
69001.000			4.312			-1.437
69100.000			4.311			-1.437
69202.000			4.312			-1.437
69301.000			4.311			-1.437
69400.000			4.311			-1.437
69501.000			4.311			-1.437
69600.000			4.311			-1.437
69700.000			4.311			-1.437
69801.000			4.310			-1.437
69900.000			4.310			-1.437
70001.000			4.310			-1.437
70102.000			4.310			-1.437
70200.000			4.309			-1.436
70300.000			4.310			-1.437
70401.000			4.311			-1.437
70500.000			4.310			-1.437
70600.000			4.310			-1.437
70701.000			4.311			-1.437
70801.000			4.310			-1.437
70901.000			4.309			-1.436
71001.000			4.310			-1.437
71100.000			4.310			-1.437
71200.000			4.309			-1.436
71301.000			4.308			-1.436
71400.000			4.309			-1.436
71500.000			4.308			-1.436
71602.000			4.309			-1.436
71701.000			4.310			-1.437
71800.000			4.309			-1.436
71901.000			4.309			-1.436
72000.000			4.309			-1.436
72100.000			4.309			-1.436
72201.000			4.308			-1.436
72301.000			4.308			-1.436
72402.000			4.308			-1.436
72501.000			4.308			-1.436
72600.000			4.309			-1.436
72701.000			4.308			-1.436
72800.000			4.308			-1.436
72900.000			4.307			-1.436
73001.000			4.307			-1.436
73100.000			4.308			-1.436
73201.000			4.307			-1.436
73302.000			4.307			-1.436
73400.000			4.307			-1.436
73500.000			4.307			-1.436
73601.000			4.307			-1.436
73700.000			4.307			-1.436
73800.000			4.307			-1.436
73901.000			4.306			-1.435
74001.000			4.306			-1.435
74101.000			4.307			-1.436
74201.000			4.307			-1.436
74300.000			4.305			-1.435
74400.000			4.304			-1.435
74501.000			4.305			-1.435
74600.000			4.306			-1.435
74700.000			4.305			-1.435
74802.000			4.305			-1.435
74901.000			4.306			-1.435
75000.000			4.305			-1.435
75101.000			4.306			-1.435
75200.000			4.305			-1.435
75300.000			4.305			-1.435
75401.000			4.305			-1.435
75500.000			4.305			-1.435
75602.000			4.305			-1.435
75701.000			4.304			-1.435
75800.000			4.305			-1.435
75901.000			4.305			-1.435
76000.000			4.304			-1.435
76100.000			4.305			-1.435
76201.000			4.304			-1.435
76300.000			4.304			-1.435
76401.000			4.304			-1.435
76502.000			4.303			-1.434
76600.000			4.303			-1.434
76700.000			4.303			-1.434
76801.000			4.304			-1.435
76900.000			4.303			-1.434
77000.000			4.303			-1.434
77101.000			4.302			-1.434
77201.000			4.304			-1.435
77301.000			4.303			-1.434
77401.000			4.303			-1.434
77500.000			4.304			-1.435
77600.000			4.303			-1.434
77701.000			4.302			-1.434
77800.000			4.302			-1.434
77900.000			4.301			-1.434
78002.000			4.302			-1.434
78101.000			4.302			-1.434
78200.000			4.302			-1.434
78301.000			4.302			-1.434
78400.000			4.302			-1.434
78500.000			4.301			-1.434
78601.000			4.302			-1.434
78700.000			4.301			-1.434
78802.000			4.301			-1.434
78901.000			4.302			-1.434
79000.000			4.301			-1.434
79101.000			4.301			-1.434
79200.000			4.301			-1.434
79300.000			4.302			-1.434
79401.000			4.301			-1.434
79500.000			4.299			-1.433
79601.000			4.300			-1.433
79702.000			4.301			-1.434
79800.000			4.301			-1.434
79900.000			4.300			-1.433
80001.000			4.300			-1.433
80100.000			4.300			-1.433
80200.000			4.300			-1.433
80301.000			4.300			-1.433
80401.000			4.299			-1.433
80501.000			4.300			-1.433
80601.000			4.300			-1.433
80700.000			4.299			-1.433
80800.000			4.299			-1.433
80901.000			4.299			-1.433
81000.000			4.299			-1.433
81100.000			4.298			-1.433
81202.000			4.299			-1.433
81301.000			4.299			-1.433
81401.000			4.298			-1.433
81501.000			4.299			-1.433
81600.000			4.298			-1.433
81700.000			4.298			-1.433
81801.000			4.299			-1.433
81900.000			4.298			-1.433
82000.000			4.298			-1.433
82102.000			4.298			-1.433
82201.000			4.299			-1.433
82301.000			4.297			-1.432
82400.000			4.298			-1.433
82500.000			4.298			-1.433
82601.000			4.297			-1.432
82700.000			4.297			-1.432
82800.000			4.297			-1.432
82902.000			4.298			-1.433
83001.000			4.297			-1.432
83100.000			4.298			-1.433
83201.000			4.297			-1.432
83300.000			4.298			-1.433
83400.000			4.298			-1.433
83501.000			4.297			-1.432
83600.000			4.297			-1.432
83700.000			4.296			-1.432
83802.000			4.297			-1.432
83901.000			4.297			-1.432
84000.000			4.296			-1.432
84101.000			4.298			-1.433
84200.000			4.297			-1.432
84300.000			4.296			-1.432
84401.000			4.297			-1.432
84500.000			4.296			-1.432
84601.000			4.296			-1.432
84702.000			4.295			-1.432
84800.000			4.294			-1.431
84900.000			4.295			-1.432
85001.000			4.295			-1.432
85100.000			4.295			-1.432
85200.000			4.295			-1.432
85300.000			4.296			-1.432
85401.000			4.296			-1.432
85502.000			4.296			-1.432
85600.000			4.296			-1.432
85700.000			4.294			-1.431
85801.000			4.294			-1.431
85900.000			4.294			-1.431
86000.000			4.295			-1.432
86101.000			4.295			-1.432
86201.000			4.295			-1.432
86301.000			4.296			-1.432
86402.000			4.295			-1.432
86500.000			4.294			-1.431
86600.000			4.294			-1.431
86701.000			4.294			-1.431
86800.000			4.294			-1.431
86900.000			4.294			-1.431
87001.000			4.294			-1.431
87101.000			4.294			-1.431
87201.000			4.294			-1.431
87301.000			4.293			-1.431
87400.000			4.293			-1.431
87500.000			4.293			-1.431
87601.000			4.293			-1.431
87700.000			4.293			-1.431
87800.000			4.293			-1.431
87902.000			4.293			-1.431
88001.000			4.292			-1.431
88100.000			4.292			-1.431
88201.000			4.293			-1.431
88300.000			4.293			-1.431
88400.000			4.293			-1.431
88500.000			4.293			-1.431
88600.000			4.292			-1.431
88702.000			4.292			-1.431
88801.000			4.293			-1.431
88901.000			4.292			-1.431
89001.000			4.292			-1.431
89100.000			4.293			-1.431
89200.000			4.292			-1.431
89301.000			4.291			-1.430
89400.000			4.292			-1.431
89500.000			4.292			-1.431
89602.000			4.293			-1.431
89701.000			4.292			-1.431
89800.000			4.292			-1.431
89901.000			4.292			-1.431
90000.000			4.291			-1.430
90100.000			4.291			-1.430
90201.000			4.291			-1.430
90300.000			4.291			-1.430
90401.000			4.291			-1.430
90502.000			4.291			-1.430
90600.000			4.290			-1.430
90700.000			4.290			-1.430
90801.000			4.290			-1.430
90900.000			4.290			-1.430
91000.000			4.291			-1.430
91101.000			4.290			-1.430
91201.000			4.290			-1.430
91301.000			4.291			-1.430
91401.000			4.290			-1.430
91500.000			4.290			-1.430
91600.000			4.290			-1.430
91700.000			4.290			-1.430
91800.000			4.291			-1.430
91901.000			4.290			-1.430
92001.000			4.289			-1.430
92101.000			4.289			-1.430
92201.000			4.289			-1.430
92300.000			4.289			-1.430
92400.000			4.289			-1.430
92501.000			4.289			-1.430
92600.000			4.289			-1.430
92700.000			4.289			-1.430
92802.000			4.289			-1.430
92901.000			4.289			-1.430
93001.000			4.290			-1.430
93101.000			4.289			-1.430
93200.000			4.288			-1.429
93300.000			4.288			-1.429
93401.000			4.288			-1.429
93500.000			4.289			-1.430
93600.000			4.288			-1.429
93702.000			4.287			-1.429
93801.000			4.288			-1.429
93900.000			4.289			-1.430
94001.000			4.288			-1.429
94100.000			4.287			-1.429
94200.000			4.285			-1.428
94301.000			4.287			-1.429
94400.000			4.287			-1.429
94501.000			4.288			-1.429
94602.000			4.288			-1.429
94700.000			4.287			-1.429
94800.000			4.288			-1.429
94900.000			4.288			-1.429
95000.000			4.287			-1.429
95101.000			4.287			-1.429
95200.000			4.287			-1.429
95301.000			4.288			-1.429
95402.000			4.288			-1.429
95501.000			4.287			-1.429
95600.000			4.287			-1.429
95701.000			4.287			-1.429
95800.000			4.287			-1.429
95900.000			4.287			-1.429
96001.000			4.287			-1.429
96100.000			4.287			-1.429
96201.000			4.286			-1.429
96302.000			4.286			-1.429
96400.000			4.287			-1.429
96500.000			4.287			-1.429
96601.000			4.286			-1.429
96700.000			4.286			-1.429
96800.000			4.287			-1.429
96901.000			4.286			-1.429
97001.000			4.287			-1.429
97101.000			4.286			-1.429
97201.000			4.286			-1.429
97300.000			4.286			-1.429
97400.000			4.286			-1.429
97501.000			4.285			-1.428
97600.000			4.287			-1.429
97700.000			4.286			-1.429
97801.000			4.285			-1.428
97901.000			4.286			-1.429
98002.000			4.285			-1.428
98100.000			4.285			-1.428
98200.000			4.285			-1.428
98301.000			4.285			-1.428
98400.000			4.284			-1.428
98500.000			4.285			-1.428
98601.000			4.285			-1.428
98701.000			4.284			-1.428
98801.000			4.284			-1.428
98902.000			4.284			-1.428
99000.000			4.285			-1.428
99100.000			4.284			-1.428
99201.000			4.284			-1.428
99300.000			4.284			-1.428
99400.000			4.284			-1.428
99501.000			4.284			-1.428
99601.000			4.284			-1.428
99701.000			4.284			-1.428
99801.000			4.283			-1.428
99900.000			4.283			-1.428
100000.000			4.283			-1.428
100101.000			4.284			-1.428
100200.000			4.284			-1.428
100300.000			4.283			-1.428
100402.000			4.283			-1.428
100501.000			4.283			-1.428
100600.000			4.282			-1.427
100701.000			4.283			-1.428
100800.000			4.283			-1.428
100900.000			4.283			-1.428
101001.000			4.283			-1.428
101100.000			4.284			-1.428
101200.000			4.284			-1.428
101302.000			4.283			-1.428
101401.000			4.284			-1.428
101501.000			4.284			-1.428
101600.000			4.283			-1.428
101700.000			4.283			-1.428
101801.000			4.282			-1.427
101900.000			4.282			-1.427
102000.000			4.282			-1.427
102102.000			4.283			-1.428
102201.000			4.283			-1.428
102300.000			4.282			-1.427
102401.000			4.282			-1.427
102500.000			4.282			-1.427
102600.000			4.283			-1.428
102701.000			4.282			-1.427
102800.000			4.283			-1.428
102901.000			4.283			-1.428
103002.000			4.282			-1.427
103100.000			4.282			-1.427
103200.000			4.283			-1.428
103301.000			4.282			-1.427
103400.000			4.283			-1.428
103500.000			4.283			-1.428
103601.000			4.283			-1.428
103701.000			4.282			-1.427
103801.000			4.282			-1.427
103901.000			4.283			-1.428
104000.000			4.282			-1.427
104100.000			4.282			-1.427
104201.000			4.282			-1.427
104300.000			4.282			-1.427
104400.000			4.282			-1.427
104502.000			4.280			-1.427
104601.000			4.280			-1.427
104702.000			4.281			-1.427
104800.000			4.281			-1.427
104900.000			4.281			-1.427
105001.000			4.282			-1.427
105100.000			4.280			-1.427
105200.000			4.280			-1.427
105301.000			4.280			-1.427
105401.000			4.279			-1.426
105501.000			4.280			-1.427
105601.000			4.280			-1.427
105700.000			4.280			-1.427
105800.000			4.281			-1.427
105901.000			4.281			-1.427
106000.000			4.280			-1.427
106100.000			4.280			-1.427
106202.000			4.280			-1.427
106301.000			4.279			-1.426
106401.000			4.280			-1.427
106501.000			4.279			-1.426
106600.000			4.279			-1.426
106700.000			4.279			-1.426
106801.000			4.279			-1.426
106900.000			4.279			-1.426
107000.000			4.279			-1.426
107102.000			4.279			-1.426
107201.000			4.279			-1.426
107300.000			4.280			-1.427
107401.000			4.280			-1.427
107500.000			4.279			-1.426
107600.000			4.279			-1.426
107700.000			4.278			-1.426
107800.000			4.278			-1.426
107901.000			4.278			-1.426
108001.000			4.278			-1.426
108101.000			4.278			-1.426
108201.000			4.277			-1.426
108300.000			4.278			-1.426
108400.000			4.278			-1.426
108501.000			4.277			-1.426
108600.000			4.278			-1.426
108700.000			4.278			-1.426
108802.000			4.278			-1.426
108901.000			4.277			-1.426
109001.000			4.277			-1.426
109101.000			4.278			-1.426
109200.000			4.277			-1.426
109300.000			4.277			-1.426
109401.000			4.276			-1.425
109500.000			4.276			-1.425
109600.000			4.276			-1.425
109702.000			4.276			-1.425
109801.000			4.277			-1.426
109900.000			4.275			-1.425
110001.000			4.276			-1.425
110100.000			4.276			-1.425
110200.000			4.275			-1.425
110301.000			4.276			-1.425
110400.000			4.276			-1.425
110501.000			4.276			-1.425
110602.000			4.276			-1.425
110701.000			4.276			-1.425
110800.000			4.276			-1.425
110900.000			4.275			-1.425
111000.000			4.275			-1.425
111101.000			4.275			-1.425
111200.000			4.274			-1.425
111300.000			4.275			-1.425
111402.000			4.275			-1.425
111501.000			4.275			-1.425
111600.000			4.275			-1.425
111701.000			4.274			-1.425
111800.000			4.275			-1.425
111900.000			4.275			-1.425
112001.000			4.274			-1.425
112100.000			4.274			-1.425
112201.000			4.274			-1.425
112302.000			4.275			-1.425
112400.000			4.275			-1.425
112500.000			4.275			-1.425
112601.000			4.275			-1.425
112700.000			4.275			-1.425
112800.000			4.274			-1.425
112901.000			4.276			-1.425
113001.000			4.275			-1.425
113101.000			4.274			-1.425
113202.000			4.274			-1.425
113300.000			4.274			-1.425
113400.000			4.275			-1.425
113501.000			4.275			-1.425
113600.000			4.276			-1.425
113700.000			4.275			-1.425
113801.000			4.275			-1.425
113901.000			4.276			-1.425
114002.000			4.274			-1.425
114100.000			4.275			-1.425
114200.000			4.275			-1.425
114301.000			4.275			-1.425
114400.000			4.276			-1.425
114500.000			4.275			-1.425
114601.000			4.275			-1.425
114701.000			4.275			-1.425
114801.000			4.275			-1.425
114901.000			4.275			-1.425
115000.000			4.275			-1.425
115100.000			4.275			-1.425
115201.000			4.275			-1.425
115300.000			4.275			-1.425
115400.000			4.275			-1.425
115501.000			4.275			-1.425
115601.000			4.275			-1.425
115701.000			4.276			-1.425
115801.000			4.276			-1.425
115900.000			4.275			-1.425
116000.000			4.276			-1.425
116101.000			4.275			-1.425
116200.000			4.275			-1.425
116300.000			4.275			-1.425
116402.000			4.275			-1.425
116501.000			4.277			-1.426
116600.000			4.277			-1.426
116701.000			4.276			-1.425
116800.000			4.275			-1.425
116900.000			4.275			-1.425
117001.000			4.275			-1.425
117100.000			4.275			-1.425
117200.000			4.274			-1.425
117302.000			4.274			-1.425
117401.000			4.274			-1.425
117501.000			4.274			-1.425
117600.000			4.273			-1.424
117700.000			4.273			-1.424
117801.000			4.274			-1.425
117900.000			4.273			-1.424
118000.000			4.274			-1.425
118102.000			4.274			-1.425
118201.000			4.274			-1.425
118300.000			4.275			-1.425
118401.000			4.275			-1.425
118500.000			4.274			-1.425
118600.000			4.274			-1.425
118701.000			4.272			-1.424
118800.000			4.274			-1.425
118900.000			4.274			-1.425
119002.000			4.273			-1.424
119101.000			4.274			-1.425
119200.000			4.274			-1.425
119301.000			4.273			-1.424
119400.000			4.273			-1.424
119500.000			4.273			-1.424
119601.000			4.274			-1.425
119700.000			4.274			-1.425
119801.000			4.273			-1.424
119902.000			4.272			-1.424
120001.000			4.272			-1.424
120100.000			4.273			-1.424
120201.000			4.272			-1.424
120300.000			4.272			-1.424
120400.000			4.272			-1.424
120500.000			4.272			-1.424
120600.000			4.272			-1.424
120702.000			4.272			-1.424
120801.000			4.272			-1.424
120900.000			4.272			-1.424
121001.000			4.271			-1.424
121100.000			4.271			-1.424
121200.000			4.271			-1.424
121301.000			4.271			-1.424
121400.000			4.272			-1.424
121501.000			4.273			-1.424
121602.000			4.271			-1.424
121700.000			4.271			-1.424
121800.000			4.270			-1.423
121901.000			4.271			-1.424
122000.000			4.271			-1.424
122100.000			4.272			-1.424
122201.000			4.272			-1.424
122301.000			4.270			-1.423
122401.000			4.270			-1.423
122501.000			4.271			-1.424
122600.000			4.271			-1.424
122700.000			4.269			-1.423
122801.000			4.269			-1.423
122900.000			4.270			-1.423
123000.000			4.270			-1.423
123101.000			4.269			-1.423
123201.000			4.270			-1.423
123301.000			4.271			-1.424
123401.000			4.270			-1.423
123500.000			4.270			-1.423
123600.000			4.269			-1.423
123700.000			4.269			-1.423
123800.000			4.270			-1.423
123901.000			4.270			-1.423
124001.000			4.270			-1.423
124101.000			4.270			-1.423
124202.000			4.269			-1.423
124300.000			4.269			-1.423
124400.000			4.270			-1.423
124501.000			4.269			-1.423
124600.000			4.270			-1.423
124700.000			4.270			-1.423
124801.000			4.269			-1.423
124901.000			4.269			-1.423
125001.000			4.269			-1.423
125101.000			4.269			-1.423
125200.000			4.270			-1.423
125300.000			4.270			-1.423
125401.000			4.269			-1.423
125500.000			4.269			-1.423
125600.000			4.268			-1.423
125701.000			4.268			-1.423
125801.000			4.269			-1.423
125901.000			4.269			-1.423
126001.000			4.269			-1.423
126100.000			4.269			-1.423
126200.000			4.269			-1.423
126301.000			4.269			-1.423
126400.000			4.268			-1.423
126500.000			4.268			-1.423
126602.000			4.268			-1.423
126701.000			4.269			-1.423
126800.000			4.269			-1.423
126900.000			4.269			-1.423
127000.000			4.268			-1.423
127101.000			4.268			-1.423
127200.000			4.267			-1.422
127300.000			4.268			-1.423
127401.000			4.268			-1.423
127501.000			4.268			-1.423
127601.000			4.267			-1.422
127701.000			4.267			-1.422
127800.000			4.268			-1.423
127900.000			4.268			-1.423
128001.000			4.267			-1.422
128100.000			4.267			-1.422
128200.000			4.268			-1.423
128302.000			4.267			-1.422
128401.000			4.266			-1.422
128501.000			4.266			-1.422
128601.000			4.266			-1.422
128700.000			4.268			-1.423
128800.000			4.267			-1.422
128901.000			4.267			-1.422
129000.000			4.266			-1.422
129100.000			4.266			-1.422
129202.000			4.266			-1.422
129301.000			4.266			-1.422
129401.000			4.266			-1.422
129501.000			4.267			-1.422
129600.000			4.266			-1.422
129700.000			4.265			-1.422
129801.000			4.265			-1.422
129900.000			4.265			-1.422
130000.000			4.265			-1.422
130102.000			4.265			-1.422
130201.000			4.266			-1.422
130301.000			4.264			-1.421
130400.000			4.266			-1.422
130500.000			4.266			-1.422
130601.000			4.265			-1.422
130700.000			4.264			-1.421
130800.000			4.265			-1.422
130902.000			4.265			-1.422
131001.000			4.265			-1.422
131101.000			4.265			-1.422
131201.000			4.265			-1.422
131300.000			4.264			-1.421
131400.000			4.265			-1.422
131501.000			4.264			-1.421
131600.000			4.263			-1.421
131700.000			4.263			-1.421
131802.000			4.265			-1.422
131901.000			4.264			-1.421
132001.000			4.264			-1.421
132101.000			4.264			-1.421
132200.000			4.264			-1.421
132300.000			4.264			-1.421
132401.000			4.264			-1.421
132500.000			4.264			-1.421
132600.000			4.262			-1.421
132702.000			4.263			-1.421
132801.000			4.263			-1.421
132900.000			4.263			-1.421
133001.000			4.263			-1.421
133100.000			4.263			-1.421
133200.000			4.262			-1.421
133300.000			4.262			-1.421
133400.000			4.262			-1.421
133501.000			4.261			-1.420
133601.000			4.261			-1.420
133701.000			4.261			-1.420
133801.000			4.261			-1.420
133900.000			4.259			-1.420
134000.000			4.261			-1.420
134101.000			4.262			-1.421
134200.000			4.262			-1.421
134300.000			4.261			-1.420
134401.000			4.260			-1.420
134501.000			4.260			-1.420
134601.000			4.260			-1.420
134701.000			4.260			-1.420
134800.000			4.260			-1.420
134900.000			4.260			-1.420
135001.000			4.259			-1.420
135100.000			4.259			-1.420
135200.000			4.260			-1.420
135301.000			4.260			-1.420
135401.000			4.261			-1.420
135501.000			4.262			-1.421
135601.000			4.261			-1.420
135700.000			4.259			-1.420
135800.000			4.259			-1.420
135901.000			4.259			-1.420
136000.000			4.259			-1.420
136100.000			4.261			-1.420
136201.000			4.260			-1.420
136301.000			4.260			-1.420
136402.000			4.260			-1.420
136501.000			4.261			-1.420
136600.000			4.260			-1.420
136701.000			4.261			-1.420
136800.000			4.261			-1.420
136900.000			4.260			-1.420
137001.000			4.260			-1.420
137100.000			4.260			-1.420
137200.000			4.260			-1.420
137302.000			4.260			-1.420
137401.000			4.260			-1.420
137500.000			4.261			-1.420
137601.000			4.260			-1.420
137700.000			4.260			-1.420
137800.000			4.259			-1.420
137901.000			4.259			-1.420
138000.000			4.260			-1.420
138100.000			4.260			-1.420
138202.000			4.260			-1.420
138301.000			4.260			-1.420
138400.000			4.259			-1.420
138501.000			4.260			-1.420
138600.000			4.260			-1.420
138700.000			4.260			-1.420
138801.000			4.260			-1.420
138900.000			4.259			-1.420
139000.000			4.260			-1.420
139102.000			4.260			-1.420
139201.000			4.259			-1.420
139301.000			4.260			-1.420
139401.000			4.260			-1.420
139500.000			4.260			-1.420
139600.000			4.260			-1.420
139700.000			4.260			-1.420
139800.000			4.260			-1.420
139901.000			4.260			-1.420
140001.000			4.260			-1.420
140101.000			4.259			-1.420
140202.000			4.259			-1.420
140300.000			4.259			-1.420
140400.000			4.260			-1.420
140501.000			4.260			-1.420
140600.000			4.260			-1.420
140700.000			4.259			-1.420
140801.000			4.257			-1.419
140900.000			4.259			-1.420
141001.000			4.260			-1.420
141102.000			4.260			-1.420
141200.000			4.260			-1.420
141300.000			4.260			-1.420
141401.000			4.258			-1.419
141500.000			4.259			-1.420
141600.000			4.258			-1.419
141701.000			4.259			-1.420
141800.000			4.259			-1.420
141901.000			4.259			-1.420
142002.000			4.258			-1.419
142101.000			4.258			-1.419
142200.000			4.257			-1.419
142301.000			4.258			-1.419
142400.000			4.257			-1.419
142500.000			4.257			-1.419
142601.000			4.258			-1.419
142700.000			4.258			-1.419
142802.000			4.258			-1.419
142901.000			4.257			-1.419
143001.000			4.258			-1.419
143101.000			4.257			-1.419
143200.000			4.256			-1.419
143300.000			4.256			-1.419
143401.000			4.257			-1.419
143500.000			4.257			-1.419
143600.000			4.256			-1.419
143701.000			4.256			-1.419
143801.000			4.256			-1.419
143901.000			4.256			-1.419
144001.000			4.256			-1.419
144100.000			4.256			-1.419
144200.000			4.256			-1.419
144301.000			4.255			-1.418
144400.000			4.255			-1.418
144500.000			4.256			-1.419
144601.000			4.256			-1.419
144701.000			4.256			-1.419
144801.000			4.256			-1.419
144901.000			4.256			-1.419
145000.000			4.256			-1.419
145100.000			4.255			-1.418
145201.000			4.255			-1.418
145300.000			4.255			-1.418
145400.000			4.254			-1.418
145501.000			4.255			-1.418
145601.000			4.255			-1.418
145701.000			4.253			-1.418
145801.000			4.253			-1.418
145900.000			4.253			-1.418
146000.000			4.255			-1.418
146100.000			4.255			-1.418
146200.000			4.254			-1.418
146301.000			4.253			-1.418
146400.000			4.253			-1.418
146501.000			4.253			-1.418
146602.000			4.253			-1.418
146701.000			4.254			-1.418
146800.000			4.253			-1.418
146901.000			4.253			-1.418
147000.000			4.253			-1.418
147100.000			4.252			-1.417
147201.000			4.252			-1.417
147300.000			4.252			-1.417
147401.000			4.253			-1.418
147502.000			4.253			-1.418
147601.000			4.252			-1.417
147700.000			4.251			-1.417
147801.000			4.252			-1.417
147900.000			4.251			-1.417
148000.000			4.252			-1.417
148101.000			4.251			-1.417
148200.000			4.251			-1.417
148300.000			4.250			-1.417
148402.000			4.251			-1.417
148501.000			4.252			-1.417
148600.000			4.251			-1.417
148701.000			4.250			-1.417
148800.000			4.250			-1.417
148900.000			4.250			-1.417
149001.000			4.250			-1.417
149100.000			4.250			-1.417
149200.000			4.250			-1.417
149302.000			4.250			-1.417
149401.000			4.251			-1.417
149501.000			4.251			-1.417
149600.000			4.251			-1.417
149700.000			4.251			-1.417
149801.000			4.250			-1.417
149900.000			4.250			-1.417
150000.000			4.249			-1.416
150101.000			4.249			-1.416
150201.000			4.249			-1.416
150301.000			4.249			-1.416
150402.000			4.249			-1.416
150500.000			4.250			-1.417
150600.000			4.250			-1.417
150701.000			4.249			-1.416
150800.000			4.249			-1.416
150900.000			4.249			-1.416
151001.000			4.249			-1.416
151100.000			4.248			-1.416
151201.000			4.249			-1.416
151302.000			4.249			-1.416
151400.000			4.248			-1.416
151500.000			4.248			-1.416
151601.000			4.248			-1.416
151700.000			4.248			-1.416
151800.000			4.248			-1.416
151901.000			4.248			-1.416
152000.000			4.248			-1.416
152101.000			4.248			-1.416
152202.000			4.247			-1.416
152301.000			4.248			-1.416
152400.000			4.248			-1.416
152500.000			4.248			-1.416
152600.000			4.248			-1.416
152701.000			4.248			-1.416
152800.000			4.247			-1.416
152900.000			4.246			-1.415
153001.000			4.247			-1.416
153101.000			4.248			-1.416
153201.000			4.247			-1.416
153301.000			4.247			-1.416
153400.000			4.247			-1.416
153500.000			4.247			-1.416
153601.000			4.247			-1.416
153700.000			4.246			-1.415
153800.000			4.246			-1.415
153901.000			4.246			-1.415
154001.000			4.247			-1.416
154101.000			4.247			-1.416
154201.000			4.247			-1.416
154300.000			4.247			-1.416
154400.000			4.247			-1.416
154501.000			4.247			-1.416
154600.000			4.247			-1.416
154700.000			4.246			-1.415
154801.000			4.245			-1.415
154901.000			4.246			-1.415
155001.000			4.247			-1.416
155101.000			4.247			-1.416
155200.000			4.247			-1.416
155300.000			4.247			-1.416
155401.000			4.247			-1.416
155500.000			4.246			-1.415
155600.000			4.246			-1.415
155700.000			4.246			-1.415
155801.000			4.245			-1.415
155902.000			4.245			-1.415
156001.000			4.246			-1.415
156100.000			4.246			-1.415
156201.000			4.246			-1.415
156300.000			4.246			-1.415
156400.000			4.245			-1.415
156501.000			4.247			-1.416
156600.000			4.247			-1.416
156701.000			4.246			-1.415
156802.000			4.246			-1.415
156901.000			4.246			-1.415
157000.000			4.245			-1.415
157101.000			4.245			-1.415
157200.000			4.246			-1.415
157300.000			4.246			-1.415
157401.000			4.246			-1.415
157500.000			4.246			-1.415
157600.000			4.246			-1.415
157702.000			4.245			-1.415
157801.000			4.245			-1.415
157900.000			4.245			-1.415
158001.000			4.246			-1.415
158100.000			4.246			-1.415
158200.000			4.244			-1.415
158301.000			4.244			-1.415
158400.000			4.245			-1.415
158500.000			4.244			-1.415
158602.000			4.246			-1.415
158701.000			4.245			-1.415
158802.000			4.245			-1.415
158900.000			4.245			-1.415
159000.000			4.245			-1.415
159101.000			4.244			-1.415
159200.000			4.245			-1.415
159300.000			4.245			-1.415
159401.000			4.245			-1.415
159501.000			4.244			-1.415
159601.000			4.245			-1.415
159702.000			4.244			-1.415
159800.000			4.245			-1.415
159900.000			4.245			-1.415
160001.000			4.243			-1.414
160100.000			4.244			-1.415
160200.000			4.244			-1.415
160301.000			4.244			-1.415
160400.000			4.244			-1.415
160501.000			4.245			-1.415
160602.000			4.244			-1.415
160700.000			4.244			-1.415
160800.000			4.245			-1.415
160901.000			4.244			-1.415
161000.000			4.244			-1.415
161100.000			4.244			-1.415
161201.000			4.244			-1.415
161300.000			4.243			-1.414
161401.000			4.244			-1.415
161502.000			4.243			-1.414
161600.000			4.243			-1.414
161700.000			4.243			-1.414
161801.000			4.244			-1.415
161900.000			4.244			-1.415
162000.000			4.243			-1.414
162100.000			4.242			-1.414
162200.000			4.243			-1.414
162302.000			4.243			-1.414
162401.000			4.242			-1.414
162501.000			4.242			-1.414
162601.000			4.243			-1.414
162700.000			4.242			-1.414
162800.000			4.242			-1.414
162901.000			4.242			-1.414
163000.000			4.243			-1.414
163100.000			4.242			-1.414
163202.000			4.243			-1.414
163301.000			4.242			-1.414
163401.000			4.242			-1.414
163501.000			4.241			-1.414
163600.000			4.242			-1.414
163700.000			4.242			-1.414
163801.000			4.242			-1.414
163900.000			4.242			-1.414
164000.000			4.243			-1.414
164102.000			4.242			-1.414
164201.000			4.242			-1.414
164301.000			4.242			-1.414
164401.000			4.243			-1.414
164500.000			4.241			-1.414
164600.000			4.242			-1.414
164701.000			4.243			-1.414
164800.000			4.241			-1.414
164900.000			4.241			-1.414
165001.000			4.241			-1.414
165101.000			4.241			-1.414
165202.000			4.241			-1.414
165300.000			4.241			-1.414
165400.000			4.242			-1.414
165501.000			4.241			-1.414
165600.000			4.242			-1.414
165700.000			4.241			-1.414
165801.000			4.241			-1.414
165901.000			4.242			-1.414
166001.000			4.241			-1.414
166102.000			4.240			-1.413
166200.000			4.241			-1.414
166300.000			4.241			-1.414
166401.000			4.242			-1.414
166500.000			4.241			-1.414
166600.000			4.240			-1.413
166701.000			4.240			-1.413
166800.000			4.240			-1.413
166901.000			4.241			-1.414
167002.000			4.242			-1.414
167100.000			4.241			-1.414
167200.000			4.239			-1.413
167301.000			4.239			-1.413
167400.000			4.240			-1.413
167500.000			4.240			-1.413
167601.000			4.239			-1.413
167700.000			4.240			-1.413
167801.000			4.241			-1.414
167902.000			4.240			-1.413
168001.000			4.239			-1.413
168100.000			4.240			-1.413
168201.000			4.240			-1.413
168300.000			4.240			-1.413
168400.000			4.240			-1.413
168500.000			4.240			-1.413
168600.000			4.240			-1.413
168701.000			4.240			-1.413
168801.000			4.239			-1.413
168901.000			4.239			-1.413
169001.000			4.240			-1.413
169100.000			4.240			-1.413
169200.000			4.239			-1.413
169301.000			4.240			-1.413
169400.000			4.239			-1.413
169500.000			4.238			-1.413
169601.000			4.239			-1.413
169701.000			4.238			-1.413
169801.000			4.239			-1.413
169902.000			4.239			-1.413
170000.000			4.239			-1.413
170100.000			4.239			-1.413
170201.000			4.239			-1.413
170300.000			4.240			-1.413
170400.000			4.238			-1.413
170501.000			4.238			-1.413
170601.000			4.237			-1.412
170701.000			4.238			-1.413
170802.000			4.239			-1.413
170900.000			4.239			-1.413
171000.000			4.239			-1.413
171101.000			4.237			-1.412
171200.000			4.238			-1.413
171300.000			4.238			-1.413
171401.000			4.238			-1.413
171500.000			4.238			-1.413
171602.000			4.238			-1.413
171701.000			4.238			-1.413
171800.000			4.239			-1.413
171901.000			4.239			-1.413
172000.000			4.238			-1.413
172100.000			4.239			-1.413
172201.000			4.238			-1.413
172300.000			4.239			-1.413
172400.000			4.238			-1.413
172502.000			4.237			-1.412
172601.000			4.238			-1.413
172701.000			4.238			-1.413
172801.000			4.238			-1.413
172900.000			4.238			-1.413
173000.000			4.239			-1.413
173101.000			4.239			-1.413
173200.000			4.239			-1.413
173300.000			4.239			-1.413
173401.000			4.239			-1.413
173501.000			4.238			-1.413
173601.000			4.238			-1.413
173701.000			4.238			-1.413
173800.000			4.238			-1.413
173900.000			4.238			-1.413
174001.000			4.238			-1.413
174100.000			4.238			-1.413
174200.000			4.238			-1.413
174301.000			4.238			-1.413
174401.000			4.239			-1.413
174501.000			4.239			-1.413
174602.000			4.239			-1.413
174700.000			4.239			-1.413
174800.000			4.240			-1.413
174900.000			4.239			-1.413
175000.000			4.238			-1.413
175101.000			4.238			-1.413
175200.000			4.239			-1.413
175300.000			4.239			-1.413
175402.000			4.239			-1.413
175501.000			4.240			-1.413
175601.000			4.240			-1.413
175701.000			4.239			-1.413
175800.000			4.239			-1.413
175900.000			4.240			-1.413
176001.000			4.240			-1.413
176100.000			4.239			-1.413
176200.000			4.238			-1.413
176302.000			4.238			-1.413
176401.000			4.238			-1.413
176501.000			4.238			-1.413
176601.000			4.239			-1.413
176700.000			4.239			-1.413
176800.000			4.238			-1.413
176901.000			4.238			-1.413
177000.000			4.238			-1.413
177100.000			4.238			-1.413
177201.000			4.239			-1.413
177301.000			4.238			-1.413
177401.000			4.237			-1.412
177502.000			4.238			-1.413
177600.000			4.238			-1.413
177700.000			4.237			-1.412
177801.000			4.237			-1.412
177900.000			4.238			-1.413
178000.000			4.238			-1.413
178100.000			4.238			-1.413
178200.000			4.238			-1.413
178302.000			4.237			-1.412
178401.000			4.238			-1.413
178500.000			4.237			-1.412
178601.000			4.236			-1.412
178700.000			4.237			-1.412
178800.000			4.238			-1.413
178901.000			4.237			-1.412
179000.000			4.236			-1.412
179100.000			4.236			-1.412
179202.000			4.237			-1.412
179301.000			4.237			-1.412
179401.000			4.237			-1.412
179501.000			4.236			-1.412
179600.000			4.237			-1.412
179700.000			4.238			-1.413
179801.000			4.237			-1.412
179900.000			4.236			-1.412
180000.000			4.235			-1.412
180101.000			4.236			-1.412
180201.000			4.236			-1.412
180301.000			4.236			-1.412
180401.000			4.236			-1.412
180500.000			4.236			-1.412
180600.000			4.238			-1.413
180701.000			4.237			-1.412
180800.000			4.236			-1.412
180900.000			4.236			-1.412
181001.000			4.236			-1.412
181101.000			4.237			-1.412
181202.000			4.236			-1.412
181300.000			4.236			-1.412
181400.000			4.236			-1.412
181501.000			4.236			-1.412
181600.000			4.237			-1.412
181700.000			4.235			-1.412
181801.000			4.236			-1.412
181900.000			4.235			-1.412
182001.000			4.236			-1.412
182102.000			4.236			-1.412
182200.000			4.235			-1.412
182300.000			4.236			-1.412
182401.000			4.236			-1.412
182500.000			4.236			-1.412
182600.000			4.236			-1.412
182701.000			4.236			-1.412
182800.000			4.236			-1.412
182901.000			4.236			-1.412
183002.000			4.236			-1.412
183101.000			4.236			-1.412
183200.000			4.237			-1.412
183301.000			4.236			-1.412
183400.000			4.235			-1.412
183500.000			4.234			-1.411
183601.000			4.235			-1.412
183700.000			4.236			-1.412
183801.000			4.235			-1.412
183902.000			4.236			-1.412
184001.000			4.236			-1.412
184100.000			4.236			-1.412
184201.000			4.236			-1.412
184300.000			4.235			-1.412
184400.000			4.235			-1.412
184500.000			4.235			-1.412
184600.000			4.236			-1.412
184701.000			4.235			-1.412
184801.000			4.235			-1.412
184901.000			4.235			-1.412
185001.000			4.235			-1.412
185100.000			4.235			-1.412
185200.000			4.235			-1.412
185301.000			4.235			-1.412
185400.000			4.236			-1.412
185500.000			4.235			-1.412
185601.000			4.235			-1.412
185701.000			4.235			-1.412
185801.000			4.235			-1.412
185901.000			4.235			-1.412
186000.000			4.234			-1.411
186100.000			4.234			-1.411
186201.000			4.235			-1.412
186300.000			4.235			-1.412
186400.000			4.235			-1.412
186501.000			4.235			-1.412
186600.000			4.235			-1.412
186701.000			4.235			-1.412
186802.000			4.234			-1.411
186900.000			4.234			-1.411
187000.000			4.234			-1.411
187101.000			4.234			-1.411
187200.000			4.235			-1.412
187300.000			4.234			-1.411
187401.000			4.234			-1.411
187500.000			4.234			-1.411
187602.000			4.234			-1.411
187701.000			4.234			-1.411
187801.000			4.233			-1.411
187901.000			4.234			-1.411
188000.000			4.234			-1.411
188100.000			4.234			-1.411
188201.000			4.233			-1.411
188300.000			4.232			-1.411
188400.000			4.232			-1.411
188501.000			4.233			-1.411
188601.000			4.233			-1.411
188701.000			4.233			-1.411
188801.000			4.233			-1.411
188900.000			4.232			-1.411
189000.000			4.232			-1.411
189101.000			4.233			-1.411
189200.000			4.233			-1.411
189300.000			4.233			-1.411
189401.000			4.233			-1.411
189501.000			4.232			-1.411
189601.000			4.232			-1.411
189701.000			4.231			-1.410
189800.000			4.231			-1.410
189900.000			4.232			-1.411
190001.000			4.231			-1.410
190100.000			4.232			-1.411
190200.000			4.232			-1.411
190301.000			4.232			-1.411
190401.000			4.232			-1.411
190501.000			4.232			-1.411
190601.000			4.232			-1.411
190700.000			4.232			-1.411
190800.000			4.232			-1.411
190900.000			4.232			-1.411
191000.000			4.232			-1.411
191101.000			4.232			-1.411
191200.000			4.232			-1.411
191301.000			4.233			-1.411
191402.000			4.233			-1.411
191501.000			4.232			-1.411
191600.000			4.233			-1.411
191701.000			4.232			-1.411
191800.000			4.232			-1.411
191900.000			4.232			-1.411
192001.000			4.231			-1.410
192100.000			4.231			-1.410
192201.000			4.231			-1.410
192302.000			4.231			-1.410
192400.000			4.232			-1.411
192500.000			4.232			-1.411
192601.000			4.231			-1.410
192700.000			4.231			-1.410
192800.000			4.230			-1.410
192901.000			4.231			-1.410
193000.000			4.231			-1.410
193101.000			4.231			-1.410
193202.000			4.230			-1.410
193300.000			4.231			-1.410
193400.000			4.231			-1.410
193501.000			4.231			-1.410
193600.000			4.231			-1.410
193700.000			4.230			-1.410
193801.000			4.230			-1.410
193900.000			4.231			-1.410
194002.000			4.231			-1.410
194101.000			4.231			-1.410
194201.000			4.231			-1.410
194301.000			4.231			-1.410
194400.000			4.231			-1.410
194500.000			4.231			-1.410
194601.000			4.230			-1.410
194700.000			4.231			-1.410
194800.000			4.232			-1.411
194902.000			4.231			-1.410
195001.000			4.231			-1.410
195101.000			4.231			-1.410
195201.000			4.231			-1.410
195300.000			4.230			-1.410
195400.000			4.231			-1.410
195501.000			4.230			-1.410
195600.000			4.230			-1.410
195700.000			4.230			-1.410
195802.000			4.230			-1.410
195901.000			4.231			-1.410
196001.000			4.231			-1.410
196101.000			4.230			-1.410
196200.000			4.231			-1.410
196300.000			4.231			-1.410
196401.000			4.230			-1.410
196500.000			4.230			-1.410
196600.000			4.229			-1.410
196702.000			4.230			-1.410
196801.000			4.231			-1.410
196901.000			4.230			-1.410
197001.000			4.230			-1.410
197100.000			4.230			-1.410
197200.000			4.230			-1.410
197300.000			4.230			-1.410
197400.000			4.231			-1.410
197501.000			4.231			-1.410
197600.000			4.230			-1.410
197701.000			4.229			-1.410
197802.000			4.230			-1.410
197900.000			4.231			-1.410
198000.000			4.229			-1.410
198101.000			4.230			-1.410
198200.000			4.230			-1.410
198300.000			4.230			-1.410
198401.000			4.230			-1.410
198500.000			4.230			-1.410
198600.000			4.230			-1.410
198702.000			4.230			-1.410
198801.000			4.229			-1.410
198901.000			4.229			-1.410
199001.000			4.230			-1.410
199100.000			4.229			-1.410
199200.000			4.228			-1.409
199301.000			4.229			-1.410
199400.000			4.228			-1.409
199500.000			4.228			-1.409
199601.000			4.228			-1.409
199701.000			4.228			-1.409
199801.000			4.228			-1.409
199901.000			4.228			-1.409
200000.000			4.228			-1.409
200100.000			4.228			-1.409
200201.000			4.229			-1.410
200300.000			4.229			-1.410
200400.000			4.228			-1.409
200500.000			4.229			-1.410
200601.000			4.229			-1.410
200702.000			4.229			-1.410
200800.000			4.228			-1.409
200900.000			4.228			-1.409
201001.000			4.228			-1.409
201100.000			4.229			-1.410
201200.000			4.229			-1.410
201301.000			4.228			-1.409
201400.000			4.229			-1.410
201501.000			4.230			-1.410
201602.000			4.229			-1.410
201700.000			4.229			-1.410
201800.000			4.228			-1.409
201901.000			4.229			-1.410
202000.000			4.229			-1.410
202100.000			4.228			-1.409
202201.000			4.228			-1.409
202301.000			4.228			-1.409
202401.000			4.229			-1.410
202502.000			4.229			-1.410
202600.000			4.229			-1.410
202700.000			4.229			-1.410
202801.000			4.229			-1.410
202900.000			4.228			-1.409
203000.000			4.228			-1.409
203101.000			4.228			-1.409
203201.000			4.228			-1.409
203301.000			4.227			-1.409
203402.000			4.227			-1.409
203500.000			4.228			-1.409
203600.000			4.229			-1.410
203700.000			4.229			-1.410
203800.000			4.229			-1.410
203901.000			4.228			-1.409
204000.000			4.228			-1.409
204101.000			4.227			-1.409
204202.000			4.227			-1.409
204301.000			4.228			-1.409
204400.000			4.228			-1.409
204501.000			4.228			-1.409
204600.000			4.227			-1.409
204700.000			4.228			-1.409
204801.000			4.228			-1.409
204900.000			4.227			-1.409
205000.000			4.227			-1.409
205102.000			4.227			-1.409
205201.000			4.227			-1.409
205300.000			4.227			-1.409
205401.000			4.228			-1.409
205500.000			4.228			-1.409
205600.000			4.229			-1.410
205701.000			4.227			-1.409
205800.000			4.226			-1.409
205900.000			4.226			-1.409
206002.000			4.227			-1.409
206101.000			4.228			-1.409
206200.000			4.228			-1.409
206301.000			4.227			-1.409
206400.000			4.226			-1.409
206500.000			4.227			-1.409
206601.000			4.227			-1.409
206700.000			4.227			-1.409
206802.000			4.227			-1.409
206901.000			4.227			-1.409
207001.000			4.226			-1.409
207101.000			4.227			-1.409
207200.000			4.226			-1.409
207300.000			4.226			-1.409
207401.000			4.226			-1.409
207500.000			4.228			-1.409
207600.000			4.228			-1.409
207702.000			4.227			-1.409
207801.000			4.227			-1.409
207901.000			4.227			-1.409
208001.000			4.227			-1.409
208100.000			4.227			-1.409
208200.000			4.227			-1.409
208301.000			4.227			-1.409
208400.000			4.227			-1.409
208500.000			4.226			-1.409
208602.000			4.227			-1.409
208701.000			4.227			-1.409
208801.000			4.226			-1.409
208901.000			4.225			-1.408
209000.000			4.226			-1.409
209100.000			4.226			-1.409
209201.000			4.226			-1.409
209300.000			4.226			-1.409
209400.000			4.226			-1.409
209502.000			4.227			-1.409
209601.000			4.227			-1.409
209701.000			4.226			-1.409
209801.000			4.226			-1.409
209900.000			4.226			-1.409
210000.000			4.226			-1.409
210100.000			4.226			-1.409
210200.000			4.225			-1.408
210301.000			4.225			-1.408
210401.000			4.227			-1.409
210501.000			4.225			-1.408
210601.000			4.225			-1.408
210700.000			4.226			-1.409
210800.000			4.226			-1.409
210901.000			4.226			-1.409
211000.000			4.226			-1.409
211100.000			4.225			-1.408
211201.000			4.224			-1.408
211301.000			4.225			-1.408
211401.000			4.225			-1.408
211501.000			4.225			-1.408
211600.000			4.225			-1.408
211700.000			4.226			-1.409
211801.000			4.224			-1.408
211900.000			4.225			-1.408
212000.000			4.225			-1.408
212102.000			4.224			-1.408
212201.000			4.225			-1.408
212301.000			4.225			-1.408
212401.000			4.225			-1.408
212500.000			4.225			-1.408
212600.000			4.225			-1.408
212701.000			4.224			-1.408
212800.000			4.224			-1.408
212900.000			4.224			-1.408
213002.000			4.225			-1.408
213101.000			4.224			-1.408
213202.000			4.224			-1.408
213300.000			4.225			-1.408
213400.000			4.223			-1.408
213501.000			4.223			-1.408
213600.000			4.223			-1.408
213700.000			4.223			-1.408
213801.000			4.222			-1.407
213901.000			4.223			-1.408
214001.000			4.223			-1.408
214101.000			4.223			-1.408
214200.000			4.222			-1.407
214300.000			4.222			-1.407
214401.000			4.222			-1.407
214500.000			4.223			-1.408
214600.000			4.223			-1.408
214701.000			4.223			-1.408
214801.000			4.222			-1.407
214901.000			4.221			-1.407
215001.000			4.222			-1.407
215100.000			4.222			-1.407
215200.000			4.222			-1.407
215301.000			4.223			-1.408
215400.000			4.222			-1.407
215500.000			4.223			-1.408
215601.000			4.222			-1.407
215701.000			4.222			-1.407
215801.000			4.222			-1.407
215901.000			4.223			-1.408
216000.000			4.222			-1.407
216100.000			4.222			-1.407
216201.000			4.223			-1.408
216300.000			4.222			-1.407
216400.000			4.222			-1.407
216500.000			4.222			-1.407
216601.000			4.222			-1.407
216702.000			4.223			-1.408
216800.000			4.223			-1.408
216900.000			4.223			-1.408
217001.000			4.222			-1.407
217100.000			4.222			-1.407
217200.000			4.222			-1.407
217301.000			4.222			-1.407
217401.000			4.222			-1.407
217501.000			4.222			-1.407
217602.000			4.222			-1.407
217700.000			4.223			-1.408
217800.000			4.222			-1.407
217901.000			4.222			-1.407
218000.000			4.221			-1.407
218100.000			4.220			-1.407
218201.000			4.221			-1.407
218301.000			4.221			-1.407
218401.000			4.221			-1.407
218502.000			4.221			-1.407
218600.000			4.221			-1.407
218700.000			4.221			-1.407
218801.000			4.221			-1.407
218900.000			4.222			-1.407
219000.000			4.222			-1.407
219101.000			4.222			-1.407
219201.000			4.220			-1.407
219301.000			4.220			-1.407
219402.000			4.220			-1.407
219500.000			4.221			-1.407
219600.000			4.222			-1.407
219700.000			4.223			-1.408
219800.000			4.222			-1.407
219901.000			4.221			-1.407
220000.000			4.222			-1.407
220101.000			4.222			-1.407
220202.000			4.221			-1.407
220301.000			4.220			-1.407
220400.000			4.220			-1.407
220501.000			4.220			-1.407
220600.000			4.221			-1.407
220700.000			4.220			-1.407
220801.000			4.221			-1.407
220900.000			4.221			-1.407
221001.000			4.221			-1.407
221102.000			4.220			-1.407
221200.000			4.220			-1.407
221300.000			4.220			-1.407
221401.000			4.220			-1.407
221500.000			4.220			-1.407
221600.000			4.220			-1.407
221701.000			4.220			-1.407
221800.000			4.220			-1.407
221901.000			4.220			-1.407
222002.000			4.220			-1.407
222100.000			4.219			-1.406
222200.000			4.220			-1.407
222301.000			4.219			-1.406
222400.000			4.218			-1.406
222500.000			4.220			-1.407
222601.000			4.221			-1.407
222701.000			4.219			-1.406
222802.000			4.219			-1.406
222901.000			4.220			-1.407
223001.000			4.219			-1.406
223101.000			4.219			-1.406
223200.000			4.220			-1.407
223300.000			4.219			-1.406
223401.000			4.220			-1.407
223500.000			4.220			-1.407
223600.000			4.219			-1.406
223702.000			4.219			-1.406
223801.000			4.220			-1.407
223901.000			4.218			-1.406
224001.000			4.220			-1.407
224100.000			4.219			-1.406
224200.000			4.219			-1.406
224301.000			4.219			-1.406
224400.000			4.219			-1.406
224500.000			4.218			-1.406
224602.000			4.219			-1.406
224701.000			4.219			-1.406
224801.000			4.219			-1.406
224901.000			4.219			-1.406
225000.000			4.219			-1.406
225100.000			4.219			-1.406
225201.000			4.219			-1.406
225300.000			4.219			-1.406
225400.000			4.218			-1.406
225502.000			4.218			-1.406
225601.000			4.217			-1.406
225701.000			4.218			-1.406
225801.000			4.218			-1.406
225900.000			4.218			-1.406
226000.000			4.218			-1.406
226100.000			4.218			-1.406
226200.000			4.218			-1.406
226301.000			4.218			-1.406
226401.000			4.218			-1.406
226501.000			4.219			-1.406
226602.000			4.218			-1.406
226700.000			4.218			-1.406
226800.000			4.218			-1.406
226901.000			4.218			-1.406
227000.000			4.217			-1.406
227100.000			4.217			-1.406
227201.000			4.217			-1.406
227301.000			4.217			-1.406
227401.000			4.217			-1.406
227502.000			4.217			-1.406
227600.000			4.216			-1.405
227700.000			4.216			-1.405
227801.000			4.217			-1.406
227900.000			4.216			-1.405
228000.000			4.215			-1.405
228101.000			4.214			-1.405
228201.000			4.215			-1.405
228301.000			4.215			-1.405
228402.000			4.215			-1.405
228500.000			4.215			-1.405
228600.000			4.215			-1.405
228701.000			4.216			-1.405
228800.000			4.214			-1.405
228900.000			4.214			-1.405
229001.000			4.214			-1.405
229101.000			4.214			-1.405
229202.000			4.215			-1.405
229301.000			4.214			-1.405
229400.000			4.215			-1.405
229501.000			4.215			-1.405
229600.000			4.215			-1.405
229700.000			4.214			-1.405
229801.000			4.214			-1.405
229900.000			4.214			-1.405
230000.000			4.214			-1.405
230102.000			4.214			-1.405
230201.000			4.215			-1.405
230300.000			4.214			-1.405
230401.000			4.213			-1.404
230500.000			4.213			-1.404
230600.000			4.213			-1.404
230701.000			4.213			-1.404
230800.000			4.213			-1.404
230901.000			4.213			-1.404
231002.000			4.213			-1.404
231101.000			4.213			-1.404
231200.000			4.213			-1.404
231301.000			4.213			-1.404
231400.000			4.213			-1.404
231500.000			4.213			-1.404
231601.000			4.213			-1.404
231700.000			4.213			-1.404
231801.000			4.211			-1.404
231902.000			4.212			-1.404
232000.000			4.212			-1.404
232100.000			4.213			-1.404
232201.000			4.213			-1.404
232300.000			4.213			-1.404
232400.000			4.213			-1.404
232500.000			4.212			-1.404
232600.000			4.212			-1.404
232702.000			4.212			-1.404
232801.000			4.212			-1.404
232900.000			4.213			-1.404
233001.000			4.213			-1.404
233100.000			4.212			-1.404
233200.000			4.212			-1.404
233301.000			4.212			-1.404
233400.000			4.212			-1.404
233500.000			4.212			-1.404
233602.000			4.212			-1.404
233701.000			4.213			-1.404
233800.000			4.212			-1.404
233901.000			4.212			-1.404
234000.000			4.212			-1.404
234100.000			4.212			-1.404
234201.000			4.211			-1.404
234300.000			4.211			-1.404
234401.000			4.211			-1.404
234502.000			4.212			-1.404
234601.000			4.212			-1.404
234700.000			4.212			-1.404
234801.000			4.211			-1.404
234900.000			4.211			-1.404
235000.000			4.211			-1.404
235101.000			4.211			-1.404
235200.000			4.211			-1.404
235301.000			4.212			-1.404
235402.000			4.212			-1.404
235501.000			4.212			-1.404
235600.000			4.212			-1.404
235700.000			4.212			-1.404
235800.000			4.211			-1.404
235901.000			4.211			-1.404
236000.000			4.212			-1.404
236100.000			4.211			-1.404
236202.000			4.210			-1.403
236301.000			4.211			-1.404
236400.000			4.211			-1.404
236501.000			4.211			-1.404
236600.000			4.211			-1.404
236700.000			4.211			-1.404
236801.000			4.211			-1.404
236900.000			4.211			-1.404
237000.000			4.210			-1.403
237102.000			4.210			-1.403
237201.000			4.210			-1.403
237300.000			4.210			-1.403
237401.000			4.210			-1.403
237500.000			4.211			-1.404
237600.000			4.211			-1.404
237701.000			4.211			-1.404
237800.000			4.210			-1.403
237900.000			4.210			-1.403
238002.000			4.210			-1.403
238101.000			4.211			-1.404
238201.000			4.210			-1.403
238301.000			4.210			-1.403
238400.000			4.209			-1.403
238500.000			4.209			-1.403
238601.000			4.210			-1.403
238700.000			4.210			-1.403
238800.000			4.209			-1.403
238902.000			4.211			-1.404
239001.000			4.210			-1.403
239102.000			4.210			-1.403
239200.000			4.210			-1.403
239300.000			4.210			-1.403
239401.000			4.210			-1.403
239500.000			4.210			-1.403
239600.000			4.210			-1.403
239701.000			4.210			-1.403
239800.000			4.209			-1.403
239901.000			4.209			-1.403
240002.000			4.209			-1.403
240100.000			4.209			-1.403
240200.000			4.210			-1.403
240301.000			4.209			-1.403
240400.000			4.210			-1.403
240500.000			4.210			-1.403
240601.000			4.209			-1.403
240701.000			4.210			-1.403
240801.000			4.210			-1.403
240902.000			4.210			-1.403
241000.000			4.210			-1.403
241100.000			4.208			-1.403
241201.000			4.209			-1.403
241300.000			4.210			-1.403
241400.000			4.210			-1.403
241501.000			4.209			-1.403
241601.000			4.209			-1.403
241701.000			4.209			-1.403
241802.000			4.209			-1.403
241900.000			4.209			-1.403
242000.000			4.209			-1.403
242100.000			4.208			-1.403
242200.000			4.208			-1.403
242301.000			4.208			-1.403
242400.000			4.209			-1.403
242501.000			4.209			-1.403
242602.000			4.210			-1.403
242701.000			4.210			-1.403
242800.000			4.209			-1.403
242901.000			4.208			-1.403
243000.000			4.208			-1.403
243100.000			4.209			-1.403
243201.000			4.209			-1.403
243300.000			4.208			-1.403
243400.000			4.207			-1.402
243502.000			4.208			-1.403
243601.000			4.209			-1.403
243700.000			4.209			-1.403
243801.000			4.209			-1.403
243900.000			4.209			-1.403
244000.000			4.209			-1.403
244101.000			4.209			-1.403
244200.000			4.209			-1.403
244300.000			4.209			-1.403
244402.000			4.208			-1.403
244501.000			4.208			-1.403
244600.000			4.207			-1.402
244701.000			4.209			-1.403
244800.000			4.208			-1.403
244900.000			4.208			-1.403
245001.000			4.209			-1.403
245100.000			4.209			-1.403
245200.000			4.209			-1.403
245302.000			4.210			-1.403
245401.000			4.209			-1.403
245501.000			4.208			-1.403
245600.000			4.209			-1.403
245700.000			4.210			-1.403
245801.000			4.211			-1.404
245900.000			4.209			-1.403
246000.000			4.209			-1.403
246101.000			4.208			-1.403
246201.000			4.210			-1.403
246301.000			4.210			-1.403
246401.000			4.211			-1.404
246500.000			4.211			-1.404
246600.000			4.210			-1.403
246701.000			4.211			-1.404
246800.000			4.211			-1.404
246900.000			4.210			-1.403
247001.000			4.211			-1.404
247101.000			4.210			-1.403
247201.000			4.210			-1.403
247301.000			4.211			-1.404
247400.000			4.212			-1.404
247500.000			4.211			-1.404
247601.000			4.211			-1.404
247700.000			4.211			-1.404
247800.000			4.211			-1.404
247901.000			4.211			-1.404
248001.000			4.211			-1.404
248101.000			4.211			-1.404
248201.000			4.210			-1.403
248300.000			4.210			-1.403
248400.000			4.211			-1.404
248500.000			4.211			-1.404
248600.000			4.211			-1.404
248701.000			4.212			-1.404
248800.000			4.211			-1.404
248901.000			4.211			-1.404
249002.000			4.210			-1.403
249100.000			4.210			-1.403
249200.000			4.210			-1.403
249301.000			4.211			-1.404
249400.000			4.212			-1.404
249500.000			4.212			-1.404
249601.000			4.211			-1.404
249700.000			4.211			-1.404
249801.000			4.211			-1.404
249902.000			4.210			-1.403
250001.000			4.210			-1.403
250100.000			4.210			-1.403
250201.000			4.210			-1.403
250300.000			4.211			-1.404
250400.000			4.210			-1.403
250501.000			4.211			-1.404
250600.000			4.211			-1.404
250701.000			4.211			-1.404
250802.000			4.210			-1.403
250900.000			4.209			-1.403
251000.000			4.209			-1.403
251101.000			4.209			-1.403
251200.000			4.209			-1.403
251300.000			4.210			-1.403
251401.000			4.211			-1.404
251500.000			4.210			-1.403
251602.000			4.209			-1.403
251701.000			4.210			-1.403
251801.000			4.211			-1.404
251901.000			4.209			-1.403
252000.000			4.209			-1.403
252100.000			4.210			-1.403
252201.000			4.209			-1.403
252300.000			4.210			-1.403
252400.000			4.210			-1.403
252502.000			4.209			-1.403
252601.000			4.209			-1.403
252701.000			4.209			-1.403
252801.000			4.209			-1.403
252900.000			4.208			-1.403
253000.000			4.209			-1.403
253101.000			4.210			-1.403
253200.000			4.210			-1.403
253300.000			4.209			-1.403
253402.000			4.209			-1.403
253501.000			4.208			-1.403
253601.000			4.208			-1.403
253701.000			4.209			-1.403
253800.000			4.209			-1.403
253900.000			4.210			-1.403
254001.000			4.209			-1.403
254100.000			4.209			-1.403
254200.000			4.209			-1.403
254302.000			4.209			-1.403
254401.000			4.209			-1.403
254501.000			4.209			-1.403
254601.000			4.209			-1.403
254700.000			4.210			-1.403
254800.000			4.209			-1.403
254900.000			4.209			-1.403
255000.000			4.209			-1.403
255101.000			4.208			-1.403
255200.000			4.208			-1.403
255301.000			4.208			-1.403
255402.000			4.208			-1.403
255500.000			4.210			-1.403
255600.000			4.209			-1.403
255701.000			4.209			-1.403
255800.000			4.208			-1.403
255900.000			4.209			-1.403
256001.000			4.209			-1.403
256100.000			4.209			-1.403
256201.000			4.208			-1.403
256302.000			4.208			-1.403
256401.000			4.208			-1.403
256500.000			4.207			-1.402
256601.000			4.207			-1.402
256700.000			4.206			-1.402
256800.000			4.207			-1.402
256901.000			4.207			-1.402
257000.000			4.207			-1.402
257101.000			4.208			-1.403
257202.000			4.207			-1.402
257300.000			4.208			-1.403
257400.000			4.208			-1.403
257501.000			4.207			-1.402
257600.000			4.206			-1.402
257700.000			4.207			-1.402
257801.000			4.208			-1.403
257900.000			4.208			-1.403
258002.000			4.207			-1.402
258101.000			4.206			-1.402
258201.000			4.206			-1.402
258301.000			4.207			-1.402
258400.000			4.206			-1.402
258500.000			4.206			-1.402
258601.000			4.206			-1.402
258700.000			4.207			-1.402
258800.000			4.206			-1.402
258901.000			4.205			-1.402
259001.000			4.205			-1.402
259101.000			4.204			-1.401
259201.000			4.204			-1.401
259300.000			4.205			-1.402
259400.000			4.205			-1.402
259501.000			4.205			-1.402
259600.000			4.205			-1.402
259700.000			4.205			-1.402
259801.000			4.205			-1.402
259901.000			4.205			-1.402
260001.000			4.204			-1.401
260101.000			4.204			-1.401
260200.000			4.205			-1.402
260300.000			4.205			-1.402
260401.000			4.203			-1.401
260500.000			4.203			-1.401
260600.000			4.204			-1.401
260701.000			4.203			-1.401
260801.000			4.202			-1.401
260901.000			4.203			-1.401
261001.000			4.204			-1.401
261100.000			4.203			-1.401
261200.000			4.203			-1.401
261300.000			4.204			-1.401
261400.000			4.204			-1.401
261501.000			4.203			-1.401
261601.000			4.204			-1.401
261701.000			4.202			-1.401
261802.000			4.201			-1.400
261900.000			4.202			-1.401
262000.000			4.202			-1.401
262101.000			4.202			-1.401
262200.000			4.203			-1.401
262300.000			4.204			-1.401
262401.000			4.203			-1.401
262501.000			4.202			-1.401
262601.000			4.203			-1.401
262702.000			4.203			-1.401
262800.000			4.202			-1.401
262900.000			4.203			-1.401
263001.000			4.203			-1.401
263100.000			4.201			-1.400
263200.000			4.202			-1.401
263301.000			4.201			-1.400
263401.000			4.202			-1.401
263501.000			4.201			-1.400
263601.000			4.201			-1.400
263700.000			4.202			-1.401
263800.000			4.201			-1.400
263901.000			4.201			-1.400
264000.000			4.202			-1.401
264100.000			4.201			-1.400
264201.000			4.201			-1.400
264301.000			4.202			-1.401
264402.000			4.201			-1.400
264500.000			4.201			-1.400
264600.000			4.201			-1.400
264701.000			4.202			-1.401
264800.000			4.201			-1.400
264900.000			4.201			-1.400
265001.000			4.201			-1.400
265100.000			4.201			-1.400
265201.000			4.201			-1.400
265302.000			4.201			-1.400
265400.000			4.201			-1.400
265500.000			4.201			-1.400
265601.000			4.201			-1.400
265700.000			4.201			-1.400
265800.000			4.201			-1.400
265901.000			4.201			-1.400
266001.000			4.201			-1.400
266101.000			4.202			-1.401
266202.000			4.200			-1.400
266300.000			4.200			-1.400
266400.000			4.200			-1.400
266501.000			4.201			-1.400
266600.000			4.201			-1.400
266700.000			4.201			-1.400
266801.000			4.201			-1.400
266901.000			4.200			-1.400
267001.000			4.200			-1.400
267102.000			4.201			-1.400
267200.000			4.200			-1.400
267300.000			4.201			-1.400
267401.000			4.200			-1.400
267500.000			4.200			-1.400
267600.000			4.201			-1.400
267700.000			4.200			-1.400
267800.000			4.200			-1.400
267902.000			4.201			-1.400
268001.000			4.201			-1.400
268100.000			4.200			-1.400
268201.000			4.200			-1.400
268300.000			4.201			-1.400
268400.000			4.200			-1.400
268501.000			4.200			-1.400
268600.000			4.200			-1.400
268700.000			4.200			-1.400
268802.000			4.200			-1.400
268901.000			4.201			-1.400
269000.000			4.201			-1.400
269101.000			4.200			-1.400
269200.000			4.200			-1.400
269300.000			4.200			-1.400
269401.000			4.200			-1.400
269500.000			4.199			-1.400
269600.000			4.200			-1.400
269702.000			4.200			-1.400
269801.000			4.200			-1.400
269900.000			4.200			-1.400
270001.000			4.200			-1.400
270100.000			4.200			-1.400
270200.000			4.199			-1.400
270301.000			4.200			-1.400
270400.000			4.200			-1.400
270500.000			4.200			-1.400
270602.000			4.200			-1.400
270701.000			4.199			-1.400
270802.000			4.199			-1.400
270900.000			4.199			-1.400
271000.000			4.198			-1.399
271101.000			4.199			-1.400
271200.000			4.199			-1.400
271300.000			4.198			-1.399
271401.000			4.199			-1.400
271500.000			4.199			-1.400
271601.000			4.199			-1.400
271702.000			4.199			-1.400
271800.000			4.200			-1.400
271900.000			4.200			-1.400
272001.000			4.199			-1.400
272100.000			4.199			-1.400
272200.000			4.199			-1.400
272301.000			4.198			-1.399
272400.000			4.199			-1.400
272501.000			4.198			-1.399
272602.000			4.198			-1.399
272701.000			4.199			-1.400
272800.000			4.199			-1.400
272901.000			4.200			-1.400
273000.000			4.199			-1.400
273100.000			4.197			-1.399
273201.000			4.198			-1.399
273300.000			4.199			-1.400
273400.000			4.198			-1.399
273502.000			4.199			-1.400
273601.000			4.199			-1.400
273700.000			4.199			-1.400
273801.000			4.199			-1.400
273900.000			4.199			-1.400
274000.000			4.198			-1.399
274100.000			4.198			-1.399
274200.000			4.199			-1.400
274301.000			4.198			-1.399
274401.000			4.197			-1.399
274501.000			4.199			-1.400
274602.000			4.198			-1.399
274700.000			4.197			-1.399
274800.000			4.198			-1.399
274901.000			4.199			-1.400
275000.000			4.199			-1.400
275100.000			4.198			-1.399
275201.000			4.199			-1.400
275300.000			4.199			-1.400
275401.000			4.199			-1.400
275502.000			4.198			-1.399
275600.000			4.198			-1.399
275700.000			4.198			-1.399
275801.000			4.199			-1.400
275900.000			4.199			-1.400
276000.000			4.198			-1.399
276101.000			4.198			-1.399
276200.000			4.199			-1.400
276301.000			4.198			-1.399
276402.000			4.198			-1.399
276501.000			4.197			-1.399
276600.000			4.198			-1.399
276701.000			4.198			-1.399
276800.000			4.197			-1.399
276900.000			4.197			-1.399
277001.000			4.196			-1.399
277100.000			4.197			-1.399
277200.000			4.197			-1.399
277302.000			4.196			-1.399
277401.000			4.197			-1.399
277501.000			4.197			-1.399
277600.000			4.197			-1.399
277700.000			4.198			-1.399
277801.000			4.197			-1.399
277900.000			4.197			-1.399
278000.000			4.197			-1.399
278101.000			4.197			-1.399
278201.000			4.197			-1.399
278301.000			4.197			-1.399
278402.000			4.198			-1.399
278500.000			4.198			-1.399
278600.000			4.198			-1.399
278701.000			4.198			-1.399
278800.000			4.197			-1.399
278900.000			4.197			-1.399
279001.000			4.198			-1.399
279100.000			4.197			-1.399
279201.000			4.197			-1.399
279302.000			4.197			-1.399
279401.000			4.197			-1.399
279500.000			4.197			-1.399
279601.000			4.197			-1.399
279700.000			4.198			-1.399
279800.000			4.197			-1.399
279901.000			4.197			-1.399
280000.000			4.197			-1.399
280100.000			4.197			-1.399
280202.000			4.197			-1.399
280301.000			4.197			-1.399
280400.000			4.198			-1.399
280500.000			4.197			-1.399
280600.000			4.196			-1.399
280701.000			4.196			-1.399
280800.000			4.197			-1.399
280900.000			4.197			-1.399
281001.000			4.196			-1.399
281101.000			4.196			-1.399
281201.000			4.196			-1.399
281302.000			4.197			-1.399
281400.000			4.197			-1.399
281500.000			4.198			-1.399
281601.000			4.197			-1.399
281700.000			4.197			-1.399
281800.000			4.198			-1.399
281901.000			4.197			-1.399
282000.000			4.198			-1.399
282101.000			4.198			-1.399
282202.000			4.197			-1.399
282300.000			4.198			-1.399
282400.000			4.198			-1.399
282501.000			4.198			-1.399
282600.000			4.199			-1.400
282700.000			4.199			-1.400
282801.000			4.198			-1.399
282900.000			4.197			-1.399
283001.000			4.199			-1.400
283102.000			4.199			-1.400
283201.000			4.198			-1.399
283300.000			4.199			-1.400
283401.000			4.198			-1.399
283500.000			4.198			-1.399
283600.000			4.198			-1.399
283700.000			4.199			-1.400
283800.000			4.198			-1.399
283901.000			4.198			-1.399
284001.000			4.198			-1.399
284101.000			4.198			-1.399
284201.000			4.198			-1.399
284300.000			4.197			-1.399
284400.000			4.197			-1.399
284501.000			4.197			-1.399
284600.000			4.196			-1.399
284700.000			4.197			-1.399
284801.000			4.196			-1.399
284901.000			4.196			-1.399
285001.000			4.196			-1.399
285101.000			4.196			-1.399
285200.000			4.197			-1.399
285300.000			4.197			-1.399
285401.000			4.197			-1.399
285500.000			4.196			-1.399
285600.000			4.196			-1.399
285701.000			4.196			-1.399
285800.000			4.196			-1.399
285901.000			4.195			-1.398
286002.000			4.195			-1.398
286100.000			4.197			-1.399
286200.000			4.196			-1.399
286301.000			4.196			-1.399
286400.000			4.196			-1.399
286500.000			4.196			-1.399
286601.000			4.195			-1.398
286700.000			4.195			-1.398
286802.000			4.195			-1.398
286901.000			4.195			-1.398
287001.000			4.195			-1.398
287101.000			4.196			-1.399
287200.000			4.196			-1.399
287300.000			4.195			-1.398
287401.000			4.195			-1.398
287500.000			4.195			-1.398
287600.000			4.196			-1.399
287701.000			4.195			-1.398
287801.000			4.195			-1.398
287901.000			4.195			-1.398
288002.000			4.194			-1.398
288100.000			4.194			-1.398
288200.000			4.194			-1.398
288301.000			4.194			-1.398
288400.000			4.196			-1.399
288500.000			4.195			-1.398
288601.000			4.194			-1.398
288700.000			4.193			-1.398
288801.000			4.194			-1.398
288902.000			4.195			-1.398
289000.000			4.194			-1.398
289100.000			4.195			-1.398
289201.000			4.194			-1.398
289300.000			4.195			-1.398
289400.000			4.194			-1.398
289501.000			4.195			-1.398
289600.000			4.195			-1.398
289700.000			4.195			-1.398
289802.000			4.195			-1.398
289901.000			4.193			-1.398
290000.000			4.194			-1.398
290100.000			4.194			-1.398
290200.000			4.194			-1.398
290301.000			4.195			-1.398
290400.000			4.195			-1.398
290500.000			4.195			-1.398
290601.000			4.193			-1.398
290701.000			4.194			-1.398
290801.000			4.194			-1.398
290901.000			4.194			-1.398
291000.000			4.194			-1.398
291100.000			4.194			-1.398
291201.000			4.194			-1.398
291300.000			4.193			-1.398
291400.000			4.194			-1.398
291501.000			4.194			-1.398
291601.000			4.194			-1.398
291701.000			4.194			-1.398
291802.000			4.193			-1.398
291900.000			4.194			-1.398
292000.000			4.193			-1.398
292101.000			4.194			-1.398
292200.000			4.194			-1.398
292300.000			4.194			-1.398
292401.000			4.194			-1.398
292501.000			4.194			-1.398
292601.000			4.194			-1.398
292702.000			4.194			-1.398
292800.000			4.193			-1.398
292900.000			4.194			-1.398
293001.000			4.193			-1.398
293100.000			4.193			-1.398
293200.000			4.194			-1.398
293300.000			4.194			-1.398
293400.000			4.195			-1.398
293502.000			4.195			-1.398
293601.000			4.194			-1.398
293700.000			4.193			-1.398
293801.000			4.194			-1.398
293900.000			4.194			-1.398
294000.000			4.194			-1.398
294101.000			4.193			-1.398
294200.000			4.193			-1.398
294300.000			4.193			-1.398
294402.000			4.193			-1.398
294501.000			4.194			-1.398
294600.000			4.193			-1.398
294701.000			4.193			-1.398
294800.000			4.194			-1.398
294900.000			4.195			-1.398
295001.000			4.193			-1.398
295100.000			4.193			-1.398
295200.000			4.193			-1.398
295302.000			4.193			-1.398
295401.000			4.192			-1.397
295501.000			4.193			-1.398
295601.000			4.193			-1.398
295700.000			4.193			-1.398
295800.000			4.192			-1.397
295901.000			4.192			-1.397
296000.000			4.192			-1.397
296100.000			4.192			-1.397
296202.000			4.191			-1.397
296301.000			4.192			-1.397
296402.000			4.192			-1.397
296500.000			4.192			-1.397
296600.000			4.192			-1.397
296701.000			4.192			-1.397
296800.000			4.192			-1.397
296900.000			4.192			-1.397
297001.000			4.193			-1.398
297100.000			4.193			-1.398
297201.000			4.192			-1.397
297302.000			4.192			-1.397
297401.000			4.193			-1.398
297500.000			4.192			-1.397
297601.000			4.192			-1.397
297700.000			4.192			-1.397
297800.000			4.192			-1.397
297901.000			4.192			-1.397
298000.000			4.191			-1.397
298100.000			4.192			-1.397
298202.000			4.192			-1.397
298301.000			4.192			-1.397
298400.000			4.192			-1.397
298501.000			4.192			-1.397
298600.000			4.192			-1.397
298700.000			4.192			-1.397
298801.000			4.192			-1.397
298900.000			4.192			-1.397
299000.000			4.191			-1.397
299102.000			4.191			-1.397
299201.000			4.191			-1.397
299301.000			4.192			-1.397
299401.000			4.191			-1.397
299500.000			4.190			-1.397
299600.000			4.191			-1.397
299700.000			4.191			-1.397
299800.000			4.191			-1.397
299901.000			4.192			-1.397
