# Acquired on 21/12/2023 12:41:02 
# SPIDER: Creep_-7mm_07714532C-2
# CREEP MEASUREMENT

# time [ms]		force [N]		stiffness [N/mm]
0.000			19.613			-2.802
102.000			20.795			-2.971
201.000			21.299			-3.043
300.000			21.354			-3.051
401.000			21.196			-3.028
500.000			21.140			-3.020
600.000			21.090			-3.013
701.000			21.047			-3.007
801.000			21.010			-3.001
901.000			20.978			-2.997
1001.000			20.948			-2.993
1100.000			20.893			-2.985
1200.000			20.869			-2.981
1300.000			20.847			-2.978
1400.000			20.827			-2.975
1501.000			20.806			-2.972
1601.000			20.787			-2.970
1701.000			20.769			-2.967
1801.000			20.737			-2.962
1900.000			20.723			-2.960
2000.000			20.707			-2.958
2101.000			20.692			-2.956
2200.000			20.679			-2.954
2300.000			20.666			-2.952
2402.000			20.653			-2.950
2501.000			20.641			-2.949
2600.000			20.618			-2.945
2701.000			20.607			-2.944
2800.000			20.595			-2.942
2900.000			20.585			-2.941
3001.000			20.575			-2.939
3101.000			20.565			-2.938
3201.000			20.555			-2.936
3301.000			20.538			-2.934
3400.000			20.530			-2.933
3500.000			20.520			-2.931
3601.000			20.511			-2.930
3700.000			20.504			-2.929
3800.000			20.495			-2.928
3902.000			20.486			-2.927
4001.000			20.471			-2.924
4100.000			20.464			-2.923
4201.000			20.457			-2.922
4300.000			20.450			-2.921
4400.000			20.443			-2.920
4500.000			20.435			-2.919
4601.000			20.429			-2.918
4702.000			20.416			-2.917
4800.000			20.410			-2.916
4900.000			20.404			-2.915
5001.000			20.397			-2.914
5100.000			20.390			-2.913
5200.000			20.384			-2.912
5301.000			20.379			-2.911
5401.000			20.373			-2.910
5501.000			20.360			-2.909
5601.000			20.355			-2.908
5700.000			20.350			-2.907
5800.000			20.345			-2.906
5901.000			20.338			-2.905
6000.000			20.334			-2.905
6101.000			20.329			-2.904
6202.000			20.319			-2.903
6300.000			20.313			-2.902
6400.000			20.309			-2.901
6501.000			20.305			-2.901
6600.000			20.299			-2.900
6700.000			20.295			-2.899
6801.000			20.290			-2.899
6901.000			20.281			-2.897
7001.000			20.277			-2.897
7101.000			20.272			-2.896
7200.000			20.268			-2.895
7300.000			20.264			-2.895
7401.000			20.259			-2.894
7500.000			20.254			-2.893
7600.000			20.251			-2.893
7702.000			20.243			-2.892
7801.000			20.239			-2.891
7901.000			20.235			-2.891
8000.000			20.231			-2.890
8100.000			20.227			-2.890
8201.000			20.223			-2.889
8300.000			20.219			-2.888
8401.000			20.211			-2.887
8502.000			20.208			-2.887
8600.000			20.204			-2.886
8700.000			20.201			-2.886
8801.000			20.196			-2.885
8900.000			20.193			-2.885
9000.000			20.190			-2.884
9101.000			20.183			-2.883
9201.000			20.179			-2.883
9301.000			20.176			-2.882
9401.000			20.173			-2.882
9500.000			20.169			-2.881
9600.000			20.165			-2.881
9701.000			20.162			-2.880
9800.000			20.159			-2.880
9901.000			20.153			-2.879
10002.000			20.149			-2.878
10100.000			20.146			-2.878
10200.000			20.143			-2.878
10301.000			20.140			-2.877
10400.000			20.137			-2.877
10500.000			20.135			-2.876
10601.000			20.127			-2.875
10701.000			20.123			-2.875
10802.000			20.121			-2.874
10900.000			20.118			-2.874
11000.000			20.116			-2.874
11101.000			20.112			-2.873
11200.000			20.109			-2.873
11300.000			20.104			-2.872
11402.000			20.102			-2.872
11501.000			20.098			-2.871
11600.000			20.095			-2.871
11701.000			20.093			-2.870
11800.000			20.091			-2.870
11900.000			20.089			-2.870
12001.000			20.083			-2.869
12100.000			20.080			-2.869
12201.000			20.078			-2.868
12302.000			20.075			-2.868
12400.000			20.072			-2.867
12500.000			20.069			-2.867
12601.000			20.066			-2.867
12700.000			20.063			-2.866
12800.000			20.058			-2.865
12901.000			20.056			-2.865
13001.000			20.054			-2.865
13101.000			20.053			-2.865
13201.000			20.050			-2.864
13300.000			20.048			-2.864
13400.000			20.044			-2.863
13501.000			20.039			-2.863
13600.000			20.038			-2.863
13701.000			20.036			-2.862
13802.000			20.033			-2.862
13900.000			20.031			-2.862
14000.000			20.028			-2.861
14100.000			20.025			-2.861
14200.000			20.021			-2.860
14301.000			20.018			-2.860
14400.000			20.016			-2.859
14501.000			20.014			-2.859
14602.000			20.013			-2.859
14700.000			20.010			-2.859
14800.000			20.008			-2.858
14901.000			20.005			-2.858
15000.000			20.003			-2.858
15100.000			20.001			-2.857
15202.000			19.999			-2.857
15301.000			19.997			-2.857
15401.000			19.995			-2.856
15501.000			19.992			-2.856
15600.000			19.989			-2.856
15700.000			19.985			-2.855
15801.000			19.984			-2.855
15900.000			19.983			-2.855
16000.000			19.980			-2.854
16102.000			19.978			-2.854
16201.000			19.975			-2.854
16300.000			19.973			-2.853
16401.000			19.968			-2.853
16500.000			19.967			-2.852
16600.000			19.966			-2.852
16701.000			19.964			-2.852
16800.000			19.961			-2.852
16900.000			19.959			-2.851
17002.000			19.957			-2.851
17101.000			19.953			-2.850
17200.000			19.952			-2.850
17300.000			19.950			-2.850
17400.000			19.948			-2.850
17501.000			19.946			-2.849
17600.000			19.944			-2.849
17700.000			19.941			-2.849
17802.000			19.940			-2.849
17901.000			19.935			-2.848
18000.000			19.936			-2.848
18101.000			19.933			-2.848
18200.000			19.929			-2.847
18300.000			19.928			-2.847
18401.000			19.928			-2.847
18500.000			19.927			-2.847
18601.000			19.923			-2.846
18702.000			19.921			-2.846
18800.000			19.919			-2.846
18900.000			19.917			-2.845
19001.000			19.915			-2.845
19100.000			19.913			-2.845
19200.000			19.912			-2.845
19301.000			19.909			-2.844
19401.000			19.907			-2.844
19501.000			19.905			-2.844
19601.000			19.904			-2.843
19700.000			19.902			-2.843
19800.000			19.900			-2.843
19901.000			19.898			-2.843
20000.000			19.897			-2.842
20100.000			19.894			-2.842
20202.000			19.892			-2.842
20301.000			19.891			-2.842
20402.000			19.891			-2.842
20500.000			19.888			-2.841
20600.000			19.885			-2.841
20701.000			19.884			-2.841
20800.000			19.881			-2.840
20900.000			19.880			-2.840
21001.000			19.878			-2.840
21101.000			19.876			-2.839
21201.000			19.875			-2.839
21301.000			19.874			-2.839
21400.000			19.872			-2.839
21500.000			19.869			-2.838
21601.000			19.867			-2.838
21700.000			19.865			-2.838
21800.000			19.863			-2.838
21902.000			19.862			-2.837
22001.000			19.861			-2.837
22100.000			19.860			-2.837
22201.000			19.857			-2.837
22300.000			19.855			-2.836
22400.000			19.853			-2.836
22501.000			19.851			-2.836
22600.000			19.851			-2.836
22701.000			19.849			-2.836
22802.000			19.847			-2.835
22900.000			19.847			-2.835
23000.000			19.844			-2.835
23101.000			19.843			-2.835
23200.000			19.841			-2.834
23300.000			19.840			-2.834
23401.000			19.838			-2.834
23501.000			19.837			-2.834
23602.000			19.836			-2.834
23701.000			19.833			-2.833
23800.000			19.832			-2.833
23901.000			19.831			-2.833
24000.000			19.829			-2.833
24100.000			19.828			-2.833
24201.000			19.826			-2.832
24301.000			19.824			-2.832
24401.000			19.822			-2.832
24502.000			19.821			-2.832
24600.000			19.820			-2.831
24700.000			19.817			-2.831
24801.000			19.815			-2.831
24900.000			19.815			-2.831
25000.000			19.813			-2.830
25101.000			19.813			-2.830
25201.000			19.809			-2.830
25301.000			19.809			-2.830
25401.000			19.807			-2.830
25500.000			19.805			-2.829
25600.000			19.803			-2.829
25701.000			19.802			-2.829
25800.000			19.801			-2.829
25900.000			19.800			-2.829
26002.000			19.798			-2.828
26101.000			19.797			-2.828
26200.000			19.795			-2.828
26301.000			19.793			-2.828
26400.000			19.793			-2.828
26500.000			19.791			-2.827
26601.000			19.789			-2.827
26700.000			19.786			-2.827
26802.000			19.785			-2.826
26901.000			19.784			-2.826
27001.000			19.782			-2.826
27101.000			19.781			-2.826
27200.000			19.780			-2.826
27300.000			19.778			-2.825
27401.000			19.778			-2.825
27500.000			19.777			-2.825
27600.000			19.775			-2.825
27702.000			19.773			-2.825
27801.000			19.772			-2.825
27900.000			19.771			-2.824
28001.000			19.770			-2.824
28100.000			19.767			-2.824
28200.000			19.767			-2.824
28301.000			19.765			-2.824
28400.000			19.764			-2.823
28501.000			19.763			-2.823
28602.000			19.762			-2.823
28700.000			19.761			-2.823
28800.000			19.757			-2.822
28901.000			19.757			-2.822
29000.000			19.757			-2.822
29100.000			19.755			-2.822
29201.000			19.753			-2.822
29300.000			19.753			-2.822
29401.000			19.752			-2.822
29502.000			19.749			-2.821
29600.000			19.747			-2.821
29700.000			19.747			-2.821
29801.000			19.746			-2.821
29900.000			19.744			-2.821
30000.000			19.743			-2.820
30100.000			19.743			-2.820
30201.000			19.742			-2.820
30302.000			19.739			-2.820
30400.000			19.738			-2.820
30500.000			19.738			-2.820
30601.000			19.736			-2.819
30700.000			19.734			-2.819
30800.000			19.734			-2.819
30901.000			19.733			-2.819
31001.000			19.731			-2.819
31101.000			19.730			-2.819
31201.000			19.728			-2.818
31300.000			19.728			-2.818
31400.000			19.726			-2.818
31501.000			19.726			-2.818
31600.000			19.724			-2.818
31700.000			19.723			-2.818
31802.000			19.721			-2.817
31901.000			19.720			-2.817
32000.000			19.719			-2.817
32101.000			19.718			-2.817
32200.000			19.717			-2.817
32300.000			19.716			-2.817
32401.000			19.715			-2.816
32500.000			19.714			-2.816
32601.000			19.713			-2.816
32702.000			19.712			-2.816
32801.000			19.710			-2.816
32900.000			19.709			-2.816
33001.000			19.709			-2.816
33100.000			19.707			-2.815
33200.000			19.705			-2.815
33300.000			19.703			-2.815
33400.000			19.702			-2.815
33502.000			19.701			-2.814
33601.000			19.701			-2.814
33700.000			19.699			-2.814
33801.000			19.698			-2.814
33900.000			19.697			-2.814
34000.000			19.696			-2.814
34101.000			19.694			-2.813
34200.000			19.694			-2.813
34301.000			19.693			-2.813
34402.000			19.692			-2.813
34500.000			19.691			-2.813
34600.000			19.690			-2.813
34701.000			19.688			-2.813
34800.000			19.687			-2.812
34900.000			19.685			-2.812
35001.000			19.684			-2.812
35101.000			19.684			-2.812
35201.000			19.683			-2.812
35301.000			19.682			-2.812
35400.000			19.681			-2.812
35500.000			19.681			-2.812
35601.000			19.680			-2.811
35700.000			19.678			-2.811
35800.000			19.677			-2.811
35902.000			19.677			-2.811
36001.000			19.675			-2.811
36101.000			19.673			-2.810
36201.000			19.672			-2.810
36300.000			19.671			-2.810
36400.000			19.670			-2.810
36500.000			19.670			-2.810
36600.000			19.668			-2.810
36701.000			19.667			-2.810
36801.000			19.667			-2.810
36901.000			19.666			-2.809
37001.000			19.664			-2.809
37100.000			19.662			-2.809
37200.000			19.662			-2.809
37301.000			19.661			-2.809
37400.000			19.659			-2.808
37500.000			19.659			-2.808
37602.000			19.658			-2.808
37701.000			19.657			-2.808
37800.000			19.655			-2.808
37901.000			19.654			-2.808
38000.000			19.654			-2.808
38100.000			19.653			-2.808
38201.000			19.652			-2.807
38300.000			19.649			-2.807
38400.000			19.650			-2.807
38502.000			19.649			-2.807
38601.000			19.648			-2.807
38700.000			19.647			-2.807
38801.000			19.646			-2.807
38900.000			19.646			-2.807
39000.000			19.643			-2.806
39101.000			19.643			-2.806
39200.000			19.642			-2.806
39301.000			19.641			-2.806
39402.000			19.639			-2.806
39500.000			19.639			-2.806
39600.000			19.638			-2.805
39700.000			19.637			-2.805
39800.000			19.636			-2.805
39901.000			19.636			-2.805
40000.000			19.635			-2.805
40101.000			19.633			-2.805
40202.000			19.632			-2.805
40301.000			19.632			-2.805
40400.000			19.631			-2.804
40501.000			19.629			-2.804
40600.000			19.628			-2.804
40700.000			19.627			-2.804
40801.000			19.626			-2.804
40901.000			19.626			-2.804
41001.000			19.625			-2.804
41102.000			19.623			-2.803
41200.000			19.622			-2.803
41300.000			19.622			-2.803
41401.000			19.620			-2.803
41500.000			19.620			-2.803
41600.000			19.618			-2.803
41701.000			19.617			-2.802
41801.000			19.617			-2.802
41901.000			19.617			-2.802
42001.000			19.614			-2.802
42100.000			19.614			-2.802
42200.000			19.614			-2.802
42301.000			19.612			-2.802
42400.000			19.611			-2.802
42500.000			19.610			-2.801
42602.000			19.611			-2.802
42701.000			19.609			-2.801
42800.000			19.608			-2.801
42900.000			19.607			-2.801
43000.000			19.607			-2.801
43101.000			19.606			-2.801
43200.000			19.604			-2.801
43300.000			19.603			-2.800
43402.000			19.601			-2.800
43501.000			19.601			-2.800
43600.000			19.600			-2.800
43701.000			19.600			-2.800
43800.000			19.599			-2.800
43900.000			19.598			-2.800
44001.000			19.597			-2.800
44100.000			19.596			-2.799
44201.000			19.594			-2.799
44302.000			19.593			-2.799
44400.000			19.594			-2.799
44500.000			19.593			-2.799
44601.000			19.593			-2.799
44700.000			19.591			-2.799
44800.000			19.590			-2.799
44901.000			19.589			-2.798
45001.000			19.588			-2.798
45101.000			19.587			-2.798
45201.000			19.586			-2.798
45300.000			19.585			-2.798
45400.000			19.584			-2.798
45501.000			19.584			-2.798
45600.000			19.583			-2.798
45700.000			19.582			-2.797
45801.000			19.581			-2.797
45901.000			19.581			-2.797
46002.000			19.579			-2.797
46100.000			19.578			-2.797
46200.000			19.578			-2.797
46301.000			19.579			-2.797
46400.000			19.576			-2.797
46500.000			19.576			-2.797
46601.000			19.575			-2.796
46701.000			19.574			-2.796
46801.000			19.573			-2.796
46901.000			19.573			-2.796
47000.000			19.572			-2.796
47100.000			19.570			-2.796
47201.000			19.570			-2.796
47300.000			19.569			-2.796
47400.000			19.567			-2.795
47502.000			19.566			-2.795
47601.000			19.567			-2.795
47701.000			19.566			-2.795
47801.000			19.564			-2.795
47900.000			19.564			-2.795
48000.000			19.564			-2.795
48101.000			19.562			-2.795
48200.000			19.561			-2.794
48300.000			19.560			-2.794
48402.000			19.559			-2.794
48501.000			19.559			-2.794
48600.000			19.557			-2.794
48701.000			19.556			-2.794
48800.000			19.556			-2.794
48900.000			19.556			-2.794
49001.000			19.555			-2.794
49100.000			19.554			-2.793
49202.000			19.554			-2.793
49301.000			19.553			-2.793
49400.000			19.552			-2.793
49501.000			19.551			-2.793
49600.000			19.550			-2.793
49700.000			19.550			-2.793
49801.000			19.548			-2.793
49900.000			19.548			-2.793
50001.000			19.547			-2.792
50102.000			19.546			-2.792
50201.000			19.544			-2.792
50300.000			19.544			-2.792
50401.000			19.545			-2.792
50500.000			19.543			-2.792
50600.000			19.543			-2.792
50701.000			19.542			-2.792
50801.000			19.542			-2.792
50901.000			19.540			-2.791
51002.000			19.540			-2.791
51100.000			19.538			-2.791
51200.000			19.537			-2.791
51301.000			19.536			-2.791
51400.000			19.536			-2.791
51500.000			19.535			-2.791
51601.000			19.534			-2.791
51701.000			19.534			-2.791
51801.000			19.533			-2.790
51901.000			19.533			-2.790
52000.000			19.532			-2.790
52100.000			19.532			-2.790
52201.000			19.530			-2.790
52300.000			19.529			-2.790
52400.000			19.528			-2.790
52502.000			19.528			-2.790
52601.000			19.528			-2.790
52701.000			19.527			-2.790
52800.000			19.527			-2.790
52900.000			19.523			-2.789
53001.000			19.524			-2.789
53100.000			19.523			-2.789
53200.000			19.522			-2.789
53302.000			19.523			-2.789
53401.000			19.523			-2.789
53500.000			19.522			-2.789
53601.000			19.521			-2.789
53700.000			19.519			-2.788
53800.000			19.518			-2.788
53901.000			19.517			-2.788
54000.000			19.517			-2.788
54101.000			19.517			-2.788
54202.000			19.516			-2.788
54300.000			19.516			-2.788
54400.000			19.514			-2.788
54501.000			19.514			-2.788
54600.000			19.514			-2.788
54700.000			19.513			-2.788
54801.000			19.511			-2.787
54901.000			19.510			-2.787
55001.000			19.509			-2.787
55101.000			19.509			-2.787
55200.000			19.509			-2.787
55300.000			19.508			-2.787
55401.000			19.507			-2.787
55500.000			19.505			-2.786
55600.000			19.505			-2.786
55702.000			19.506			-2.787
55801.000			19.505			-2.786
55901.000			19.503			-2.786
56000.000			19.502			-2.786
56100.000			19.502			-2.786
56201.000			19.501			-2.786
56300.000			19.501			-2.786
56400.000			19.501			-2.786
56502.000			19.500			-2.786
56601.000			19.499			-2.786
56700.000			19.499			-2.786
56801.000			19.497			-2.785
56900.000			19.496			-2.785
57000.000			19.496			-2.785
57101.000			19.496			-2.785
57200.000			19.495			-2.785
57301.000			19.494			-2.785
57402.000			19.493			-2.785
57501.000			19.492			-2.785
57600.000			19.492			-2.785
57701.000			19.492			-2.785
57800.000			19.491			-2.784
57900.000			19.491			-2.784
58001.000			19.490			-2.784
58100.000			19.488			-2.784
58201.000			19.487			-2.784
58302.000			19.488			-2.784
58400.000			19.488			-2.784
58500.000			19.488			-2.784
58601.000			19.486			-2.784
58700.000			19.485			-2.784
58800.000			19.485			-2.784
58900.000			19.484			-2.783
59001.000			19.484			-2.783
59102.000			19.483			-2.783
59201.000			19.483			-2.783
59300.000			19.481			-2.783
59401.000			19.480			-2.783
59500.000			19.479			-2.783
59600.000			19.479			-2.783
59701.000			19.478			-2.783
59800.000			19.479			-2.783
59901.000			19.478			-2.783
60002.000			19.477			-2.782
60100.000			19.477			-2.782
60200.000			19.475			-2.782
60301.000			19.475			-2.782
60400.000			19.474			-2.782
60500.000			19.473			-2.782
60601.000			19.473			-2.782
60701.000			19.472			-2.782
60801.000			19.471			-2.782
60901.000			19.471			-2.782
61000.000			19.470			-2.781
61100.000			19.469			-2.781
61201.000			19.468			-2.781
61300.000			19.468			-2.781
61400.000			19.467			-2.781
61502.000			19.466			-2.781
61601.000			19.465			-2.781
61700.000			19.465			-2.781
61801.000			19.465			-2.781
61900.000			19.464			-2.781
62000.000			19.464			-2.781
62100.000			19.464			-2.781
62200.000			19.463			-2.780
62301.000			19.463			-2.780
62401.000			19.461			-2.780
62501.000			19.461			-2.780
62601.000			19.461			-2.780
62700.000			19.460			-2.780
62800.000			19.459			-2.780
62901.000			19.457			-2.780
63000.000			19.457			-2.780
63100.000			19.458			-2.780
63202.000			19.456			-2.779
63301.000			19.455			-2.779
63400.000			19.455			-2.779
63501.000			19.455			-2.779
63600.000			19.454			-2.779
63700.000			19.453			-2.779
63801.000			19.453			-2.779
63900.000			19.452			-2.779
64001.000			19.452			-2.779
64102.000			19.450			-2.779
64200.000			19.449			-2.778
64300.000			19.449			-2.778
64401.000			19.449			-2.778
64500.000			19.448			-2.778
64600.000			19.448			-2.778
64701.000			19.448			-2.778
64801.000			19.448			-2.778
64901.000			19.447			-2.778
65002.000			19.446			-2.778
65100.000			19.446			-2.778
65200.000			19.445			-2.778
65300.000			19.445			-2.778
65400.000			19.443			-2.778
65501.000			19.442			-2.777
65600.000			19.442			-2.777
65701.000			19.441			-2.777
65802.000			19.441			-2.777
65900.000			19.440			-2.777
66000.000			19.439			-2.777
66101.000			19.439			-2.777
66200.000			19.438			-2.777
66300.000			19.438			-2.777
66401.000			19.438			-2.777
66501.000			19.437			-2.777
66601.000			19.437			-2.777
66701.000			19.436			-2.777
66800.000			19.434			-2.776
66900.000			19.433			-2.776
67001.000			19.432			-2.776
67100.000			19.432			-2.776
67200.000			19.432			-2.776
67302.000			19.433			-2.776
67401.000			19.432			-2.776
67501.000			19.431			-2.776
67601.000			19.430			-2.776
67700.000			19.429			-2.776
67800.000			19.428			-2.775
67901.000			19.428			-2.775
68000.000			19.427			-2.775
68100.000			19.428			-2.775
68202.000			19.428			-2.775
68301.000			19.426			-2.775
68400.000			19.425			-2.775
68500.000			19.426			-2.775
68600.000			19.424			-2.775
68701.000			19.424			-2.775
68800.000			19.423			-2.775
68900.000			19.423			-2.775
69002.000			19.422			-2.775
69101.000			19.420			-2.774
69200.000			19.420			-2.774
69301.000			19.420			-2.774
69400.000			19.419			-2.774
69500.000			19.418			-2.774
69601.000			19.418			-2.774
69700.000			19.418			-2.774
69801.000			19.417			-2.774
69902.000			19.416			-2.774
70001.000			19.416			-2.774
70100.000			19.415			-2.774
70201.000			19.415			-2.774
70300.000			19.414			-2.773
70400.000			19.414			-2.773
70501.000			19.413			-2.773
70601.000			19.412			-2.773
70701.000			19.413			-2.773
70802.000			19.412			-2.773
70900.000			19.412			-2.773
71000.000			19.411			-2.773
71101.000			19.410			-2.773
71200.000			19.408			-2.773
71300.000			19.409			-2.773
71401.000			19.409			-2.773
71501.000			19.408			-2.773
71602.000			19.407			-2.772
71700.000			19.407			-2.772
71800.000			19.406			-2.772
71901.000			19.405			-2.772
72000.000			19.404			-2.772
72100.000			19.404			-2.772
72201.000			19.404			-2.772
72301.000			19.404			-2.772
72401.000			19.403			-2.772
72501.000			19.403			-2.772
72600.000			19.402			-2.772
72700.000			19.402			-2.772
72801.000			19.401			-2.772
72900.000			19.401			-2.772
73000.000			19.400			-2.771
73102.000			19.399			-2.771
73201.000			19.398			-2.771
73300.000			19.398			-2.771
73401.000			19.397			-2.771
73500.000			19.397			-2.771
73600.000			19.397			-2.771
73701.000			19.396			-2.771
73800.000			19.395			-2.771
73901.000			19.395			-2.771
74002.000			19.394			-2.771
74101.000			19.394			-2.771
74200.000			19.393			-2.770
74301.000			19.393			-2.770
74400.000			19.393			-2.770
74500.000			19.392			-2.770
74601.000			19.391			-2.770
74700.000			19.391			-2.770
74802.000			19.390			-2.770
74901.000			19.390			-2.770
75000.000			19.390			-2.770
75101.000			19.389			-2.770
75200.000			19.388			-2.770
75300.000			19.387			-2.770
75401.000			19.387			-2.770
75500.000			19.386			-2.769
75601.000			19.386			-2.769
75702.000			19.386			-2.769
75801.000			19.386			-2.769
75900.000			19.384			-2.769
76001.000			19.384			-2.769
76100.000			19.383			-2.769
76200.000			19.383			-2.769
76301.000			19.382			-2.769
76400.000			19.382			-2.769
76501.000			19.382			-2.769
76602.000			19.382			-2.769
76700.000			19.381			-2.769
76800.000			19.379			-2.768
76901.000			19.378			-2.768
77000.000			19.378			-2.768
77100.000			19.378			-2.768
77201.000			19.378			-2.768
77301.000			19.377			-2.768
77401.000			19.376			-2.768
77501.000			19.376			-2.768
77600.000			19.377			-2.768
77700.000			19.376			-2.768
77801.000			19.374			-2.768
77900.000			19.374			-2.768
78000.000			19.374			-2.768
78100.000			19.373			-2.768
78201.000			19.372			-2.767
78302.000			19.371			-2.767
78400.000			19.372			-2.767
78500.000			19.371			-2.767
78601.000			19.371			-2.767
78700.000			19.370			-2.767
78800.000			19.369			-2.767
78901.000			19.369			-2.767
79001.000			19.368			-2.767
79101.000			19.368			-2.767
79202.000			19.368			-2.767
79300.000			19.368			-2.767
79400.000			19.367			-2.767
79501.000			19.367			-2.767
79600.000			19.366			-2.767
79700.000			19.365			-2.766
79801.000			19.365			-2.766
79901.000			19.365			-2.766
80001.000			19.364			-2.766
80101.000			19.364			-2.766
80200.000			19.363			-2.766
80300.000			19.363			-2.766
80401.000			19.361			-2.766
80500.000			19.361			-2.766
80600.000			19.361			-2.766
80702.000			19.360			-2.766
80801.000			19.359			-2.766
80901.000			19.358			-2.765
81001.000			19.359			-2.766
81100.000			19.358			-2.765
81200.000			19.358			-2.765
81300.000			19.358			-2.765
81400.000			19.357			-2.765
81501.000			19.356			-2.765
81601.000			19.355			-2.765
81701.000			19.355			-2.765
81801.000			19.355			-2.765
81900.000			19.354			-2.765
82000.000			19.354			-2.765
82101.000			19.354			-2.765
82200.000			19.354			-2.765
82300.000			19.354			-2.765
82402.000			19.353			-2.765
82501.000			19.352			-2.765
82600.000			19.351			-2.764
82701.000			19.351			-2.764
82800.000			19.350			-2.764
82900.000			19.349			-2.764
83001.000			19.349			-2.764
83100.000			19.349			-2.764
83201.000			19.349			-2.764
83302.000			19.348			-2.764
83401.000			19.347			-2.764
83500.000			19.347			-2.764
83601.000			19.346			-2.764
83700.000			19.347			-2.764
83800.000			19.346			-2.764
83901.000			19.345			-2.764
84000.000			19.344			-2.763
84101.000			19.343			-2.763
84202.000			19.343			-2.763
84300.000			19.342			-2.763
84400.000			19.342			-2.763
84500.000			19.341			-2.763
84600.000			19.342			-2.763
84701.000			19.342			-2.763
84800.000			19.341			-2.763
84901.000			19.340			-2.763
85002.000			19.339			-2.763
85100.000			19.339			-2.763
85200.000			19.339			-2.763
85301.000			19.340			-2.763
85400.000			19.339			-2.763
85500.000			19.337			-2.762
85601.000			19.337			-2.762
85700.000			19.337			-2.762
85801.000			19.336			-2.762
85902.000			19.336			-2.762
86000.000			19.336			-2.762
86100.000			19.336			-2.762
86201.000			19.335			-2.762
86300.000			19.334			-2.762
86400.000			19.333			-2.762
86501.000			19.332			-2.762
86601.000			19.331			-2.762
86701.000			19.331			-2.762
86801.000			19.332			-2.762
86900.000			19.330			-2.761
87000.000			19.330			-2.761
87101.000			19.330			-2.761
87200.000			19.329			-2.761
87300.000			19.328			-2.761
87402.000			19.328			-2.761
87501.000			19.329			-2.761
87600.000			19.328			-2.761
87700.000			19.327			-2.761
87800.000			19.327			-2.761
87901.000			19.326			-2.761
88000.000			19.325			-2.761
88100.000			19.326			-2.761
88201.000			19.325			-2.761
88301.000			19.325			-2.761
88401.000			19.325			-2.761
88501.000			19.324			-2.761
88600.000			19.324			-2.761
88700.000			19.324			-2.761
88801.000			19.324			-2.761
88900.000			19.323			-2.760
89000.000			19.322			-2.760
89102.000			19.321			-2.760
89201.000			19.321			-2.760
89300.000			19.320			-2.760
89401.000			19.319			-2.760
89500.000			19.320			-2.760
89600.000			19.321			-2.760
89701.000			19.320			-2.760
89800.000			19.320			-2.760
89900.000			19.318			-2.760
90002.000			19.318			-2.760
90101.000			19.318			-2.760
90200.000			19.317			-2.760
90301.000			19.317			-2.760
90400.000			19.317			-2.760
90500.000			19.316			-2.759
90601.000			19.315			-2.759
90700.000			19.314			-2.759
90802.000			19.313			-2.759
90901.000			19.313			-2.759
91000.000			19.312			-2.759
91101.000			19.312			-2.759
91200.000			19.312			-2.759
91300.000			19.312			-2.759
91401.000			19.311			-2.759
91500.000			19.311			-2.759
91601.000			19.310			-2.759
91702.000			19.310			-2.759
91800.000			19.309			-2.758
91900.000			19.309			-2.758
92001.000			19.309			-2.758
92100.000			19.308			-2.758
92200.000			19.308			-2.758
92301.000			19.307			-2.758
92401.000			19.307			-2.758
92501.000			19.306			-2.758
92601.000			19.305			-2.758
92700.000			19.305			-2.758
92800.000			19.306			-2.758
92901.000			19.306			-2.758
93000.000			19.305			-2.758
93100.000			19.304			-2.758
93202.000			19.303			-2.758
93301.000			19.304			-2.758
93400.000			19.303			-2.758
93501.000			19.303			-2.758
93600.000			19.303			-2.758
93700.000			19.303			-2.758
93801.000			19.302			-2.757
93900.000			19.300			-2.757
94002.000			19.300			-2.757
94101.000			19.300			-2.757
94200.000			19.300			-2.757
94301.000			19.299			-2.757
94400.000			19.298			-2.757
94500.000			19.298			-2.757
94601.000			19.297			-2.757
94700.000			19.297			-2.757
94800.000			19.298			-2.757
94902.000			19.297			-2.757
95001.000			19.297			-2.757
95100.000			19.296			-2.757
95201.000			19.296			-2.757
95300.000			19.295			-2.756
95400.000			19.295			-2.756
95501.000			19.295			-2.756
95600.000			19.294			-2.756
95700.000			19.295			-2.756
95802.000			19.294			-2.756
95901.000			19.293			-2.756
96000.000			19.293			-2.756
96101.000			19.293			-2.756
96200.000			19.292			-2.756
96300.000			19.292			-2.756
96401.000			19.291			-2.756
96500.000			19.290			-2.756
96600.000			19.291			-2.756
96702.000			19.289			-2.756
96801.000			19.289			-2.756
96900.000			19.290			-2.756
97001.000			19.288			-2.755
97100.000			19.287			-2.755
97200.000			19.287			-2.755
97300.000			19.287			-2.755
97400.000			19.287			-2.755
97502.000			19.287			-2.755
97601.000			19.287			-2.755
97701.000			19.286			-2.755
97801.000			19.285			-2.755
97900.000			19.284			-2.755
98000.000			19.284			-2.755
98101.000			19.284			-2.755
98200.000			19.283			-2.755
98300.000			19.283			-2.755
98402.000			19.282			-2.755
98501.000			19.282			-2.755
98600.000			19.281			-2.754
98701.000			19.282			-2.755
98800.000			19.281			-2.754
98900.000			19.280			-2.754
99001.000			19.281			-2.754
99100.000			19.281			-2.754
99200.000			19.280			-2.754
99302.000			19.280			-2.754
99401.000			19.279			-2.754
99500.000			19.279			-2.754
99601.000			19.279			-2.754
99700.000			19.278			-2.754
99800.000			19.277			-2.754
99901.000			19.276			-2.754
100000.000			19.276			-2.754
100101.000			19.277			-2.754
100202.000			19.276			-2.754
100301.000			19.277			-2.754
100400.000			19.275			-2.754
100500.000			19.274			-2.753
100600.000			19.273			-2.753
100701.000			19.273			-2.753
100800.000			19.274			-2.753
100900.000			19.273			-2.753
101002.000			19.272			-2.753
101101.000			19.272			-2.753
101200.000			19.273			-2.753
101301.000			19.272			-2.753
101400.000			19.271			-2.753
101500.000			19.270			-2.753
101601.000			19.271			-2.753
101700.000			19.270			-2.753
101801.000			19.270			-2.753
101902.000			19.269			-2.753
102001.000			19.268			-2.753
102100.000			19.268			-2.753
102201.000			19.267			-2.752
102300.000			19.267			-2.752
102400.000			19.267			-2.752
102501.000			19.267			-2.752
102600.000			19.266			-2.752
102701.000			19.265			-2.752
102802.000			19.265			-2.752
102900.000			19.264			-2.752
103000.000			19.264			-2.752
103101.000			19.264			-2.752
103200.000			19.265			-2.752
103300.000			19.262			-2.752
103401.000			19.262			-2.752
103501.000			19.263			-2.752
103602.000			19.263			-2.752
103700.000			19.262			-2.752
103800.000			19.262			-2.752
103901.000			19.261			-2.752
104000.000			19.261			-2.752
104100.000			19.260			-2.751
104201.000			19.261			-2.752
104301.000			19.260			-2.751
104401.000			19.259			-2.751
104502.000			19.259			-2.751
104600.000			19.258			-2.751
104700.000			19.258			-2.751
104801.000			19.258			-2.751
104900.000			19.258			-2.751
105000.000			19.259			-2.751
105101.000			19.258			-2.751
105201.000			19.256			-2.751
105301.000			19.257			-2.751
105401.000			19.257			-2.751
105500.000			19.255			-2.751
105600.000			19.255			-2.751
105701.000			19.256			-2.751
105800.000			19.255			-2.751
105900.000			19.254			-2.751
106001.000			19.254			-2.751
106101.000			19.254			-2.751
106201.000			19.254			-2.751
106301.000			19.254			-2.751
106400.000			19.253			-2.750
106500.000			19.251			-2.750
106601.000			19.252			-2.750
106700.000			19.252			-2.750
106800.000			19.252			-2.750
106902.000			19.251			-2.750
107001.000			19.249			-2.750
107101.000			19.249			-2.750
107200.000			19.249			-2.750
107300.000			19.250			-2.750
107401.000			19.248			-2.750
107500.000			19.248			-2.750
107600.000			19.248			-2.750
107702.000			19.247			-2.750
107801.000			19.247			-2.750
107901.000			19.248			-2.750
108001.000			19.246			-2.749
108100.000			19.247			-2.750
108200.000			19.247			-2.750
108301.000			19.245			-2.749
108400.000			19.245			-2.749
108500.000			19.244			-2.749
108602.000			19.244			-2.749
108701.000			19.243			-2.749
108800.000			19.242			-2.749
108901.000			19.242			-2.749
109000.000			19.242			-2.749
109100.000			19.243			-2.749
109201.000			19.242			-2.749
109300.000			19.241			-2.749
109400.000			19.241			-2.749
109502.000			19.240			-2.749
109601.000			19.240			-2.749
109700.000			19.240			-2.749
109801.000			19.239			-2.748
109900.000			19.240			-2.749
110000.000			19.239			-2.748
110100.000			19.239			-2.748
110200.000			19.238			-2.748
110302.000			19.238			-2.748
110401.000			19.238			-2.748
110501.000			19.238			-2.748
110601.000			19.236			-2.748
110700.000			19.237			-2.748
110800.000			19.236			-2.748
110901.000			19.234			-2.748
111000.000			19.235			-2.748
111100.000			19.235			-2.748
111202.000			19.234			-2.748
111301.000			19.234			-2.748
111400.000			19.234			-2.748
111501.000			19.234			-2.748
111600.000			19.233			-2.748
111700.000			19.233			-2.748
111801.000			19.233			-2.748
111900.000			19.232			-2.747
112001.000			19.232			-2.747
112102.000			19.231			-2.747
112200.000			19.231			-2.747
112300.000			19.231			-2.747
112401.000			19.230			-2.747
112500.000			19.230			-2.747
112600.000			19.230			-2.747
112701.000			19.230			-2.747
112801.000			19.229			-2.747
112901.000			19.228			-2.747
113002.000			19.228			-2.747
113100.000			19.227			-2.747
113200.000			19.228			-2.747
113300.000			19.228			-2.747
113400.000			19.228			-2.747
113501.000			19.226			-2.747
113600.000			19.226			-2.747
113701.000			19.227			-2.747
113802.000			19.225			-2.746
113900.000			19.225			-2.746
114000.000			19.225			-2.746
114101.000			19.225			-2.746
114200.000			19.224			-2.746
114300.000			19.223			-2.746
114401.000			19.223			-2.746
114501.000			19.223			-2.746
114601.000			19.224			-2.746
114701.000			19.224			-2.746
114800.000			19.223			-2.746
114900.000			19.221			-2.746
115001.000			19.221			-2.746
115100.000			19.222			-2.746
115200.000			19.220			-2.746
115301.000			19.220			-2.746
115401.000			19.220			-2.746
115501.000			19.220			-2.746
115601.000			19.221			-2.746
115700.000			19.220			-2.746
115800.000			19.218			-2.745
115901.000			19.217			-2.745
116000.000			19.218			-2.745
116100.000			19.218			-2.745
116202.000			19.218			-2.745
116301.000			19.217			-2.745
116400.000			19.217			-2.745
116500.000			19.217			-2.745
116600.000			19.216			-2.745
116701.000			19.216			-2.745
116800.000			19.215			-2.745
116900.000			19.215			-2.745
117001.000			19.214			-2.745
117101.000			19.214			-2.745
117201.000			19.213			-2.745
117301.000			19.213			-2.745
117400.000			19.212			-2.745
117500.000			19.212			-2.745
117601.000			19.213			-2.745
117700.000			19.213			-2.745
117800.000			19.213			-2.745
117902.000			19.212			-2.745
118001.000			19.211			-2.744
118100.000			19.212			-2.745
118201.000			19.210			-2.744
118300.000			19.210			-2.744
118400.000			19.210			-2.744
118501.000			19.210			-2.744
118600.000			19.209			-2.744
118700.000			19.209			-2.744
118802.000			19.209			-2.744
118901.000			19.209			-2.744
119000.000			19.208			-2.744
119101.000			19.208			-2.744
119200.000			19.207			-2.744
119300.000			19.207			-2.744
119401.000			19.205			-2.744
119500.000			19.205			-2.744
119602.000			19.206			-2.744
119701.000			19.206			-2.744
119801.000			19.205			-2.744
119901.000			19.205			-2.744
120000.000			19.204			-2.743
120100.000			19.204			-2.743
120201.000			19.204			-2.743
120300.000			19.203			-2.743
120400.000			19.203			-2.743
120502.000			19.203			-2.743
120601.000			19.202			-2.743
120700.000			19.202			-2.743
120801.000			19.201			-2.743
120900.000			19.200			-2.743
121000.000			19.200			-2.743
121101.000			19.201			-2.743
121200.000			19.201			-2.743
121301.000			19.200			-2.743
121402.000			19.200			-2.743
121501.000			19.199			-2.743
121600.000			19.200			-2.743
121701.000			19.199			-2.743
121800.000			19.199			-2.743
121900.000			19.198			-2.743
122001.000			19.198			-2.743
122100.000			19.198			-2.743
122201.000			19.198			-2.743
122302.000			19.196			-2.742
122400.000			19.196			-2.742
122500.000			19.196			-2.742
122601.000			19.196			-2.742
122700.000			19.195			-2.742
122800.000			19.194			-2.742
122900.000			19.195			-2.742
123000.000			19.195			-2.742
123102.000			19.194			-2.742
123201.000			19.194			-2.742
123300.000			19.193			-2.742
123401.000			19.193			-2.742
123500.000			19.194			-2.742
123600.000			19.193			-2.742
123701.000			19.193			-2.742
123800.000			19.192			-2.742
123901.000			19.191			-2.742
124002.000			19.190			-2.741
124101.000			19.190			-2.741
124200.000			19.190			-2.741
124301.000			19.190			-2.741
124400.000			19.190			-2.741
124500.000			19.190			-2.741
124601.000			19.189			-2.741
124700.000			19.190			-2.741
124801.000			19.189			-2.741
124902.000			19.188			-2.741
125000.000			19.188			-2.741
125100.000			19.188			-2.741
125201.000			19.187			-2.741
125300.000			19.186			-2.741
125400.000			19.187			-2.741
125501.000			19.186			-2.741
125600.000			19.186			-2.741
125701.000			19.185			-2.741
125802.000			19.185			-2.741
125900.000			19.185			-2.741
126000.000			19.185			-2.741
126100.000			19.186			-2.741
126200.000			19.185			-2.741
126301.000			19.184			-2.741
126400.000			19.183			-2.740
126500.000			19.183			-2.740
126602.000			19.183			-2.740
126701.000			19.182			-2.740
126800.000			19.183			-2.740
126901.000			19.181			-2.740
127000.000			19.181			-2.740
127100.000			19.182			-2.740
127201.000			19.181			-2.740
127300.000			19.181			-2.740
127401.000			19.180			-2.740
127502.000			19.181			-2.740
127600.000			19.180			-2.740
127700.000			19.180			-2.740
127801.000			19.179			-2.740
127900.000			19.178			-2.740
128000.000			19.178			-2.740
128101.000			19.179			-2.740
128200.000			19.178			-2.740
128301.000			19.177			-2.740
128402.000			19.177			-2.740
128500.000			19.177			-2.740
128600.000			19.176			-2.739
128701.000			19.176			-2.739
128800.000			19.176			-2.739
128900.000			19.176			-2.739
129001.000			19.176			-2.739
129100.000			19.175			-2.739
129202.000			19.175			-2.739
129301.000			19.176			-2.739
129400.000			19.175			-2.739
129501.000			19.173			-2.739
129600.000			19.173			-2.739
129700.000			19.172			-2.739
129801.000			19.173			-2.739
129900.000			19.173			-2.739
130000.000			19.172			-2.739
130102.000			19.172			-2.739
130201.000			19.171			-2.739
130300.000			19.170			-2.739
130401.000			19.171			-2.739
130500.000			19.171			-2.739
130600.000			19.170			-2.739
130701.000			19.170			-2.739
130800.000			19.170			-2.739
130901.000			19.168			-2.738
131002.000			19.168			-2.738
131100.000			19.169			-2.738
131200.000			19.168			-2.738
131301.000			19.169			-2.738
131400.000			19.168			-2.738
131500.000			19.168			-2.738
131601.000			19.167			-2.738
131700.000			19.167			-2.738
131801.000			19.166			-2.738
131902.000			19.166			-2.738
132001.000			19.167			-2.738
132100.000			19.166			-2.738
132201.000			19.165			-2.738
132300.000			19.165			-2.738
132400.000			19.164			-2.738
132500.000			19.164			-2.738
132600.000			19.164			-2.738
132702.000			19.162			-2.737
132801.000			19.162			-2.737
132901.000			19.163			-2.738
133001.000			19.163			-2.738
133100.000			19.162			-2.737
133200.000			19.162			-2.737
133301.000			19.161			-2.737
133400.000			19.161			-2.737
133500.000			19.161			-2.737
133602.000			19.161			-2.737
133701.000			19.162			-2.737
133801.000			19.161			-2.737
133901.000			19.161			-2.737
134000.000			19.161			-2.737
134100.000			19.160			-2.737
134201.000			19.159			-2.737
134300.000			19.158			-2.737
134400.000			19.158			-2.737
134501.000			19.157			-2.737
134601.000			19.156			-2.737
134701.000			19.156			-2.737
134801.000			19.157			-2.737
134900.000			19.157			-2.737
135000.000			19.157			-2.737
135101.000			19.157			-2.737
135200.000			19.156			-2.737
135300.000			19.156			-2.737
135401.000			19.155			-2.736
135501.000			19.155			-2.736
135602.000			19.155			-2.736
135701.000			19.155			-2.736
135800.000			19.154			-2.736
135901.000			19.153			-2.736
136000.000			19.153			-2.736
136100.000			19.154			-2.736
136201.000			19.152			-2.736
136300.000			19.152			-2.736
136400.000			19.153			-2.736
136502.000			19.152			-2.736
136601.000			19.151			-2.736
136700.000			19.151			-2.736
136801.000			19.151			-2.736
136900.000			19.150			-2.736
137000.000			19.149			-2.736
137101.000			19.149			-2.736
137200.000			19.149			-2.736
137300.000			19.148			-2.735
137402.000			19.148			-2.735
137501.000			19.149			-2.736
137601.000			19.149			-2.736
137701.000			19.148			-2.735
137800.000			19.147			-2.735
137900.000			19.148			-2.735
138001.000			19.148			-2.735
138100.000			19.147			-2.735
138200.000			19.146			-2.735
138301.000			19.146			-2.735
138401.000			19.146			-2.735
138501.000			19.146			-2.735
138601.000			19.145			-2.735
138700.000			19.145			-2.735
138800.000			19.145			-2.735
138900.000			19.145			-2.735
139000.000			19.145			-2.735
139101.000			19.145			-2.735
139200.000			19.144			-2.735
139300.000			19.144			-2.735
139402.000			19.143			-2.735
139501.000			19.142			-2.735
139600.000			19.143			-2.735
139701.000			19.143			-2.735
139800.000			19.143			-2.735
139900.000			19.141			-2.734
140001.000			19.141			-2.734
140100.000			19.141			-2.734
140200.000			19.141			-2.734
140302.000			19.141			-2.734
140401.000			19.141			-2.734
140500.000			19.140			-2.734
140601.000			19.139			-2.734
140700.000			19.140			-2.734
140800.000			19.139			-2.734
140901.000			19.138			-2.734
141000.000			19.138			-2.734
141100.000			19.139			-2.734
141202.000			19.138			-2.734
141301.000			19.138			-2.734
141401.000			19.137			-2.734
141501.000			19.137			-2.734
141600.000			19.137			-2.734
141700.000			19.137			-2.734
141801.000			19.136			-2.734
141900.000			19.135			-2.734
142000.000			19.136			-2.734
142102.000			19.136			-2.734
142201.000			19.136			-2.734
142302.000			19.135			-2.734
142400.000			19.134			-2.733
142500.000			19.134			-2.733
142601.000			19.133			-2.733
142700.000			19.133			-2.733
142800.000			19.133			-2.733
142901.000			19.133			-2.733
143000.000			19.132			-2.733
143101.000			19.133			-2.733
143202.000			19.133			-2.733
143300.000			19.131			-2.733
143400.000			19.131			-2.733
143501.000			19.132			-2.733
143600.000			19.130			-2.733
143700.000			19.131			-2.733
143801.000			19.130			-2.733
143900.000			19.130			-2.733
144001.000			19.131			-2.733
144102.000			19.130			-2.733
144200.000			19.129			-2.733
144300.000			19.128			-2.733
144401.000			19.128			-2.733
144500.000			19.128			-2.733
144600.000			19.128			-2.733
144701.000			19.128			-2.733
144800.000			19.127			-2.732
144901.000			19.127			-2.732
145002.000			19.127			-2.732
145101.000			19.126			-2.732
145200.000			19.126			-2.732
145300.000			19.126			-2.732
145400.000			19.126			-2.732
145501.000			19.126			-2.732
145600.000			19.124			-2.732
145700.000			19.123			-2.732
145802.000			19.123			-2.732
145901.000			19.123			-2.732
146001.000			19.123			-2.732
146101.000			19.124			-2.732
146200.000			19.123			-2.732
146300.000			19.123			-2.732
146401.000			19.124			-2.732
146500.000			19.122			-2.732
146600.000			19.122			-2.732
146701.000			19.122			-2.732
146801.000			19.121			-2.732
146901.000			19.121			-2.732
147001.000			19.121			-2.732
147100.000			19.121			-2.732
147200.000			19.120			-2.731
147301.000			19.120			-2.731
147400.000			19.120			-2.731
147500.000			19.120			-2.731
147601.000			19.120			-2.731
147701.000			19.119			-2.731
147801.000			19.118			-2.731
147901.000			19.119			-2.731
148000.000			19.119			-2.731
148100.000			19.118			-2.731
148201.000			19.118			-2.731
148300.000			19.117			-2.731
148400.000			19.117			-2.731
148500.000			19.117			-2.731
148600.000			19.116			-2.731
148702.000			19.116			-2.731
148801.000			19.116			-2.731
148900.000			19.115			-2.731
149001.000			19.115			-2.731
149100.000			19.116			-2.731
149200.000			19.116			-2.731
149301.000			19.115			-2.731
149400.000			19.115			-2.731
149500.000			19.115			-2.731
149602.000			19.114			-2.731
149701.000			19.113			-2.730
149801.000			19.113			-2.730
149901.000			19.114			-2.731
150000.000			19.113			-2.730
150100.000			19.112			-2.730
150201.000			19.113			-2.730
150300.000			19.112			-2.730
150400.000			19.113			-2.730
150502.000			19.112			-2.730
150601.000			19.111			-2.730
150701.000			19.111			-2.730
150801.000			19.110			-2.730
150900.000			19.110			-2.730
151000.000			19.111			-2.730
151101.000			19.112			-2.730
151200.000			19.110			-2.730
151300.000			19.109			-2.730
151402.000			19.109			-2.730
151501.000			19.108			-2.730
151602.000			19.108			-2.730
151700.000			19.108			-2.730
151800.000			19.108			-2.730
151901.000			19.108			-2.730
152000.000			19.107			-2.730
152100.000			19.107			-2.730
152201.000			19.107			-2.730
152300.000			19.106			-2.729
152401.000			19.106			-2.729
152502.000			19.106			-2.729
152600.000			19.105			-2.729
152700.000			19.105			-2.729
152801.000			19.105			-2.729
152900.000			19.105			-2.729
153000.000			19.105			-2.729
153101.000			19.105			-2.729
153200.000			19.105			-2.729
153301.000			19.104			-2.729
153402.000			19.103			-2.729
153500.000			19.102			-2.729
153600.000			19.103			-2.729
153701.000			19.103			-2.729
153800.000			19.102			-2.729
153900.000			19.102			-2.729
154001.000			19.102			-2.729
154100.000			19.101			-2.729
154201.000			19.101			-2.729
154302.000			19.102			-2.729
154400.000			19.101			-2.729
154500.000			19.100			-2.729
154601.000			19.101			-2.729
154700.000			19.100			-2.729
154800.000			19.100			-2.729
154900.000			19.099			-2.728
155000.000			19.099			-2.728
155102.000			19.099			-2.728
155201.000			19.099			-2.728
155301.000			19.099			-2.728
155401.000			19.098			-2.728
155500.000			19.098			-2.728
155600.000			19.098			-2.728
155701.000			19.098			-2.728
155800.000			19.099			-2.728
155900.000			19.098			-2.728
156001.000			19.096			-2.728
156101.000			19.096			-2.728
156201.000			19.095			-2.728
156302.000			19.096			-2.728
156400.000			19.096			-2.728
156500.000			19.096			-2.728
156601.000			19.095			-2.728
156700.000			19.096			-2.728
156800.000			19.096			-2.728
156901.000			19.095			-2.728
157000.000			19.095			-2.728
157101.000			19.094			-2.728
157202.000			19.093			-2.728
157301.000			19.093			-2.728
157400.000			19.094			-2.728
157501.000			19.094			-2.728
157600.000			19.094			-2.728
157700.000			19.093			-2.728
157801.000			19.093			-2.728
157900.000			19.092			-2.727
158000.000			19.091			-2.727
158102.000			19.091			-2.727
158201.000			19.092			-2.727
158301.000			19.090			-2.727
158400.000			19.090			-2.727
158500.000			19.090			-2.727
158601.000			19.091			-2.727
158700.000			19.090			-2.727
158800.000			19.089			-2.727
158901.000			19.090			-2.727
159000.000			19.088			-2.727
159101.000			19.089			-2.727
159202.000			19.089			-2.727
159300.000			19.089			-2.727
159400.000			19.087			-2.727
159501.000			19.087			-2.727
159600.000			19.087			-2.727
159700.000			19.087			-2.727
159801.000			19.086			-2.727
159900.000			19.086			-2.727
160001.000			19.087			-2.727
160102.000			19.086			-2.727
160201.000			19.086			-2.727
160300.000			19.085			-2.726
160401.000			19.085			-2.726
160500.000			19.085			-2.726
160600.000			19.086			-2.727
160701.000			19.086			-2.727
160800.000			19.085			-2.726
160900.000			19.084			-2.726
161002.000			19.084			-2.726
161101.000			19.083			-2.726
161200.000			19.082			-2.726
161300.000			19.082			-2.726
161400.000			19.083			-2.726
161501.000			19.083			-2.726
161600.000			19.083			-2.726
161700.000			19.082			-2.726
161801.000			19.081			-2.726
161901.000			19.082			-2.726
162001.000			19.082			-2.726
162102.000			19.081			-2.726
162200.000			19.082			-2.726
162300.000			19.082			-2.726
162401.000			19.081			-2.726
162500.000			19.081			-2.726
162600.000			19.079			-2.726
162701.000			19.078			-2.725
162801.000			19.079			-2.726
162901.000			19.079			-2.726
163002.000			19.079			-2.726
163100.000			19.079			-2.726
163200.000			19.079			-2.726
163301.000			19.079			-2.726
163400.000			19.079			-2.726
163500.000			19.079			-2.726
163601.000			19.079			-2.726
163700.000			19.078			-2.725
163801.000			19.078			-2.725
163902.000			19.077			-2.725
164001.000			19.078			-2.725
164100.000			19.076			-2.725
164201.000			19.076			-2.725
164300.000			19.076			-2.725
164400.000			19.076			-2.725
164500.000			19.076			-2.725
164600.000			19.076			-2.725
164701.000			19.075			-2.725
164801.000			19.074			-2.725
164901.000			19.075			-2.725
165001.000			19.075			-2.725
165100.000			19.074			-2.725
165200.000			19.074			-2.725
165301.000			19.073			-2.725
165400.000			19.072			-2.725
165500.000			19.073			-2.725
165601.000			19.073			-2.725
165701.000			19.072			-2.725
165801.000			19.072			-2.725
165902.000			19.072			-2.725
166000.000			19.072			-2.725
166100.000			19.071			-2.724
166201.000			19.072			-2.725
166300.000			19.071			-2.724
166400.000			19.071			-2.724
166501.000			19.071			-2.724
166600.000			19.070			-2.724
166701.000			19.070			-2.724
166802.000			19.070			-2.724
166901.000			19.069			-2.724
167000.000			19.070			-2.724
167101.000			19.069			-2.724
167200.000			19.069			-2.724
167300.000			19.068			-2.724
167401.000			19.068			-2.724
167500.000			19.068			-2.724
167600.000			19.068			-2.724
167702.000			19.068			-2.724
167801.000			19.067			-2.724
167902.000			19.067			-2.724
168000.000			19.067			-2.724
168100.000			19.067			-2.724
168201.000			19.066			-2.724
168300.000			19.067			-2.724
168400.000			19.066			-2.724
168501.000			19.066			-2.724
168600.000			19.065			-2.724
168701.000			19.065			-2.724
168802.000			19.065			-2.724
168901.000			19.064			-2.723
169000.000			19.064			-2.723
169101.000			19.065			-2.724
169200.000			19.064			-2.723
169300.000			19.064			-2.723
169401.000			19.064			-2.723
169500.000			19.063			-2.723
169600.000			19.063			-2.723
169702.000			19.063			-2.723
169801.000			19.064			-2.723
169900.000			19.062			-2.723
170001.000			19.062			-2.723
170100.000			19.061			-2.723
170200.000			19.060			-2.723
170301.000			19.060			-2.723
170400.000			19.060			-2.723
170500.000			19.060			-2.723
170602.000			19.061			-2.723
170701.000			19.061			-2.723
170802.000			19.061			-2.723
170900.000			19.060			-2.723
171000.000			19.060			-2.723
171101.000			19.060			-2.723
171200.000			19.060			-2.723
171300.000			19.059			-2.723
171401.000			19.059			-2.723
171501.000			19.058			-2.723
171601.000			19.058			-2.723
171702.000			19.058			-2.723
171800.000			19.057			-2.722
171900.000			19.058			-2.723
172001.000			19.058			-2.723
172100.000			19.057			-2.722
172200.000			19.057			-2.722
172301.000			19.056			-2.722
172400.000			19.056			-2.722
172501.000			19.056			-2.722
172602.000			19.056			-2.722
172701.000			19.056			-2.722
172800.000			19.056			-2.722
172901.000			19.056			-2.722
173000.000			19.056			-2.722
173100.000			19.056			-2.722
173201.000			19.056			-2.722
173300.000			19.055			-2.722
173400.000			19.055			-2.722
173502.000			19.055			-2.722
173601.000			19.052			-2.722
173700.000			19.052			-2.722
173801.000			19.053			-2.722
173900.000			19.053			-2.722
174000.000			19.053			-2.722
174100.000			19.053			-2.722
174200.000			19.053			-2.722
174301.000			19.053			-2.722
174401.000			19.052			-2.722
174501.000			19.051			-2.722
174601.000			19.051			-2.722
174700.000			19.051			-2.722
174800.000			19.050			-2.721
174901.000			19.050			-2.721
175000.000			19.050			-2.721
175100.000			19.049			-2.721
175201.000			19.050			-2.721
175301.000			19.050			-2.721
175401.000			19.049			-2.721
175502.000			19.050			-2.721
175600.000			19.050			-2.721
175700.000			19.049			-2.721
175801.000			19.048			-2.721
175900.000			19.049			-2.721
176000.000			19.048			-2.721
176101.000			19.048			-2.721
176200.000			19.048			-2.721
176301.000			19.048			-2.721
176402.000			19.047			-2.721
176501.000			19.047			-2.721
176600.000			19.046			-2.721
176701.000			19.046			-2.721
176800.000			19.047			-2.721
176900.000			19.046			-2.721
177001.000			19.045			-2.721
177100.000			19.045			-2.721
177200.000			19.044			-2.721
177302.000			19.045			-2.721
177401.000			19.044			-2.721
177501.000			19.045			-2.721
177600.000			19.044			-2.721
177700.000			19.044			-2.721
177801.000			19.044			-2.721
177900.000			19.043			-2.720
178000.000			19.043			-2.720
178101.000			19.044			-2.721
178200.000			19.044			-2.721
178301.000			19.043			-2.720
178402.000			19.043			-2.720
178500.000			19.042			-2.720
178600.000			19.041			-2.720
178701.000			19.042			-2.720
178800.000			19.042			-2.720
178900.000			19.041			-2.720
179001.000			19.041			-2.720
179100.000			19.041			-2.720
179201.000			19.041			-2.720
179302.000			19.040			-2.720
179401.000			19.039			-2.720
179500.000			19.039			-2.720
179601.000			19.040			-2.720
179700.000			19.040			-2.720
179800.000			19.039			-2.720
179901.000			19.039			-2.720
180000.000			19.039			-2.720
180100.000			19.039			-2.720
180202.000			19.040			-2.720
180301.000			19.038			-2.720
180400.000			19.038			-2.720
180500.000			19.037			-2.720
180600.000			19.037			-2.720
180701.000			19.038			-2.720
180800.000			19.037			-2.720
180900.000			19.037			-2.720
181001.000			19.037			-2.720
181101.000			19.036			-2.719
181201.000			19.036			-2.719
181301.000			19.036			-2.719
181400.000			19.036			-2.719
181500.000			19.036			-2.719
181601.000			19.036			-2.719
181700.000			19.036			-2.719
181800.000			19.035			-2.719
181901.000			19.035			-2.719
182001.000			19.035			-2.719
182101.000			19.034			-2.719
182202.000			19.034			-2.719
182300.000			19.035			-2.719
182400.000			19.034			-2.719
182501.000			19.034			-2.719
182600.000			19.033			-2.719
182700.000			19.033			-2.719
182801.000			19.033			-2.719
182900.000			19.034			-2.719
183001.000			19.033			-2.719
183102.000			19.033			-2.719
183201.000			19.033			-2.719
183300.000			19.032			-2.719
183401.000			19.032			-2.719
183500.000			19.031			-2.719
183600.000			19.031			-2.719
183700.000			19.032			-2.719
183800.000			19.031			-2.719
183901.000			19.031			-2.719
184001.000			19.031			-2.719
184101.000			19.031			-2.719
184201.000			19.030			-2.719
184300.000			19.029			-2.718
184400.000			19.030			-2.719
184501.000			19.029			-2.718
184600.000			19.029			-2.718
184700.000			19.030			-2.719
184801.000			19.029			-2.718
184901.000			19.029			-2.718
185001.000			19.029			-2.718
185102.000			19.028			-2.718
185200.000			19.028			-2.718
185300.000			19.028			-2.718
185401.000			19.028			-2.718
185500.000			19.027			-2.718
185600.000			19.027			-2.718
185701.000			19.026			-2.718
185800.000			19.027			-2.718
185901.000			19.027			-2.718
186002.000			19.026			-2.718
186100.000			19.026			-2.718
186200.000			19.026			-2.718
186301.000			19.026			-2.718
186400.000			19.026			-2.718
186500.000			19.026			-2.718
186601.000			19.026			-2.718
186700.000			19.025			-2.718
186802.000			19.024			-2.718
186901.000			19.025			-2.718
187001.000			19.025			-2.718
187101.000			19.025			-2.718
187200.000			19.025			-2.718
187300.000			19.024			-2.718
187401.000			19.023			-2.718
187500.000			19.022			-2.717
187600.000			19.022			-2.717
187701.000			19.024			-2.718
187801.000			19.023			-2.718
187901.000			19.023			-2.718
188001.000			19.022			-2.717
188100.000			19.022			-2.717
188200.000			19.022			-2.717
188301.000			19.022			-2.717
188400.000			19.022			-2.717
188500.000			19.022			-2.717
188601.000			19.022			-2.717
188701.000			19.021			-2.717
188801.000			19.020			-2.717
188902.000			19.020			-2.717
189000.000			19.020			-2.717
189100.000			19.020			-2.717
189201.000			19.020			-2.717
189300.000			19.019			-2.717
189400.000			19.019			-2.717
189501.000			19.019			-2.717
189600.000			19.018			-2.717
189701.000			19.019			-2.717
189802.000			19.019			-2.717
189901.000			19.020			-2.717
190000.000			19.019			-2.717
190100.000			19.018			-2.717
190200.000			19.017			-2.717
190301.000			19.018			-2.717
190400.000			19.018			-2.717
190500.000			19.018			-2.717
190601.000			19.016			-2.717
190701.000			19.016			-2.717
190801.000			19.017			-2.717
190901.000			19.017			-2.717
191000.000			19.015			-2.716
191100.000			19.014			-2.716
191201.000			19.015			-2.716
191300.000			19.015			-2.716
191400.000			19.014			-2.716
191501.000			19.014			-2.716
191601.000			19.015			-2.716
191701.000			19.015			-2.716
191801.000			19.014			-2.716
191900.000			19.014			-2.716
192000.000			19.013			-2.716
192101.000			19.013			-2.716
192200.000			19.013			-2.716
192300.000			19.013			-2.716
192401.000			19.013			-2.716
192501.000			19.013			-2.716
192601.000			19.011			-2.716
192701.000			19.012			-2.716
192800.000			19.012			-2.716
192900.000			19.012			-2.716
193001.000			19.011			-2.716
193100.000			19.011			-2.716
193200.000			19.011			-2.716
193300.000			19.011			-2.716
193401.000			19.012			-2.716
193502.000			19.011			-2.716
193601.000			19.010			-2.716
193700.000			19.011			-2.716
193801.000			19.011			-2.716
193900.000			19.011			-2.716
194000.000			19.009			-2.716
194101.000			19.010			-2.716
194200.000			19.009			-2.716
194301.000			19.009			-2.716
194402.000			19.010			-2.716
194501.000			19.009			-2.716
194600.000			19.008			-2.715
194701.000			19.008			-2.715
194800.000			19.009			-2.716
194900.000			19.009			-2.716
195001.000			19.008			-2.715
195100.000			19.008			-2.715
195200.000			19.008			-2.715
195302.000			19.007			-2.715
195401.000			19.007			-2.715
195501.000			19.007			-2.715
195601.000			19.006			-2.715
195700.000			19.005			-2.715
195800.000			19.006			-2.715
195901.000			19.006			-2.715
196000.000			19.006			-2.715
196100.000			19.006			-2.715
196201.000			19.005			-2.715
196301.000			19.006			-2.715
196402.000			19.005			-2.715
196500.000			19.005			-2.715
196600.000			19.005			-2.715
196701.000			19.004			-2.715
196800.000			19.004			-2.715
196900.000			19.004			-2.715
197001.000			19.004			-2.715
197100.000			19.003			-2.715
197201.000			19.002			-2.715
197302.000			19.002			-2.715
197401.000			19.002			-2.715
197500.000			19.003			-2.715
197601.000			19.002			-2.715
197700.000			19.001			-2.714
197800.000			19.001			-2.714
197901.000			19.001			-2.714
198000.000			19.001			-2.714
198100.000			19.001			-2.714
198202.000			19.001			-2.714
198301.000			19.001			-2.714
198400.000			19.001			-2.714
198501.000			19.000			-2.714
198600.000			19.000			-2.714
198700.000			19.001			-2.714
198801.000			18.999			-2.714
198900.000			18.999			-2.714
199000.000			19.000			-2.714
199102.000			18.999			-2.714
199201.000			18.999			-2.714
199301.000			19.000			-2.714
199401.000			18.999			-2.714
199500.000			18.999			-2.714
199600.000			18.999			-2.714
199700.000			18.998			-2.714
199800.000			18.998			-2.714
199901.000			18.998			-2.714
200000.000			18.998			-2.714
200100.000			18.998			-2.714
200202.000			18.997			-2.714
200301.000			18.996			-2.714
200401.000			18.996			-2.714
200501.000			18.996			-2.714
200600.000			18.996			-2.714
200700.000			18.996			-2.714
200801.000			18.996			-2.714
200900.000			18.995			-2.714
201000.000			18.994			-2.713
201101.000			18.993			-2.713
201201.000			18.993			-2.713
201301.000			18.993			-2.713
201402.000			18.994			-2.713
201500.000			18.994			-2.713
201600.000			18.994			-2.713
201701.000			18.994			-2.713
201800.000			18.993			-2.713
201900.000			18.993			-2.713
202001.000			18.995			-2.714
202100.000			18.994			-2.713
202201.000			18.993			-2.713
202302.000			18.994			-2.713
202400.000			18.993			-2.713
202500.000			18.991			-2.713
202601.000			18.991			-2.713
202700.000			18.992			-2.713
202800.000			18.991			-2.713
202900.000			18.992			-2.713
203000.000			18.991			-2.713
203102.000			18.990			-2.713
203201.000			18.990			-2.713
203301.000			18.990			-2.713
203401.000			18.990			-2.713
203500.000			18.989			-2.713
203600.000			18.989			-2.713
203701.000			18.989			-2.713
203800.000			18.989			-2.713
203900.000			18.989			-2.713
204001.000			18.990			-2.713
204101.000			18.989			-2.713
204201.000			18.990			-2.713
204302.000			18.989			-2.713
204400.000			18.988			-2.713
204500.000			18.988			-2.713
204601.000			18.988			-2.713
204700.000			18.988			-2.713
204800.000			18.988			-2.713
204901.000			18.988			-2.713
205000.000			18.987			-2.712
205101.000			18.986			-2.712
205202.000			18.988			-2.713
205301.000			18.987			-2.712
205400.000			18.986			-2.712
205501.000			18.987			-2.712
205600.000			18.987			-2.712
205700.000			18.986			-2.712
205801.000			18.985			-2.712
205900.000			18.984			-2.712
206000.000			18.984			-2.712
206102.000			18.984			-2.712
206201.000			18.984			-2.712
206302.000			18.985			-2.712
206400.000			18.984			-2.712
206500.000			18.984			-2.712
206601.000			18.984			-2.712
206700.000			18.984			-2.712
206800.000			18.984			-2.712
206901.000			18.983			-2.712
207000.000			18.982			-2.712
207101.000			18.982			-2.712
207202.000			18.984			-2.712
207301.000			18.984			-2.712
207400.000			18.983			-2.712
207501.000			18.982			-2.712
207600.000			18.982			-2.712
207700.000			18.982			-2.712
207801.000			18.982			-2.712
207900.000			18.982			-2.712
208000.000			18.982			-2.712
208102.000			18.981			-2.712
208201.000			18.980			-2.711
208300.000			18.980			-2.711
208401.000			18.980			-2.711
208500.000			18.980			-2.711
208600.000			18.981			-2.712
208701.000			18.980			-2.711
208800.000			18.980			-2.711
208900.000			18.980			-2.711
209002.000			18.980			-2.711
209101.000			18.979			-2.711
209202.000			18.979			-2.711
209300.000			18.978			-2.711
209400.000			18.979			-2.711
209501.000			18.979			-2.711
209600.000			18.979			-2.711
209700.000			18.979			-2.711
209801.000			18.977			-2.711
209900.000			18.977			-2.711
210000.000			18.978			-2.711
210102.000			18.977			-2.711
210201.000			18.977			-2.711
210300.000			18.977			-2.711
210401.000			18.976			-2.711
210500.000			18.976			-2.711
210600.000			18.976			-2.711
210701.000			18.975			-2.711
210800.000			18.975			-2.711
210900.000			18.976			-2.711
211002.000			18.976			-2.711
211101.000			18.975			-2.711
211201.000			18.974			-2.711
211301.000			18.975			-2.711
211400.000			18.975			-2.711
211500.000			18.974			-2.711
211601.000			18.974			-2.711
211700.000			18.974			-2.711
211800.000			18.974			-2.711
211901.000			18.974			-2.711
212001.000			18.973			-2.710
212101.000			18.974			-2.711
212201.000			18.973			-2.710
212300.000			18.972			-2.710
212400.000			18.972			-2.710
212500.000			18.973			-2.710
212600.000			18.973			-2.710
212701.000			18.973			-2.710
212800.000			18.972			-2.710
212901.000			18.972			-2.710
213002.000			18.971			-2.710
213101.000			18.970			-2.710
213200.000			18.970			-2.710
213301.000			18.971			-2.710
213400.000			18.971			-2.710
213500.000			18.971			-2.710
213601.000			18.971			-2.710
213700.000			18.970			-2.710
213800.000			18.971			-2.710
213902.000			18.970			-2.710
214001.000			18.969			-2.710
214100.000			18.969			-2.710
214201.000			18.970			-2.710
214300.000			18.968			-2.710
214400.000			18.968			-2.710
214501.000			18.968			-2.710
214600.000			18.969			-2.710
214700.000			18.969			-2.710
214801.000			18.968			-2.710
214901.000			18.968			-2.710
215001.000			18.968			-2.710
215101.000			18.968			-2.710
215200.000			18.966			-2.709
215300.000			18.968			-2.710
215401.000			18.967			-2.710
215500.000			18.966			-2.709
215600.000			18.966			-2.709
215700.000			18.967			-2.710
215800.000			18.966			-2.709
215902.000			18.966			-2.709
216001.000			18.966			-2.709
216100.000			18.966			-2.709
216201.000			18.966			-2.709
216300.000			18.966			-2.709
216400.000			18.966			-2.709
216501.000			18.965			-2.709
216600.000			18.964			-2.709
216700.000			18.964			-2.709
216802.000			18.964			-2.709
216901.000			18.964			-2.709
217001.000			18.964			-2.709
217101.000			18.964			-2.709
217200.000			18.963			-2.709
217300.000			18.964			-2.709
217401.000			18.963			-2.709
217500.000			18.963			-2.709
217600.000			18.962			-2.709
217701.000			18.963			-2.709
217801.000			18.962			-2.709
217901.000			18.962			-2.709
218002.000			18.961			-2.709
218100.000			18.962			-2.709
218200.000			18.962			-2.709
218301.000			18.961			-2.709
218400.000			18.961			-2.709
218500.000			18.961			-2.709
218601.000			18.960			-2.709
218700.000			18.960			-2.709
218802.000			18.961			-2.709
218901.000			18.961			-2.709
219001.000			18.960			-2.709
219101.000			18.959			-2.708
219200.000			18.960			-2.709
219300.000			18.960			-2.709
219401.000			18.961			-2.709
219500.000			18.960			-2.709
219600.000			18.960			-2.709
219701.000			18.959			-2.708
219801.000			18.958			-2.708
219901.000			18.959			-2.708
220002.000			18.960			-2.709
220100.000			18.959			-2.708
220200.000			18.958			-2.708
220301.000			18.957			-2.708
220400.000			18.957			-2.708
220500.000			18.958			-2.708
220601.000			18.958			-2.708
220700.000			18.957			-2.708
220801.000			18.957			-2.708
220902.000			18.957			-2.708
221000.000			18.957			-2.708
221100.000			18.956			-2.708
221201.000			18.956			-2.708
221300.000			18.956			-2.708
221400.000			18.956			-2.708
221501.000			18.956			-2.708
221600.000			18.955			-2.708
221701.000			18.956			-2.708
221802.000			18.954			-2.708
221901.000			18.954			-2.708
222000.000			18.954			-2.708
222100.000			18.954			-2.708
222200.000			18.954			-2.708
222301.000			18.954			-2.708
222400.000			18.953			-2.708
222500.000			18.954			-2.708
222601.000			18.954			-2.708
222701.000			18.954			-2.708
222801.000			18.954			-2.708
222901.000			18.954			-2.708
223000.000			18.952			-2.707
223100.000			18.952			-2.707
223201.000			18.952			-2.707
223300.000			18.952			-2.707
223400.000			18.952			-2.707
223501.000			18.952			-2.707
223601.000			18.951			-2.707
223701.000			18.952			-2.707
223802.000			18.952			-2.707
223900.000			18.951			-2.707
224000.000			18.951			-2.707
224101.000			18.951			-2.707
224200.000			18.950			-2.707
224300.000			18.951			-2.707
224401.000			18.951			-2.707
224500.000			18.949			-2.707
224601.000			18.950			-2.707
224702.000			18.950			-2.707
224800.000			18.950			-2.707
224900.000			18.949			-2.707
225001.000			18.948			-2.707
225100.000			18.948			-2.707
225200.000			18.949			-2.707
225300.000			18.949			-2.707
225400.000			18.949			-2.707
225501.000			18.949			-2.707
225601.000			18.948			-2.707
225701.000			18.947			-2.707
225801.000			18.948			-2.707
225900.000			18.948			-2.707
226000.000			18.948			-2.707
226101.000			18.947			-2.707
226200.000			18.948			-2.707
226300.000			18.947			-2.707
226401.000			18.947			-2.707
226501.000			18.946			-2.707
226601.000			18.946			-2.707
226702.000			18.947			-2.707
226800.000			18.946			-2.707
226900.000			18.946			-2.707
227001.000			18.946			-2.707
227100.000			18.945			-2.706
227200.000			18.944			-2.706
227301.000			18.945			-2.706
227400.000			18.945			-2.706
227501.000			18.944			-2.706
227602.000			18.944			-2.706
227701.000			18.944			-2.706
227800.000			18.944			-2.706
227901.000			18.944			-2.706
228000.000			18.944			-2.706
228100.000			18.943			-2.706
228201.000			18.943			-2.706
228300.000			18.943			-2.706
228400.000			18.943			-2.706
228502.000			18.942			-2.706
228601.000			18.942			-2.706
228702.000			18.942			-2.706
228800.000			18.942			-2.706
228900.000			18.942			-2.706
229001.000			18.942			-2.706
229100.000			18.941			-2.706
229200.000			18.941			-2.706
229301.000			18.941			-2.706
229400.000			18.940			-2.706
229501.000			18.941			-2.706
229602.000			18.942			-2.706
229701.000			18.941			-2.706
229800.000			18.941			-2.706
229901.000			18.940			-2.706
230000.000			18.940			-2.706
230100.000			18.939			-2.706
230201.000			18.940			-2.706
230300.000			18.940			-2.706
230400.000			18.939			-2.706
230502.000			18.938			-2.705
230601.000			18.938			-2.705
230700.000			18.938			-2.705
230801.000			18.938			-2.705
230900.000			18.939			-2.706
231000.000			18.939			-2.706
231101.000			18.938			-2.705
231200.000			18.938			-2.705
231300.000			18.938			-2.705
231402.000			18.938			-2.705
231501.000			18.939			-2.706
231602.000			18.938			-2.705
231700.000			18.938			-2.705
231800.000			18.938			-2.705
231901.000			18.937			-2.705
232000.000			18.937			-2.705
232100.000			18.937			-2.705
232201.000			18.937			-2.705
232300.000			18.937			-2.705
232401.000			18.937			-2.705
232502.000			18.937			-2.705
232601.000			18.937			-2.705
232700.000			18.936			-2.705
232801.000			18.937			-2.705
232900.000			18.936			-2.705
233000.000			18.935			-2.705
233101.000			18.935			-2.705
233200.000			18.936			-2.705
233300.000			18.935			-2.705
233402.000			18.935			-2.705
233501.000			18.935			-2.705
233600.000			18.935			-2.705
233701.000			18.934			-2.705
233800.000			18.934			-2.705
233900.000			18.934			-2.705
234001.000			18.933			-2.705
234100.000			18.934			-2.705
234200.000			18.933			-2.705
234302.000			18.933			-2.705
234401.000			18.933			-2.705
234501.000			18.933			-2.705
234601.000			18.933			-2.705
234700.000			18.933			-2.705
234800.000			18.932			-2.705
234900.000			18.931			-2.704
235000.000			18.932			-2.705
235101.000			18.932			-2.705
235200.000			18.931			-2.704
235301.000			18.932			-2.705
235402.000			18.932			-2.705
235501.000			18.932			-2.705
235600.000			18.930			-2.704
235701.000			18.931			-2.704
235800.000			18.931			-2.704
235900.000			18.930			-2.704
236001.000			18.930			-2.704
236100.000			18.930			-2.704
236200.000			18.930			-2.704
236302.000			18.929			-2.704
236401.000			18.930			-2.704
236500.000			18.930			-2.704
236601.000			18.929			-2.704
236700.000			18.928			-2.704
236800.000			18.928			-2.704
236901.000			18.929			-2.704
237000.000			18.929			-2.704
237100.000			18.928			-2.704
237201.000			18.928			-2.704
237301.000			18.927			-2.704
237401.000			18.927			-2.704
237501.000			18.926			-2.704
237600.000			18.927			-2.704
237700.000			18.927			-2.704
237801.000			18.927			-2.704
237900.000			18.927			-2.704
238000.000			18.927			-2.704
238100.000			18.927			-2.704
238200.000			18.927			-2.704
238302.000			18.927			-2.704
238401.000			18.926			-2.704
238500.000			18.925			-2.704
238601.000			18.925			-2.704
238700.000			18.925			-2.704
238800.000			18.925			-2.704
238901.000			18.925			-2.704
239000.000			18.926			-2.704
239100.000			18.925			-2.704
239202.000			18.924			-2.703
239301.000			18.924			-2.703
239401.000			18.924			-2.703
239501.000			18.924			-2.703
239600.000			18.924			-2.703
239700.000			18.924			-2.703
239801.000			18.925			-2.704
239900.000			18.924			-2.703
240000.000			18.923			-2.703
240101.000			18.923			-2.703
240201.000			18.923			-2.703
240301.000			18.922			-2.703
240401.000			18.922			-2.703
240500.000			18.923			-2.703
240600.000			18.922			-2.703
240701.000			18.922			-2.703
240800.000			18.922			-2.703
240900.000			18.922			-2.703
241001.000			18.922			-2.703
241101.000			18.920			-2.703
241202.000			18.921			-2.703
241301.000			18.922			-2.703
241400.000			18.922			-2.703
241501.000			18.921			-2.703
241600.000			18.921			-2.703
241700.000			18.921			-2.703
241801.000			18.920			-2.703
241900.000			18.920			-2.703
242000.000			18.919			-2.703
242102.000			18.920			-2.703
242201.000			18.920			-2.703
242300.000			18.919			-2.703
242401.000			18.918			-2.703
242500.000			18.918			-2.703
242600.000			18.918			-2.703
242701.000			18.918			-2.703
242800.000			18.919			-2.703
242900.000			18.919			-2.703
243001.000			18.918			-2.703
243101.000			18.918			-2.703
243201.000			18.918			-2.703
243301.000			18.917			-2.702
243400.000			18.917			-2.702
243500.000			18.918			-2.703
243601.000			18.917			-2.702
243700.000			18.917			-2.702
243800.000			18.917			-2.702
243901.000			18.915			-2.702
244001.000			18.916			-2.702
244101.000			18.917			-2.702
244202.000			18.917			-2.702
244300.000			18.916			-2.702
244400.000			18.915			-2.702
244500.000			18.916			-2.702
244600.000			18.916			-2.702
244701.000			18.915			-2.702
244800.000			18.915			-2.702
244900.000			18.915			-2.702
245002.000			18.915			-2.702
245101.000			18.915			-2.702
245201.000			18.915			-2.702
245301.000			18.914			-2.702
245400.000			18.914			-2.702
245500.000			18.914			-2.702
245601.000			18.914			-2.702
245700.000			18.914			-2.702
245800.000			18.915			-2.702
245901.000			18.913			-2.702
246001.000			18.914			-2.702
246101.000			18.913			-2.702
246201.000			18.912			-2.702
246300.000			18.912			-2.702
246400.000			18.913			-2.702
246501.000			18.913			-2.702
246600.000			18.911			-2.702
246700.000			18.911			-2.702
246801.000			18.911			-2.702
246901.000			18.911			-2.702
247001.000			18.912			-2.702
247102.000			18.912			-2.702
247200.000			18.911			-2.702
247300.000			18.910			-2.701
247401.000			18.910			-2.701
247500.000			18.910			-2.701
247600.000			18.911			-2.702
247700.000			18.910			-2.701
247800.000			18.910			-2.701
247902.000			18.910			-2.701
248001.000			18.910			-2.701
248101.000			18.910			-2.701
248201.000			18.909			-2.701
248300.000			18.910			-2.701
248400.000			18.910			-2.701
248501.000			18.910			-2.701
248600.000			18.909			-2.701
248700.000			18.910			-2.701
248801.000			18.910			-2.701
248901.000			18.910			-2.701
249001.000			18.910			-2.701
249102.000			18.908			-2.701
249200.000			18.907			-2.701
249300.000			18.908			-2.701
249401.000			18.907			-2.701
249500.000			18.907			-2.701
249600.000			18.908			-2.701
249701.000			18.908			-2.701
249800.000			18.908			-2.701
249901.000			18.907			-2.701
250002.000			18.907			-2.701
250101.000			18.907			-2.701
250200.000			18.906			-2.701
250301.000			18.906			-2.701
250400.000			18.906			-2.701
250500.000			18.906			-2.701
250601.000			18.906			-2.701
250700.000			18.905			-2.701
250800.000			18.905			-2.701
250902.000			18.905			-2.701
251001.000			18.905			-2.701
251101.000			18.905			-2.701
251200.000			18.905			-2.701
251300.000			18.905			-2.701
251401.000			18.904			-2.701
251500.000			18.904			-2.701
251600.000			18.904			-2.701
251701.000			18.903			-2.700
251801.000			18.904			-2.701
251901.000			18.904			-2.701
252002.000			18.904			-2.701
252100.000			18.903			-2.700
252200.000			18.903			-2.700
252301.000			18.903			-2.700
252400.000			18.902			-2.700
252500.000			18.902			-2.700
252601.000			18.902			-2.700
252700.000			18.901			-2.700
252801.000			18.901			-2.700
252902.000			18.902			-2.700
253000.000			18.902			-2.700
253100.000			18.901			-2.700
253201.000			18.901			-2.700
253300.000			18.901			-2.700
253400.000			18.901			-2.700
253501.000			18.899			-2.700
253600.000			18.900			-2.700
253701.000			18.900			-2.700
253802.000			18.900			-2.700
253901.000			18.900			-2.700
254000.000			18.900			-2.700
254100.000			18.900			-2.700
254200.000			18.900			-2.700
254301.000			18.900			-2.700
254400.000			18.899			-2.700
254500.000			18.898			-2.700
254601.000			18.899			-2.700
254701.000			18.898			-2.700
254801.000			18.898			-2.700
254902.000			18.898			-2.700
255000.000			18.898			-2.700
255100.000			18.899			-2.700
255201.000			18.898			-2.700
255300.000			18.898			-2.700
255400.000			18.898			-2.700
255501.000			18.898			-2.700
255600.000			18.898			-2.700
255700.000			18.898			-2.700
255802.000			18.898			-2.700
255901.000			18.897			-2.700
256000.000			18.896			-2.699
256101.000			18.897			-2.700
256200.000			18.897			-2.700
256300.000			18.897			-2.700
256401.000			18.896			-2.699
256500.000			18.895			-2.699
256600.000			18.896			-2.699
256701.000			18.896			-2.699
256801.000			18.895			-2.699
256901.000			18.895			-2.699
257001.000			18.895			-2.699
257100.000			18.895			-2.699
257200.000			18.895			-2.699
257300.000			18.895			-2.699
257400.000			18.894			-2.699
257501.000			18.895			-2.699
257600.000			18.894			-2.699
257700.000			18.894			-2.699
257802.000			18.894			-2.699
257901.000			18.894			-2.699
258001.000			18.894			-2.699
258101.000			18.893			-2.699
258200.000			18.893			-2.699
258300.000			18.892			-2.699
258401.000			18.891			-2.699
258500.000			18.892			-2.699
258600.000			18.892			-2.699
258701.000			18.892			-2.699
258801.000			18.892			-2.699
258901.000			18.892			-2.699
259002.000			18.891			-2.699
259100.000			18.890			-2.699
259200.000			18.891			-2.699
259301.000			18.890			-2.699
259400.000			18.891			-2.699
259500.000			18.892			-2.699
259601.000			18.891			-2.699
259700.000			18.889			-2.698
259801.000			18.889			-2.698
259902.000			18.890			-2.699
260001.000			18.889			-2.698
260100.000			18.890			-2.699
260201.000			18.890			-2.699
260300.000			18.889			-2.698
260400.000			18.889			-2.698
260500.000			18.889			-2.698
260600.000			18.890			-2.699
260701.000			18.890			-2.699
260801.000			18.889			-2.698
260901.000			18.888			-2.698
261002.000			18.889			-2.698
261100.000			18.889			-2.698
261200.000			18.889			-2.698
261301.000			18.888			-2.698
261400.000			18.888			-2.698
261500.000			18.887			-2.698
261601.000			18.888			-2.698
261700.000			18.888			-2.698
261800.000			18.887			-2.698
261902.000			18.888			-2.698
262001.000			18.887			-2.698
262100.000			18.887			-2.698
262201.000			18.886			-2.698
262300.000			18.886			-2.698
262400.000			18.886			-2.698
262501.000			18.885			-2.698
262600.000			18.886			-2.698
262700.000			18.886			-2.698
262802.000			18.886			-2.698
262901.000			18.886			-2.698
263001.000			18.886			-2.698
263101.000			18.886			-2.698
263200.000			18.885			-2.698
263300.000			18.885			-2.698
263401.000			18.885			-2.698
263500.000			18.885			-2.698
263600.000			18.885			-2.698
263700.000			18.883			-2.698
263800.000			18.884			-2.698
263902.000			18.885			-2.698
264001.000			18.884			-2.698
264100.000			18.885			-2.698
264201.000			18.885			-2.698
264300.000			18.884			-2.698
264400.000			18.883			-2.698
264501.000			18.883			-2.698
264600.000			18.883			-2.698
264700.000			18.883			-2.698
264802.000			18.882			-2.697
264901.000			18.882			-2.697
265001.000			18.882			-2.697
265101.000			18.883			-2.698
265200.000			18.882			-2.697
265300.000			18.881			-2.697
265401.000			18.881			-2.697
265500.000			18.881			-2.697
265600.000			18.882			-2.697
265701.000			18.881			-2.697
265801.000			18.880			-2.697
265901.000			18.881			-2.697
266002.000			18.880			-2.697
266100.000			18.880			-2.697
266200.000			18.881			-2.697
266301.000			18.880			-2.697
266400.000			18.880			-2.697
266500.000			18.880			-2.697
266601.000			18.880			-2.697
266700.000			18.879			-2.697
266802.000			18.880			-2.697
266901.000			18.880			-2.697
267001.000			18.880			-2.697
267101.000			18.880			-2.697
267200.000			18.880			-2.697
267300.000			18.880			-2.697
267401.000			18.879			-2.697
267500.000			18.879			-2.697
267600.000			18.879			-2.697
267701.000			18.880			-2.697
267801.000			18.879			-2.697
267901.000			18.879			-2.697
268002.000			18.878			-2.697
268100.000			18.877			-2.697
268200.000			18.878			-2.697
268301.000			18.877			-2.697
268400.000			18.878			-2.697
268500.000			18.876			-2.697
268601.000			18.877			-2.697
268700.000			18.877			-2.697
268800.000			18.876			-2.697
268902.000			18.876			-2.697
269001.000			18.877			-2.697
269100.000			18.877			-2.697
269201.000			18.877			-2.697
269300.000			18.876			-2.697
269400.000			18.878			-2.697
269501.000			18.877			-2.697
269600.000			18.876			-2.697
269700.000			18.876			-2.697
269801.000			18.876			-2.697
269901.000			18.876			-2.697
270002.000			18.875			-2.696
270100.000			18.874			-2.696
270200.000			18.875			-2.696
270301.000			18.875			-2.696
270400.000			18.874			-2.696
270500.000			18.875			-2.696
270601.000			18.875			-2.696
270700.000			18.874			-2.696
270801.000			18.875			-2.696
270902.000			18.873			-2.696
271001.000			18.872			-2.696
271100.000			18.873			-2.696
271201.000			18.874			-2.696
271300.000			18.873			-2.696
271400.000			18.874			-2.696
271501.000			18.873			-2.696
271600.000			18.873			-2.696
271700.000			18.872			-2.696
271802.000			18.873			-2.696
271901.000			18.873			-2.696
272001.000			18.872			-2.696
272101.000			18.872			-2.696
272200.000			18.871			-2.696
272300.000			18.872			-2.696
272401.000			18.872			-2.696
272500.000			18.870			-2.696
272600.000			18.870			-2.696
272701.000			18.871			-2.696
272801.000			18.871			-2.696
272901.000			18.871			-2.696
273001.000			18.871			-2.696
273100.000			18.870			-2.696
273200.000			18.870			-2.696
273300.000			18.870			-2.696
273400.000			18.871			-2.696
273501.000			18.870			-2.696
273600.000			18.870			-2.696
273700.000			18.870			-2.696
273802.000			18.869			-2.696
273901.000			18.869			-2.696
274000.000			18.869			-2.696
274101.000			18.868			-2.695
274200.000			18.868			-2.695
274300.000			18.869			-2.696
274401.000			18.869			-2.696
274500.000			18.869			-2.696
274600.000			18.868			-2.695
274701.000			18.868			-2.695
274801.000			18.867			-2.695
274901.000			18.867			-2.695
275001.000			18.867			-2.695
275100.000			18.867			-2.695
275200.000			18.867			-2.695
275301.000			18.867			-2.695
275400.000			18.867			-2.695
275500.000			18.867			-2.695
275601.000			18.866			-2.695
275701.000			18.867			-2.695
275801.000			18.867			-2.695
275902.000			18.867			-2.695
276000.000			18.867			-2.695
276100.000			18.866			-2.695
276201.000			18.866			-2.695
276300.000			18.866			-2.695
276400.000			18.867			-2.695
276500.000			18.866			-2.695
276600.000			18.866			-2.695
276701.000			18.865			-2.695
276801.000			18.865			-2.695
276901.000			18.865			-2.695
277001.000			18.865			-2.695
277100.000			18.865			-2.695
277200.000			18.864			-2.695
277301.000			18.864			-2.695
277400.000			18.864			-2.695
277500.000			18.864			-2.695
277601.000			18.864			-2.695
277700.000			18.864			-2.695
277801.000			18.863			-2.695
277902.000			18.863			-2.695
278001.000			18.863			-2.695
278100.000			18.863			-2.695
278201.000			18.862			-2.695
278300.000			18.863			-2.695
278400.000			18.863			-2.695
278501.000			18.862			-2.695
278600.000			18.862			-2.695
278700.000			18.862			-2.695
278801.000			18.861			-2.694
278901.000			18.862			-2.695
279001.000			18.863			-2.695
279101.000			18.862			-2.695
279200.000			18.861			-2.694
279300.000			18.862			-2.695
279401.000			18.860			-2.694
279500.000			18.861			-2.694
279600.000			18.861			-2.694
279700.000			18.860			-2.694
279800.000			18.860			-2.694
279902.000			18.860			-2.694
280001.000			18.861			-2.694
280100.000			18.860			-2.694
280201.000			18.860			-2.694
280300.000			18.861			-2.694
280400.000			18.861			-2.694
280501.000			18.860			-2.694
280600.000			18.860			-2.694
280700.000			18.859			-2.694
280801.000			18.859			-2.694
280901.000			18.859			-2.694
281001.000			18.859			-2.694
281101.000			18.858			-2.694
281200.000			18.858			-2.694
281300.000			18.857			-2.694
281401.000			18.858			-2.694
281500.000			18.859			-2.694
281600.000			18.858			-2.694
281701.000			18.857			-2.694
281801.000			18.858			-2.694
281901.000			18.858			-2.694
282002.000			18.858			-2.694
282100.000			18.858			-2.694
282200.000			18.858			-2.694
282301.000			18.857			-2.694
282400.000			18.856			-2.694
282500.000			18.856			-2.694
282601.000			18.857			-2.694
282700.000			18.857			-2.694
282802.000			18.856			-2.694
282901.000			18.855			-2.694
283001.000			18.856			-2.694
283101.000			18.856			-2.694
283200.000			18.855			-2.694
283300.000			18.856			-2.694
283401.000			18.856			-2.694
283500.000			18.856			-2.694
283600.000			18.855			-2.694
283701.000			18.855			-2.694
283801.000			18.854			-2.693
283901.000			18.854			-2.693
284002.000			18.854			-2.693
284100.000			18.853			-2.693
284200.000			18.853			-2.693
284301.000			18.853			-2.693
284400.000			18.853			-2.693
284500.000			18.854			-2.693
284601.000			18.854			-2.693
284700.000			18.853			-2.693
284801.000			18.853			-2.693
284902.000			18.852			-2.693
285001.000			18.852			-2.693
285100.000			18.853			-2.693
285201.000			18.852			-2.693
285300.000			18.852			-2.693
285400.000			18.852			-2.693
285501.000			18.852			-2.693
285600.000			18.852			-2.693
285700.000			18.852			-2.693
285802.000			18.851			-2.693
285901.000			18.850			-2.693
286000.000			18.851			-2.693
286100.000			18.851			-2.693
286200.000			18.851			-2.693
286301.000			18.852			-2.693
286400.000			18.853			-2.693
286500.000			18.851			-2.693
286601.000			18.850			-2.693
286700.000			18.851			-2.693
286801.000			18.852			-2.693
286902.000			18.850			-2.693
287000.000			18.850			-2.693
287100.000			18.850			-2.693
287201.000			18.850			-2.693
287300.000			18.851			-2.693
287400.000			18.850			-2.693
287501.000			18.850			-2.693
287600.000			18.849			-2.693
287701.000			18.850			-2.693
287802.000			18.850			-2.693
287901.000			18.850			-2.693
288000.000			18.849			-2.693
288101.000			18.848			-2.693
288200.000			18.848			-2.693
288300.000			18.848			-2.693
288401.000			18.849			-2.693
288500.000			18.849			-2.693
288600.000			18.848			-2.693
288701.000			18.847			-2.692
288801.000			18.847			-2.692
288901.000			18.847			-2.692
289001.000			18.847			-2.692
289100.000			18.848			-2.693
289200.000			18.847			-2.692
289300.000			18.847			-2.692
289400.000			18.847			-2.692
289501.000			18.847			-2.692
289600.000			18.847			-2.692
289700.000			18.847			-2.692
289802.000			18.845			-2.692
289901.000			18.846			-2.692
290001.000			18.846			-2.692
290101.000			18.846			-2.692
290200.000			18.846			-2.692
290300.000			18.846			-2.692
290401.000			18.845			-2.692
290500.000			18.845			-2.692
290600.000			18.844			-2.692
290701.000			18.845			-2.692
290801.000			18.845			-2.692
290901.000			18.844			-2.692
291001.000			18.844			-2.692
291100.000			18.844			-2.692
291200.000			18.845			-2.692
291301.000			18.845			-2.692
291400.000			18.845			-2.692
291500.000			18.844			-2.692
291601.000			18.844			-2.692
291701.000			18.844			-2.692
291801.000			18.844			-2.692
291902.000			18.844			-2.692
292000.000			18.844			-2.692
292100.000			18.843			-2.692
292201.000			18.843			-2.692
292300.000			18.842			-2.692
292400.000			18.842			-2.692
292500.000			18.842			-2.692
292600.000			18.842			-2.692
292702.000			18.842			-2.692
292801.000			18.843			-2.692
292901.000			18.841			-2.692
293001.000			18.841			-2.692
293100.000			18.842			-2.692
293200.000			18.842			-2.692
293301.000			18.840			-2.691
293400.000			18.840			-2.691
293500.000			18.842			-2.692
293601.000			18.841			-2.692
293700.000			18.840			-2.691
293801.000			18.841			-2.692
293902.000			18.841			-2.692
294000.000			18.839			-2.691
294100.000			18.840			-2.691
294201.000			18.840			-2.691
294300.000			18.839			-2.691
294400.000			18.839			-2.691
294501.000			18.839			-2.691
294600.000			18.839			-2.691
294700.000			18.839			-2.691
294802.000			18.838			-2.691
294901.000			18.838			-2.691
295000.000			18.838			-2.691
295101.000			18.838			-2.691
295200.000			18.838			-2.691
295300.000			18.839			-2.691
295401.000			18.838			-2.691
295500.000			18.838			-2.691
295600.000			18.839			-2.691
295702.000			18.838			-2.691
295801.000			18.837			-2.691
295902.000			18.837			-2.691
296000.000			18.837			-2.691
296100.000			18.837			-2.691
296201.000			18.838			-2.691
296300.000			18.838			-2.691
296400.000			18.837			-2.691
296501.000			18.837			-2.691
296600.000			18.837			-2.691
296700.000			18.836			-2.691
296802.000			18.836			-2.691
296901.000			18.837			-2.691
297000.000			18.836			-2.691
297101.000			18.836			-2.691
297200.000			18.836			-2.691
297300.000			18.836			-2.691
297401.000			18.835			-2.691
297500.000			18.834			-2.691
297600.000			18.835			-2.691
297701.000			18.835			-2.691
297801.000			18.834			-2.691
297901.000			18.834			-2.691
298001.000			18.835			-2.691
298100.000			18.834			-2.691
298200.000			18.834			-2.691
298301.000			18.832			-2.690
298400.000			18.832			-2.690
298500.000			18.833			-2.690
298601.000			18.834			-2.691
298701.000			18.834			-2.691
298802.000			18.834			-2.691
298901.000			18.835			-2.691
299000.000			18.834			-2.691
299101.000			18.832			-2.690
299200.000			18.832			-2.690
299300.000			18.833			-2.690
299401.000			18.833			-2.690
299500.000			18.833			-2.690
299600.000			18.833			-2.690
299701.000			18.833			-2.690
299801.000			18.832			-2.690
299901.000			18.832			-2.690
