# Acquired on 10/01/2024 17:17:10 
# SPIDER: Creep_-9mm_07714532B-1
# CREEP MEASUREMENT

# time [ms]		force [N]		stiffness [N/mm]
0.000			36.884			-4.098
100.000			40.898			-4.544
200.000			41.233			-4.581
301.000			41.051			-4.561
401.000			40.852			-4.539
501.000			40.694			-4.522
601.000			40.561			-4.507
700.000			40.447			-4.494
800.000			40.259			-4.473
901.000			40.177			-4.464
1000.000			40.103			-4.456
1100.000			40.034			-4.448
1202.000			39.970			-4.441
1301.000			39.911			-4.435
1400.000			39.858			-4.429
1501.000			39.757			-4.417
1600.000			39.711			-4.412
1700.000			39.667			-4.407
1801.000			39.625			-4.403
1901.000			39.587			-4.399
2001.000			39.550			-4.394
2101.000			39.512			-4.390
2200.000			39.478			-4.386
2300.000			39.413			-4.379
2401.000			39.384			-4.376
2500.000			39.355			-4.373
2600.000			39.325			-4.369
2702.000			39.296			-4.366
2801.000			39.270			-4.363
2901.000			39.245			-4.361
3000.000			39.195			-4.355
3100.000			39.171			-4.352
3201.000			39.148			-4.350
3300.000			39.127			-4.347
3400.000			39.105			-4.345
3502.000			39.084			-4.343
3601.000			39.064			-4.340
3700.000			39.024			-4.336
3801.000			39.006			-4.334
3900.000			38.987			-4.332
4000.000			38.968			-4.330
4101.000			38.951			-4.328
4201.000			38.933			-4.326
4301.000			38.916			-4.324
4402.000			38.883			-4.320
4500.000			38.867			-4.319
4600.000			38.850			-4.317
4701.000			38.835			-4.315
4800.000			38.820			-4.313
4900.000			38.805			-4.312
5001.000			38.791			-4.310
5101.000			38.776			-4.308
5201.000			38.749			-4.305
5301.000			38.735			-4.304
5400.000			38.722			-4.302
5500.000			38.709			-4.301
5601.000			38.696			-4.300
5700.000			38.682			-4.298
5802.000			38.670			-4.297
5901.000			38.645			-4.294
6000.000			38.632			-4.292
6101.000			38.621			-4.291
6200.000			38.610			-4.290
6300.000			38.600			-4.289
6401.000			38.588			-4.288
6500.000			38.576			-4.286
6601.000			38.553			-4.284
6702.000			38.543			-4.283
6800.000			38.532			-4.281
6900.000			38.523			-4.280
7001.000			38.512			-4.279
7100.000			38.501			-4.278
7200.000			38.491			-4.277
7301.000			38.481			-4.276
7401.000			38.462			-4.274
7501.000			38.453			-4.273
7601.000			38.443			-4.271
7700.000			38.434			-4.270
7800.000			38.425			-4.269
7901.000			38.416			-4.268
8000.000			38.407			-4.267
8100.000			38.388			-4.265
8202.000			38.380			-4.264
8301.000			38.371			-4.263
8400.000			38.362			-4.262
8501.000			38.355			-4.262
8600.000			38.346			-4.261
8700.000			38.338			-4.260
8801.000			38.322			-4.258
8901.000			38.314			-4.257
9002.000			38.305			-4.256
9101.000			38.297			-4.255
9200.000			38.290			-4.254
9301.000			38.282			-4.254
9400.000			38.274			-4.253
9500.000			38.260			-4.251
9601.000			38.252			-4.250
9701.000			38.244			-4.249
9801.000			38.237			-4.249
9901.000			38.231			-4.248
10000.000			38.224			-4.247
10100.000			38.216			-4.246
10201.000			38.209			-4.245
10300.000			38.195			-4.244
10400.000			38.189			-4.243
10502.000			38.182			-4.242
10601.000			38.175			-4.242
10700.000			38.168			-4.241
10801.000			38.162			-4.240
10900.000			38.156			-4.240
11000.000			38.142			-4.238
11101.000			38.136			-4.237
11200.000			38.131			-4.237
11301.000			38.125			-4.236
11402.000			38.118			-4.235
11500.000			38.111			-4.235
11600.000			38.104			-4.234
11701.000			38.094			-4.233
11800.000			38.088			-4.232
11900.000			38.082			-4.231
12001.000			38.075			-4.231
12101.000			38.069			-4.230
12202.000			38.064			-4.229
12300.000			38.058			-4.229
12400.000			38.047			-4.227
12501.000			38.042			-4.227
12600.000			38.036			-4.226
12700.000			38.030			-4.226
12801.000			38.025			-4.225
12901.000			38.019			-4.224
13001.000			38.014			-4.224
13101.000			38.009			-4.223
13200.000			37.999			-4.222
13300.000			37.993			-4.221
13401.000			37.987			-4.221
13500.000			37.982			-4.220
13600.000			37.977			-4.220
13702.000			37.972			-4.219
13801.000			37.969			-4.219
13900.000			37.958			-4.218
14001.000			37.952			-4.217
14100.000			37.948			-4.216
14200.000			37.943			-4.216
14301.000			37.938			-4.215
14400.000			37.932			-4.215
14501.000			37.929			-4.214
14602.000			37.919			-4.213
14700.000			37.914			-4.213
14800.000			37.909			-4.212
14901.000			37.904			-4.212
15000.000			37.899			-4.211
15100.000			37.895			-4.211
15201.000			37.889			-4.210
15301.000			37.886			-4.210
15402.000			37.876			-4.208
15500.000			37.872			-4.208
15600.000			37.867			-4.207
15701.000			37.863			-4.207
15800.000			37.859			-4.207
15900.000			37.855			-4.206
16001.000			37.851			-4.206
16101.000			37.840			-4.204
16201.000			37.836			-4.204
16302.000			37.833			-4.204
16400.000			37.829			-4.203
16500.000			37.825			-4.203
16601.000			37.821			-4.202
16700.000			37.816			-4.202
16800.000			37.809			-4.201
16901.000			37.805			-4.201
17001.000			37.800			-4.200
17101.000			37.796			-4.200
17201.000			37.793			-4.199
17300.000			37.788			-4.199
17400.000			37.783			-4.198
17501.000			37.776			-4.197
17600.000			37.772			-4.197
17700.000			37.767			-4.196
17802.000			37.764			-4.196
17901.000			37.760			-4.196
18000.000			37.757			-4.195
18101.000			37.753			-4.195
18200.000			37.749			-4.194
18300.000			37.741			-4.193
18401.000			37.738			-4.193
18500.000			37.733			-4.193
18602.000			37.730			-4.192
18701.000			37.725			-4.192
18801.000			37.723			-4.191
18901.000			37.720			-4.191
19000.000			37.712			-4.190
19100.000			37.709			-4.190
19201.000			37.705			-4.189
19300.000			37.702			-4.189
19400.000			37.699			-4.189
19502.000			37.695			-4.188
19601.000			37.691			-4.188
19700.000			37.683			-4.187
19801.000			37.680			-4.187
19900.000			37.677			-4.186
20000.000			37.674			-4.186
20101.000			37.672			-4.186
20200.000			37.668			-4.185
20301.000			37.664			-4.185
20402.000			37.655			-4.184
20500.000			37.652			-4.184
20600.000			37.650			-4.183
20701.000			37.646			-4.183
20800.000			37.643			-4.183
20900.000			37.640			-4.182
21001.000			37.636			-4.182
21101.000			37.632			-4.181
21201.000			37.627			-4.181
21301.000			37.624			-4.180
21400.000			37.620			-4.180
21500.000			37.615			-4.179
21601.000			37.613			-4.179
21700.000			37.611			-4.179
21800.000			37.606			-4.178
21902.000			37.600			-4.178
22001.000			37.598			-4.178
22101.000			37.595			-4.177
22200.000			37.593			-4.177
22300.000			37.589			-4.177
22401.000			37.585			-4.176
22500.000			37.582			-4.176
22600.000			37.577			-4.175
22702.000			37.574			-4.175
22801.000			37.571			-4.175
22900.000			37.568			-4.174
23001.000			37.564			-4.174
23100.000			37.560			-4.173
23200.000			37.557			-4.173
23301.000			37.553			-4.173
23400.000			37.550			-4.172
23501.000			37.547			-4.172
23602.000			37.544			-4.172
23700.000			37.541			-4.171
23800.000			37.538			-4.171
23901.000			37.535			-4.171
24000.000			37.533			-4.170
24100.000			37.528			-4.170
24201.000			37.526			-4.170
24301.000			37.522			-4.169
24401.000			37.518			-4.169
24502.000			37.515			-4.168
24600.000			37.513			-4.168
24700.000			37.510			-4.168
24801.000			37.504			-4.167
24900.000			37.501			-4.167
25000.000			37.498			-4.166
25100.000			37.496			-4.166
25201.000			37.493			-4.166
25302.000			37.490			-4.166
25400.000			37.488			-4.165
25500.000			37.483			-4.165
25601.000			37.480			-4.164
25700.000			37.476			-4.164
25800.000			37.474			-4.164
25901.000			37.472			-4.164
26001.000			37.469			-4.163
26101.000			37.466			-4.163
26201.000			37.463			-4.163
26300.000			37.460			-4.162
26400.000			37.456			-4.162
26501.000			37.453			-4.161
26600.000			37.452			-4.161
26700.000			37.449			-4.161
26802.000			37.446			-4.161
26901.000			37.443			-4.160
27000.000			37.438			-4.160
27101.000			37.436			-4.160
27200.000			37.434			-4.159
27300.000			37.431			-4.159
27401.000			37.428			-4.159
27500.000			37.425			-4.158
27601.000			37.423			-4.158
27702.000			37.418			-4.158
27800.000			37.415			-4.157
27900.000			37.413			-4.157
28001.000			37.412			-4.157
28100.000			37.409			-4.157
28200.000			37.406			-4.156
28300.000			37.404			-4.156
28401.000			37.398			-4.155
28502.000			37.396			-4.155
28600.000			37.395			-4.155
28700.000			37.393			-4.155
28801.000			37.389			-4.154
28900.000			37.387			-4.154
29000.000			37.385			-4.154
29101.000			37.383			-4.154
29200.000			37.379			-4.153
29301.000			37.376			-4.153
29402.000			37.373			-4.153
29500.000			37.371			-4.152
29600.000			37.368			-4.152
29701.000			37.367			-4.152
29800.000			37.365			-4.152
29900.000			37.360			-4.151
30001.000			37.358			-4.151
30101.000			37.355			-4.151
30201.000			37.352			-4.150
30301.000			37.351			-4.150
30400.000			37.349			-4.150
30500.000			37.346			-4.150
30601.000			37.342			-4.149
30700.000			37.340			-4.149
30800.000			37.337			-4.149
30902.000			37.336			-4.148
31001.000			37.333			-4.148
31100.000			37.331			-4.148
31201.000			37.329			-4.148
31300.000			37.324			-4.147
31400.000			37.321			-4.147
31500.000			37.320			-4.147
31600.000			37.318			-4.146
31702.000			37.315			-4.146
31801.000			37.314			-4.146
31900.000			37.312			-4.146
32001.000			37.309			-4.145
32100.000			37.305			-4.145
32200.000			37.303			-4.145
32301.000			37.300			-4.144
32401.000			37.298			-4.144
32501.000			37.297			-4.144
32601.000			37.294			-4.144
32700.000			37.292			-4.144
32800.000			37.288			-4.143
32901.000			37.286			-4.143
33000.000			37.285			-4.143
33100.000			37.283			-4.143
33202.000			37.280			-4.142
33301.000			37.279			-4.142
33401.000			37.276			-4.142
33501.000			37.272			-4.141
33600.000			37.270			-4.141
33700.000			37.269			-4.141
33801.000			37.267			-4.141
33900.000			37.265			-4.141
34000.000			37.263			-4.140
34102.000			37.261			-4.140
34201.000			37.259			-4.140
34300.000			37.255			-4.139
34401.000			37.253			-4.139
34500.000			37.250			-4.139
34600.000			37.248			-4.139
34700.000			37.246			-4.138
34800.000			37.244			-4.138
34902.000			37.242			-4.138
35001.000			37.239			-4.138
35100.000			37.237			-4.137
35201.000			37.235			-4.137
35300.000			37.232			-4.137
35400.000			37.230			-4.137
35501.000			37.229			-4.137
35600.000			37.227			-4.136
35701.000			37.221			-4.136
35802.000			37.220			-4.136
35900.000			37.220			-4.136
36000.000			37.218			-4.135
36101.000			37.217			-4.135
36200.000			37.215			-4.135
36300.000			37.212			-4.135
36401.000			37.208			-4.134
36501.000			37.207			-4.134
36601.000			37.205			-4.134
36701.000			37.203			-4.134
36800.000			37.200			-4.133
36900.000			37.199			-4.133
37001.000			37.198			-4.133
37100.000			37.196			-4.133
37200.000			37.192			-4.132
37302.000			37.192			-4.132
37401.000			37.190			-4.132
37500.000			37.187			-4.132
37601.000			37.185			-4.132
37700.000			37.182			-4.131
37800.000			37.181			-4.131
37900.000			37.178			-4.131
38000.000			37.177			-4.131
38102.000			37.175			-4.131
38201.000			37.173			-4.130
38300.000			37.171			-4.130
38401.000			37.169			-4.130
38500.000			37.168			-4.130
38600.000			37.164			-4.129
38701.000			37.162			-4.129
38800.000			37.162			-4.129
38901.000			37.160			-4.129
39002.000			37.158			-4.129
39100.000			37.156			-4.128
39200.000			37.154			-4.128
39301.000			37.151			-4.128
39400.000			37.149			-4.128
39500.000			37.147			-4.127
39601.000			37.146			-4.127
39701.000			37.143			-4.127
39801.000			37.141			-4.127
39901.000			37.139			-4.127
40000.000			37.138			-4.126
40100.000			37.135			-4.126
40201.000			37.134			-4.126
40300.000			37.132			-4.126
40400.000			37.130			-4.126
40502.000			37.128			-4.125
40601.000			37.127			-4.125
40700.000			37.125			-4.125
40801.000			37.121			-4.125
40900.000			37.120			-4.124
41000.000			37.119			-4.124
41100.000			37.116			-4.124
41200.000			37.115			-4.124
41302.000			37.114			-4.124
41401.000			37.112			-4.124
41500.000			37.108			-4.123
41601.000			37.107			-4.123
41700.000			37.106			-4.123
41800.000			37.104			-4.123
41901.000			37.102			-4.122
42001.000			37.101			-4.122
42101.000			37.099			-4.122
42201.000			37.095			-4.122
42300.000			37.094			-4.122
42400.000			37.093			-4.121
42501.000			37.092			-4.121
42600.000			37.089			-4.121
42700.000			37.086			-4.121
42802.000			37.086			-4.121
42901.000			37.085			-4.121
43000.000			37.082			-4.120
43101.000			37.079			-4.120
43200.000			37.077			-4.120
43300.000			37.076			-4.120
43401.000			37.074			-4.119
43500.000			37.072			-4.119
43601.000			37.072			-4.119
43702.000			37.068			-4.119
43800.000			37.067			-4.119
43900.000			37.066			-4.118
44001.000			37.064			-4.118
44100.000			37.062			-4.118
44200.000			37.061			-4.118
44300.000			37.059			-4.118
44401.000			37.057			-4.117
44502.000			37.056			-4.117
44600.000			37.054			-4.117
44700.000			37.051			-4.117
44801.000			37.050			-4.117
44900.000			37.047			-4.116
45000.000			37.046			-4.116
45101.000			37.043			-4.116
45201.000			37.043			-4.116
45301.000			37.042			-4.116
45401.000			37.040			-4.116
45500.000			37.038			-4.115
45600.000			37.037			-4.115
45701.000			37.036			-4.115
45800.000			37.034			-4.115
45900.000			37.030			-4.114
46002.000			37.029			-4.114
46101.000			37.028			-4.114
46200.000			37.027			-4.114
46301.000			37.026			-4.114
46400.000			37.024			-4.114
46500.000			37.022			-4.114
46601.000			37.019			-4.113
46700.000			37.017			-4.113
46801.000			37.016			-4.113
46902.000			37.014			-4.113
47000.000			37.012			-4.112
47100.000			37.012			-4.112
47201.000			37.010			-4.112
47300.000			37.008			-4.112
47400.000			37.006			-4.112
47500.000			37.005			-4.112
47601.000			37.003			-4.111
47702.000			37.002			-4.111
47800.000			37.000			-4.111
47900.000			36.998			-4.111
48001.000			36.996			-4.111
48100.000			36.994			-4.110
48200.000			36.993			-4.110
48301.000			36.992			-4.110
48401.000			36.992			-4.110
48501.000			36.990			-4.110
48601.000			36.988			-4.110
48700.000			36.986			-4.110
48800.000			36.984			-4.109
48901.000			36.983			-4.109
49000.000			36.981			-4.109
49100.000			36.980			-4.109
49202.000			36.978			-4.109
49301.000			36.977			-4.109
49401.000			36.977			-4.109
49501.000			36.973			-4.108
49600.000			36.970			-4.108
49700.000			36.969			-4.108
49801.000			36.968			-4.108
49900.000			36.967			-4.107
50000.000			36.967			-4.107
50102.000			36.966			-4.107
50201.000			36.962			-4.107
50300.000			36.960			-4.107
50401.000			36.959			-4.107
50500.000			36.958			-4.106
50600.000			36.956			-4.106
50700.000			36.955			-4.106
50800.000			36.953			-4.106
50902.000			36.952			-4.106
51001.000			36.951			-4.106
51100.000			36.949			-4.105
51201.000			36.948			-4.105
51300.000			36.946			-4.105
51400.000			36.944			-4.105
51501.000			36.944			-4.105
51600.000			36.943			-4.105
51701.000			36.940			-4.104
51802.000			36.939			-4.104
51900.000			36.937			-4.104
52000.000			36.936			-4.104
52101.000			36.935			-4.104
52200.000			36.935			-4.104
52300.000			36.933			-4.104
52401.000			36.929			-4.103
52501.000			36.928			-4.103
52601.000			36.927			-4.103
52701.000			36.925			-4.103
52800.000			36.924			-4.103
52900.000			36.923			-4.103
53001.000			36.923			-4.103
53100.000			36.918			-4.102
53200.000			36.918			-4.102
53301.000			36.918			-4.102
53401.000			36.916			-4.102
53501.000			36.914			-4.102
53601.000			36.913			-4.101
53700.000			36.911			-4.101
53800.000			36.910			-4.101
53900.000			36.908			-4.101
54000.000			36.906			-4.101
54101.000			36.905			-4.101
54201.000			36.903			-4.100
54301.000			36.902			-4.100
54401.000			36.902			-4.100
54500.000			36.900			-4.100
54600.000			36.899			-4.100
54701.000			36.898			-4.100
54800.000			36.896			-4.100
54900.000			36.895			-4.099
55002.000			36.893			-4.099
55101.000			36.892			-4.099
55200.000			36.891			-4.099
55301.000			36.889			-4.099
55400.000			36.887			-4.099
55500.000			36.886			-4.098
55601.000			36.886			-4.098
55700.000			36.884			-4.098
55801.000			36.882			-4.098
55902.000			36.881			-4.098
56001.000			36.879			-4.098
56100.000			36.878			-4.098
56201.000			36.876			-4.097
56300.000			36.874			-4.097
56400.000			36.874			-4.097
56501.000			36.873			-4.097
56600.000			36.872			-4.097
56701.000			36.870			-4.097
56802.000			36.868			-4.096
56900.000			36.867			-4.096
57000.000			36.866			-4.096
57100.000			36.865			-4.096
57200.000			36.864			-4.096
57301.000			36.862			-4.096
57400.000			36.860			-4.096
57501.000			36.858			-4.095
57602.000			36.858			-4.095
57700.000			36.857			-4.095
57800.000			36.855			-4.095
57901.000			36.854			-4.095
58000.000			36.852			-4.095
58100.000			36.851			-4.095
58201.000			36.850			-4.094
58301.000			36.849			-4.094
58401.000			36.847			-4.094
58502.000			36.845			-4.094
58600.000			36.845			-4.094
58700.000			36.844			-4.094
58801.000			36.843			-4.094
58900.000			36.841			-4.093
59000.000			36.839			-4.093
59101.000			36.838			-4.093
59201.000			36.836			-4.093
59301.000			36.835			-4.093
59401.000			36.834			-4.093
59500.000			36.834			-4.093
59600.000			36.833			-4.093
59701.000			36.830			-4.092
59800.000			36.829			-4.092
59900.000			36.827			-4.092
60002.000			36.826			-4.092
60101.000			36.826			-4.092
60200.000			36.825			-4.092
60300.000			36.824			-4.092
60400.000			36.821			-4.091
60501.000			36.821			-4.091
60600.000			36.820			-4.091
60700.000			36.818			-4.091
60802.000			36.817			-4.091
60901.000			36.815			-4.091
61001.000			36.815			-4.091
61101.000			36.812			-4.090
61200.000			36.812			-4.090
61300.000			36.811			-4.090
61401.000			36.809			-4.090
61500.000			36.808			-4.090
61601.000			36.807			-4.090
61702.000			36.805			-4.089
61801.000			36.804			-4.089
61900.000			36.803			-4.089
62001.000			36.802			-4.089
62100.000			36.800			-4.089
62200.000			36.799			-4.089
62301.000			36.798			-4.089
62401.000			36.798			-4.089
62501.000			36.797			-4.089
62602.000			36.795			-4.088
62700.000			36.794			-4.088
62800.000			36.792			-4.088
62901.000			36.790			-4.088
63000.000			36.789			-4.088
63100.000			36.788			-4.088
63201.000			36.787			-4.087
63301.000			36.785			-4.087
63402.000			36.784			-4.087
63500.000			36.783			-4.087
63600.000			36.783			-4.087
63701.000			36.782			-4.087
63800.000			36.781			-4.087
63900.000			36.778			-4.086
64001.000			36.776			-4.086
64101.000			36.776			-4.086
64201.000			36.776			-4.086
64301.000			36.775			-4.086
64400.000			36.773			-4.086
64500.000			36.772			-4.086
64601.000			36.771			-4.086
64700.000			36.770			-4.086
64800.000			36.767			-4.085
64902.000			36.766			-4.085
65001.000			36.766			-4.085
65101.000			36.765			-4.085
65201.000			36.764			-4.085
65300.000			36.763			-4.085
65400.000			36.762			-4.085
65501.000			36.760			-4.084
65600.000			36.759			-4.084
65700.000			36.757			-4.084
65802.000			36.756			-4.084
65901.000			36.756			-4.084
66000.000			36.754			-4.084
66101.000			36.754			-4.084
66200.000			36.751			-4.083
66300.000			36.750			-4.083
66401.000			36.750			-4.083
66500.000			36.749			-4.083
66602.000			36.748			-4.083
66701.000			36.746			-4.083
66800.000			36.744			-4.083
66901.000			36.743			-4.083
67000.000			36.742			-4.082
67100.000			36.742			-4.082
67201.000			36.742			-4.082
67300.000			36.740			-4.082
67400.000			36.739			-4.082
67502.000			36.737			-4.082
67601.000			36.737			-4.082
67700.000			36.735			-4.082
67801.000			36.733			-4.081
67900.000			36.733			-4.081
68000.000			36.732			-4.081
68101.000			36.730			-4.081
68200.000			36.729			-4.081
68301.000			36.729			-4.081
68402.000			36.727			-4.081
68500.000			36.726			-4.081
68600.000			36.725			-4.081
68701.000			36.725			-4.081
68800.000			36.724			-4.080
68900.000			36.721			-4.080
69001.000			36.720			-4.080
69101.000			36.719			-4.080
69201.000			36.718			-4.080
69302.000			36.717			-4.080
69400.000			36.715			-4.079
69500.000			36.715			-4.079
69601.000			36.714			-4.079
69700.000			36.712			-4.079
69800.000			36.712			-4.079
69900.000			36.711			-4.079
70001.000			36.710			-4.079
70102.000			36.709			-4.079
70200.000			36.708			-4.079
70300.000			36.707			-4.079
70401.000			36.706			-4.078
70500.000			36.705			-4.078
70600.000			36.703			-4.078
70701.000			36.703			-4.078
70801.000			36.701			-4.078
70901.000			36.699			-4.078
71001.000			36.699			-4.078
71100.000			36.698			-4.078
71200.000			36.697			-4.077
71301.000			36.696			-4.077
71400.000			36.694			-4.077
71500.000			36.693			-4.077
71602.000			36.693			-4.077
71701.000			36.691			-4.077
71800.000			36.691			-4.077
71901.000			36.690			-4.077
72000.000			36.688			-4.076
72100.000			36.687			-4.076
72201.000			36.686			-4.076
72300.000			36.685			-4.076
72400.000			36.683			-4.076
72502.000			36.683			-4.076
72601.000			36.684			-4.076
72700.000			36.680			-4.076
72801.000			36.679			-4.075
72900.000			36.680			-4.076
73000.000			36.679			-4.075
73100.000			36.677			-4.075
73200.000			36.675			-4.075
73302.000			36.675			-4.075
73401.000			36.674			-4.075
73500.000			36.673			-4.075
73601.000			36.671			-4.075
73700.000			36.670			-4.074
73800.000			36.670			-4.074
73901.000			36.668			-4.074
74000.000			36.667			-4.074
74100.000			36.666			-4.074
74202.000			36.665			-4.074
74301.000			36.664			-4.074
74400.000			36.662			-4.074
74501.000			36.662			-4.074
74600.000			36.660			-4.073
74700.000			36.659			-4.073
74801.000			36.660			-4.073
74900.000			36.657			-4.073
75001.000			36.657			-4.073
75102.000			36.657			-4.073
75200.000			36.655			-4.073
75300.000			36.654			-4.073
75401.000			36.653			-4.073
75500.000			36.652			-4.072
75600.000			36.651			-4.072
75701.000			36.650			-4.072
75801.000			36.649			-4.072
75901.000			36.648			-4.072
76002.000			36.648			-4.072
76100.000			36.648			-4.072
76200.000			36.646			-4.072
76300.000			36.644			-4.072
76400.000			36.643			-4.071
76501.000			36.641			-4.071
76600.000			36.640			-4.071
76701.000			36.640			-4.071
76802.000			36.639			-4.071
76900.000			36.639			-4.071
77000.000			36.637			-4.071
77101.000			36.635			-4.071
77200.000			36.634			-4.070
77300.000			36.634			-4.070
77401.000			36.633			-4.070
77501.000			36.631			-4.070
77601.000			36.631			-4.070
77701.000			36.631			-4.070
77800.000			36.628			-4.070
77900.000			36.627			-4.070
78001.000			36.626			-4.070
78100.000			36.626			-4.070
78200.000			36.625			-4.069
78302.000			36.624			-4.069
78401.000			36.623			-4.069
78500.000			36.622			-4.069
78601.000			36.621			-4.069
78700.000			36.620			-4.069
78800.000			36.619			-4.069
78901.000			36.618			-4.069
79000.000			36.617			-4.069
79100.000			36.615			-4.068
79202.000			36.615			-4.068
79301.000			36.615			-4.068
79400.000			36.614			-4.068
79500.000			36.612			-4.068
79600.000			36.610			-4.068
79701.000			36.610			-4.068
79800.000			36.610			-4.068
79900.000			36.609			-4.068
80002.000			36.606			-4.067
80101.000			36.605			-4.067
80200.000			36.604			-4.067
80301.000			36.604			-4.067
80400.000			36.604			-4.067
80500.000			36.603			-4.067
80601.000			36.601			-4.067
80700.000			36.601			-4.067
80801.000			36.600			-4.067
80902.000			36.599			-4.067
81000.000			36.599			-4.067
81100.000			36.598			-4.066
81201.000			36.595			-4.066
81300.000			36.595			-4.066
81400.000			36.595			-4.066
81501.000			36.594			-4.066
81601.000			36.592			-4.066
81701.000			36.590			-4.066
81802.000			36.591			-4.066
81900.000			36.590			-4.066
82000.000			36.588			-4.065
82101.000			36.588			-4.065
82200.000			36.587			-4.065
82300.000			36.586			-4.065
82401.000			36.585			-4.065
82501.000			36.585			-4.065
82602.000			36.584			-4.065
82700.000			36.584			-4.065
82800.000			36.582			-4.065
82901.000			36.580			-4.064
83000.000			36.580			-4.064
83100.000			36.579			-4.064
83201.000			36.578			-4.064
83301.000			36.577			-4.064
83401.000			36.576			-4.064
83501.000			36.575			-4.064
83600.000			36.573			-4.064
83700.000			36.572			-4.064
83801.000			36.572			-4.064
83900.000			36.571			-4.063
84000.000			36.570			-4.063
84101.000			36.570			-4.063
84201.000			36.569			-4.063
84301.000			36.568			-4.063
84401.000			36.566			-4.063
84500.000			36.566			-4.063
84600.000			36.565			-4.063
84701.000			36.564			-4.063
84800.000			36.563			-4.063
84900.000			36.562			-4.062
85002.000			36.562			-4.062
85101.000			36.561			-4.062
85200.000			36.560			-4.062
85301.000			36.560			-4.062
85400.000			36.558			-4.062
85500.000			36.557			-4.062
85601.000			36.557			-4.062
85700.000			36.557			-4.062
85800.000			36.555			-4.062
85902.000			36.554			-4.062
86001.000			36.553			-4.061
86101.000			36.552			-4.061
86200.000			36.551			-4.061
86300.000			36.550			-4.061
86401.000			36.550			-4.061
86500.000			36.549			-4.061
86600.000			36.548			-4.061
86702.000			36.546			-4.061
86801.000			36.546			-4.061
86900.000			36.545			-4.061
87001.000			36.544			-4.060
87100.000			36.543			-4.060
87200.000			36.543			-4.060
87301.000			36.541			-4.060
87400.000			36.541			-4.060
87501.000			36.540			-4.060
87602.000			36.539			-4.060
87701.000			36.539			-4.060
87800.000			36.538			-4.060
87901.000			36.538			-4.060
88000.000			36.536			-4.060
88100.000			36.535			-4.059
88201.000			36.534			-4.059
88300.000			36.534			-4.059
88401.000			36.533			-4.059
88502.000			36.532			-4.059
88600.000			36.531			-4.059
88700.000			36.529			-4.059
88801.000			36.529			-4.059
88900.000			36.528			-4.059
89000.000			36.527			-4.059
89100.000			36.525			-4.058
89200.000			36.525			-4.058
89302.000			36.524			-4.058
89401.000			36.523			-4.058
89500.000			36.522			-4.058
89601.000			36.522			-4.058
89700.000			36.521			-4.058
89800.000			36.521			-4.058
89901.000			36.521			-4.058
90000.000			36.519			-4.058
90101.000			36.519			-4.058
90202.000			36.518			-4.058
90300.000			36.517			-4.057
90400.000			36.516			-4.057
90501.000			36.515			-4.057
90600.000			36.514			-4.057
90700.000			36.513			-4.057
90801.000			36.513			-4.057
90901.000			36.511			-4.057
91001.000			36.511			-4.057
91101.000			36.510			-4.057
91200.000			36.510			-4.057
91300.000			36.509			-4.057
91401.000			36.506			-4.056
91500.000			36.506			-4.056
91600.000			36.506			-4.056
91702.000			36.505			-4.056
91801.000			36.503			-4.056
91900.000			36.503			-4.056
92001.000			36.503			-4.056
92100.000			36.501			-4.056
92200.000			36.501			-4.056
92300.000			36.500			-4.056
92400.000			36.500			-4.056
92502.000			36.498			-4.055
92601.000			36.498			-4.055
92701.000			36.496			-4.055
92801.000			36.495			-4.055
92900.000			36.495			-4.055
93000.000			36.495			-4.055
93101.000			36.493			-4.055
93200.000			36.492			-4.055
93300.000			36.492			-4.055
93402.000			36.490			-4.054
93501.000			36.490			-4.054
93600.000			36.490			-4.054
93701.000			36.489			-4.054
93800.000			36.488			-4.054
93900.000			36.487			-4.054
94001.000			36.486			-4.054
94100.000			36.485			-4.054
94200.000			36.485			-4.054
94302.000			36.484			-4.054
94401.000			36.483			-4.054
94500.000			36.482			-4.054
94601.000			36.482			-4.054
94700.000			36.481			-4.053
94800.000			36.480			-4.053
94901.000			36.478			-4.053
95000.000			36.479			-4.053
95101.000			36.479			-4.053
95202.000			36.478			-4.053
95300.000			36.476			-4.053
95400.000			36.476			-4.053
95500.000			36.475			-4.053
95600.000			36.474			-4.053
95701.000			36.473			-4.053
95800.000			36.471			-4.052
95900.000			36.471			-4.052
96002.000			36.470			-4.052
96101.000			36.470			-4.052
96200.000			36.470			-4.052
96301.000			36.470			-4.052
96400.000			36.468			-4.052
96500.000			36.467			-4.052
96601.000			36.466			-4.052
96700.000			36.465			-4.052
96801.000			36.465			-4.052
96902.000			36.464			-4.052
97001.000			36.462			-4.051
97100.000			36.461			-4.051
97201.000			36.462			-4.051
97300.000			36.460			-4.051
97400.000			36.458			-4.051
97501.000			36.458			-4.051
97600.000			36.458			-4.051
97701.000			36.457			-4.051
97802.000			36.456			-4.051
97900.000			36.455			-4.051
98000.000			36.454			-4.050
98101.000			36.454			-4.050
98200.000			36.453			-4.050
98300.000			36.451			-4.050
98401.000			36.451			-4.050
98501.000			36.450			-4.050
98602.000			36.450			-4.050
98701.000			36.450			-4.050
98800.000			36.449			-4.050
98901.000			36.447			-4.050
99000.000			36.448			-4.050
99100.000			36.447			-4.050
99201.000			36.445			-4.049
99300.000			36.444			-4.049
99401.000			36.444			-4.049
99502.000			36.443			-4.049
99600.000			36.441			-4.049
99700.000			36.441			-4.049
99801.000			36.441			-4.049
99900.000			36.440			-4.049
100000.000			36.440			-4.049
100101.000			36.438			-4.049
100201.000			36.438			-4.049
100301.000			36.437			-4.049
100401.000			36.437			-4.049
100500.000			36.436			-4.048
100600.000			36.436			-4.048
100701.000			36.435			-4.048
100800.000			36.433			-4.048
100900.000			36.433			-4.048
101001.000			36.432			-4.048
101101.000			36.430			-4.048
101201.000			36.430			-4.048
101301.000			36.430			-4.048
101400.000			36.429			-4.048
101500.000			36.428			-4.048
101601.000			36.427			-4.047
101700.000			36.427			-4.047
101800.000			36.425			-4.047
101902.000			36.424			-4.047
102001.000			36.425			-4.047
102101.000			36.424			-4.047
102200.000			36.423			-4.047
102300.000			36.422			-4.047
102401.000			36.422			-4.047
102500.000			36.420			-4.047
102600.000			36.419			-4.047
102702.000			36.418			-4.046
102801.000			36.418			-4.046
102901.000			36.417			-4.046
103001.000			36.417			-4.046
103100.000			36.416			-4.046
103200.000			36.414			-4.046
103301.000			36.413			-4.046
103400.000			36.412			-4.046
103500.000			36.412			-4.046
103602.000			36.412			-4.046
103701.000			36.412			-4.046
103800.000			36.411			-4.046
103901.000			36.410			-4.046
104000.000			36.409			-4.045
104100.000			36.408			-4.045
104201.000			36.408			-4.045
104300.000			36.408			-4.045
104401.000			36.407			-4.045
104502.000			36.406			-4.045
104600.000			36.404			-4.045
104700.000			36.405			-4.045
104801.000			36.404			-4.045
104900.000			36.404			-4.045
105000.000			36.403			-4.045
105100.000			36.403			-4.045
105201.000			36.402			-4.045
105302.000			36.402			-4.045
105401.000			36.400			-4.044
105500.000			36.398			-4.044
105601.000			36.398			-4.044
105700.000			36.397			-4.044
105800.000			36.397			-4.044
105901.000			36.397			-4.044
106000.000			36.395			-4.044
106101.000			36.396			-4.044
106202.000			36.394			-4.044
106300.000			36.393			-4.044
106400.000			36.393			-4.044
106501.000			36.392			-4.044
106600.000			36.392			-4.044
106700.000			36.392			-4.044
106801.000			36.391			-4.043
106901.000			36.389			-4.043
107001.000			36.389			-4.043
107102.000			36.388			-4.043
107200.000			36.387			-4.043
107300.000			36.386			-4.043
107401.000			36.386			-4.043
107500.000			36.386			-4.043
107600.000			36.384			-4.043
107701.000			36.384			-4.043
107801.000			36.383			-4.043
107901.000			36.383			-4.043
108002.000			36.382			-4.042
108100.000			36.381			-4.042
108200.000			36.380			-4.042
108300.000			36.380			-4.042
108400.000			36.378			-4.042
108501.000			36.378			-4.042
108600.000			36.378			-4.042
108701.000			36.377			-4.042
108802.000			36.377			-4.042
108901.000			36.375			-4.042
109000.000			36.376			-4.042
109101.000			36.374			-4.042
109200.000			36.374			-4.042
109300.000			36.373			-4.041
109401.000			36.372			-4.041
109500.000			36.372			-4.041
109601.000			36.372			-4.041
109702.000			36.371			-4.041
109800.000			36.369			-4.041
109900.000			36.368			-4.041
110001.000			36.367			-4.041
110100.000			36.366			-4.041
110200.000			36.367			-4.041
110301.000			36.367			-4.041
110401.000			36.366			-4.041
110501.000			36.365			-4.041
110602.000			36.365			-4.041
110700.000			36.363			-4.040
110800.000			36.362			-4.040
110901.000			36.361			-4.040
111000.000			36.361			-4.040
111100.000			36.361			-4.040
111201.000			36.361			-4.040
111301.000			36.360			-4.040
111402.000			36.359			-4.040
111500.000			36.358			-4.040
111600.000			36.358			-4.040
111701.000			36.358			-4.040
111800.000			36.356			-4.040
111900.000			36.356			-4.040
112001.000			36.354			-4.039
112101.000			36.353			-4.039
112201.000			36.353			-4.039
112302.000			36.353			-4.039
112400.000			36.352			-4.039
112500.000			36.352			-4.039
112601.000			36.352			-4.039
112700.000			36.350			-4.039
112800.000			36.349			-4.039
112901.000			36.349			-4.039
113001.000			36.348			-4.039
113101.000			36.347			-4.039
113201.000			36.348			-4.039
113300.000			36.346			-4.038
113400.000			36.346			-4.038
113501.000			36.343			-4.038
113600.000			36.342			-4.038
113700.000			36.343			-4.038
113802.000			36.342			-4.038
113901.000			36.341			-4.038
114000.000			36.341			-4.038
114101.000			36.340			-4.038
114200.000			36.339			-4.038
114300.000			36.338			-4.038
114401.000			36.338			-4.038
114500.000			36.337			-4.037
114602.000			36.336			-4.037
114701.000			36.335			-4.037
114801.000			36.334			-4.037
114901.000			36.333			-4.037
115000.000			36.333			-4.037
115100.000			36.333			-4.037
115201.000			36.332			-4.037
115300.000			36.331			-4.037
115400.000			36.330			-4.037
115502.000			36.330			-4.037
115601.000			36.329			-4.037
115700.000			36.329			-4.037
115801.000			36.328			-4.036
115900.000			36.328			-4.036
116000.000			36.327			-4.036
116101.000			36.326			-4.036
116200.000			36.325			-4.036
116301.000			36.325			-4.036
116402.000			36.324			-4.036
116501.000			36.324			-4.036
116600.000			36.323			-4.036
116701.000			36.322			-4.036
116800.000			36.321			-4.036
116900.000			36.321			-4.036
117001.000			36.320			-4.036
117100.000			36.320			-4.036
117201.000			36.320			-4.036
117302.000			36.318			-4.035
117400.000			36.317			-4.035
117500.000			36.317			-4.035
117601.000			36.315			-4.035
117700.000			36.316			-4.035
117800.000			36.315			-4.035
117900.000			36.315			-4.035
118001.000			36.314			-4.035
118102.000			36.314			-4.035
118201.000			36.314			-4.035
118300.000			36.313			-4.035
118401.000			36.313			-4.035
118500.000			36.312			-4.035
118600.000			36.311			-4.035
118701.000			36.312			-4.035
118800.000			36.311			-4.035
118901.000			36.309			-4.034
119002.000			36.310			-4.034
119100.000			36.309			-4.034
119200.000			36.307			-4.034
119301.000			36.308			-4.034
119400.000			36.308			-4.034
119500.000			36.306			-4.034
119601.000			36.306			-4.034
119701.000			36.306			-4.034
119801.000			36.304			-4.034
119902.000			36.303			-4.034
120000.000			36.302			-4.034
120100.000			36.303			-4.034
120201.000			36.303			-4.034
120300.000			36.302			-4.034
120400.000			36.302			-4.034
120501.000			36.301			-4.033
120601.000			36.300			-4.033
120701.000			36.299			-4.033
120801.000			36.299			-4.033
120900.000			36.299			-4.033
121000.000			36.298			-4.033
121100.000			36.297			-4.033
121200.000			36.297			-4.033
121301.000			36.296			-4.033
121401.000			36.295			-4.033
121501.000			36.294			-4.033
121601.000			36.293			-4.033
121700.000			36.292			-4.032
121800.000			36.292			-4.032
121901.000			36.293			-4.033
122000.000			36.293			-4.033
122100.000			36.292			-4.032
122201.000			36.290			-4.032
122301.000			36.289			-4.032
122401.000			36.290			-4.032
122501.000			36.289			-4.032
122600.000			36.288			-4.032
122700.000			36.288			-4.032
122801.000			36.288			-4.032
122900.000			36.286			-4.032
123000.000			36.285			-4.032
123102.000			36.285			-4.032
123201.000			36.285			-4.032
123301.000			36.283			-4.031
123401.000			36.284			-4.032
123500.000			36.284			-4.032
123600.000			36.281			-4.031
123701.000			36.281			-4.031
123800.000			36.282			-4.031
123900.000			36.282			-4.031
124002.000			36.281			-4.031
124101.000			36.280			-4.031
124200.000			36.279			-4.031
124300.000			36.277			-4.031
124400.000			36.277			-4.031
124501.000			36.277			-4.031
124600.000			36.276			-4.031
124700.000			36.276			-4.031
124801.000			36.275			-4.031
124901.000			36.274			-4.030
125001.000			36.274			-4.030
125101.000			36.273			-4.030
125200.000			36.273			-4.030
125300.000			36.272			-4.030
125401.000			36.272			-4.030
125500.000			36.272			-4.030
125600.000			36.271			-4.030
125702.000			36.271			-4.030
125801.000			36.269			-4.030
125901.000			36.268			-4.030
126001.000			36.268			-4.030
126100.000			36.268			-4.030
126200.000			36.267			-4.030
126301.000			36.268			-4.030
126400.000			36.267			-4.030
126500.000			36.264			-4.029
126602.000			36.263			-4.029
126701.000			36.263			-4.029
126800.000			36.263			-4.029
126901.000			36.262			-4.029
127000.000			36.262			-4.029
127100.000			36.262			-4.029
127201.000			36.260			-4.029
127300.000			36.259			-4.029
127400.000			36.259			-4.029
127502.000			36.258			-4.029
127601.000			36.257			-4.029
127701.000			36.257			-4.029
127800.000			36.257			-4.029
127900.000			36.257			-4.029
128001.000			36.257			-4.029
128100.000			36.256			-4.028
128200.000			36.254			-4.028
128301.000			36.253			-4.028
128401.000			36.253			-4.028
128501.000			36.252			-4.028
128601.000			36.252			-4.028
128700.000			36.250			-4.028
128800.000			36.250			-4.028
128901.000			36.250			-4.028
129000.000			36.250			-4.028
129100.000			36.249			-4.028
129202.000			36.247			-4.027
129301.000			36.247			-4.027
129400.000			36.248			-4.028
129501.000			36.247			-4.027
129600.000			36.245			-4.027
129700.000			36.245			-4.027
129801.000			36.244			-4.027
129900.000			36.244			-4.027
130000.000			36.244			-4.027
130102.000			36.243			-4.027
130201.000			36.242			-4.027
130300.000			36.243			-4.027
130401.000			36.242			-4.027
130500.000			36.241			-4.027
130600.000			36.241			-4.027
130700.000			36.240			-4.027
130800.000			36.240			-4.027
130902.000			36.239			-4.027
131001.000			36.238			-4.026
131101.000			36.237			-4.026
131201.000			36.236			-4.026
131300.000			36.235			-4.026
131400.000			36.235			-4.026
131501.000			36.235			-4.026
131600.000			36.234			-4.026
131700.000			36.234			-4.026
131802.000			36.233			-4.026
131901.000			36.232			-4.026
132001.000			36.231			-4.026
132101.000			36.231			-4.026
132200.000			36.231			-4.026
132300.000			36.231			-4.026
132401.000			36.230			-4.026
132500.000			36.229			-4.025
132600.000			36.229			-4.025
132702.000			36.229			-4.025
132801.000			36.228			-4.025
132901.000			36.227			-4.025
133001.000			36.226			-4.025
133100.000			36.226			-4.025
133200.000			36.226			-4.025
133301.000			36.226			-4.025
133400.000			36.225			-4.025
133500.000			36.224			-4.025
133602.000			36.223			-4.025
133701.000			36.223			-4.025
133802.000			36.222			-4.025
133900.000			36.222			-4.025
134000.000			36.221			-4.025
134101.000			36.220			-4.024
134200.000			36.219			-4.024
134300.000			36.218			-4.024
134401.000			36.217			-4.024
134501.000			36.218			-4.024
134601.000			36.217			-4.024
134702.000			36.217			-4.024
134800.000			36.217			-4.024
134900.000			36.216			-4.024
135001.000			36.215			-4.024
135100.000			36.215			-4.024
135200.000			36.214			-4.024
135301.000			36.214			-4.024
135401.000			36.213			-4.024
135501.000			36.212			-4.024
135602.000			36.212			-4.024
135700.000			36.213			-4.024
135800.000			36.212			-4.024
135901.000			36.209			-4.023
136000.000			36.209			-4.023
136100.000			36.209			-4.023
136201.000			36.208			-4.023
136300.000			36.208			-4.023
136401.000			36.207			-4.023
136502.000			36.208			-4.023
136600.000			36.208			-4.023
136700.000			36.206			-4.023
136801.000			36.205			-4.023
136900.000			36.204			-4.023
137000.000			36.204			-4.023
137100.000			36.203			-4.023
137200.000			36.203			-4.023
137302.000			36.203			-4.023
137401.000			36.202			-4.022
137501.000			36.202			-4.022
137601.000			36.201			-4.022
137700.000			36.200			-4.022
137800.000			36.200			-4.022
137901.000			36.200			-4.022
138000.000			36.199			-4.022
138100.000			36.199			-4.022
138201.000			36.198			-4.022
138301.000			36.198			-4.022
138401.000			36.198			-4.022
138501.000			36.197			-4.022
138600.000			36.196			-4.022
138700.000			36.196			-4.022
138801.000			36.195			-4.022
138900.000			36.194			-4.022
139000.000			36.193			-4.021
139101.000			36.193			-4.021
139201.000			36.192			-4.021
139301.000			36.192			-4.021
139402.000			36.192			-4.021
139500.000			36.192			-4.021
139600.000			36.191			-4.021
139701.000			36.189			-4.021
139800.000			36.188			-4.021
139900.000			36.187			-4.021
140001.000			36.187			-4.021
140100.000			36.188			-4.021
140202.000			36.187			-4.021
140301.000			36.185			-4.021
140401.000			36.186			-4.021
140501.000			36.185			-4.021
140600.000			36.184			-4.020
140700.000			36.184			-4.020
140801.000			36.183			-4.020
140900.000			36.182			-4.020
141000.000			36.182			-4.020
141102.000			36.182			-4.020
141201.000			36.180			-4.020
141301.000			36.180			-4.020
141401.000			36.179			-4.020
141500.000			36.179			-4.020
141600.000			36.178			-4.020
141701.000			36.177			-4.020
141800.000			36.176			-4.020
141900.000			36.175			-4.019
142002.000			36.174			-4.019
142101.000			36.174			-4.019
142201.000			36.174			-4.019
142301.000			36.174			-4.019
142400.000			36.173			-4.019
142500.000			36.171			-4.019
142601.000			36.170			-4.019
142700.000			36.169			-4.019
142800.000			36.169			-4.019
142901.000			36.170			-4.019
143001.000			36.169			-4.019
143101.000			36.168			-4.019
143201.000			36.167			-4.019
143300.000			36.166			-4.018
143400.000			36.166			-4.018
143500.000			36.165			-4.018
143600.000			36.164			-4.018
143701.000			36.164			-4.018
143800.000			36.165			-4.018
143901.000			36.163			-4.018
144002.000			36.163			-4.018
144101.000			36.162			-4.018
144200.000			36.161			-4.018
144301.000			36.161			-4.018
144400.000			36.161			-4.018
144500.000			36.159			-4.018
144601.000			36.160			-4.018
144700.000			36.159			-4.018
144801.000			36.158			-4.018
144902.000			36.157			-4.017
145001.000			36.158			-4.018
145100.000			36.158			-4.018
145201.000			36.157			-4.017
145300.000			36.156			-4.017
145400.000			36.155			-4.017
145501.000			36.154			-4.017
145600.000			36.154			-4.017
145700.000			36.153			-4.017
145802.000			36.153			-4.017
145901.000			36.153			-4.017
146000.000			36.151			-4.017
146101.000			36.151			-4.017
146200.000			36.151			-4.017
146300.000			36.150			-4.017
146401.000			36.149			-4.017
146500.000			36.150			-4.017
146600.000			36.149			-4.017
146702.000			36.149			-4.017
146801.000			5.476			-0.608
146901.000			109.911			-12.212
147000.000			36.146			-4.016
147100.000			36.146			-4.016
147201.000			36.145			-4.016
147300.000			36.145			-4.016
147400.000			36.145			-4.016
147501.000			36.146			-4.016
147601.000			36.143			-4.016
147701.000			36.143			-4.016
147802.000			36.143			-4.016
147900.000			36.143			-4.016
148000.000			36.141			-4.016
148101.000			36.141			-4.016
148200.000			36.141			-4.016
148300.000			36.140			-4.016
148401.000			36.140			-4.016
148500.000			36.139			-4.015
148601.000			36.139			-4.015
148702.000			36.137			-4.015
148800.000			36.137			-4.015
148900.000			36.137			-4.015
149001.000			36.136			-4.015
149100.000			36.136			-4.015
149200.000			36.134			-4.015
149301.000			36.134			-4.015
149400.000			36.134			-4.015
149501.000			36.134			-4.015
149602.000			36.134			-4.015
149701.000			36.134			-4.015
149800.000			36.133			-4.015
149900.000			36.132			-4.015
150000.000			36.131			-4.015
150101.000			36.131			-4.015
150200.000			36.129			-4.014
150300.000			36.129			-4.014
150401.000			36.130			-4.014
150501.000			36.129			-4.014
150601.000			36.128			-4.014
150701.000			36.127			-4.014
150800.000			36.126			-4.014
150900.000			36.125			-4.014
151001.000			36.125			-4.014
151100.000			36.125			-4.014
151200.000			36.124			-4.014
151301.000			36.124			-4.014
151401.000			36.123			-4.014
151501.000			36.123			-4.014
151601.000			36.123			-4.014
151700.000			36.123			-4.014
151800.000			36.122			-4.014
151901.000			36.122			-4.014
152000.000			36.121			-4.013
152100.000			36.120			-4.013
152201.000			36.120			-4.013
152301.000			36.119			-4.013
152401.000			36.118			-4.013
152501.000			36.118			-4.013
152600.000			36.118			-4.013
152700.000			36.117			-4.013
152801.000			36.117			-4.013
152900.000			36.117			-4.013
153000.000			36.116			-4.013
153100.000			36.115			-4.013
153201.000			36.115			-4.013
153302.000			36.115			-4.013
153401.000			36.114			-4.013
153500.000			36.112			-4.012
153601.000			36.112			-4.012
153700.000			36.112			-4.012
153800.000			36.112			-4.012
153901.000			36.112			-4.012
154000.000			36.112			-4.012
154101.000			36.111			-4.012
154202.000			36.110			-4.012
154301.000			36.110			-4.012
154400.000			36.109			-4.012
154501.000			36.109			-4.012
154600.000			36.109			-4.012
154700.000			36.108			-4.012
154801.000			36.109			-4.012
154900.000			36.108			-4.012
155001.000			36.108			-4.012
155102.000			36.108			-4.012
155201.000			36.108			-4.012
155300.000			36.107			-4.012
155401.000			36.106			-4.012
155500.000			36.107			-4.012
155600.000			36.105			-4.012
155701.000			36.105			-4.012
155800.000			36.105			-4.012
155901.000			36.104			-4.012
156002.000			36.103			-4.011
156101.000			36.103			-4.011
156200.000			36.103			-4.011
156300.000			36.101			-4.011
156400.000			36.101			-4.011
156501.000			36.101			-4.011
156600.000			36.100			-4.011
156700.000			36.098			-4.011
156801.000			36.098			-4.011
156901.000			36.098			-4.011
157001.000			36.098			-4.011
157101.000			36.098			-4.011
157200.000			36.098			-4.011
157300.000			36.097			-4.011
157401.000			36.097			-4.011
157500.000			36.096			-4.011
157600.000			36.095			-4.011
157701.000			36.095			-4.011
157801.000			36.094			-4.010
157901.000			36.094			-4.010
158002.000			36.094			-4.010
158100.000			36.092			-4.010
158200.000			36.092			-4.010
158301.000			36.092			-4.010
158400.000			36.092			-4.010
158500.000			36.090			-4.010
158601.000			36.090			-4.010
158700.000			36.089			-4.010
158801.000			36.090			-4.010
158902.000			36.090			-4.010
159001.000			36.090			-4.010
159100.000			36.089			-4.010
159201.000			36.088			-4.010
159300.000			36.088			-4.010
159400.000			36.088			-4.010
159500.000			36.088			-4.010
159600.000			36.087			-4.010
159701.000			36.087			-4.010
159801.000			36.087			-4.010
159901.000			36.085			-4.009
160001.000			36.086			-4.010
160100.000			36.084			-4.009
160200.000			36.084			-4.009
160301.000			36.084			-4.009
160400.000			36.084			-4.009
160500.000			36.083			-4.009
160601.000			36.082			-4.009
160701.000			36.082			-4.009
160801.000			36.082			-4.009
160901.000			36.082			-4.009
161000.000			36.082			-4.009
161100.000			36.081			-4.009
161201.000			36.081			-4.009
161300.000			36.081			-4.009
161400.000			36.080			-4.009
161501.000			36.079			-4.009
161601.000			36.078			-4.009
161701.000			36.078			-4.009
161801.000			36.079			-4.009
161900.000			36.078			-4.009
162000.000			36.078			-4.009
162101.000			36.077			-4.009
162200.000			36.076			-4.008
162300.000			36.076			-4.008
162401.000			36.075			-4.008
162501.000			36.075			-4.008
162602.000			36.075			-4.008
162701.000			36.074			-4.008
162800.000			36.072			-4.008
162901.000			36.072			-4.008
163000.000			36.072			-4.008
163100.000			36.072			-4.008
163201.000			36.072			-4.008
163300.000			36.071			-4.008
163401.000			36.072			-4.008
163502.000			36.071			-4.008
163601.000			36.069			-4.008
163700.000			36.068			-4.008
163801.000			36.068			-4.008
163900.000			36.068			-4.008
164000.000			36.068			-4.008
164101.000			36.068			-4.008
164200.000			36.067			-4.007
164300.000			36.066			-4.007
164402.000			36.065			-4.007
164501.000			36.065			-4.007
164601.000			36.064			-4.007
164701.000			36.064			-4.007
164800.000			36.063			-4.007
164900.000			36.064			-4.007
165001.000			36.063			-4.007
165100.000			36.063			-4.007
165200.000			36.063			-4.007
165302.000			36.062			-4.007
165401.000			36.062			-4.007
165501.000			36.061			-4.007
165601.000			36.060			-4.007
165700.000			36.060			-4.007
165800.000			36.059			-4.007
165900.000			36.058			-4.006
166000.000			36.058			-4.006
166101.000			36.057			-4.006
166200.000			36.057			-4.006
166301.000			36.056			-4.006
166402.000			36.056			-4.006
166501.000			36.055			-4.006
166600.000			36.055			-4.006
166701.000			36.054			-4.006
166800.000			36.054			-4.006
166900.000			36.054			-4.006
167001.000			36.054			-4.006
167100.000			36.054			-4.006
167200.000			36.052			-4.006
167302.000			36.052			-4.006
167401.000			36.051			-4.006
167500.000			36.051			-4.006
167601.000			36.050			-4.006
167700.000			36.050			-4.006
167800.000			36.050			-4.006
167901.000			36.049			-4.005
168000.000			36.048			-4.005
168100.000			36.048			-4.005
168202.000			36.048			-4.005
168301.000			36.047			-4.005
168400.000			36.047			-4.005
168501.000			36.048			-4.005
168600.000			36.046			-4.005
168700.000			36.045			-4.005
168801.000			36.045			-4.005
168900.000			36.045			-4.005
169000.000			36.045			-4.005
169100.000			36.044			-4.005
169201.000			36.044			-4.005
169302.000			36.044			-4.005
169400.000			36.041			-4.005
169500.000			36.042			-4.005
169601.000			36.041			-4.005
169700.000			36.040			-4.004
169800.000			36.040			-4.004
169901.000			36.040			-4.004
170000.000			36.040			-4.004
170101.000			36.039			-4.004
170202.000			36.038			-4.004
170301.000			36.038			-4.004
170400.000			36.037			-4.004
170501.000			36.038			-4.004
170600.000			36.037			-4.004
170700.000			36.037			-4.004
170801.000			36.036			-4.004
170900.000			36.036			-4.004
171001.000			36.034			-4.004
171102.000			36.033			-4.004
171201.000			36.034			-4.004
171300.000			36.034			-4.004
171401.000			36.033			-4.004
171500.000			36.033			-4.004
171600.000			36.031			-4.003
171701.000			36.030			-4.003
171800.000			36.030			-4.003
171900.000			36.031			-4.003
172002.000			36.030			-4.003
172101.000			36.029			-4.003
172200.000			36.028			-4.003
172300.000			36.028			-4.003
172400.000			36.027			-4.003
172501.000			36.027			-4.003
172600.000			36.027			-4.003
172700.000			36.027			-4.003
172801.000			36.026			-4.003
172901.000			36.025			-4.003
173001.000			36.024			-4.003
173101.000			36.025			-4.003
173200.000			36.025			-4.003
173300.000			36.024			-4.003
173401.000			36.022			-4.002
173500.000			36.022			-4.002
173600.000			36.023			-4.003
173701.000			36.022			-4.002
173801.000			36.020			-4.002
173901.000			36.020			-4.002
174002.000			36.020			-4.002
174100.000			36.020			-4.002
174200.000			36.020			-4.002
174301.000			36.020			-4.002
174400.000			36.019			-4.002
174500.000			36.018			-4.002
174601.000			36.018			-4.002
174701.000			36.017			-4.002
174801.000			36.016			-4.002
174902.000			36.017			-4.002
175000.000			36.017			-4.002
175100.000			36.016			-4.002
175201.000			36.014			-4.002
175300.000			36.015			-4.002
175400.000			36.015			-4.002
175500.000			36.013			-4.001
175600.000			36.012			-4.001
175702.000			36.012			-4.001
175801.000			36.013			-4.001
175900.000			36.012			-4.001
176001.000			36.011			-4.001
176100.000			36.011			-4.001
176200.000			36.010			-4.001
176301.000			36.009			-4.001
176400.000			36.010			-4.001
176500.000			36.008			-4.001
176602.000			36.007			-4.001
176701.000			36.008			-4.001
176801.000			36.008			-4.001
176901.000			36.008			-4.001
177000.000			36.007			-4.001
177100.000			36.007			-4.001
177201.000			36.007			-4.001
177300.000			36.006			-4.001
177400.000			36.005			-4.001
177501.000			36.005			-4.001
177601.000			36.005			-4.001
177701.000			36.004			-4.000
177801.000			36.004			-4.000
177900.000			36.004			-4.000
178000.000			36.004			-4.000
178101.000			36.002			-4.000
178200.000			36.002			-4.000
178300.000			36.001			-4.000
178401.000			36.000			-4.000
178501.000			36.000			-4.000
178602.000			36.001			-4.000
178700.000			36.001			-4.000
178800.000			35.999			-4.000
178901.000			35.998			-4.000
179000.000			35.996			-4.000
179100.000			35.997			-4.000
179201.000			35.996			-4.000
179300.000			35.997			-4.000
179400.000			35.997			-4.000
179502.000			35.996			-4.000
179601.000			35.996			-4.000
179701.000			35.995			-3.999
179801.000			35.995			-3.999
179900.000			35.995			-3.999
180000.000			35.995			-3.999
180101.000			35.995			-3.999
180200.000			35.993			-3.999
180300.000			35.992			-3.999
180401.000			35.991			-3.999
180501.000			35.991			-3.999
180601.000			35.990			-3.999
180702.000			35.990			-3.999
180800.000			35.991			-3.999
180900.000			35.991			-3.999
181001.000			35.989			-3.999
181100.000			35.989			-3.999
181200.000			35.989			-3.999
181301.000			35.988			-3.999
181400.000			35.987			-3.999
181501.000			35.987			-3.999
181602.000			35.987			-3.999
181701.000			35.987			-3.999
181800.000			35.987			-3.999
181900.000			35.986			-3.998
182000.000			35.986			-3.998
182101.000			35.984			-3.998
182200.000			35.985			-3.998
182300.000			35.985			-3.998
182401.000			35.984			-3.998
182501.000			35.983			-3.998
182601.000			35.982			-3.998
182702.000			35.982			-3.998
182800.000			35.982			-3.998
182900.000			35.982			-3.998
183001.000			35.981			-3.998
183100.000			35.981			-3.998
183200.000			35.980			-3.998
183301.000			35.980			-3.998
183400.000			35.980			-3.998
183501.000			35.979			-3.998
183602.000			35.978			-3.998
183701.000			35.978			-3.998
183800.000			35.979			-3.998
183901.000			35.978			-3.998
184000.000			35.977			-3.997
184100.000			35.976			-3.997
184201.000			35.976			-3.997
184300.000			35.976			-3.997
184400.000			35.976			-3.997
184501.000			35.975			-3.997
184601.000			35.974			-3.997
184701.000			35.975			-3.997
184801.000			35.974			-3.997
184900.000			35.973			-3.997
185000.000			35.972			-3.997
185100.000			35.972			-3.997
185200.000			35.972			-3.997
185301.000			35.971			-3.997
185400.000			35.971			-3.997
185501.000			35.970			-3.997
185602.000			35.971			-3.997
185701.000			35.970			-3.997
185800.000			35.970			-3.997
185901.000			35.969			-3.997
186000.000			35.969			-3.997
186100.000			35.967			-3.996
186201.000			35.967			-3.996
186300.000			35.967			-3.996
186400.000			35.967			-3.996
186502.000			35.967			-3.996
186601.000			35.967			-3.996
186701.000			35.967			-3.996
186801.000			35.966			-3.996
186900.000			35.967			-3.996
187000.000			35.965			-3.996
187101.000			35.965			-3.996
187200.000			35.964			-3.996
187300.000			35.963			-3.996
187401.000			35.962			-3.996
187500.000			35.961			-3.996
187601.000			35.962			-3.996
187702.000			35.962			-3.996
187801.000			35.962			-3.996
187900.000			35.962			-3.996
188001.000			35.960			-3.996
188100.000			35.961			-3.996
188200.000			35.961			-3.996
188300.000			35.960			-3.996
188400.000			35.959			-3.995
188501.000			35.959			-3.995
188601.000			35.958			-3.995
188701.000			35.958			-3.995
188801.000			35.957			-3.995
188900.000			35.957			-3.995
189000.000			35.956			-3.995
189101.000			35.955			-3.995
189200.000			35.956			-3.995
189300.000			35.955			-3.995
189401.000			35.954			-3.995
189500.000			35.954			-3.995
189601.000			35.953			-3.995
189702.000			35.953			-3.995
189801.000			35.952			-3.995
189900.000			35.952			-3.995
190001.000			35.953			-3.995
190100.000			35.953			-3.995
190200.000			35.953			-3.995
190301.000			35.952			-3.995
190400.000			35.951			-3.995
190500.000			35.950			-3.994
190602.000			35.949			-3.994
190701.000			35.949			-3.994
190801.000			35.949			-3.994
190901.000			35.949			-3.994
191000.000			35.947			-3.994
191100.000			35.948			-3.994
191201.000			35.947			-3.994
191300.000			35.946			-3.994
191400.000			35.946			-3.994
191500.000			35.946			-3.994
191601.000			35.947			-3.994
191702.000			35.947			-3.994
191801.000			35.946			-3.994
191900.000			35.944			-3.994
192001.000			35.944			-3.994
192100.000			35.944			-3.994
192200.000			35.944			-3.994
192301.000			35.943			-3.994
192400.000			35.943			-3.994
192500.000			35.942			-3.994
192602.000			35.942			-3.994
192701.000			35.941			-3.993
192800.000			35.942			-3.994
192901.000			35.941			-3.993
193000.000			35.940			-3.993
193100.000			35.940			-3.993
193201.000			35.940			-3.993
193300.000			35.940			-3.993
193400.000			35.938			-3.993
193502.000			35.938			-3.993
193601.000			35.938			-3.993
193701.000			35.938			-3.993
193801.000			35.937			-3.993
193900.000			35.937			-3.993
194000.000			35.938			-3.993
194101.000			35.937			-3.993
194200.000			35.936			-3.993
194300.000			35.935			-3.993
194401.000			35.934			-3.993
194501.000			35.935			-3.993
194602.000			35.935			-3.993
194701.000			35.933			-3.993
194800.000			35.934			-3.993
194901.000			35.933			-3.993
195000.000			35.932			-3.992
195100.000			35.932			-3.992
195201.000			35.932			-3.992
195300.000			35.932			-3.992
195400.000			35.932			-3.992
195502.000			35.931			-3.992
195601.000			35.931			-3.992
195700.000			35.930			-3.992
195801.000			35.930			-3.992
195900.000			35.930			-3.992
196000.000			35.930			-3.992
196101.000			35.930			-3.992
196200.000			35.929			-3.992
196300.000			35.928			-3.992
196401.000			35.928			-3.992
196501.000			35.927			-3.992
196601.000			35.927			-3.992
196702.000			35.926			-3.992
196800.000			35.926			-3.992
196900.000			35.926			-3.992
197001.000			35.925			-3.992
197100.000			35.925			-3.992
197200.000			35.925			-3.992
197301.000			35.923			-3.991
197400.000			35.924			-3.992
197500.000			35.925			-3.992
197602.000			35.924			-3.992
197701.000			35.923			-3.991
197800.000			35.922			-3.991
197900.000			35.921			-3.991
198000.000			35.921			-3.991
198101.000			35.921			-3.991
198200.000			35.921			-3.991
198300.000			35.921			-3.991
198401.000			35.919			-3.991
198501.000			35.919			-3.991
198601.000			35.919			-3.991
198702.000			35.919			-3.991
198800.000			35.918			-3.991
198900.000			35.919			-3.991
199001.000			35.918			-3.991
199100.000			35.918			-3.991
199200.000			35.917			-3.991
199301.000			35.917			-3.991
199400.000			35.916			-3.991
199500.000			35.916			-3.991
199602.000			35.916			-3.991
199701.000			35.916			-3.991
199800.000			35.915			-3.991
199901.000			35.915			-3.991
200000.000			35.914			-3.990
200100.000			35.914			-3.990
200201.000			35.912			-3.990
200300.000			35.913			-3.990
200400.000			35.912			-3.990
200502.000			35.912			-3.990
200601.000			35.912			-3.990
200701.000			35.912			-3.990
200801.000			35.911			-3.990
200900.000			35.911			-3.990
201000.000			35.910			-3.990
201100.000			35.909			-3.990
201200.000			35.909			-3.990
201301.000			35.910			-3.990
201401.000			35.909			-3.990
201501.000			35.909			-3.990
201602.000			35.908			-3.990
201700.000			35.907			-3.990
201800.000			35.907			-3.990
201901.000			35.907			-3.990
202000.000			35.907			-3.990
202100.000			35.907			-3.990
202201.000			35.907			-3.990
202300.000			35.907			-3.990
202401.000			35.905			-3.989
202502.000			35.905			-3.989
202600.000			35.905			-3.989
202700.000			35.904			-3.989
202801.000			35.903			-3.989
202900.000			35.903			-3.989
203000.000			35.903			-3.989
203101.000			35.902			-3.989
203200.000			35.901			-3.989
203301.000			35.902			-3.989
203402.000			35.902			-3.989
203500.000			35.901			-3.989
203600.000			35.901			-3.989
203701.000			35.900			-3.989
203800.000			35.899			-3.989
203900.000			35.898			-3.989
204001.000			35.897			-3.989
204100.000			35.898			-3.989
204202.000			35.899			-3.989
204301.000			35.899			-3.989
204401.000			35.898			-3.989
204501.000			35.897			-3.989
204600.000			35.898			-3.989
204700.000			35.899			-3.989
204801.000			35.897			-3.989
204900.000			35.895			-3.988
205000.000			35.897			-3.989
205101.000			35.896			-3.988
205201.000			35.894			-3.988
205301.000			35.894			-3.988
205401.000			35.894			-3.988
205500.000			35.894			-3.988
205600.000			35.893			-3.988
205701.000			35.892			-3.988
205800.000			35.892			-3.988
205900.000			35.892			-3.988
206001.000			35.892			-3.988
206101.000			35.892			-3.988
206201.000			35.891			-3.988
206302.000			35.890			-3.988
206400.000			35.891			-3.988
206500.000			35.890			-3.988
206601.000			35.889			-3.988
206700.000			35.889			-3.988
206800.000			35.888			-3.988
206901.000			35.888			-3.988
207000.000			35.888			-3.988
207101.000			35.889			-3.988
207202.000			35.887			-3.987
207301.000			35.886			-3.987
207400.000			35.886			-3.987
207500.000			35.886			-3.987
207600.000			35.886			-3.987
207701.000			35.885			-3.987
207800.000			35.885			-3.987
207900.000			35.885			-3.987
208001.000			35.885			-3.987
208101.000			35.885			-3.987
208201.000			35.885			-3.987
208301.000			35.885			-3.987
208400.000			35.883			-3.987
208500.000			35.883			-3.987
208601.000			35.883			-3.987
208700.000			35.883			-3.987
208800.000			35.881			-3.987
208901.000			35.881			-3.987
209000.000			35.880			-3.987
209101.000			35.879			-3.987
209202.000			35.880			-3.987
209300.000			35.879			-3.987
209400.000			35.879			-3.987
209501.000			35.879			-3.987
209600.000			35.879			-3.987
209700.000			35.878			-3.986
209801.000			35.878			-3.986
209900.000			35.877			-3.986
210001.000			35.877			-3.986
210102.000			35.876			-3.986
210201.000			35.876			-3.986
210300.000			35.876			-3.986
210401.000			35.875			-3.986
210500.000			35.875			-3.986
210600.000			35.875			-3.986
210700.000			35.876			-3.986
210800.000			35.874			-3.986
210901.000			35.874			-3.986
211001.000			35.874			-3.986
211101.000			35.874			-3.986
211201.000			35.874			-3.986
211300.000			35.874			-3.986
211400.000			35.873			-3.986
211501.000			35.873			-3.986
211600.000			35.872			-3.986
211700.000			35.871			-3.986
211801.000			35.871			-3.986
211901.000			35.870			-3.986
212001.000			35.869			-3.985
212101.000			35.871			-3.986
212200.000			35.870			-3.986
212300.000			35.868			-3.985
212401.000			35.869			-3.985
212500.000			35.869			-3.985
212600.000			35.869			-3.985
212701.000			35.867			-3.985
212801.000			35.867			-3.985
212901.000			35.867			-3.985
213002.000			35.867			-3.985
213100.000			35.866			-3.985
213200.000			35.866			-3.985
213301.000			35.866			-3.985
213400.000			35.865			-3.985
213500.000			35.865			-3.985
213601.000			35.864			-3.985
213700.000			35.864			-3.985
213802.000			35.863			-3.985
213901.000			35.863			-3.985
214000.000			35.862			-3.985
214101.000			35.862			-3.985
214200.000			35.862			-3.985
214300.000			35.863			-3.985
214401.000			35.862			-3.985
214500.000			35.861			-3.985
214600.000			35.861			-3.985
214702.000			35.860			-3.984
214801.000			35.859			-3.984
214901.000			35.859			-3.984
215001.000			35.859			-3.984
215100.000			35.859			-3.984
215200.000			35.859			-3.984
215301.000			35.858			-3.984
215400.000			35.859			-3.984
215500.000			35.859			-3.984
215601.000			35.858			-3.984
215701.000			35.857			-3.984
215801.000			35.857			-3.984
215902.000			35.857			-3.984
216000.000			35.856			-3.984
216100.000			35.856			-3.984
216201.000			35.856			-3.984
216300.000			35.855			-3.984
216400.000			35.855			-3.984
216501.000			35.854			-3.984
216600.000			35.854			-3.984
216701.000			35.853			-3.984
216802.000			35.853			-3.984
216900.000			35.853			-3.984
217000.000			35.851			-3.983
217100.000			35.851			-3.983
217200.000			35.852			-3.984
217301.000			35.852			-3.984
217400.000			35.850			-3.983
217500.000			35.850			-3.983
217602.000			35.850			-3.983
217701.000			35.850			-3.983
217801.000			35.851			-3.983
217901.000			35.849			-3.983
218000.000			35.848			-3.983
218100.000			35.848			-3.983
218201.000			35.847			-3.983
218300.000			35.847			-3.983
218400.000			35.847			-3.983
218501.000			35.847			-3.983
218601.000			35.848			-3.983
218701.000			35.847			-3.983
218801.000			35.847			-3.983
218900.000			35.846			-3.983
219000.000			35.845			-3.983
219101.000			35.845			-3.983
219200.000			35.846			-3.983
219300.000			35.846			-3.983
219401.000			35.845			-3.983
219501.000			35.843			-3.983
219601.000			35.843			-3.983
219702.000			35.844			-3.983
219800.000			35.843			-3.983
219900.000			35.843			-3.983
220001.000			35.843			-3.983
220100.000			35.842			-3.982
220200.000			35.842			-3.982
220300.000			35.840			-3.982
220400.000			35.840			-3.982
220502.000			35.840			-3.982
220601.000			35.839			-3.982
220700.000			35.839			-3.982
220801.000			35.839			-3.982
220900.000			35.839			-3.982
221000.000			35.839			-3.982
221101.000			35.840			-3.982
221200.000			35.838			-3.982
221300.000			35.838			-3.982
221402.000			35.838			-3.982
221501.000			35.837			-3.982
221601.000			35.837			-3.982
221701.000			35.836			-3.982
221800.000			35.836			-3.982
221900.000			35.836			-3.982
222001.000			35.836			-3.982
222100.000			35.836			-3.982
222200.000			35.835			-3.982
222301.000			35.834			-3.982
222401.000			35.834			-3.982
222501.000			35.834			-3.982
222601.000			35.832			-3.981
222700.000			35.832			-3.981
222800.000			35.833			-3.981
222901.000			35.833			-3.981
223000.000			35.832			-3.981
223100.000			35.832			-3.981
223201.000			35.831			-3.981
223301.000			35.831			-3.981
223402.000			35.831			-3.981
223501.000			35.831			-3.981
223600.000			35.830			-3.981
223701.000			35.829			-3.981
223800.000			35.830			-3.981
223900.000			35.829			-3.981
224001.000			35.829			-3.981
224100.000			35.828			-3.981
224200.000			35.828			-3.981
224302.000			35.828			-3.981
224401.000			35.828			-3.981
224500.000			35.827			-3.981
224601.000			35.827			-3.981
224700.000			35.827			-3.981
224800.000			35.826			-3.981
224901.000			35.827			-3.981
225000.000			35.826			-3.981
225100.000			35.826			-3.981
225202.000			35.825			-3.981
225301.000			35.825			-3.981
225401.000			35.824			-3.980
225501.000			35.824			-3.980
225600.000			35.824			-3.980
225700.000			35.824			-3.980
225801.000			35.823			-3.980
225900.000			35.822			-3.980
226000.000			35.821			-3.980
226102.000			35.821			-3.980
226201.000			35.821			-3.980
226301.000			35.821			-3.980
226401.000			35.821			-3.980
226500.000			35.821			-3.980
226600.000			35.821			-3.980
226700.000			35.820			-3.980
226800.000			35.819			-3.980
226901.000			35.818			-3.980
227000.000			35.817			-3.980
227101.000			35.818			-3.980
227202.000			35.818			-3.980
227301.000			35.817			-3.980
227400.000			35.818			-3.980
227501.000			35.817			-3.980
227600.000			35.817			-3.980
227700.000			35.816			-3.980
227801.000			35.815			-3.979
227900.000			35.816			-3.980
228000.000			35.816			-3.980
228102.000			35.816			-3.980
228201.000			35.815			-3.979
228300.000			35.815			-3.979
228401.000			35.815			-3.979
228500.000			35.815			-3.979
228600.000			35.816			-3.980
228701.000			35.814			-3.979
228800.000			35.813			-3.979
228900.000			35.813			-3.979
229002.000			35.812			-3.979
229101.000			35.812			-3.979
229201.000			35.812			-3.979
229301.000			35.811			-3.979
229400.000			35.810			-3.979
229500.000			35.811			-3.979
229601.000			35.811			-3.979
229700.000			35.809			-3.979
229800.000			35.808			-3.979
229902.000			35.808			-3.979
230001.000			35.808			-3.979
230102.000			35.809			-3.979
230200.000			35.808			-3.979
230300.000			35.808			-3.979
230401.000			35.806			-3.978
230500.000			35.807			-3.979
230600.000			35.807			-3.979
230701.000			35.806			-3.978
230800.000			35.806			-3.978
230901.000			35.805			-3.978
231002.000			35.805			-3.978
231100.000			35.805			-3.978
231200.000			35.805			-3.978
231301.000			35.805			-3.978
231400.000			35.804			-3.978
231500.000			35.805			-3.978
231601.000			35.804			-3.978
231700.000			35.803			-3.978
231801.000			35.803			-3.978
231902.000			35.803			-3.978
232001.000			35.803			-3.978
232100.000			35.802			-3.978
232201.000			35.802			-3.978
232300.000			35.802			-3.978
232400.000			35.801			-3.978
232501.000			35.800			-3.978
232600.000			35.800			-3.978
232701.000			35.800			-3.978
232802.000			35.799			-3.978
232901.000			35.798			-3.978
233000.000			35.798			-3.978
233100.000			35.798			-3.978
233200.000			35.797			-3.977
233301.000			35.798			-3.978
233400.000			35.799			-3.978
233500.000			35.798			-3.978
233601.000			35.798			-3.978
233701.000			35.798			-3.978
233801.000			35.797			-3.977
233901.000			35.797			-3.977
234000.000			35.797			-3.977
234100.000			35.796			-3.977
234201.000			35.796			-3.977
234300.000			35.795			-3.977
234400.000			35.794			-3.977
234501.000			35.794			-3.977
234601.000			35.794			-3.977
234701.000			35.793			-3.977
234802.000			35.792			-3.977
234900.000			35.793			-3.977
235000.000			35.792			-3.977
235101.000			35.792			-3.977
235200.000			35.792			-3.977
235300.000			35.792			-3.977
235401.000			35.792			-3.977
235500.000			35.791			-3.977
235601.000			35.791			-3.977
235702.000			35.792			-3.977
235801.000			35.791			-3.977
235900.000			35.790			-3.977
236001.000			35.790			-3.977
236100.000			35.789			-3.977
236200.000			35.788			-3.976
236300.000			35.788			-3.976
236400.000			35.788			-3.976
236501.000			35.788			-3.976
236601.000			35.787			-3.976
236701.000			35.787			-3.976
236802.000			35.787			-3.976
236900.000			35.786			-3.976
237000.000			35.786			-3.976
237101.000			35.785			-3.976
237200.000			35.785			-3.976
237300.000			35.785			-3.976
237401.000			35.784			-3.976
237500.000			35.784			-3.976
237601.000			35.784			-3.976
237702.000			35.783			-3.976
237801.000			35.783			-3.976
237900.000			35.783			-3.976
238001.000			35.783			-3.976
238100.000			35.783			-3.976
238200.000			35.782			-3.976
238301.000			35.781			-3.976
238400.000			35.781			-3.976
238500.000			35.781			-3.976
238602.000			35.782			-3.976
238701.000			35.781			-3.976
238801.000			35.781			-3.976
238901.000			35.781			-3.976
239000.000			35.780			-3.976
239100.000			35.779			-3.975
239201.000			35.778			-3.975
239300.000			35.778			-3.975
239400.000			35.778			-3.975
239500.000			35.778			-3.975
239601.000			35.777			-3.975
239702.000			35.778			-3.975
239801.000			35.778			-3.975
239900.000			35.778			-3.975
240001.000			35.777			-3.975
240100.000			35.776			-3.975
240200.000			35.776			-3.975
240301.000			35.776			-3.975
240400.000			35.775			-3.975
240500.000			35.775			-3.975
240602.000			35.774			-3.975
240701.000			35.775			-3.975
240801.000			35.775			-3.975
240901.000			35.775			-3.975
241000.000			35.773			-3.975
241100.000			35.773			-3.975
241201.000			35.773			-3.975
241300.000			35.772			-3.975
241400.000			35.772			-3.975
241501.000			35.772			-3.975
241601.000			35.771			-3.975
241701.000			35.771			-3.975
241801.000			35.771			-3.975
241900.000			35.770			-3.974
242000.000			35.769			-3.974
242101.000			35.770			-3.974
242200.000			35.769			-3.974
242300.000			35.769			-3.974
242401.000			35.769			-3.974
242501.000			35.768			-3.974
242602.000			35.768			-3.974
242701.000			35.768			-3.974
242800.000			35.768			-3.974
242901.000			35.767			-3.974
243000.000			35.767			-3.974
243100.000			35.766			-3.974
243201.000			35.766			-3.974
243300.000			35.767			-3.974
243400.000			35.766			-3.974
243502.000			35.765			-3.974
243601.000			35.765			-3.974
243701.000			35.765			-3.974
243801.000			35.765			-3.974
243900.000			35.764			-3.974
244000.000			35.764			-3.974
244101.000			35.764			-3.974
244200.000			35.763			-3.974
244300.000			35.763			-3.974
244401.000			35.763			-3.974
244501.000			35.763			-3.974
244601.000			35.763			-3.974
244701.000			35.763			-3.974
244800.000			35.762			-3.974
244900.000			35.761			-3.973
245001.000			35.761			-3.973
245100.000			35.761			-3.973
245200.000			35.761			-3.973
245301.000			35.760			-3.973
245401.000			35.759			-3.973
245501.000			35.759			-3.973
245602.000			35.759			-3.973
245700.000			35.758			-3.973
245800.000			35.759			-3.973
245900.000			35.758			-3.973
246000.000			35.758			-3.973
246101.000			35.758			-3.973
246200.000			35.757			-3.973
246300.000			35.757			-3.973
246402.000			35.757			-3.973
246501.000			35.756			-3.973
246601.000			35.756			-3.973
246701.000			35.755			-3.973
246800.000			35.755			-3.973
246900.000			35.754			-3.973
247001.000			35.755			-3.973
247100.000			35.754			-3.973
247200.000			35.754			-3.973
247301.000			35.754			-3.973
247401.000			35.754			-3.973
247501.000			35.755			-3.973
247601.000			35.755			-3.973
247700.000			35.753			-3.973
247800.000			35.753			-3.973
247901.000			35.752			-3.972
248000.000			35.750			-3.972
248100.000			35.751			-3.972
248201.000			35.751			-3.972
248301.000			35.750			-3.972
248401.000			35.750			-3.972
248502.000			35.750			-3.972
248600.000			35.750			-3.972
248700.000			35.751			-3.972
248801.000			35.750			-3.972
248900.000			35.749			-3.972
249000.000			35.748			-3.972
249100.000			35.749			-3.972
249200.000			35.748			-3.972
249302.000			35.748			-3.972
249401.000			35.747			-3.972
249501.000			35.746			-3.972
249601.000			35.746			-3.972
249700.000			35.746			-3.972
249800.000			35.747			-3.972
249901.000			35.747			-3.972
250000.000			35.746			-3.972
250100.000			35.747			-3.972
250201.000			35.746			-3.972
250301.000			35.745			-3.972
250401.000			35.745			-3.972
250502.000			35.745			-3.972
250600.000			35.745			-3.972
250700.000			35.745			-3.972
250801.000			35.743			-3.971
250900.000			35.743			-3.971
251000.000			35.744			-3.972
251101.000			35.743			-3.971
251201.000			35.743			-3.971
251301.000			35.742			-3.971
251402.000			35.742			-3.971
251500.000			35.742			-3.971
251600.000			35.742			-3.971
251701.000			35.741			-3.971
251800.000			35.741			-3.971
251900.000			35.740			-3.971
252001.000			35.741			-3.971
252100.000			35.739			-3.971
252202.000			35.740			-3.971
252301.000			35.740			-3.971
252401.000			35.740			-3.971
252501.000			35.740			-3.971
252600.000			35.739			-3.971
252700.000			35.739			-3.971
252801.000			35.738			-3.971
252900.000			35.737			-3.971
253000.000			35.736			-3.971
253101.000			35.736			-3.971
253201.000			35.737			-3.971
253301.000			35.737			-3.971
253401.000			35.737			-3.971
253500.000			35.737			-3.971
253600.000			35.735			-3.971
253701.000			35.735			-3.971
253800.000			35.735			-3.971
253900.000			35.735			-3.971
254001.000			35.734			-3.970
254101.000			35.734			-3.970
254201.000			35.733			-3.970
254302.000			35.733			-3.970
254400.000			35.733			-3.970
254500.000			35.733			-3.970
254601.000			35.733			-3.970
254700.000			35.733			-3.970
254800.000			35.731			-3.970
254901.000			35.732			-3.970
255000.000			35.731			-3.970
255101.000			35.731			-3.970
255202.000			35.730			-3.970
255301.000			35.729			-3.970
255400.000			35.729			-3.970
255500.000			35.729			-3.970
255600.000			35.729			-3.970
255701.000			35.729			-3.970
255800.000			35.728			-3.970
255900.000			35.728			-3.970
256001.000			35.729			-3.970
256101.000			35.728			-3.970
256201.000			35.727			-3.970
256301.000			35.726			-3.970
256400.000			35.727			-3.970
256500.000			35.727			-3.970
256601.000			35.727			-3.970
256700.000			35.727			-3.970
256800.000			35.726			-3.970
256901.000			35.725			-3.969
257001.000			35.725			-3.969
257101.000			35.725			-3.969
257202.000			35.724			-3.969
257300.000			35.723			-3.969
257400.000			35.723			-3.969
257501.000			35.722			-3.969
257600.000			35.722			-3.969
257700.000			35.723			-3.969
257801.000			35.723			-3.969
257900.000			35.723			-3.969
258001.000			35.722			-3.969
258102.000			35.723			-3.969
258201.000			35.723			-3.969
258300.000			35.722			-3.969
258401.000			35.722			-3.969
258500.000			35.722			-3.969
258600.000			35.721			-3.969
258700.000			35.719			-3.969
258800.000			35.720			-3.969
258901.000			35.719			-3.969
259001.000			35.719			-3.969
259101.000			35.720			-3.969
259201.000			35.719			-3.969
259300.000			35.719			-3.969
259400.000			35.719			-3.969
259501.000			35.717			-3.969
259600.000			35.717			-3.969
259700.000			35.718			-3.969
259801.000			35.718			-3.969
259901.000			35.717			-3.969
260001.000			35.717			-3.969
260102.000			35.716			-3.968
260200.000			35.715			-3.968
260300.000			35.714			-3.968
260401.000			35.715			-3.968
260500.000			35.715			-3.968
260600.000			35.714			-3.968
260701.000			35.714			-3.968
260800.000			35.714			-3.968
260901.000			35.715			-3.968
261002.000			35.712			-3.968
261100.000			35.713			-3.968
261200.000			35.713			-3.968
261301.000			35.712			-3.968
261400.000			35.712			-3.968
261500.000			35.711			-3.968
261601.000			35.711			-3.968
261700.000			35.712			-3.968
261802.000			35.711			-3.968
261901.000			35.711			-3.968
262001.000			35.711			-3.968
262101.000			35.710			-3.968
262200.000			35.710			-3.968
262300.000			35.710			-3.968
262401.000			35.708			-3.968
262500.000			35.709			-3.968
262600.000			35.709			-3.968
262702.000			35.709			-3.968
262801.000			35.709			-3.968
262901.000			35.709			-3.968
263001.000			35.708			-3.968
263100.000			35.707			-3.967
263200.000			35.708			-3.968
263301.000			35.708			-3.968
263400.000			35.707			-3.967
263500.000			35.707			-3.967
263601.000			35.707			-3.967
263701.000			35.707			-3.967
263801.000			35.706			-3.967
263901.000			35.706			-3.967
264000.000			35.706			-3.967
264100.000			35.706			-3.967
264201.000			35.706			-3.967
264300.000			35.705			-3.967
264400.000			35.704			-3.967
264501.000			35.704			-3.967
264601.000			35.704			-3.967
264701.000			35.704			-3.967
264802.000			35.704			-3.967
264900.000			35.703			-3.967
265000.000			35.702			-3.967
265100.000			35.702			-3.967
265200.000			35.702			-3.967
265301.000			35.701			-3.967
265400.000			35.701			-3.967
265500.000			35.701			-3.967
265602.000			35.700			-3.967
265701.000			35.700			-3.967
265800.000			35.699			-3.967
265901.000			35.700			-3.967
266000.000			35.700			-3.967
266100.000			35.700			-3.967
266201.000			35.699			-3.967
266300.000			35.698			-3.966
266400.000			35.698			-3.966
266502.000			35.698			-3.966
266601.000			35.697			-3.966
266701.000			35.697			-3.966
266801.000			35.697			-3.966
266900.000			35.696			-3.966
267000.000			35.696			-3.966
267101.000			35.695			-3.966
267200.000			35.695			-3.966
267300.000			35.695			-3.966
267401.000			35.694			-3.966
267501.000			35.695			-3.966
267601.000			35.696			-3.966
267702.000			35.695			-3.966
267800.000			35.694			-3.966
267900.000			35.693			-3.966
268001.000			35.693			-3.966
268100.000			35.694			-3.966
268200.000			35.693			-3.966
268300.000			35.692			-3.966
268400.000			35.691			-3.966
268502.000			35.691			-3.966
268601.000			35.692			-3.966
268701.000			35.691			-3.966
268801.000			35.692			-3.966
268900.000			35.692			-3.966
269000.000			35.691			-3.966
269101.000			35.690			-3.966
269200.000			35.690			-3.966
269300.000			35.690			-3.966
269401.000			35.690			-3.966
269501.000			35.690			-3.966
269601.000			35.689			-3.965
269702.000			35.688			-3.965
269800.000			35.689			-3.965
269900.000			35.689			-3.965
270001.000			35.688			-3.965
270100.000			35.688			-3.965
270200.000			35.688			-3.965
270301.000			35.687			-3.965
270400.000			35.686			-3.965
270501.000			35.685			-3.965
270602.000			35.685			-3.965
270701.000			35.686			-3.965
270800.000			35.686			-3.965
270901.000			35.685			-3.965
271000.000			35.685			-3.965
271100.000			35.684			-3.965
271201.000			35.684			-3.965
271300.000			35.684			-3.965
271400.000			35.684			-3.965
271502.000			35.684			-3.965
271601.000			35.683			-3.965
271701.000			35.681			-3.965
271800.000			35.682			-3.965
271900.000			35.683			-3.965
272001.000			35.681			-3.965
272100.000			35.682			-3.965
272200.000			35.681			-3.965
272301.000			35.680			-3.964
272401.000			35.680			-3.964
272501.000			35.681			-3.965
272602.000			35.680			-3.964
272700.000			35.680			-3.964
272800.000			35.679			-3.964
272901.000			35.678			-3.964
273000.000			35.679			-3.964
273100.000			35.679			-3.964
273201.000			35.679			-3.964
273300.000			35.678			-3.964
273401.000			35.678			-3.964
273502.000			35.677			-3.964
273600.000			35.677			-3.964
273700.000			35.677			-3.964
273801.000			35.676			-3.964
273900.000			35.676			-3.964
274000.000			35.676			-3.964
274101.000			35.676			-3.964
274200.000			35.675			-3.964
274300.000			35.675			-3.964
274402.000			35.675			-3.964
274501.000			35.676			-3.964
274600.000			35.674			-3.964
274700.000			35.673			-3.964
274800.000			35.673			-3.964
274901.000			35.673			-3.964
275000.000			35.674			-3.964
275100.000			35.673			-3.964
275201.000			35.672			-3.964
275301.000			35.672			-3.964
275401.000			35.672			-3.964
275502.000			35.673			-3.964
275600.000			35.673			-3.964
275700.000			35.672			-3.964
275801.000			35.672			-3.964
275900.000			35.672			-3.964
276000.000			35.670			-3.963
276101.000			35.669			-3.963
276200.000			35.671			-3.963
276301.000			35.669			-3.963
276402.000			35.669			-3.963
276501.000			35.669			-3.963
276600.000			35.668			-3.963
276701.000			35.668			-3.963
276800.000			35.669			-3.963
276900.000			35.667			-3.963
277001.000			35.668			-3.963
277100.000			35.667			-3.963
277200.000			35.667			-3.963
277302.000			35.667			-3.963
277401.000			35.668			-3.963
277501.000			35.669			-3.963
277601.000			35.667			-3.963
277700.000			35.666			-3.963
277800.000			35.664			-3.963
277900.000			35.665			-3.963
278000.000			35.664			-3.963
278101.000			35.665			-3.963
278200.000			35.665			-3.963
278301.000			35.664			-3.963
278402.000			35.663			-3.963
278501.000			35.664			-3.963
278600.000			35.663			-3.963
278701.000			35.663			-3.963
278800.000			35.663			-3.963
278900.000			35.662			-3.962
279001.000			35.662			-3.962
279100.000			35.662			-3.962
279200.000			35.661			-3.962
279302.000			35.661			-3.962
279401.000			35.661			-3.962
279501.000			35.661			-3.962
279601.000			35.660			-3.962
279700.000			35.660			-3.962
279800.000			35.660			-3.962
279901.000			35.660			-3.962
280000.000			35.660			-3.962
280100.000			35.659			-3.962
280201.000			35.659			-3.962
280301.000			35.659			-3.962
280401.000			35.659			-3.962
280501.000			35.659			-3.962
280600.000			35.659			-3.962
280700.000			35.659			-3.962
280801.000			35.659			-3.962
280900.000			35.659			-3.962
281000.000			35.658			-3.962
281100.000			35.657			-3.962
281201.000			35.657			-3.962
281302.000			35.657			-3.962
281401.000			35.657			-3.962
281500.000			35.657			-3.962
281601.000			35.658			-3.962
281700.000			35.657			-3.962
281800.000			35.656			-3.962
281901.000			35.657			-3.962
282000.000			35.656			-3.962
282100.000			35.655			-3.962
282202.000			35.655			-3.962
282301.000			35.654			-3.962
282401.000			35.654			-3.962
282501.000			35.654			-3.962
282600.000			35.654			-3.962
282700.000			35.654			-3.962
282801.000			35.653			-3.961
282900.000			35.653			-3.961
283000.000			35.652			-3.961
283101.000			35.653			-3.961
283201.000			35.652			-3.961
283301.000			35.652			-3.961
283401.000			35.652			-3.961
283500.000			35.651			-3.961
283600.000			35.651			-3.961
283701.000			35.651			-3.961
283800.000			35.650			-3.961
283900.000			35.650			-3.961
284001.000			35.649			-3.961
284101.000			35.649			-3.961
284202.000			35.649			-3.961
284301.000			35.648			-3.961
284400.000			35.648			-3.961
284501.000			35.647			-3.961
284600.000			35.646			-3.961
284700.000			35.647			-3.961
284801.000			35.647			-3.961
284900.000			35.647			-3.961
285000.000			35.647			-3.961
285102.000			35.646			-3.961
285201.000			35.645			-3.961
285300.000			35.645			-3.961
285401.000			35.645			-3.961
285500.000			35.645			-3.961
285600.000			35.645			-3.961
285701.000			35.645			-3.961
285800.000			35.646			-3.961
285900.000			35.645			-3.961
286001.000			35.644			-3.960
286101.000			35.644			-3.960
286201.000			35.644			-3.960
286301.000			35.643			-3.960
286400.000			35.643			-3.960
286500.000			35.643			-3.960
286601.000			35.643			-3.960
286700.000			35.642			-3.960
286800.000			35.642			-3.960
286901.000			35.642			-3.960
287001.000			35.641			-3.960
287101.000			35.642			-3.960
287202.000			35.641			-3.960
287300.000			35.641			-3.960
287400.000			35.640			-3.960
287500.000			35.640			-3.960
287600.000			35.640			-3.960
287701.000			35.639			-3.960
287800.000			35.639			-3.960
287900.000			35.639			-3.960
288002.000			35.639			-3.960
288101.000			35.638			-3.960
288201.000			35.638			-3.960
288301.000			35.639			-3.960
288400.000			35.638			-3.960
288500.000			35.638			-3.960
288601.000			35.638			-3.960
288700.000			35.638			-3.960
288800.000			35.638			-3.960
288901.000			35.638			-3.960
289001.000			35.637			-3.960
289101.000			35.636			-3.960
289201.000			35.637			-3.960
289300.000			35.636			-3.960
289400.000			35.635			-3.959
289501.000			35.636			-3.960
289600.000			35.636			-3.960
289700.000			35.635			-3.959
289801.000			35.635			-3.959
289901.000			35.635			-3.959
290001.000			35.635			-3.959
290102.000			35.634			-3.959
290200.000			35.634			-3.959
290300.000			35.635			-3.959
290401.000			35.634			-3.959
290500.000			35.634			-3.959
290600.000			35.634			-3.959
290700.000			35.634			-3.959
290800.000			35.633			-3.959
290902.000			35.633			-3.959
291001.000			35.633			-3.959
291100.000			35.632			-3.959
291201.000			35.632			-3.959
291300.000			35.632			-3.959
291400.000			35.633			-3.959
291501.000			35.631			-3.959
291600.000			35.632			-3.959
291700.000			35.631			-3.959
291802.000			35.631			-3.959
291901.000			35.631			-3.959
292001.000			35.632			-3.959
292101.000			35.630			-3.959
292200.000			35.630			-3.959
292300.000			35.629			-3.959
292401.000			35.630			-3.959
292500.000			35.629			-3.959
292600.000			35.629			-3.959
292701.000			35.629			-3.959
292801.000			35.630			-3.959
292901.000			35.629			-3.959
293001.000			35.628			-3.959
293100.000			35.627			-3.959
293200.000			35.627			-3.959
293301.000			35.626			-3.958
293400.000			35.626			-3.958
293500.000			35.627			-3.959
293601.000			35.626			-3.958
293701.000			35.625			-3.958
293802.000			35.625			-3.958
293901.000			35.626			-3.958
294000.000			35.625			-3.958
294101.000			35.625			-3.958
294200.000			35.625			-3.958
294300.000			35.625			-3.958
294401.000			35.624			-3.958
294500.000			35.623			-3.958
294600.000			35.624			-3.958
294702.000			35.624			-3.958
294801.000			35.623			-3.958
294901.000			35.623			-3.958
295001.000			35.623			-3.958
295100.000			35.623			-3.958
295200.000			35.623			-3.958
295301.000			35.622			-3.958
295400.000			35.622			-3.958
295500.000			35.622			-3.958
295601.000			35.621			-3.958
295701.000			35.620			-3.958
295801.000			35.620			-3.958
295901.000			35.622			-3.958
296000.000			35.622			-3.958
296100.000			35.622			-3.958
296201.000			35.621			-3.958
296300.000			35.620			-3.958
296400.000			35.620			-3.958
296501.000			35.621			-3.958
296601.000			35.620			-3.958
296701.000			35.619			-3.958
296802.000			35.619			-3.958
296900.000			35.618			-3.958
297000.000			35.618			-3.958
297100.000			35.618			-3.958
297200.000			35.618			-3.958
297301.000			35.618			-3.958
297400.000			35.617			-3.957
297500.000			35.616			-3.957
297602.000			35.616			-3.957
297701.000			35.615			-3.957
297801.000			35.616			-3.957
297901.000			35.617			-3.957
298000.000			35.617			-3.957
298100.000			35.616			-3.957
298201.000			35.616			-3.957
298300.000			35.615			-3.957
298400.000			35.615			-3.957
298501.000			35.615			-3.957
298601.000			35.614			-3.957
298701.000			35.614			-3.957
298801.000			35.614			-3.957
298900.000			35.613			-3.957
299000.000			35.613			-3.957
299101.000			35.613			-3.957
299200.000			35.613			-3.957
299300.000			35.612			-3.957
299401.000			35.612			-3.957
299501.000			35.612			-3.957
299601.000			35.612			-3.957
299702.000			35.613			-3.957
299800.000			35.613			-3.957
299900.000			35.613			-3.957
