# Acquired on 08/01/2024 14:48:12 
# SPIDER: Creep_4mm_07714532C-2
# CREEP MEASUREMENT

# time [ms]		force [N]		stiffness [N/mm]
1.000			-7.257			-1.814
102.000			-7.800			-1.950
201.000			-7.992			-1.998
300.000			-7.995			-1.999
401.000			-7.965			-1.991
500.000			-7.941			-1.985
600.000			-7.922			-1.981
701.000			-7.891			-1.973
801.000			-7.880			-1.970
901.000			-7.866			-1.967
1001.000			-7.855			-1.964
1100.000			-7.846			-1.961
1200.000			-7.837			-1.959
1301.000			-7.829			-1.957
1400.000			-7.821			-1.955
1501.000			-7.806			-1.951
1601.000			-7.799			-1.950
1701.000			-7.793			-1.948
1801.000			-7.787			-1.947
1900.000			-7.781			-1.945
2000.000			-7.776			-1.944
2101.000			-7.770			-1.943
2200.000			-7.760			-1.940
2300.000			-7.754			-1.939
2402.000			-7.752			-1.938
2501.000			-7.748			-1.937
2600.000			-7.743			-1.936
2701.000			-7.739			-1.935
2800.000			-7.734			-1.933
2900.000			-7.727			-1.932
3001.000			-7.723			-1.931
3101.000			-7.719			-1.930
3201.000			-7.715			-1.929
3301.000			-7.712			-1.928
3400.000			-7.710			-1.927
3500.000			-7.706			-1.927
3601.000			-7.701			-1.925
3700.000			-7.697			-1.924
3800.000			-7.693			-1.923
3902.000			-7.690			-1.923
4001.000			-7.689			-1.922
4100.000			-7.686			-1.921
4201.000			-7.683			-1.921
4300.000			-7.679			-1.920
4400.000			-7.674			-1.919
4501.000			-7.672			-1.918
4600.000			-7.670			-1.918
4702.000			-7.667			-1.917
4801.000			-7.664			-1.916
4900.000			-7.663			-1.916
5001.000			-7.661			-1.915
5100.000			-7.656			-1.914
5200.000			-7.654			-1.913
5301.000			-7.651			-1.913
5401.000			-7.649			-1.912
5501.000			-7.647			-1.912
5601.000			-7.645			-1.911
5700.000			-7.643			-1.911
5800.000			-7.639			-1.910
5901.000			-7.638			-1.909
6000.000			-7.636			-1.909
6100.000			-7.634			-1.908
6202.000			-7.631			-1.908
6301.000			-7.629			-1.907
6400.000			-7.628			-1.907
6501.000			-7.623			-1.906
6600.000			-7.621			-1.905
6700.000			-7.620			-1.905
6801.000			-7.619			-1.905
6901.000			-7.618			-1.905
7001.000			-7.615			-1.904
7101.000			-7.613			-1.903
7200.000			-7.612			-1.903
7300.000			-7.609			-1.902
7401.000			-7.607			-1.902
7500.000			-7.606			-1.902
7600.000			-7.605			-1.901
7702.000			-7.603			-1.901
7801.000			-7.602			-1.900
7901.000			-7.601			-1.900
8000.000			-7.596			-1.899
8100.000			-7.594			-1.899
8201.000			-7.594			-1.898
8300.000			-7.592			-1.898
8400.000			-7.591			-1.898
8502.000			-7.590			-1.898
8601.000			-7.589			-1.897
8700.000			-7.586			-1.896
8801.000			-7.585			-1.896
8900.000			-7.583			-1.896
9000.000			-7.582			-1.896
9101.000			-7.580			-1.895
9200.000			-7.579			-1.895
9301.000			-7.578			-1.895
9402.000			-7.575			-1.894
9500.000			-7.574			-1.894
9600.000			-7.573			-1.893
9701.000			-7.572			-1.893
9800.000			-7.570			-1.893
9900.000			-7.569			-1.892
10002.000			-7.569			-1.892
10101.000			-7.567			-1.892
10201.000			-7.565			-1.891
10301.000			-7.563			-1.891
10400.000			-7.562			-1.891
10500.000			-7.560			-1.890
10601.000			-7.560			-1.890
10700.000			-7.559			-1.890
10801.000			-7.559			-1.890
10902.000			-7.557			-1.889
11001.000			-7.555			-1.889
11101.000			-7.553			-1.888
11200.000			-7.552			-1.888
11300.000			-7.551			-1.888
11401.000			-7.550			-1.888
11500.000			-7.549			-1.887
11601.000			-7.547			-1.887
11702.000			-7.546			-1.887
11800.000			-7.546			-1.886
11900.000			-7.545			-1.886
12001.000			-7.543			-1.886
12100.000			-7.542			-1.886
12200.000			-7.541			-1.885
12301.000			-7.540			-1.885
12401.000			-7.539			-1.885
12501.000			-7.537			-1.884
12601.000			-7.537			-1.884
12700.000			-7.536			-1.884
12800.000			-7.534			-1.884
12901.000			-7.533			-1.883
13000.000			-7.532			-1.883
13100.000			-7.531			-1.883
13202.000			-7.529			-1.882
13301.000			-7.529			-1.882
13400.000			-7.528			-1.882
13501.000			-7.528			-1.882
13600.000			-7.527			-1.882
13700.000			-7.525			-1.881
13801.000			-7.524			-1.881
13900.000			-7.523			-1.881
14001.000			-7.523			-1.881
14102.000			-7.522			-1.880
14200.000			-7.521			-1.880
14301.000			-7.520			-1.880
14400.000			-7.519			-1.880
14500.000			-7.517			-1.879
14601.000			-7.516			-1.879
14700.000			-7.515			-1.879
14801.000			-7.515			-1.879
14902.000			-7.513			-1.878
15000.000			-7.512			-1.878
15100.000			-7.512			-1.878
15201.000			-7.511			-1.878
15300.000			-7.508			-1.877
15400.000			-7.508			-1.877
15502.000			-7.508			-1.877
15601.000			-7.507			-1.877
15701.000			-7.506			-1.876
15801.000			-7.505			-1.876
15900.000			-7.505			-1.876
16000.000			-7.502			-1.876
16101.000			-7.502			-1.876
16200.000			-7.501			-1.875
16301.000			-7.500			-1.875
16402.000			-7.500			-1.875
16501.000			-7.500			-1.875
16600.000			-7.498			-1.874
16701.000			-7.496			-1.874
16800.000			-7.496			-1.874
16900.000			-7.495			-1.874
17001.000			-7.494			-1.873
17100.000			-7.493			-1.873
17201.000			-7.493			-1.873
17302.000			-7.493			-1.873
17400.000			-7.490			-1.873
17501.000			-7.491			-1.873
17600.000			-7.490			-1.873
17700.000			-7.490			-1.872
17801.000			-7.488			-1.872
17900.000			-7.487			-1.872
18001.000			-7.487			-1.872
18102.000			-7.487			-1.872
18200.000			-7.486			-1.871
18300.000			-7.485			-1.871
18401.000			-7.484			-1.871
18500.000			-7.482			-1.871
18600.000			-7.482			-1.870
18701.000			-7.481			-1.870
18801.000			-7.481			-1.870
18901.000			-7.480			-1.870
19001.000			-7.479			-1.870
19100.000			-7.478			-1.869
19200.000			-7.477			-1.869
19301.000			-7.476			-1.869
19400.000			-7.476			-1.869
19500.000			-7.476			-1.869
19602.000			-7.474			-1.869
19701.000			-7.473			-1.868
19800.000			-7.472			-1.868
19901.000			-7.472			-1.868
20000.000			-7.471			-1.868
20100.000			-7.471			-1.868
20201.000			-7.471			-1.868
20300.000			-7.470			-1.868
20401.000			-7.468			-1.867
20502.000			-7.467			-1.867
20600.000			-7.467			-1.867
20701.000			-7.467			-1.867
20800.000			-7.466			-1.867
20900.000			-7.465			-1.866
21001.000			-7.465			-1.866
21101.000			-7.464			-1.866
21201.000			-7.463			-1.866
21301.000			-7.463			-1.866
21400.000			-7.461			-1.865
21500.000			-7.461			-1.865
21601.000			-7.461			-1.865
21700.000			-7.461			-1.865
21800.000			-7.461			-1.865
21902.000			-7.459			-1.865
22001.000			-7.458			-1.864
22100.000			-7.458			-1.864
22201.000			-7.457			-1.864
22300.000			-7.456			-1.864
22400.000			-7.456			-1.864
22501.000			-7.455			-1.864
22600.000			-7.454			-1.864
22701.000			-7.454			-1.863
22802.000			-7.454			-1.863
22900.000			-7.453			-1.863
23000.000			-7.453			-1.863
23101.000			-7.453			-1.863
23200.000			-7.451			-1.863
23300.000			-7.449			-1.862
23401.000			-7.449			-1.862
23501.000			-7.448			-1.862
23601.000			-7.448			-1.862
23701.000			-7.447			-1.862
23800.000			-7.447			-1.862
23901.000			-7.447			-1.862
24000.000			-7.446			-1.861
24100.000			-7.446			-1.862
24201.000			-7.446			-1.861
24301.000			-7.445			-1.861
24401.000			-7.443			-1.861
24501.000			-7.443			-1.861
24600.000			-7.443			-1.861
24700.000			-7.442			-1.861
24801.000			-7.441			-1.860
24900.000			-7.441			-1.860
25000.000			-7.440			-1.860
25102.000			-7.439			-1.860
25201.000			-7.440			-1.860
25300.000			-7.439			-1.860
25401.000			-7.438			-1.859
25500.000			-7.438			-1.859
25600.000			-7.437			-1.859
25701.000			-7.435			-1.859
25800.000			-7.435			-1.859
25901.000			-7.436			-1.859
26002.000			-7.435			-1.859
26100.000			-7.434			-1.859
26200.000			-7.434			-1.858
26301.000			-7.434			-1.858
26400.000			-7.433			-1.858
26500.000			-7.432			-1.858
26601.000			-7.432			-1.858
26701.000			-7.431			-1.858
26801.000			-7.430			-1.858
26901.000			-7.430			-1.857
27000.000			-7.429			-1.857
27101.000			-7.428			-1.857
27200.000			-7.429			-1.857
27300.000			-7.428			-1.857
27401.000			-7.427			-1.857
27501.000			-7.427			-1.857
27601.000			-7.426			-1.856
27701.000			-7.425			-1.856
27800.000			-7.425			-1.856
27900.000			-7.424			-1.856
28001.000			-7.424			-1.856
28100.000			-7.424			-1.856
28200.000			-7.424			-1.856
28302.000			-7.422			-1.856
28401.000			-7.423			-1.856
28500.000			-7.421			-1.855
28601.000			-7.420			-1.855
28700.000			-7.421			-1.855
28800.000			-7.420			-1.855
28901.000			-7.420			-1.855
29000.000			-7.419			-1.855
29101.000			-7.418			-1.854
29202.000			-7.417			-1.854
29300.000			-7.417			-1.854
29400.000			-7.417			-1.854
29501.000			-7.417			-1.854
29600.000			-7.416			-1.854
29700.000			-7.415			-1.854
29801.000			-7.416			-1.854
29901.000			-7.415			-1.854
30001.000			-7.415			-1.854
30101.000			-7.414			-1.854
30200.000			-7.414			-1.853
30301.000			-7.413			-1.853
30400.000			-7.412			-1.853
30500.000			-7.411			-1.853
30601.000			-7.412			-1.853
30701.000			-7.412			-1.853
30800.000			-7.411			-1.853
30901.000			-7.410			-1.853
31000.000			-7.411			-1.853
31100.000			-7.410			-1.852
31201.000			-7.409			-1.852
31300.000			-7.408			-1.852
31401.000			-7.407			-1.852
31502.000			-7.407			-1.852
31600.000			-7.408			-1.852
31700.000			-7.407			-1.852
31801.000			-7.406			-1.851
31900.000			-7.406			-1.851
32000.000			-7.405			-1.851
32101.000			-7.404			-1.851
32201.000			-7.404			-1.851
32301.000			-7.404			-1.851
32401.000			-7.403			-1.851
32500.000			-7.403			-1.851
32600.000			-7.402			-1.851
32701.000			-7.403			-1.851
32800.000			-7.401			-1.850
32901.000			-7.399			-1.850
33002.000			-7.399			-1.850
33101.000			-7.400			-1.850
33200.000			-7.400			-1.850
33301.000			-7.399			-1.850
33400.000			-7.398			-1.850
33501.000			-7.398			-1.850
33600.000			-7.397			-1.849
33700.000			-7.397			-1.849
33802.000			-7.397			-1.849
33901.000			-7.398			-1.849
34000.000			-7.397			-1.849
34101.000			-7.396			-1.849
34200.000			-7.395			-1.849
34300.000			-7.394			-1.848
34401.000			-7.393			-1.848
34500.000			-7.394			-1.848
34601.000			-7.394			-1.849
34702.000			-7.394			-1.849
34800.000			-7.394			-1.848
34900.000			-7.391			-1.848
35001.000			-7.391			-1.848
35100.000			-7.393			-1.848
35200.000			-7.391			-1.848
35301.000			-7.390			-1.847
35401.000			-7.390			-1.847
35501.000			-7.390			-1.847
35601.000			-7.390			-1.848
35700.000			-7.390			-1.847
35800.000			-7.389			-1.847
35901.000			-7.388			-1.847
36000.000			-7.387			-1.847
36100.000			-7.387			-1.847
36202.000			-7.386			-1.847
36301.000			-7.385			-1.846
36400.000			-7.385			-1.846
36501.000			-7.386			-1.846
36600.000			-7.386			-1.846
36701.000			-7.385			-1.846
36800.000			-7.385			-1.846
36900.000			-7.384			-1.846
37001.000			-7.383			-1.846
37101.000			-7.383			-1.846
37201.000			-7.383			-1.846
37301.000			-7.383			-1.846
37400.000			-7.384			-1.846
37500.000			-7.383			-1.846
37601.000			-7.383			-1.846
37700.000			-7.382			-1.845
37800.000			-7.380			-1.845
37902.000			-7.380			-1.845
38001.000			-7.379			-1.845
38100.000			-7.379			-1.845
38201.000			-7.379			-1.845
38300.000			-7.377			-1.844
38400.000			-7.377			-1.844
38501.000			-7.378			-1.844
38600.000			-7.378			-1.844
38701.000			-7.377			-1.844
38802.000			-7.377			-1.844
38900.000			-7.376			-1.844
39000.000			-7.376			-1.844
39101.000			-7.376			-1.844
39200.000			-7.376			-1.844
39300.000			-7.375			-1.844
39401.000			-7.374			-1.843
39501.000			-7.373			-1.843
39601.000			-7.374			-1.843
39701.000			-7.374			-1.843
39800.000			-7.373			-1.843
39901.000			-7.372			-1.843
40000.000			-7.372			-1.843
40100.000			-7.371			-1.843
40201.000			-7.371			-1.843
40301.000			-7.371			-1.843
40401.000			-7.371			-1.843
40501.000			-7.371			-1.843
40600.000			-7.370			-1.843
40700.000			-7.370			-1.842
40801.000			-7.370			-1.842
40900.000			-7.370			-1.843
41000.000			-7.369			-1.842
41102.000			-7.369			-1.842
41201.000			-7.369			-1.842
41300.000			-7.368			-1.842
41401.000			-7.367			-1.842
41500.000			-7.367			-1.842
41600.000			-7.366			-1.842
41701.000			-7.365			-1.841
41800.000			-7.365			-1.841
41901.000			-7.366			-1.841
42002.000			-7.366			-1.841
42100.000			-7.365			-1.841
42200.000			-7.364			-1.841
42301.000			-7.364			-1.841
42400.000			-7.364			-1.841
42500.000			-7.363			-1.841
42601.000			-7.362			-1.841
42701.000			-7.364			-1.841
42801.000			-7.364			-1.841
42901.000			-7.361			-1.840
43000.000			-7.361			-1.840
43101.000			-7.362			-1.840
43200.000			-7.362			-1.841
43300.000			-7.361			-1.840
43401.000			-7.361			-1.840
43501.000			-7.361			-1.840
43601.000			-7.360			-1.840
43701.000			-7.360			-1.840
43800.000			-7.359			-1.840
43900.000			-7.358			-1.840
44001.000			-7.358			-1.840
44100.000			-7.359			-1.840
44200.000			-7.358			-1.840
44302.000			-7.356			-1.839
44401.000			-7.355			-1.839
44500.000			-7.356			-1.839
44601.000			-7.356			-1.839
44700.000			-7.356			-1.839
44800.000			-7.355			-1.839
44901.000			-7.356			-1.839
45001.000			-7.355			-1.839
45101.000			-7.354			-1.838
45202.000			-7.354			-1.838
45300.000			-7.354			-1.838
45400.000			-7.353			-1.838
45501.000			-7.352			-1.838
45600.000			-7.353			-1.838
45700.000			-7.353			-1.838
45802.000			-7.352			-1.838
45901.000			-7.352			-1.838
46001.000			-7.352			-1.838
46101.000			-7.351			-1.838
46200.000			-7.353			-1.838
46301.000			-7.352			-1.838
46400.000			-7.350			-1.838
46500.000			-7.350			-1.838
46602.000			-7.350			-1.837
46701.000			-7.349			-1.837
46801.000			-7.350			-1.837
46901.000			-7.349			-1.837
47000.000			-7.349			-1.837
47100.000			-7.348			-1.837
47201.000			-7.346			-1.837
47300.000			-7.347			-1.837
47400.000			-7.346			-1.837
47502.000			-7.346			-1.837
47601.000			-7.345			-1.836
47700.000			-7.345			-1.836
47801.000			-7.345			-1.836
47900.000			-7.344			-1.836
48000.000			-7.345			-1.836
48101.000			-7.344			-1.836
48201.000			-7.344			-1.836
48301.000			-7.345			-1.836
48402.000			-7.343			-1.836
48500.000			-7.343			-1.836
48600.000			-7.343			-1.836
48701.000			-7.342			-1.836
48800.000			-7.342			-1.836
48900.000			-7.341			-1.835
49002.000			-7.342			-1.835
49101.000			-7.342			-1.835
49201.000			-7.341			-1.835
49301.000			-7.341			-1.835
49400.000			-7.341			-1.835
49501.000			-7.340			-1.835
49600.000			-7.339			-1.835
49700.000			-7.338			-1.835
49802.000			-7.338			-1.835
49901.000			-7.339			-1.835
50001.000			-7.340			-1.835
50101.000			-7.339			-1.835
50200.000			-7.337			-1.834
50300.000			-7.337			-1.834
50401.000			-7.337			-1.834
50500.000			-7.337			-1.834
50601.000			-7.336			-1.834
50702.000			-7.336			-1.834
50800.000			-7.336			-1.834
50900.000			-7.336			-1.834
51001.000			-7.336			-1.834
51100.000			-7.336			-1.834
51200.000			-7.335			-1.834
51301.000			-7.334			-1.833
51401.000			-7.333			-1.833
51501.000			-7.334			-1.833
51601.000			-7.334			-1.833
51700.000			-7.333			-1.833
51800.000			-7.333			-1.833
51901.000			-7.333			-1.833
52000.000			-7.334			-1.834
52100.000			-7.333			-1.833
52202.000			-7.332			-1.833
52301.000			-7.332			-1.833
52400.000			-7.331			-1.833
52501.000			-7.331			-1.833
52600.000			-7.331			-1.833
52701.000			-7.330			-1.833
52800.000			-7.330			-1.833
52900.000			-7.330			-1.832
53002.000			-7.330			-1.832
53101.000			-7.328			-1.832
53200.000			-7.329			-1.832
53301.000			-7.330			-1.832
53400.000			-7.329			-1.832
53500.000			-7.328			-1.832
53601.000			-7.328			-1.832
53700.000			-7.327			-1.832
53801.000			-7.327			-1.832
53902.000			-7.327			-1.832
54000.000			-7.327			-1.832
54100.000			-7.327			-1.832
54201.000			-7.326			-1.832
54300.000			-7.326			-1.832
54400.000			-7.327			-1.832
54501.000			-7.324			-1.831
54601.000			-7.325			-1.831
54701.000			-7.324			-1.831
54801.000			-7.324			-1.831
54900.000			-7.324			-1.831
55000.000			-7.324			-1.831
55101.000			-7.325			-1.831
55200.000			-7.325			-1.831
55301.000			-7.323			-1.831
55402.000			-7.323			-1.831
55500.000			-7.324			-1.831
55600.000			-7.324			-1.831
55701.000			-7.323			-1.831
55800.000			-7.321			-1.830
55901.000			-7.322			-1.831
56000.000			-7.321			-1.830
56101.000			-7.320			-1.830
56202.000			-7.320			-1.830
56300.000			-7.321			-1.830
56400.000			-7.321			-1.830
56501.000			-7.320			-1.830
56600.000			-7.318			-1.830
56700.000			-7.320			-1.830
56801.000			-7.320			-1.830
56901.000			-7.319			-1.830
57001.000			-7.319			-1.830
57101.000			-7.319			-1.830
57200.000			-7.319			-1.830
57300.000			-7.318			-1.830
57401.000			-7.317			-1.829
57500.000			-7.317			-1.829
57600.000			-7.319			-1.830
57702.000			-7.319			-1.830
57801.000			-7.317			-1.829
57900.000			-7.317			-1.829
58001.000			-7.316			-1.829
58100.000			-7.317			-1.829
58200.000			-7.315			-1.829
58301.000			-7.315			-1.829
58400.000			-7.315			-1.829
58501.000			-7.313			-1.828
58602.000			-7.314			-1.829
58700.000			-7.314			-1.829
58800.000			-7.314			-1.828
58901.000			-7.314			-1.829
59000.000			-7.314			-1.828
59101.000			-7.314			-1.828
59200.000			-7.313			-1.828
59301.000			-7.313			-1.828
59402.000			-7.313			-1.828
59500.000			-7.312			-1.828
59600.000			-7.312			-1.828
59701.000			-7.312			-1.828
59800.000			-7.311			-1.828
59900.000			-7.312			-1.828
60001.000			-7.311			-1.828
60101.000			-7.310			-1.827
60201.000			-7.310			-1.828
60301.000			-7.309			-1.827
60400.000			-7.310			-1.827
60500.000			-7.309			-1.827
60601.000			-7.309			-1.827
60700.000			-7.310			-1.827
60801.000			-7.309			-1.827
60902.000			-7.307			-1.827
61001.000			-7.308			-1.827
61100.000			-7.308			-1.827
61201.000			-7.307			-1.827
61300.000			-7.307			-1.827
61400.000			-7.307			-1.827
61501.000			-7.308			-1.827
61601.000			-7.307			-1.827
61701.000			-7.307			-1.827
61801.000			-7.306			-1.827
61900.000			-7.306			-1.826
62000.000			-7.306			-1.827
62101.000			-7.305			-1.826
62200.000			-7.304			-1.826
62301.000			-7.305			-1.826
62401.000			-7.304			-1.826
62501.000			-7.305			-1.826
62601.000			-7.304			-1.826
62700.000			-7.303			-1.826
62800.000			-7.303			-1.826
62901.000			-7.303			-1.826
63000.000			-7.302			-1.826
63100.000			-7.303			-1.826
63202.000			-7.303			-1.826
63301.000			-7.303			-1.826
63400.000			-7.303			-1.826
63501.000			-7.303			-1.826
63600.000			-7.301			-1.825
63700.000			-7.300			-1.825
63801.000			-7.299			-1.825
63901.000			-7.300			-1.825
64001.000			-7.301			-1.825
64101.000			-7.300			-1.825
64200.000			-7.300			-1.825
64300.000			-7.301			-1.825
64401.000			-7.301			-1.825
64500.000			-7.300			-1.825
64600.000			-7.300			-1.825
64702.000			-7.299			-1.825
64801.000			-7.299			-1.825
64901.000			-7.298			-1.825
65001.000			-7.298			-1.825
65100.000			-7.298			-1.825
65200.000			-7.299			-1.825
65301.000			-7.298			-1.824
65400.000			-7.298			-1.824
65501.000			-7.298			-1.824
65601.000			-7.297			-1.824
65701.000			-7.297			-1.824
65801.000			-7.296			-1.824
65900.000			-7.296			-1.824
66000.000			-7.295			-1.824
66101.000			-7.295			-1.824
66200.000			-7.295			-1.824
66300.000			-7.295			-1.824
66402.000			-7.294			-1.823
66501.000			-7.294			-1.823
66600.000			-7.295			-1.824
66701.000			-7.295			-1.824
66800.000			-7.295			-1.824
66900.000			-7.295			-1.824
67001.000			-7.294			-1.824
67100.000			-7.293			-1.823
67201.000			-7.293			-1.823
67302.000			-7.292			-1.823
67400.000			-7.292			-1.823
67500.000			-7.293			-1.823
67601.000			-7.294			-1.823
67700.000			-7.292			-1.823
67800.000			-7.291			-1.823
67901.000			-7.292			-1.823
68001.000			-7.291			-1.823
68101.000			-7.291			-1.823
68202.000			-7.291			-1.823
68300.000			-7.290			-1.823
68400.000			-7.291			-1.823
68501.000			-7.290			-1.823
68600.000			-7.290			-1.823
68701.000			-7.289			-1.822
68800.000			-7.289			-1.822
68901.000			-7.290			-1.823
69002.000			-7.290			-1.822
69100.000			-7.289			-1.822
69200.000			-7.289			-1.822
69301.000			-7.288			-1.822
69400.000			-7.288			-1.822
69500.000			-7.288			-1.822
69601.000			-7.288			-1.822
69701.000			-7.287			-1.822
69801.000			-7.287			-1.822
69902.000			-7.287			-1.822
70000.000			-7.287			-1.822
70100.000			-7.287			-1.822
70201.000			-7.286			-1.822
70300.000			-7.286			-1.822
70400.000			-7.286			-1.822
70501.000			-7.286			-1.821
70601.000			-7.286			-1.821
70701.000			-7.286			-1.821
70801.000			-7.286			-1.821
70900.000			-7.284			-1.821
71000.000			-7.284			-1.821
71101.000			-7.286			-1.821
71200.000			-7.284			-1.821
71300.000			-7.283			-1.821
71402.000			-7.284			-1.821
71501.000			-7.282			-1.821
71600.000			-7.283			-1.821
71701.000			-7.284			-1.821
71800.000			-7.283			-1.821
71901.000			-7.282			-1.820
72000.000			-7.282			-1.821
72100.000			-7.283			-1.821
72202.000			-7.282			-1.820
72301.000			-7.282			-1.820
72400.000			-7.282			-1.820
72501.000			-7.282			-1.821
72600.000			-7.281			-1.820
72700.000			-7.280			-1.820
72801.000			-7.281			-1.820
72900.000			-7.281			-1.820
73001.000			-7.280			-1.820
73102.000			-7.279			-1.820
73200.000			-7.280			-1.820
73300.000			-7.280			-1.820
73401.000			-7.279			-1.820
73500.000			-7.279			-1.820
73600.000			-7.279			-1.820
73701.000			-7.279			-1.820
73801.000			-7.279			-1.820
73901.000			-7.279			-1.820
74001.000			-7.280			-1.820
74100.000			-7.280			-1.820
74200.000			-7.279			-1.820
74301.000			-7.278			-1.820
74400.000			-7.278			-1.819
74500.000			-7.276			-1.819
74602.000			-7.275			-1.819
74701.000			-7.276			-1.819
74800.000			-7.277			-1.819
74901.000			-7.277			-1.819
75000.000			-7.276			-1.819
75101.000			-7.276			-1.819
75200.000			-7.275			-1.819
75300.000			-7.275			-1.819
75401.000			-7.276			-1.819
75501.000			-7.276			-1.819
75601.000			-7.275			-1.819
75701.000			-7.275			-1.819
75800.000			-7.275			-1.819
75900.000			-7.275			-1.819
76001.000			-7.275			-1.819
76100.000			-7.275			-1.819
76200.000			-7.274			-1.819
76302.000			-7.274			-1.818
76401.000			-7.273			-1.818
76500.000			-7.272			-1.818
76601.000			-7.273			-1.818
76700.000			-7.273			-1.818
76800.000			-7.273			-1.818
76901.000			-7.273			-1.818
77000.000			-7.272			-1.818
77101.000			-7.272			-1.818
77202.000			-7.273			-1.818
77300.000			-7.272			-1.818
77400.000			-7.272			-1.818
77501.000			-7.272			-1.818
77600.000			-7.271			-1.818
77700.000			-7.270			-1.818
77801.000			-7.270			-1.818
77901.000			-7.270			-1.818
78001.000			-7.271			-1.818
78101.000			-7.270			-1.817
78200.000			-7.269			-1.817
78301.000			-7.270			-1.817
78400.000			-7.270			-1.818
78500.000			-7.269			-1.817
78601.000			-7.269			-1.817
78700.000			-7.269			-1.817
78801.000			-7.268			-1.817
78902.000			-7.269			-1.817
79000.000			-7.269			-1.817
79100.000			-7.268			-1.817
79201.000			-7.268			-1.817
79300.000			-7.268			-1.817
79400.000			-7.268			-1.817
79501.000			-7.268			-1.817
79601.000			-7.267			-1.817
79701.000			-7.266			-1.817
79801.000			-7.267			-1.817
79900.000			-7.267			-1.817
80000.000			-7.266			-1.817
80101.000			-7.266			-1.816
80200.000			-7.266			-1.816
80300.000			-7.266			-1.816
80401.000			-7.265			-1.816
80501.000			-7.266			-1.816
80601.000			-7.267			-1.817
80701.000			-7.264			-1.816
80800.000			-7.264			-1.816
80900.000			-7.265			-1.816
81001.000			-7.265			-1.816
81100.000			-7.265			-1.816
81200.000			-7.265			-1.816
81302.000			-7.265			-1.816
81401.000			-7.265			-1.816
81501.000			-7.263			-1.816
81600.000			-7.263			-1.816
81700.000			-7.263			-1.816
81801.000			-7.263			-1.816
81900.000			-7.263			-1.816
82000.000			-7.263			-1.816
82102.000			-7.263			-1.816
82201.000			-7.263			-1.816
82300.000			-7.262			-1.816
82401.000			-7.262			-1.815
82500.000			-7.263			-1.816
82600.000			-7.263			-1.816
82701.000			-7.263			-1.816
82800.000			-7.262			-1.816
82901.000			-7.261			-1.815
83002.000			-7.261			-1.815
83100.000			-7.261			-1.815
83200.000			-7.261			-1.815
83301.000			-7.259			-1.815
83400.000			-7.259			-1.815
83500.000			-7.261			-1.815
83601.000			-7.260			-1.815
83701.000			-7.259			-1.815
83801.000			-7.259			-1.815
83901.000			-7.259			-1.815
84000.000			-7.258			-1.815
84100.000			-7.259			-1.815
84201.000			-7.259			-1.815
84300.000			-7.258			-1.815
84400.000			-7.258			-1.815
84502.000			-7.259			-1.815
84601.000			-7.258			-1.815
84702.000			-7.258			-1.814
84800.000			-7.257			-1.814
84900.000			-7.258			-1.814
85001.000			-7.258			-1.815
85100.000			-7.258			-1.814
85200.000			-7.258			-1.814
85301.000			-7.257			-1.814
85401.000			-7.257			-1.814
85501.000			-7.256			-1.814
85601.000			-7.256			-1.814
85700.000			-7.256			-1.814
85800.000			-7.255			-1.814
85901.000			-7.255			-1.814
86000.000			-7.255			-1.814
86100.000			-7.254			-1.814
86202.000			-7.255			-1.814
86301.000			-7.256			-1.814
86400.000			-7.257			-1.814
86501.000			-7.254			-1.814
86600.000			-7.254			-1.814
86700.000			-7.254			-1.813
86801.000			-7.254			-1.814
86900.000			-7.254			-1.813
87001.000			-7.253			-1.813
87102.000			-7.253			-1.813
87201.000			-7.254			-1.813
87300.000			-7.253			-1.813
87401.000			-7.252			-1.813
87500.000			-7.252			-1.813
87600.000			-7.252			-1.813
87701.000			-7.252			-1.813
87801.000			-7.252			-1.813
87902.000			-7.251			-1.813
88001.000			-7.251			-1.813
88100.000			-7.251			-1.813
88201.000			-7.251			-1.813
88300.000			-7.251			-1.813
88400.000			-7.250			-1.813
88501.000			-7.251			-1.813
88600.000			-7.251			-1.813
88701.000			-7.251			-1.813
88802.000			-7.250			-1.813
88900.000			-7.250			-1.813
89000.000			-7.250			-1.813
89101.000			-7.250			-1.812
89200.000			-7.250			-1.813
89300.000			-7.250			-1.812
89401.000			-7.249			-1.812
89501.000			-7.248			-1.812
89601.000			-7.249			-1.812
89701.000			-7.249			-1.812
89800.000			-7.249			-1.812
89900.000			-7.248			-1.812
90001.000			-7.249			-1.812
90100.000			-7.249			-1.812
90200.000			-7.247			-1.812
90302.000			-7.246			-1.812
90401.000			-7.248			-1.812
90500.000			-7.248			-1.812
90601.000			-7.248			-1.812
90700.000			-7.247			-1.812
90800.000			-7.248			-1.812
90901.000			-7.248			-1.812
91000.000			-7.246			-1.811
91102.000			-7.246			-1.812
91201.000			-7.246			-1.812
91300.000			-7.246			-1.811
91401.000			-7.246			-1.811
91500.000			-7.246			-1.811
91600.000			-7.245			-1.811
91701.000			-7.244			-1.811
91800.000			-7.245			-1.811
91901.000			-7.245			-1.811
92002.000			-7.245			-1.811
92100.000			-7.244			-1.811
92200.000			-7.244			-1.811
92301.000			-7.244			-1.811
92400.000			-7.244			-1.811
92500.000			-7.244			-1.811
92601.000			-7.245			-1.811
92701.000			-7.245			-1.811
92801.000			-7.243			-1.811
92901.000			-7.242			-1.810
93000.000			-7.242			-1.810
93100.000			-7.242			-1.810
93201.000			-7.242			-1.811
93300.000			-7.242			-1.811
93400.000			-7.243			-1.811
93502.000			-7.242			-1.811
93601.000			-7.241			-1.810
93700.000			-7.243			-1.811
93801.000			-7.242			-1.810
93900.000			-7.241			-1.810
94000.000			-7.241			-1.810
94101.000			-7.241			-1.810
94200.000			-7.241			-1.810
94302.000			-7.241			-1.810
94401.000			-7.239			-1.810
94500.000			-7.241			-1.810
94601.000			-7.241			-1.810
94700.000			-7.240			-1.810
94800.000			-7.240			-1.810
94901.000			-7.239			-1.810
95000.000			-7.240			-1.810
95100.000			-7.239			-1.810
95202.000			-7.239			-1.810
95301.000			-7.239			-1.810
95400.000			-7.239			-1.810
95501.000			-7.239			-1.810
95600.000			-7.238			-1.810
95700.000			-7.238			-1.810
95801.000			-7.238			-1.810
95900.000			-7.238			-1.810
96001.000			-7.238			-1.810
96102.000			-7.237			-1.809
96200.000			-7.238			-1.809
96300.000			-7.238			-1.809
96401.000			-7.238			-1.809
96500.000			-7.237			-1.809
96600.000			-7.237			-1.809
96701.000			-7.238			-1.809
96801.000			-7.237			-1.809
96901.000			-7.236			-1.809
97001.000			-7.237			-1.809
97100.000			-7.236			-1.809
97200.000			-7.236			-1.809
97301.000			-7.236			-1.809
97400.000			-7.235			-1.809
97501.000			-7.236			-1.809
97601.000			-7.236			-1.809
97701.000			-7.236			-1.809
97802.000			-7.236			-1.809
97900.000			-7.235			-1.809
98000.000			-7.235			-1.809
98101.000			-7.234			-1.808
98200.000			-7.235			-1.809
98300.000			-7.236			-1.809
98401.000			-7.235			-1.809
98501.000			-7.233			-1.808
98601.000			-7.233			-1.808
98701.000			-7.234			-1.808
98800.000			-7.235			-1.809
98900.000			-7.233			-1.808
99001.000			-7.233			-1.808
99100.000			-7.234			-1.809
99200.000			-7.234			-1.808
99302.000			-7.233			-1.808
99401.000			-7.233			-1.808
99500.000			-7.232			-1.808
99601.000			-7.232			-1.808
99700.000			-7.233			-1.808
99800.000			-7.233			-1.808
99901.000			-7.233			-1.808
100000.000			-7.232			-1.808
100101.000			-7.232			-1.808
100202.000			-7.231			-1.808
100300.000			-7.231			-1.808
100400.000			-7.230			-1.808
100501.000			-7.230			-1.808
100600.000			-7.230			-1.808
100701.000			-7.230			-1.808
100800.000			-7.230			-1.807
100901.000			-7.230			-1.807
101002.000			-7.229			-1.807
101100.000			-7.230			-1.807
101200.000			-7.229			-1.807
101301.000			-7.229			-1.807
101400.000			-7.230			-1.807
101500.000			-7.229			-1.807
101601.000			-7.229			-1.807
101701.000			-7.228			-1.807
101801.000			-7.228			-1.807
101901.000			-7.229			-1.807
102000.000			-7.229			-1.807
102100.000			-7.229			-1.807
102201.000			-7.229			-1.807
102300.000			-7.229			-1.807
102400.000			-7.228			-1.807
102501.000			-7.228			-1.807
102601.000			-7.228			-1.807
102701.000			-7.227			-1.807
102801.000			-7.228			-1.807
102900.000			-7.228			-1.807
103000.000			-7.228			-1.807
103101.000			-7.227			-1.807
103200.000			-7.226			-1.806
103300.000			-7.226			-1.807
103402.000			-7.227			-1.807
103501.000			-7.227			-1.807
103600.000			-7.227			-1.807
103701.000			-7.226			-1.806
103800.000			-7.226			-1.806
103901.000			-7.225			-1.806
104000.000			-7.225			-1.806
104100.000			-7.225			-1.806
104202.000			-7.225			-1.806
104301.000			-7.226			-1.806
104400.000			-7.226			-1.806
104501.000			-7.225			-1.806
104600.000			-7.224			-1.806
104700.000			-7.224			-1.806
104801.000			-7.224			-1.806
104900.000			-7.224			-1.806
105001.000			-7.224			-1.806
105102.000			-7.224			-1.806
105200.000			-7.224			-1.806
105300.000			-7.223			-1.806
105401.000			-7.224			-1.806
105500.000			-7.223			-1.806
105600.000			-7.223			-1.806
105701.000			-7.223			-1.806
105801.000			-7.222			-1.806
105901.000			-7.222			-1.806
106001.000			-7.223			-1.806
106100.000			-7.221			-1.805
106200.000			-7.222			-1.806
106301.000			-7.222			-1.806
106400.000			-7.222			-1.805
106500.000			-7.222			-1.805
106602.000			-7.221			-1.805
106701.000			-7.221			-1.805
106800.000			-7.220			-1.805
106901.000			-7.221			-1.805
107000.000			-7.220			-1.805
107101.000			-7.221			-1.805
107200.000			-7.222			-1.805
107300.000			-7.221			-1.805
107401.000			-7.221			-1.805
107501.000			-7.220			-1.805
107601.000			-7.220			-1.805
107701.000			-7.219			-1.805
107800.000			-7.219			-1.805
107900.000			-7.220			-1.805
108001.000			-7.219			-1.805
108100.000			-7.219			-1.805
108200.000			-7.219			-1.805
108302.000			-7.219			-1.805
108401.000			-7.218			-1.805
108500.000			-7.219			-1.805
108601.000			-7.219			-1.805
108700.000			-7.219			-1.805
108800.000			-7.218			-1.804
108901.000			-7.218			-1.805
109000.000			-7.219			-1.805
109101.000			-7.218			-1.805
109202.000			-7.218			-1.804
109301.000			-7.217			-1.804
109400.000			-7.217			-1.804
109501.000			-7.218			-1.804
109600.000			-7.217			-1.804
109700.000			-7.217			-1.804
109801.000			-7.217			-1.804
109900.000			-7.217			-1.804
110001.000			-7.217			-1.804
110102.000			-7.217			-1.804
110200.000			-7.216			-1.804
110301.000			-7.216			-1.804
110400.000			-7.215			-1.804
110500.000			-7.216			-1.804
110601.000			-7.216			-1.804
110700.000			-7.216			-1.804
110801.000			-7.215			-1.804
110902.000			-7.214			-1.804
111000.000			-7.215			-1.804
111100.000			-7.215			-1.804
111201.000			-7.216			-1.804
111300.000			-7.215			-1.804
111400.000			-7.215			-1.804
111501.000			-7.214			-1.804
111601.000			-7.214			-1.804
111701.000			-7.214			-1.803
111801.000			-7.214			-1.804
111900.000			-7.213			-1.803
112000.000			-7.214			-1.804
112101.000			-7.214			-1.804
112200.000			-7.213			-1.803
112300.000			-7.213			-1.803
112402.000			-7.213			-1.803
112501.000			-7.213			-1.803
112600.000			-7.213			-1.803
112701.000			-7.213			-1.803
112800.000			-7.214			-1.803
112900.000			-7.213			-1.803
113001.000			-7.211			-1.803
113100.000			-7.211			-1.803
113201.000			-7.211			-1.803
113302.000			-7.212			-1.803
113400.000			-7.212			-1.803
113501.000			-7.211			-1.803
113600.000			-7.211			-1.803
113700.000			-7.211			-1.803
113801.000			-7.211			-1.803
113900.000			-7.211			-1.803
114001.000			-7.211			-1.803
114102.000			-7.211			-1.803
114200.000			-7.211			-1.803
114300.000			-7.211			-1.803
114401.000			-7.211			-1.803
114500.000			-7.210			-1.803
114600.000			-7.210			-1.802
114701.000			-7.210			-1.802
114801.000			-7.211			-1.803
114901.000			-7.210			-1.803
115001.000			-7.211			-1.803
115100.000			-7.211			-1.803
115200.000			-7.210			-1.802
115301.000			-7.210			-1.802
115400.000			-7.210			-1.802
115500.000			-7.209			-1.802
115602.000			-7.210			-1.803
115701.000			-7.209			-1.802
115800.000			-7.208			-1.802
115901.000			-7.209			-1.802
116000.000			-7.209			-1.802
116100.000			-7.208			-1.802
116201.000			-7.208			-1.802
116300.000			-7.208			-1.802
116401.000			-7.207			-1.802
116502.000			-7.208			-1.802
116600.000			-7.208			-1.802
116701.000			-7.208			-1.802
116800.000			-7.208			-1.802
116900.000			-7.207			-1.802
117001.000			-7.207			-1.802
117100.000			-7.206			-1.801
117200.000			-7.206			-1.802
117302.000			-7.206			-1.802
117401.000			-7.206			-1.802
117500.000			-7.207			-1.802
117601.000			-7.206			-1.802
117700.000			-7.206			-1.802
117800.000			-7.205			-1.801
117901.000			-7.204			-1.801
118000.000			-7.204			-1.801
118101.000			-7.205			-1.801
118202.000			-7.206			-1.801
118300.000			-7.206			-1.801
118400.000			-7.204			-1.801
118501.000			-7.205			-1.801
118600.000			-7.204			-1.801
118700.000			-7.205			-1.801
118801.000			-7.205			-1.801
118901.000			-7.205			-1.801
119001.000			-7.205			-1.801
119101.000			-7.204			-1.801
119200.000			-7.204			-1.801
119300.000			-7.204			-1.801
119401.000			-7.203			-1.801
119500.000			-7.204			-1.801
119600.000			-7.205			-1.801
119702.000			-7.204			-1.801
119801.000			-7.203			-1.801
119902.000			-7.203			-1.801
120000.000			-7.202			-1.800
120100.000			-7.202			-1.801
120201.000			-7.203			-1.801
120300.000			-7.202			-1.801
120400.000			-7.203			-1.801
120502.000			-7.203			-1.801
120601.000			-7.202			-1.801
120701.000			-7.203			-1.801
120801.000			-7.202			-1.801
120900.000			-7.202			-1.800
121000.000			-7.201			-1.800
121101.000			-7.202			-1.800
121200.000			-7.202			-1.800
121300.000			-7.201			-1.800
121402.000			-7.201			-1.800
121501.000			-7.201			-1.800
121600.000			-7.200			-1.800
121701.000			-7.201			-1.800
121800.000			-7.201			-1.800
121900.000			-7.200			-1.800
122001.000			-7.201			-1.800
122101.000			-7.201			-1.800
122201.000			-7.200			-1.800
122301.000			-7.199			-1.800
122400.000			-7.199			-1.800
122500.000			-7.199			-1.800
122601.000			-7.200			-1.800
122700.000			-7.200			-1.800
122800.000			-7.200			-1.800
122901.000			-7.199			-1.800
123001.000			-7.198			-1.800
123102.000			-7.198			-1.800
123200.000			-7.198			-1.800
123300.000			-7.199			-1.800
123401.000			-7.199			-1.800
123500.000			-7.200			-1.800
123600.000			-7.199			-1.800
123701.000			-7.198			-1.799
123801.000			-7.198			-1.800
123901.000			-7.197			-1.799
124001.000			-7.198			-1.799
124100.000			-7.198			-1.800
124200.000			-7.197			-1.799
124301.000			-7.196			-1.799
124400.000			-7.197			-1.799
124500.000			-7.197			-1.799
124601.000			-7.197			-1.799
124701.000			-7.197			-1.799
124801.000			-7.197			-1.799
124901.000			-7.196			-1.799
125000.000			-7.196			-1.799
125100.000			-7.195			-1.799
125201.000			-7.195			-1.799
125300.000			-7.195			-1.799
125400.000			-7.195			-1.799
125502.000			-7.196			-1.799
125601.000			-7.196			-1.799
125701.000			-7.195			-1.799
125801.000			-7.195			-1.799
125900.000			-7.195			-1.799
126000.000			-7.195			-1.799
126101.000			-7.195			-1.799
126200.000			-7.195			-1.799
126301.000			-7.194			-1.799
126401.000			-7.194			-1.799
126501.000			-7.195			-1.799
126601.000			-7.194			-1.798
126700.000			-7.194			-1.799
126800.000			-7.194			-1.798
126901.000			-7.193			-1.798
127000.000			-7.194			-1.798
127100.000			-7.193			-1.798
127201.000			-7.194			-1.799
127301.000			-7.195			-1.799
127401.000			-7.194			-1.798
127501.000			-7.192			-1.798
127600.000			-7.192			-1.798
127700.000			-7.192			-1.798
127801.000			-7.192			-1.798
127900.000			-7.193			-1.798
128000.000			-7.194			-1.798
128102.000			-7.193			-1.798
128201.000			-7.192			-1.798
128300.000			-7.192			-1.798
128401.000			-7.193			-1.798
128500.000			-7.192			-1.798
128600.000			-7.192			-1.798
128701.000			-7.192			-1.798
128800.000			-7.192			-1.798
128900.000			-7.191			-1.798
129002.000			-7.191			-1.798
129101.000			-7.191			-1.798
129200.000			-7.191			-1.798
129301.000			-7.190			-1.798
129400.000			-7.191			-1.798
129501.000			-7.190			-1.798
129600.000			-7.190			-1.798
129700.000			-7.190			-1.797
129802.000			-7.190			-1.797
129901.000			-7.190			-1.798
130001.000			-7.190			-1.797
130101.000			-7.188			-1.797
130200.000			-7.189			-1.797
130300.000			-7.190			-1.797
130401.000			-7.189			-1.797
130500.000			-7.189			-1.797
130600.000			-7.189			-1.797
130702.000			-7.189			-1.797
130801.000			-7.189			-1.797
130900.000			-7.190			-1.798
131001.000			-7.189			-1.797
131100.000			-7.188			-1.797
131200.000			-7.188			-1.797
131301.000			-7.189			-1.797
131400.000			-7.189			-1.797
131500.000			-7.188			-1.797
131602.000			-7.187			-1.797
131701.000			-7.189			-1.797
131800.000			-7.188			-1.797
131901.000			-7.187			-1.797
132000.000			-7.187			-1.797
132100.000			-7.187			-1.797
132201.000			-7.187			-1.797
132300.000			-7.186			-1.797
132400.000			-7.186			-1.796
132502.000			-7.186			-1.797
132601.000			-7.187			-1.797
132701.000			-7.186			-1.797
132800.000			-7.186			-1.796
132900.000			-7.186			-1.797
133001.000			-7.186			-1.797
133100.000			-7.186			-1.796
133200.000			-7.186			-1.797
133301.000			-7.186			-1.797
133401.000			-7.185			-1.796
133501.000			-7.185			-1.796
133601.000			-7.185			-1.796
133700.000			-7.185			-1.796
133800.000			-7.185			-1.796
133901.000			-7.184			-1.796
134000.000			-7.185			-1.796
134100.000			-7.185			-1.796
134201.000			-7.185			-1.796
134301.000			-7.184			-1.796
134401.000			-7.183			-1.796
134502.000			-7.184			-1.796
134600.000			-7.184			-1.796
134700.000			-7.184			-1.796
134801.000			-7.184			-1.796
134900.000			-7.185			-1.796
135000.000			-7.185			-1.796
135101.000			-7.184			-1.796
135201.000			-7.183			-1.796
135301.000			-7.183			-1.796
135402.000			-7.184			-1.796
135500.000			-7.184			-1.796
135600.000			-7.183			-1.796
135701.000			-7.183			-1.796
135800.000			-7.182			-1.795
135901.000			-7.182			-1.795
136000.000			-7.183			-1.796
136100.000			-7.183			-1.796
136202.000			-7.183			-1.796
136301.000			-7.182			-1.796
136400.000			-7.182			-1.795
136501.000			-7.182			-1.796
136600.000			-7.181			-1.795
136700.000			-7.181			-1.795
136801.000			-7.181			-1.795
136900.000			-7.180			-1.795
137000.000			-7.182			-1.795
137102.000			-7.181			-1.795
137201.000			-7.182			-1.795
137300.000			-7.182			-1.795
137401.000			-7.181			-1.795
137500.000			-7.180			-1.795
137600.000			-7.181			-1.795
137701.000			-7.180			-1.795
137800.000			-7.180			-1.795
137900.000			-7.181			-1.795
138002.000			-7.180			-1.795
138101.000			-7.180			-1.795
138201.000			-7.180			-1.795
138301.000			-7.179			-1.795
138400.000			-7.180			-1.795
138500.000			-7.180			-1.795
138601.000			-7.180			-1.795
138700.000			-7.179			-1.795
138800.000			-7.179			-1.795
138901.000			-7.179			-1.795
139001.000			-7.179			-1.795
139102.000			-7.180			-1.795
139201.000			-7.178			-1.795
139300.000			-7.178			-1.794
139401.000			-7.179			-1.795
139500.000			-7.180			-1.795
139600.000			-7.179			-1.795
139701.000			-7.179			-1.795
139800.000			-7.178			-1.794
139900.000			-7.177			-1.794
140002.000			-7.178			-1.794
140101.000			-7.177			-1.794
140200.000			-7.178			-1.794
140301.000			-7.177			-1.794
140400.000			-7.177			-1.794
140500.000			-7.178			-1.794
140601.000			-7.178			-1.794
140700.000			-7.178			-1.795
140800.000			-7.177			-1.794
140902.000			-7.177			-1.794
141001.000			-7.177			-1.794
141100.000			-7.177			-1.794
141201.000			-7.176			-1.794
141300.000			-7.176			-1.794
141400.000			-7.177			-1.794
141501.000			-7.177			-1.794
141600.000			-7.177			-1.794
141700.000			-7.176			-1.794
141802.000			-7.176			-1.794
141901.000			-7.175			-1.794
142001.000			-7.175			-1.794
142101.000			-7.176			-1.794
142200.000			-7.176			-1.794
142301.000			-7.176			-1.794
142400.000			-7.175			-1.794
142500.000			-7.175			-1.794
142601.000			-7.176			-1.794
142701.000			-7.176			-1.794
142801.000			-7.175			-1.794
142902.000			-7.174			-1.794
143000.000			-7.174			-1.793
143100.000			-7.174			-1.794
143201.000			-7.175			-1.794
143300.000			-7.175			-1.794
143400.000			-7.175			-1.794
143501.000			-7.174			-1.794
143600.000			-7.174			-1.794
143701.000			-7.175			-1.794
143802.000			-7.175			-1.794
143900.000			-7.175			-1.794
144000.000			-7.175			-1.794
144101.000			-7.174			-1.793
144200.000			-7.173			-1.793
144300.000			-7.174			-1.793
144401.000			-7.173			-1.793
144500.000			-7.173			-1.793
144601.000			-7.173			-1.793
144702.000			-7.173			-1.793
144800.000			-7.172			-1.793
144900.000			-7.173			-1.793
145001.000			-7.172			-1.793
145100.000			-7.171			-1.793
145200.000			-7.172			-1.793
145301.000			-7.172			-1.793
145400.000			-7.172			-1.793
145502.000			-7.171			-1.793
145601.000			-7.172			-1.793
145701.000			-7.172			-1.793
145801.000			-7.172			-1.793
145900.000			-7.171			-1.793
146000.000			-7.171			-1.793
146101.000			-7.171			-1.793
146200.000			-7.169			-1.792
146300.000			-7.170			-1.793
146402.000			-7.171			-1.793
146501.000			-7.171			-1.793
146601.000			-7.170			-1.792
146701.000			-7.171			-1.793
146800.000			-7.171			-1.793
146900.000			-7.170			-1.793
147001.000			-7.172			-1.793
147100.000			-7.172			-1.793
147200.000			-7.170			-1.793
147301.000			-7.172			-1.793
147401.000			-7.170			-1.793
147501.000			-7.170			-1.793
147601.000			-7.170			-1.793
147700.000			-7.169			-1.792
147800.000			-7.169			-1.792
147901.000			-7.170			-1.792
148000.000			-7.170			-1.793
148100.000			-7.169			-1.792
148201.000			-7.170			-1.792
148301.000			-7.170			-1.793
148401.000			-7.169			-1.792
148501.000			-7.170			-1.792
148600.000			-7.170			-1.792
148701.000			-7.169			-1.792
148800.000			-7.168			-1.792
148900.000			-7.168			-1.792
149001.000			-7.168			-1.792
149100.000			-7.168			-1.792
149200.000			-7.168			-1.792
149302.000			-7.168			-1.792
149401.000			-7.168			-1.792
149500.000			-7.168			-1.792
149601.000			-7.167			-1.792
149700.000			-7.167			-1.792
149800.000			-7.168			-1.792
149901.000			-7.167			-1.792
150000.000			-7.168			-1.792
150100.000			-7.167			-1.792
150202.000			-7.166			-1.791
150301.000			-7.167			-1.792
150401.000			-7.166			-1.792
150501.000			-7.166			-1.791
150600.000			-7.167			-1.792
150700.000			-7.166			-1.792
150801.000			-7.166			-1.792
150900.000			-7.167			-1.792
151000.000			-7.167			-1.792
151102.000			-7.165			-1.791
151201.000			-7.165			-1.791
151301.000			-7.165			-1.791
151401.000			-7.166			-1.791
151500.000			-7.166			-1.791
151600.000			-7.166			-1.791
151701.000			-7.166			-1.792
151800.000			-7.164			-1.791
151901.000			-7.164			-1.791
152000.000			-7.164			-1.791
152101.000			-7.164			-1.791
152202.000			-7.165			-1.791
152300.000			-7.165			-1.791
152400.000			-7.164			-1.791
152501.000			-7.165			-1.791
152600.000			-7.164			-1.791
152700.000			-7.165			-1.791
152801.000			-7.165			-1.791
152900.000			-7.165			-1.791
153001.000			-7.165			-1.791
153102.000			-7.164			-1.791
153200.000			-7.163			-1.791
153300.000			-7.164			-1.791
153401.000			-7.164			-1.791
153500.000			-7.163			-1.791
153600.000			-7.163			-1.791
153701.000			-7.164			-1.791
153800.000			-7.163			-1.791
153901.000			-7.163			-1.791
154002.000			-7.162			-1.791
154100.000			-7.162			-1.791
154200.000			-7.164			-1.791
154301.000			-7.163			-1.791
154400.000			-7.163			-1.791
154500.000			-7.163			-1.791
154601.000			-7.163			-1.791
154700.000			-7.164			-1.791
154801.000			-7.163			-1.791
154902.000			-7.162			-1.791
155000.000			-7.162			-1.790
155101.000			-7.161			-1.790
155200.000			-7.161			-1.790
155300.000			-7.162			-1.791
155401.000			-7.162			-1.790
155500.000			-7.162			-1.790
155600.000			-7.162			-1.790
155702.000			-7.161			-1.790
155801.000			-7.161			-1.790
155901.000			-7.161			-1.790
156001.000			-7.161			-1.790
156100.000			-7.162			-1.790
156200.000			-7.161			-1.790
156301.000			-7.160			-1.790
156400.000			-7.161			-1.790
156500.000			-7.161			-1.790
156602.000			-7.161			-1.790
156701.000			-7.161			-1.790
156801.000			-7.160			-1.790
156901.000			-7.160			-1.790
157000.000			-7.160			-1.790
157100.000			-7.160			-1.790
157201.000			-7.159			-1.790
157300.000			-7.159			-1.790
157400.000			-7.159			-1.790
157501.000			-7.160			-1.790
157601.000			-7.160			-1.790
157701.000			-7.159			-1.790
157801.000			-7.159			-1.790
157900.000			-7.159			-1.790
158000.000			-7.159			-1.790
158101.000			-7.160			-1.790
158200.000			-7.160			-1.790
158301.000			-7.160			-1.790
158400.000			-7.159			-1.790
158500.000			-7.159			-1.790
158602.000			-7.159			-1.790
158701.000			-7.158			-1.789
158800.000			-7.158			-1.789
158901.000			-7.159			-1.790
159000.000			-7.159			-1.790
159100.000			-7.158			-1.790
159201.000			-7.157			-1.789
159300.000			-7.156			-1.789
159400.000			-7.157			-1.789
159502.000			-7.157			-1.789
159601.000			-7.157			-1.789
159701.000			-7.157			-1.789
159801.000			-7.158			-1.789
159900.000			-7.158			-1.789
160000.000			-7.157			-1.789
160101.000			-7.156			-1.789
160200.000			-7.157			-1.789
160300.000			-7.157			-1.789
160402.000			-7.157			-1.789
160501.000			-7.157			-1.789
160601.000			-7.156			-1.789
160701.000			-7.156			-1.789
160800.000			-7.156			-1.789
160900.000			-7.156			-1.789
161001.000			-7.156			-1.789
161100.000			-7.155			-1.789
161200.000			-7.156			-1.789
161301.000			-7.156			-1.789
161401.000			-7.156			-1.789
161502.000			-7.156			-1.789
161600.000			-7.155			-1.789
161700.000			-7.155			-1.789
161801.000			-7.155			-1.789
161900.000			-7.155			-1.789
162000.000			-7.155			-1.789
162101.000			-7.154			-1.789
162200.000			-7.154			-1.789
162301.000			-7.155			-1.789
162402.000			-7.155			-1.789
162500.000			-7.154			-1.788
162600.000			-7.154			-1.788
162701.000			-7.154			-1.789
162800.000			-7.156			-1.789
162900.000			-7.155			-1.789
163001.000			-7.155			-1.789
163100.000			-7.154			-1.789
163201.000			-7.153			-1.788
163302.000			-7.153			-1.788
163400.000			-7.154			-1.789
163500.000			-7.154			-1.788
163601.000			-7.153			-1.788
163700.000			-7.152			-1.788
163800.000			-7.152			-1.788
163901.000			-7.152			-1.788
164000.000			-7.153			-1.788
164101.000			-7.153			-1.788
164202.000			-7.153			-1.788
164301.000			-7.152			-1.788
164400.000			-7.152			-1.788
164501.000			-7.152			-1.788
164600.000			-7.152			-1.788
164701.000			-7.152			-1.788
164800.000			-7.151			-1.788
164900.000			-7.152			-1.788
165002.000			-7.152			-1.788
165101.000			-7.152			-1.788
165201.000			-7.151			-1.788
165301.000			-7.151			-1.788
165400.000			-7.152			-1.788
165500.000			-7.152			-1.788
165601.000			-7.151			-1.788
165700.000			-7.151			-1.788
165800.000			-7.151			-1.788
165902.000			-7.151			-1.788
166001.000			-7.151			-1.788
166101.000			-7.151			-1.788
166201.000			-7.151			-1.788
166300.000			-7.151			-1.788
166400.000			-7.151			-1.788
166501.000			-7.152			-1.788
166600.000			-7.151			-1.788
166700.000			-7.151			-1.788
166801.000			-7.150			-1.788
166901.000			-7.150			-1.787
167001.000			-7.150			-1.787
167101.000			-7.151			-1.788
167200.000			-7.150			-1.788
167300.000			-7.149			-1.787
167401.000			-7.150			-1.788
167500.000			-7.150			-1.787
167600.000			-7.150			-1.787
167701.000			-7.149			-1.787
167801.000			-7.149			-1.787
167902.000			-7.149			-1.787
168001.000			-7.148			-1.787
168100.000			-7.149			-1.787
168201.000			-7.149			-1.787
168300.000			-7.150			-1.787
168400.000			-7.149			-1.787
168501.000			-7.149			-1.787
168600.000			-7.149			-1.787
168700.000			-7.149			-1.787
168802.000			-7.149			-1.787
168901.000			-7.148			-1.787
169000.000			-7.147			-1.787
169101.000			-7.148			-1.787
169200.000			-7.147			-1.787
169300.000			-7.146			-1.787
169401.000			-7.147			-1.787
169500.000			-7.148			-1.787
169600.000			-7.147			-1.787
169702.000			-7.146			-1.787
169801.000			-7.146			-1.787
169901.000			-7.146			-1.787
170001.000			-7.146			-1.787
170100.000			-7.146			-1.786
170200.000			-7.145			-1.786
170301.000			-7.146			-1.786
170400.000			-7.146			-1.786
170500.000			-7.146			-1.787
170601.000			-7.145			-1.786
170701.000			-7.146			-1.787
170801.000			-7.146			-1.787
170901.000			-7.146			-1.787
171000.000			-7.145			-1.786
171101.000			-7.146			-1.786
171200.000			-7.148			-1.787
171300.000			-7.146			-1.787
171401.000			-7.145			-1.786
171500.000			-7.145			-1.786
171601.000			-7.145			-1.786
171702.000			-7.145			-1.786
171800.000			-7.145			-1.786
171900.000			-7.145			-1.786
172001.000			-7.145			-1.786
172100.000			-7.143			-1.786
172200.000			-7.144			-1.786
172301.000			-7.144			-1.786
172400.000			-7.143			-1.786
172501.000			-7.144			-1.786
172602.000			-7.146			-1.786
172700.000			-7.145			-1.786
172800.000			-7.144			-1.786
172901.000			-7.145			-1.786
173000.000			-7.145			-1.786
173100.000			-7.144			-1.786
173201.000			-7.144			-1.786
173300.000			-7.144			-1.786
173401.000			-7.144			-1.786
173502.000			-7.143			-1.786
173601.000			-7.144			-1.786
173700.000			-7.144			-1.786
173801.000			-7.144			-1.786
173900.000			-7.143			-1.786
174000.000			-7.143			-1.786
174101.000			-7.144			-1.786
174200.000			-7.143			-1.786
174302.000			-7.143			-1.786
174401.000			-7.143			-1.786
174501.000			-7.143			-1.786
174601.000			-7.143			-1.786
174700.000			-7.142			-1.786
174800.000			-7.142			-1.786
174901.000			-7.143			-1.786
175000.000			-7.142			-1.786
175100.000			-7.143			-1.786
175202.000			-7.142			-1.786
175301.000			-7.142			-1.785
175401.000			-7.142			-1.785
175501.000			-7.141			-1.785
175600.000			-7.142			-1.785
175700.000			-7.142			-1.785
175801.000			-7.142			-1.785
175900.000			-7.142			-1.786
176000.000			-7.142			-1.786
176101.000			-7.142			-1.785
176201.000			-7.141			-1.785
176301.000			-7.141			-1.785
176401.000			-7.142			-1.785
176500.000			-7.141			-1.785
176600.000			-7.141			-1.785
176701.000			-7.141			-1.785
176800.000			-7.141			-1.785
176900.000			-7.141			-1.785
177001.000			-7.141			-1.785
177101.000			-7.141			-1.785
177201.000			-7.141			-1.785
177301.000			-7.141			-1.785
177400.000			-7.141			-1.785
177501.000			-7.140			-1.785
177600.000			-7.140			-1.785
177700.000			-7.140			-1.785
177801.000			-7.140			-1.785
177900.000			-7.139			-1.785
178001.000			-7.140			-1.785
178102.000			-7.141			-1.785
178201.000			-7.141			-1.785
178300.000			-7.140			-1.785
178401.000			-7.140			-1.785
178500.000			-7.140			-1.785
178600.000			-7.139			-1.785
178701.000			-7.140			-1.785
178800.000			-7.139			-1.785
178901.000			-7.139			-1.785
179002.000			-7.140			-1.785
179101.000			-7.140			-1.785
179200.000			-7.139			-1.785
179301.000			-7.139			-1.785
179400.000			-7.139			-1.785
179500.000			-7.138			-1.785
179601.000			-7.138			-1.784
179700.000			-7.137			-1.784
179800.000			-7.138			-1.785
179902.000			-7.138			-1.784
180001.000			-7.137			-1.784
180101.000			-7.139			-1.785
180201.000			-7.138			-1.785
180300.000			-7.139			-1.785
180400.000			-7.139			-1.785
180501.000			-7.138			-1.785
180600.000			-7.138			-1.784
180701.000			-7.138			-1.785
180801.000			-7.139			-1.785
180901.000			-7.138			-1.785
181002.000			-7.139			-1.785
181100.000			-7.137			-1.784
181200.000			-7.136			-1.784
181301.000			-7.137			-1.784
181400.000			-7.137			-1.784
181500.000			-7.137			-1.784
181601.000			-7.136			-1.784
181700.000			-7.136			-1.784
181801.000			-7.137			-1.784
181902.000			-7.137			-1.784
182000.000			-7.137			-1.784
182100.000			-7.137			-1.784
182201.000			-7.137			-1.784
182300.000			-7.135			-1.784
182400.000			-7.136			-1.784
182501.000			-7.137			-1.784
182600.000			-7.136			-1.784
182701.000			-7.135			-1.784
182802.000			-7.135			-1.784
182900.000			-7.135			-1.784
183000.000			-7.135			-1.784
183101.000			-7.136			-1.784
183200.000			-7.135			-1.784
183300.000			-7.134			-1.784
183401.000			-7.137			-1.784
183500.000			-7.136			-1.784
183601.000			-7.136			-1.784
183702.000			-7.136			-1.784
183800.000			-7.135			-1.784
183901.000			-7.135			-1.784
184000.000			-7.135			-1.784
184100.000			-7.135			-1.784
184201.000			-7.135			-1.784
184300.000			-7.134			-1.783
184400.000			-7.134			-1.784
184502.000			-7.135			-1.784
184601.000			-7.135			-1.784
184701.000			-7.135			-1.784
184801.000			-7.134			-1.783
184900.000			-7.134			-1.783
185000.000			-7.134			-1.783
185101.000			-7.134			-1.783
185200.000			-7.133			-1.783
185300.000			-7.132			-1.783
185402.000			-7.133			-1.783
185501.000			-7.134			-1.784
185601.000			-7.133			-1.783
185701.000			-7.134			-1.783
185800.000			-7.133			-1.783
185900.000			-7.133			-1.783
186001.000			-7.133			-1.783
186100.000			-7.133			-1.783
186200.000			-7.133			-1.783
186301.000			-7.133			-1.783
186401.000			-7.133			-1.783
186501.000			-7.133			-1.783
186601.000			-7.133			-1.783
186700.000			-7.133			-1.783
186800.000			-7.132			-1.783
186901.000			-7.131			-1.783
187000.000			-7.131			-1.783
187101.000			-7.132			-1.783
187200.000			-7.132			-1.783
187301.000			-7.133			-1.783
187402.000			-7.132			-1.783
187501.000			-7.132			-1.783
187600.000			-7.132			-1.783
187701.000			-7.132			-1.783
187800.000			-7.131			-1.783
187900.000			-7.132			-1.783
188001.000			-7.132			-1.783
188100.000			-7.132			-1.783
188200.000			-7.132			-1.783
188302.000			-7.132			-1.783
188401.000			-7.131			-1.783
188500.000			-7.131			-1.783
188601.000			-7.131			-1.783
188700.000			-7.131			-1.783
188800.000			-7.130			-1.783
188901.000			-7.131			-1.783
189000.000			-7.131			-1.783
189100.000			-7.130			-1.783
189202.000			-7.130			-1.782
189301.000			-7.131			-1.783
189400.000			-7.130			-1.782
189501.000			-7.129			-1.782
189600.000			-7.129			-1.782
189700.000			-7.130			-1.783
189801.000			-7.131			-1.783
189900.000			-7.130			-1.783
190000.000			-7.130			-1.782
190102.000			-7.130			-1.783
190201.000			-7.130			-1.782
190302.000			-7.130			-1.782
190400.000			-7.129			-1.782
190500.000			-7.130			-1.782
190601.000			-7.129			-1.782
190700.000			-7.130			-1.782
190800.000			-7.129			-1.782
190901.000			-7.129			-1.782
191001.000			-7.128			-1.782
191101.000			-7.128			-1.782
191202.000			-7.129			-1.782
191300.000			-7.129			-1.782
191400.000			-7.128			-1.782
191501.000			-7.129			-1.782
191600.000			-7.129			-1.782
191700.000			-7.128			-1.782
191801.000			-7.128			-1.782
191900.000			-7.128			-1.782
192001.000			-7.128			-1.782
192102.000			-7.127			-1.782
192200.000			-7.128			-1.782
192300.000			-7.128			-1.782
192401.000			-7.127			-1.782
192500.000			-7.127			-1.782
192600.000			-7.128			-1.782
192701.000			-7.127			-1.782
192800.000			-7.127			-1.782
192901.000			-7.126			-1.782
193002.000			-7.127			-1.782
193100.000			-7.126			-1.782
193200.000			-7.127			-1.782
193301.000			-7.127			-1.782
193400.000			-7.128			-1.782
193501.000			-7.127			-1.782
193600.000			-7.126			-1.781
193700.000			-7.126			-1.781
193802.000			-7.126			-1.781
193901.000			-7.127			-1.782
194001.000			-7.126			-1.782
194101.000			-7.126			-1.782
194200.000			-7.126			-1.781
194300.000			-7.125			-1.781
194401.000			-7.125			-1.781
194500.000			-7.126			-1.782
194600.000			-7.125			-1.781
194702.000			-7.126			-1.782
194801.000			-7.126			-1.781
194901.000			-7.125			-1.781
195001.000			-7.124			-1.781
195100.000			-7.124			-1.781
195200.000			-7.125			-1.781
195301.000			-7.125			-1.781
195400.000			-7.125			-1.781
195500.000			-7.125			-1.781
195601.000			-7.125			-1.781
195701.000			-7.125			-1.781
195801.000			-7.124			-1.781
195901.000			-7.125			-1.781
196000.000			-7.125			-1.781
196100.000			-7.125			-1.781
196201.000			-7.124			-1.781
196300.000			-7.124			-1.781
196400.000			-7.124			-1.781
196501.000			-7.124			-1.781
196601.000			-7.124			-1.781
196702.000			-7.124			-1.781
196801.000			-7.124			-1.781
196900.000			-7.123			-1.781
197001.000			-7.123			-1.781
197100.000			-7.123			-1.781
197200.000			-7.123			-1.781
197301.000			-7.123			-1.781
197400.000			-7.122			-1.781
197501.000			-7.123			-1.781
197602.000			-7.124			-1.781
197701.000			-7.124			-1.781
197800.000			-7.124			-1.781
197901.000			-7.123			-1.781
198000.000			-7.123			-1.781
198100.000			-7.123			-1.781
198201.000			-7.122			-1.781
198300.000			-7.123			-1.781
198401.000			-7.123			-1.781
198502.000			-7.121			-1.780
198601.000			-7.122			-1.780
198700.000			-7.122			-1.780
198801.000			-7.121			-1.780
198900.000			-7.122			-1.781
199000.000			-7.121			-1.780
199101.000			-7.121			-1.780
199200.000			-7.121			-1.780
199300.000			-7.121			-1.780
199402.000			-7.121			-1.780
199501.000			-7.122			-1.780
199601.000			-7.122			-1.780
199701.000			-7.122			-1.780
199800.000			-7.120			-1.780
199901.000			-7.120			-1.780
200000.000			-7.120			-1.780
200100.000			-7.121			-1.780
200201.000			-7.121			-1.780
200301.000			-7.122			-1.781
200401.000			-7.121			-1.780
200502.000			-7.120			-1.780
200600.000			-7.119			-1.780
200700.000			-7.120			-1.780
200801.000			-7.120			-1.780
200900.000			-7.120			-1.780
201000.000			-7.119			-1.780
201101.000			-7.119			-1.780
201201.000			-7.120			-1.780
201301.000			-7.120			-1.780
201401.000			-7.121			-1.780
201500.000			-7.121			-1.780
201600.000			-7.120			-1.780
201701.000			-7.120			-1.780
201800.000			-7.120			-1.780
201900.000			-7.120			-1.780
202001.000			-7.119			-1.780
202101.000			-7.120			-1.780
202201.000			-7.120			-1.780
202301.000			-7.119			-1.780
202400.000			-7.120			-1.780
202500.000			-7.120			-1.780
202601.000			-7.119			-1.780
202700.000			-7.119			-1.780
202800.000			-7.119			-1.780
202901.000			-7.119			-1.780
203001.000			-7.119			-1.780
203102.000			-7.119			-1.780
203200.000			-7.119			-1.780
203300.000			-7.119			-1.780
203401.000			-7.119			-1.780
203500.000			-7.119			-1.780
203600.000			-7.120			-1.780
203701.000			-7.119			-1.780
203800.000			-7.119			-1.780
203901.000			-7.119			-1.780
204002.000			-7.118			-1.779
204100.000			-7.118			-1.780
204200.000			-7.118			-1.779
204301.000			-7.118			-1.779
204400.000			-7.117			-1.779
204500.000			-7.117			-1.779
204601.000			-7.117			-1.779
204700.000			-7.117			-1.779
204801.000			-7.118			-1.779
204902.000			-7.118			-1.779
205001.000			-7.117			-1.779
205100.000			-7.116			-1.779
205201.000			-7.116			-1.779
205300.000			-7.116			-1.779
205400.000			-7.116			-1.779
205501.000			-7.117			-1.779
205600.000			-7.117			-1.779
205701.000			-7.118			-1.779
205802.000			-7.117			-1.779
205901.000			-7.116			-1.779
206000.000			-7.116			-1.779
206101.000			-7.116			-1.779
206200.000			-7.117			-1.779
206301.000			-7.116			-1.779
206400.000			-7.116			-1.779
206500.000			-7.116			-1.779
206602.000			-7.115			-1.779
206701.000			-7.116			-1.779
206801.000			-7.116			-1.779
206901.000			-7.116			-1.779
207000.000			-7.115			-1.779
207100.000			-7.115			-1.779
207201.000			-7.114			-1.778
207300.000			-7.114			-1.779
207400.000			-7.115			-1.779
207502.000			-7.115			-1.779
207601.000			-7.115			-1.779
207700.000			-7.115			-1.779
207801.000			-7.116			-1.779
207900.000			-7.115			-1.779
208000.000			-7.115			-1.779
208101.000			-7.115			-1.779
208200.000			-7.115			-1.779
208300.000			-7.116			-1.779
208402.000			-7.115			-1.779
208501.000			-7.115			-1.779
208601.000			-7.114			-1.779
208701.000			-7.114			-1.778
208800.000			-7.114			-1.778
208900.000			-7.115			-1.779
209001.000			-7.115			-1.779
209100.000			-7.114			-1.779
209200.000			-7.115			-1.779
209302.000			-7.115			-1.779
209401.000			-7.114			-1.778
209502.000			-7.114			-1.778
209600.000			-7.113			-1.778
209700.000			-7.113			-1.778
209801.000			-7.114			-1.779
209900.000			-7.114			-1.778
210000.000			-7.114			-1.778
210101.000			-7.114			-1.778
210201.000			-7.113			-1.778
210301.000			-7.114			-1.778
210402.000			-7.113			-1.778
210500.000			-7.112			-1.778
210600.000			-7.113			-1.778
210701.000			-7.113			-1.778
210800.000			-7.113			-1.778
210900.000			-7.112			-1.778
211001.000			-7.111			-1.778
211101.000			-7.112			-1.778
211201.000			-7.113			-1.778
211301.000			-7.113			-1.778
211400.000			-7.112			-1.778
211500.000			-7.113			-1.778
211601.000			-7.112			-1.778
211700.000			-7.111			-1.778
211800.000			-7.112			-1.778
211902.000			-7.111			-1.778
212001.000			-7.112			-1.778
212101.000			-7.111			-1.778
212201.000			-7.111			-1.778
212300.000			-7.111			-1.778
212400.000			-7.112			-1.778
212501.000			-7.111			-1.778
212600.000			-7.111			-1.778
212701.000			-7.111			-1.778
212801.000			-7.111			-1.778
212901.000			-7.111			-1.778
213001.000			-7.110			-1.777
213100.000			-7.110			-1.778
213200.000			-7.111			-1.778
213301.000			-7.111			-1.778
213400.000			-7.110			-1.778
213500.000			-7.111			-1.778
213601.000			-7.112			-1.778
213701.000			-7.111			-1.778
213801.000			-7.111			-1.778
213901.000			-7.111			-1.778
214000.000			-7.110			-1.777
214100.000			-7.110			-1.778
214201.000			-7.110			-1.778
214300.000			-7.109			-1.777
214400.000			-7.109			-1.777
214502.000			-7.110			-1.777
214601.000			-7.110			-1.778
214701.000			-7.110			-1.777
214801.000			-7.109			-1.777
214900.000			-7.109			-1.777
215000.000			-7.110			-1.777
215101.000			-7.109			-1.777
215200.000			-7.110			-1.777
215300.000			-7.110			-1.777
215402.000			-7.109			-1.777
215501.000			-7.109			-1.777
215601.000			-7.109			-1.777
215701.000			-7.109			-1.777
215800.000			-7.110			-1.777
215901.000			-7.109			-1.777
216000.000			-7.108			-1.777
216100.000			-7.108			-1.777
216201.000			-7.108			-1.777
216301.000			-7.107			-1.777
216401.000			-7.108			-1.777
216502.000			-7.108			-1.777
216600.000			-7.109			-1.777
216700.000			-7.109			-1.777
216801.000			-7.108			-1.777
216900.000			-7.108			-1.777
217000.000			-7.108			-1.777
217101.000			-7.108			-1.777
217201.000			-7.107			-1.777
217301.000			-7.107			-1.777
217402.000			-7.107			-1.777
217500.000			-7.106			-1.777
217600.000			-7.107			-1.777
217701.000			-7.107			-1.777
217800.000			-7.107			-1.777
217900.000			-7.107			-1.777
218001.000			-7.107			-1.777
218101.000			-7.108			-1.777
218201.000			-7.107			-1.777
218302.000			-7.106			-1.777
218400.000			-7.107			-1.777
218500.000			-7.105			-1.776
218601.000			-7.106			-1.777
218700.000			-7.106			-1.777
218800.000			-7.106			-1.777
218901.000			-7.106			-1.777
219001.000			-7.106			-1.776
219102.000			-7.107			-1.777
219201.000			-7.108			-1.777
219300.000			-7.107			-1.777
219401.000			-7.107			-1.777
219500.000			-7.107			-1.777
219600.000			-7.105			-1.776
219701.000			-7.106			-1.776
219800.000			-7.107			-1.777
219900.000			-7.105			-1.776
220002.000			-7.105			-1.776
220101.000			-7.105			-1.776
220200.000			-7.106			-1.776
220301.000			-7.106			-1.777
220400.000			-7.105			-1.776
220500.000			-7.105			-1.776
220601.000			-7.105			-1.776
220700.000			-7.105			-1.776
220801.000			-7.105			-1.776
220902.000			-7.105			-1.776
221001.000			-7.105			-1.776
221100.000			-7.105			-1.776
221201.000			-7.106			-1.776
221300.000			-7.106			-1.776
221400.000			-7.104			-1.776
221501.000			-7.104			-1.776
221600.000			-7.104			-1.776
221701.000			-7.105			-1.776
221802.000			-7.105			-1.776
221900.000			-7.105			-1.776
222000.000			-7.104			-1.776
222101.000			-7.104			-1.776
222200.000			-7.103			-1.776
222301.000			-7.103			-1.776
222400.000			-7.105			-1.776
222500.000			-7.106			-1.776
222602.000			-7.104			-1.776
222701.000			-7.104			-1.776
222800.000			-7.103			-1.776
222901.000			-7.104			-1.776
223000.000			-7.103			-1.776
223100.000			-7.103			-1.776
223201.000			-7.104			-1.776
223300.000			-7.103			-1.776
223401.000			-7.103			-1.776
223502.000			-7.103			-1.776
223601.000			-7.102			-1.776
223700.000			-7.103			-1.776
223801.000			-7.103			-1.776
223900.000			-7.103			-1.776
224000.000			-7.104			-1.776
224101.000			-7.104			-1.776
224200.000			-7.102			-1.776
224301.000			-7.103			-1.776
224402.000			-7.103			-1.776
224500.000			-7.102			-1.776
224600.000			-7.101			-1.775
224701.000			-7.101			-1.775
224800.000			-7.101			-1.775
224900.000			-7.101			-1.775
225001.000			-7.101			-1.775
225100.000			-7.101			-1.775
225201.000			-7.100			-1.775
225302.000			-7.100			-1.775
225400.000			-7.101			-1.775
225501.000			-7.101			-1.775
225600.000			-7.101			-1.775
225700.000			-7.101			-1.775
225801.000			-7.102			-1.776
225900.000			-7.101			-1.775
226000.000			-7.101			-1.775
226102.000			-7.100			-1.775
226201.000			-7.100			-1.775
226300.000			-7.100			-1.775
226401.000			-7.100			-1.775
226500.000			-7.100			-1.775
226600.000			-7.100			-1.775
226701.000			-7.100			-1.775
226800.000			-7.100			-1.775
226900.000			-7.099			-1.775
227002.000			-7.099			-1.775
227101.000			-7.100			-1.775
227200.000			-7.099			-1.775
227301.000			-7.099			-1.775
227400.000			-7.099			-1.775
227500.000			-7.098			-1.775
227601.000			-7.099			-1.775
227700.000			-7.099			-1.775
227800.000			-7.099			-1.775
227902.000			-7.099			-1.775
228001.000			-7.099			-1.775
228101.000			-7.097			-1.774
228201.000			-7.097			-1.774
228300.000			-7.098			-1.775
228400.000			-7.098			-1.775
228501.000			-7.098			-1.775
228600.000			-7.098			-1.774
228701.000			-7.098			-1.775
228800.000			-7.098			-1.774
228901.000			-7.098			-1.774
229002.000			-7.099			-1.775
229101.000			-7.098			-1.774
229200.000			-7.098			-1.774
229301.000			-7.099			-1.775
229400.000			-7.097			-1.774
229500.000			-7.098			-1.775
229601.000			-7.098			-1.774
229700.000			-7.097			-1.774
229800.000			-7.098			-1.775
229902.000			-7.097			-1.774
230001.000			-7.096			-1.774
230100.000			-7.096			-1.774
230201.000			-7.095			-1.774
230300.000			-7.096			-1.774
230400.000			-7.096			-1.774
230501.000			-7.096			-1.774
230600.000			-7.096			-1.774
230700.000			-7.096			-1.774
230802.000			-7.096			-1.774
230901.000			-7.097			-1.774
231000.000			-7.097			-1.774
231101.000			-7.096			-1.774
231200.000			-7.096			-1.774
231300.000			-7.097			-1.774
231401.000			-7.096			-1.774
231500.000			-7.095			-1.774
231600.000			-7.095			-1.774
231702.000			-7.095			-1.774
231801.000			-7.095			-1.774
231902.000			-7.095			-1.774
232000.000			-7.095			-1.774
232100.000			-7.095			-1.774
232201.000			-7.096			-1.774
232300.000			-7.095			-1.774
232400.000			-7.095			-1.774
232501.000			-7.094			-1.774
232601.000			-7.094			-1.774
232701.000			-7.094			-1.773
232802.000			-7.094			-1.774
232900.000			-7.095			-1.774
233000.000			-7.094			-1.774
233101.000			-7.094			-1.774
233200.000			-7.094			-1.773
233300.000			-7.095			-1.774
233401.000			-7.095			-1.774
233501.000			-7.094			-1.774
233601.000			-7.095			-1.774
233702.000			-7.094			-1.774
233800.000			-7.095			-1.774
233900.000			-7.094			-1.774
234001.000			-7.094			-1.773
234100.000			-7.093			-1.773
234200.000			-7.094			-1.773
234301.000			-7.094			-1.773
234401.000			-7.094			-1.773
234501.000			-7.094			-1.773
234602.000			-7.093			-1.773
234701.000			-7.093			-1.773
234800.000			-7.094			-1.773
234901.000			-7.094			-1.774
235000.000			-7.093			-1.773
235101.000			-7.092			-1.773
235200.000			-7.092			-1.773
235300.000			-7.092			-1.773
235402.000			-7.093			-1.773
235501.000			-7.093			-1.773
235601.000			-7.093			-1.773
235701.000			-7.093			-1.773
235800.000			-7.092			-1.773
235900.000			-7.092			-1.773
236001.000			-7.093			-1.773
236100.000			-7.092			-1.773
236200.000			-7.093			-1.773
236302.000			-7.093			-1.773
236401.000			-7.092			-1.773
236501.000			-7.092			-1.773
236601.000			-7.090			-1.773
236700.000			-7.090			-1.773
236800.000			-7.091			-1.773
236901.000			-7.092			-1.773
237000.000			-7.092			-1.773
237100.000			-7.091			-1.773
237201.000			-7.091			-1.773
237301.000			-7.091			-1.773
237401.000			-7.092			-1.773
237501.000			-7.093			-1.773
237600.000			-7.093			-1.773
237700.000			-7.092			-1.773
237801.000			-7.092			-1.773
237900.000			-7.092			-1.773
238000.000			-7.092			-1.773
238101.000			-7.091			-1.773
238201.000			-7.091			-1.773
238302.000			-7.092			-1.773
238401.000			-7.091			-1.773
238500.000			-7.092			-1.773
238601.000			-7.092			-1.773
238700.000			-7.092			-1.773
238800.000			-7.091			-1.773
238901.000			-7.093			-1.773
239000.000			-7.092			-1.773
239100.000			-7.092			-1.773
239202.000			-7.092			-1.773
239301.000			-7.091			-1.773
239400.000			-7.091			-1.773
239501.000			-7.090			-1.773
239600.000			-7.090			-1.772
239700.000			-7.090			-1.773
239801.000			-7.092			-1.773
239900.000			-7.092			-1.773
240000.000			-7.092			-1.773
240102.000			-7.091			-1.773
240201.000			-7.090			-1.773
240301.000			-7.091			-1.773
240401.000			-7.091			-1.773
240500.000			-7.092			-1.773
240600.000			-7.092			-1.773
240701.000			-7.092			-1.773
240800.000			-7.092			-1.773
240900.000			-7.091			-1.773
241002.000			-7.091			-1.773
241101.000			-7.091			-1.773
241201.000			-7.091			-1.773
241301.000			-7.091			-1.773
241400.000			-7.090			-1.772
241501.000			-7.090			-1.773
241600.000			-7.091			-1.773
241700.000			-7.091			-1.773
241801.000			-7.091			-1.773
241901.000			-7.091			-1.773
242001.000			-7.091			-1.773
242102.000			-7.091			-1.773
242200.000			-7.091			-1.773
242300.000			-7.091			-1.773
242401.000			-7.091			-1.773
242500.000			-7.091			-1.773
242600.000			-7.090			-1.773
242701.000			-7.091			-1.773
242801.000			-7.090			-1.772
242901.000			-7.090			-1.772
243002.000			-7.090			-1.773
243100.000			-7.090			-1.773
243200.000			-7.090			-1.772
243301.000			-7.090			-1.773
243400.000			-7.090			-1.773
243500.000			-7.089			-1.772
243601.000			-7.089			-1.772
243700.000			-7.089			-1.772
243801.000			-7.090			-1.772
243902.000			-7.090			-1.772
244000.000			-7.090			-1.773
244100.000			-7.089			-1.772
244201.000			-7.088			-1.772
244300.000			-7.089			-1.772
244400.000			-7.088			-1.772
244501.000			-7.087			-1.772
244600.000			-7.089			-1.772
244702.000			-7.089			-1.772
244801.000			-7.088			-1.772
244901.000			-7.088			-1.772
245001.000			-7.087			-1.772
245100.000			-7.087			-1.772
245200.000			-7.087			-1.772
245301.000			-7.087			-1.772
245400.000			-7.087			-1.772
245500.000			-7.087			-1.772
245601.000			-7.087			-1.772
245701.000			-7.088			-1.772
245801.000			-7.088			-1.772
245901.000			-7.087			-1.772
246000.000			-7.087			-1.772
246100.000			-7.087			-1.772
246201.000			-7.087			-1.772
246300.000			-7.086			-1.772
246400.000			-7.087			-1.772
246501.000			-7.088			-1.772
246601.000			-7.087			-1.772
246701.000			-7.087			-1.772
246801.000			-7.086			-1.772
246900.000			-7.087			-1.772
247000.000			-7.086			-1.771
247101.000			-7.086			-1.771
247200.000			-7.086			-1.771
247300.000			-7.086			-1.771
247401.000			-7.087			-1.772
247501.000			-7.085			-1.771
247601.000			-7.085			-1.771
247702.000			-7.085			-1.771
247800.000			-7.085			-1.771
247901.000			-7.084			-1.771
248000.000			-7.085			-1.771
248100.000			-7.086			-1.771
248201.000			-7.085			-1.771
248300.000			-7.085			-1.771
248400.000			-7.085			-1.771
248502.000			-7.084			-1.771
248601.000			-7.084			-1.771
248701.000			-7.085			-1.771
248801.000			-7.085			-1.771
248900.000			-7.086			-1.771
249000.000			-7.084			-1.771
249101.000			-7.084			-1.771
249200.000			-7.085			-1.771
249300.000			-7.085			-1.771
249401.000			-7.085			-1.771
249501.000			-7.083			-1.771
249601.000			-7.083			-1.771
249701.000			-7.084			-1.771
249800.000			-7.085			-1.771
249900.000			-7.085			-1.771
250001.000			-7.085			-1.771
250100.000			-7.083			-1.771
250200.000			-7.082			-1.771
250301.000			-7.084			-1.771
250401.000			-7.083			-1.771
250501.000			-7.083			-1.771
250601.000			-7.083			-1.771
250700.000			-7.083			-1.771
250800.000			-7.082			-1.771
250901.000			-7.083			-1.771
251000.000			-7.082			-1.771
251101.000			-7.084			-1.771
251200.000			-7.084			-1.771
251301.000			-7.084			-1.771
251402.000			-7.083			-1.771
251501.000			-7.083			-1.771
251600.000			-7.083			-1.771
251701.000			-7.083			-1.771
251800.000			-7.084			-1.771
251900.000			-7.083			-1.771
252001.000			-7.082			-1.770
252100.000			-7.082			-1.770
252201.000			-7.083			-1.771
252302.000			-7.082			-1.771
252401.000			-7.083			-1.771
252500.000			-7.083			-1.771
252601.000			-7.082			-1.771
252700.000			-7.083			-1.771
252800.000			-7.082			-1.771
252901.000			-7.082			-1.771
253000.000			-7.082			-1.771
253101.000			-7.082			-1.771
253202.000			-7.081			-1.770
253301.000			-7.082			-1.771
253400.000			-7.081			-1.770
253501.000			-7.081			-1.770
253600.000			-7.080			-1.770
253700.000			-7.081			-1.770
253801.000			-7.081			-1.770
253900.000			-7.081			-1.770
254000.000			-7.081			-1.770
254102.000			-7.080			-1.770
254201.000			-7.079			-1.770
254301.000			-7.080			-1.770
254400.000			-7.080			-1.770
254500.000			-7.080			-1.770
254601.000			-7.080			-1.770
254700.000			-7.081			-1.770
254800.000			-7.079			-1.770
254901.000			-7.080			-1.770
255001.000			-7.080			-1.770
255101.000			-7.080			-1.770
255201.000			-7.080			-1.770
255300.000			-7.080			-1.770
255400.000			-7.079			-1.770
255501.000			-7.079			-1.770
255600.000			-7.079			-1.770
255700.000			-7.079			-1.770
255801.000			-7.080			-1.770
255901.000			-7.080			-1.770
256001.000			-7.079			-1.770
256102.000			-7.081			-1.770
256200.000			-7.080			-1.770
256300.000			-7.081			-1.770
256401.000			-7.081			-1.770
256500.000			-7.080			-1.770
256600.000			-7.078			-1.770
256701.000			-7.079			-1.770
256801.000			-7.079			-1.770
256901.000			-7.078			-1.770
257002.000			-7.079			-1.770
257100.000			-7.079			-1.770
257200.000			-7.080			-1.770
257301.000			-7.079			-1.770
257400.000			-7.078			-1.770
257501.000			-7.078			-1.769
257600.000			-7.078			-1.769
257700.000			-7.079			-1.770
257802.000			-7.078			-1.770
257901.000			-7.079			-1.770
258001.000			-7.078			-1.770
258101.000			-7.078			-1.770
258200.000			-7.077			-1.769
258300.000			-7.078			-1.769
258401.000			-7.079			-1.770
258500.000			-7.079			-1.770
258600.000			-7.078			-1.769
258701.000			-7.078			-1.769
258801.000			-7.077			-1.769
258901.000			-7.078			-1.769
259002.000			-7.078			-1.769
259100.000			-7.077			-1.769
259200.000			-7.077			-1.769
259301.000			-7.078			-1.769
259400.000			-7.079			-1.770
259500.000			-7.078			-1.769
259601.000			-7.077			-1.769
259700.000			-7.077			-1.769
259801.000			-7.076			-1.769
259902.000			-7.077			-1.769
260001.000			-7.077			-1.769
260100.000			-7.077			-1.769
260201.000			-7.078			-1.769
260300.000			-7.078			-1.769
260400.000			-7.077			-1.769
260501.000			-7.077			-1.769
260600.000			-7.076			-1.769
260701.000			-7.077			-1.769
260801.000			-7.077			-1.769
260901.000			-7.077			-1.769
261001.000			-7.077			-1.769
261100.000			-7.076			-1.769
261200.000			-7.076			-1.769
261301.000			-7.077			-1.769
261400.000			-7.076			-1.769
261500.000			-7.075			-1.769
261601.000			-7.075			-1.769
261701.000			-7.075			-1.769
261801.000			-7.076			-1.769
261901.000			-7.075			-1.769
262000.000			-7.075			-1.769
262100.000			-7.076			-1.769
262201.000			-7.076			-1.769
262300.000			-7.076			-1.769
262400.000			-7.076			-1.769
262501.000			-7.076			-1.769
262601.000			-7.075			-1.769
262701.000			-7.075			-1.769
262802.000			-7.076			-1.769
262900.000			-7.075			-1.769
263000.000			-7.075			-1.769
263101.000			-7.074			-1.769
263200.000			-7.074			-1.769
263300.000			-7.074			-1.769
263401.000			-7.075			-1.769
263501.000			-7.075			-1.769
263601.000			-7.074			-1.768
263702.000			-7.074			-1.769
263800.000			-7.075			-1.769
263901.000			-7.074			-1.769
264000.000			-7.074			-1.768
264100.000			-7.073			-1.768
264201.000			-7.075			-1.769
264300.000			-7.074			-1.769
264400.000			-7.074			-1.769
264502.000			-7.074			-1.768
264601.000			-7.074			-1.768
264700.000			-7.074			-1.769
264801.000			-7.074			-1.768
264900.000			-7.073			-1.768
265000.000			-7.075			-1.769
265101.000			-7.075			-1.769
265200.000			-7.074			-1.768
265300.000			-7.073			-1.768
265402.000			-7.074			-1.769
265501.000			-7.074			-1.769
265600.000			-7.074			-1.768
265701.000			-7.073			-1.768
265800.000			-7.073			-1.768
265900.000			-7.073			-1.768
266001.000			-7.073			-1.768
266100.000			-7.073			-1.768
266200.000			-7.073			-1.768
266302.000			-7.074			-1.768
266401.000			-7.073			-1.768
266500.000			-7.072			-1.768
266601.000			-7.073			-1.768
266700.000			-7.074			-1.768
266800.000			-7.073			-1.768
266901.000			-7.072			-1.768
267000.000			-7.073			-1.768
267101.000			-7.072			-1.768
267201.000			-7.072			-1.768
267301.000			-7.073			-1.768
267402.000			-7.073			-1.768
267500.000			-7.072			-1.768
267600.000			-7.072			-1.768
267701.000			-7.072			-1.768
267800.000			-7.073			-1.768
267900.000			-7.072			-1.768
268001.000			-7.071			-1.768
268100.000			-7.071			-1.768
268201.000			-7.072			-1.768
268302.000			-7.072			-1.768
268400.000			-7.072			-1.768
268500.000			-7.072			-1.768
268601.000			-7.071			-1.768
268700.000			-7.071			-1.768
268800.000			-7.072			-1.768
268901.000			-7.071			-1.768
269000.000			-7.071			-1.768
269101.000			-7.070			-1.768
269202.000			-7.070			-1.767
269300.000			-7.072			-1.768
269400.000			-7.071			-1.768
269501.000			-7.069			-1.767
269600.000			-7.070			-1.767
269700.000			-7.070			-1.767
269801.000			-7.070			-1.767
269900.000			-7.070			-1.767
270000.000			-7.069			-1.767
270102.000			-7.070			-1.767
270201.000			-7.070			-1.768
270301.000			-7.070			-1.767
270400.000			-7.070			-1.767
270500.000			-7.070			-1.768
270601.000			-7.070			-1.767
270700.000			-7.069			-1.767
270800.000			-7.070			-1.767
270901.000			-7.070			-1.767
271001.000			-7.070			-1.768
271101.000			-7.070			-1.767
271201.000			-7.070			-1.767
271300.000			-7.069			-1.767
271400.000			-7.070			-1.767
271501.000			-7.069			-1.767
271600.000			-7.068			-1.767
271700.000			-7.069			-1.767
271801.000			-7.069			-1.767
271901.000			-7.068			-1.767
272001.000			-7.067			-1.767
272102.000			-7.067			-1.767
272200.000			-7.069			-1.767
272300.000			-7.068			-1.767
272401.000			-7.068			-1.767
272500.000			-7.068			-1.767
272600.000			-7.068			-1.767
272701.000			-7.068			-1.767
272801.000			-7.068			-1.767
272901.000			-7.068			-1.767
273002.000			-7.069			-1.767
273100.000			-7.070			-1.767
273200.000			-7.069			-1.767
273301.000			-7.069			-1.767
273400.000			-7.069			-1.767
273501.000			-7.068			-1.767
273600.000			-7.068			-1.767
273700.000			-7.068			-1.767
273802.000			-7.068			-1.767
273901.000			-7.067			-1.767
274000.000			-7.067			-1.767
274101.000			-7.068			-1.767
274200.000			-7.067			-1.767
274300.000			-7.067			-1.767
274401.000			-7.066			-1.767
274500.000			-7.068			-1.767
274600.000			-7.068			-1.767
274702.000			-7.067			-1.767
274801.000			-7.067			-1.767
274901.000			-7.068			-1.767
275001.000			-7.068			-1.767
275100.000			-7.067			-1.767
275200.000			-7.067			-1.767
275301.000			-7.068			-1.767
275400.000			-7.067			-1.767
275500.000			-7.068			-1.767
275601.000			-7.068			-1.767
275701.000			-7.068			-1.767
275801.000			-7.066			-1.766
275901.000			-7.067			-1.767
276000.000			-7.068			-1.767
276100.000			-7.067			-1.767
276201.000			-7.067			-1.767
276300.000			-7.067			-1.767
276400.000			-7.066			-1.766
276501.000			-7.066			-1.766
276601.000			-7.066			-1.767
276702.000			-7.066			-1.767
276801.000			-7.066			-1.767
276900.000			-7.066			-1.767
277001.000			-7.066			-1.767
277100.000			-7.066			-1.767
277200.000			-7.066			-1.766
277301.000			-7.067			-1.767
277400.000			-7.066			-1.766
277501.000			-7.065			-1.766
277602.000			-7.066			-1.766
277701.000			-7.066			-1.766
277800.000			-7.066			-1.766
277901.000			-7.066			-1.766
278000.000			-7.065			-1.766
278100.000			-7.065			-1.766
278201.000			-7.065			-1.766
278300.000			-7.066			-1.766
278400.000			-7.066			-1.767
278502.000			-7.065			-1.766
278601.000			-7.065			-1.766
278700.000			-7.065			-1.766
278801.000			-7.064			-1.766
278900.000			-7.065			-1.766
279000.000			-7.066			-1.766
279101.000			-7.065			-1.766
279200.000			-7.065			-1.766
279300.000			-7.066			-1.766
279402.000			-7.065			-1.766
279501.000			-7.065			-1.766
279601.000			-7.065			-1.766
279701.000			-7.065			-1.766
279800.000			-7.064			-1.766
279901.000			-7.064			-1.766
280000.000			-7.064			-1.766
280100.000			-7.064			-1.766
280201.000			-7.064			-1.766
280300.000			-7.063			-1.766
280401.000			-7.063			-1.766
280502.000			-7.064			-1.766
280600.000			-7.064			-1.766
280700.000			-7.065			-1.766
280801.000			-7.065			-1.766
280900.000			-7.064			-1.766
281000.000			-7.064			-1.766
281101.000			-7.064			-1.766
281200.000			-7.063			-1.766
281301.000			-7.062			-1.766
281402.000			-7.063			-1.766
281500.000			-7.063			-1.766
281600.000			-7.064			-1.766
281701.000			-7.064			-1.766
281800.000			-7.063			-1.766
281900.000			-7.063			-1.766
282001.000			-7.063			-1.766
282100.000			-7.063			-1.766
282201.000			-7.063			-1.766
282302.000			-7.063			-1.766
282400.000			-7.062			-1.766
282500.000			-7.062			-1.766
282601.000			-7.062			-1.766
282700.000			-7.062			-1.766
282800.000			-7.062			-1.765
282901.000			-7.062			-1.765
283000.000			-7.062			-1.766
283102.000			-7.062			-1.766
283201.000			-7.063			-1.766
283300.000			-7.063			-1.766
283401.000			-7.062			-1.765
283500.000			-7.062			-1.765
283600.000			-7.062			-1.765
283701.000			-7.062			-1.765
283800.000			-7.061			-1.765
283900.000			-7.061			-1.765
284002.000			-7.062			-1.765
284101.000			-7.062			-1.766
284200.000			-7.062			-1.765
284301.000			-7.062			-1.765
284400.000			-7.061			-1.765
284500.000			-7.062			-1.765
284601.000			-7.061			-1.765
284700.000			-7.061			-1.765
284800.000			-7.061			-1.765
284902.000			-7.061			-1.765
285001.000			-7.060			-1.765
285100.000			-7.060			-1.765
285201.000			-7.061			-1.765
285300.000			-7.062			-1.766
285400.000			-7.061			-1.765
285501.000			-7.061			-1.765
285600.000			-7.060			-1.765
285700.000			-7.061			-1.765
285802.000			-7.061			-1.765
285901.000			-7.060			-1.765
286000.000			-7.060			-1.765
286101.000			-7.060			-1.765
286200.000			-7.060			-1.765
286301.000			-7.061			-1.765
286400.000			-7.060			-1.765
286500.000			-7.060			-1.765
286601.000			-7.060			-1.765
286701.000			-7.061			-1.765
286801.000			-7.061			-1.765
286902.000			-7.060			-1.765
287000.000			-7.060			-1.765
287100.000			-7.060			-1.765
287201.000			-7.060			-1.765
287300.000			-7.060			-1.765
287400.000			-7.060			-1.765
287501.000			-7.059			-1.765
287600.000			-7.058			-1.765
287701.000			-7.059			-1.765
287802.000			-7.060			-1.765
287900.000			-7.060			-1.765
288000.000			-7.059			-1.765
288101.000			-7.059			-1.765
288200.000			-7.059			-1.765
288300.000			-7.060			-1.765
288401.000			-7.060			-1.765
288500.000			-7.058			-1.765
288601.000			-7.059			-1.765
288702.000			-7.059			-1.765
288801.000			-7.059			-1.765
288900.000			-7.059			-1.765
289001.000			-7.058			-1.765
289100.000			-7.059			-1.765
289200.000			-7.059			-1.765
289301.000			-7.059			-1.765
289400.000			-7.058			-1.765
289501.000			-7.058			-1.765
289601.000			-7.059			-1.765
289701.000			-7.059			-1.765
289801.000			-7.058			-1.765
289900.000			-7.058			-1.765
290000.000			-7.058			-1.765
290101.000			-7.058			-1.765
290200.000			-7.059			-1.765
290300.000			-7.058			-1.764
290401.000			-7.058			-1.764
290501.000			-7.058			-1.764
290601.000			-7.059			-1.765
290702.000			-7.058			-1.764
290800.000			-7.058			-1.764
290900.000			-7.058			-1.765
291001.000			-7.057			-1.764
291100.000			-7.057			-1.764
291200.000			-7.058			-1.765
291301.000			-7.058			-1.765
291400.000			-7.057			-1.764
291501.000			-7.058			-1.765
291602.000			-7.057			-1.764
291701.000			-7.057			-1.764
291800.000			-7.056			-1.764
291901.000			-7.057			-1.764
292000.000			-7.058			-1.765
292100.000			-7.057			-1.764
292201.000			-7.057			-1.764
292300.000			-7.057			-1.764
292401.000			-7.057			-1.764
292502.000			-7.058			-1.764
292601.000			-7.057			-1.764
292701.000			-7.056			-1.764
292800.000			-7.056			-1.764
292900.000			-7.056			-1.764
293001.000			-7.056			-1.764
293100.000			-7.056			-1.764
293200.000			-7.056			-1.764
293301.000			-7.057			-1.764
293401.000			-7.057			-1.764
293501.000			-7.056			-1.764
293601.000			-7.056			-1.764
293700.000			-7.056			-1.764
293800.000			-7.056			-1.764
293901.000			-7.056			-1.764
294000.000			-7.056			-1.764
294100.000			-7.056			-1.764
294201.000			-7.056			-1.764
294301.000			-7.056			-1.764
294401.000			-7.056			-1.764
294502.000			-7.056			-1.764
294600.000			-7.056			-1.764
294700.000			-7.056			-1.764
294801.000			-7.056			-1.764
294900.000			-7.056			-1.764
295000.000			-7.055			-1.764
295101.000			-7.055			-1.764
295200.000			-7.056			-1.764
295301.000			-7.057			-1.764
295402.000			-7.056			-1.764
295500.000			-7.056			-1.764
295600.000			-7.056			-1.764
295701.000			-7.056			-1.764
295800.000			-7.055			-1.764
295901.000			-7.055			-1.764
296000.000			-7.055			-1.764
296100.000			-7.055			-1.764
296202.000			-7.055			-1.764
296301.000			-7.055			-1.764
296401.000			-7.054			-1.764
296501.000			-7.055			-1.764
296600.000			-7.054			-1.764
296700.000			-7.054			-1.764
296801.000			-7.054			-1.764
296900.000			-7.055			-1.764
297000.000			-7.054			-1.764
297101.000			-7.054			-1.764
297201.000			-7.054			-1.763
297301.000			-7.054			-1.764
297401.000			-7.055			-1.764
297500.000			-7.055			-1.764
297600.000			-7.053			-1.763
297701.000			-7.054			-1.763
297800.000			-7.054			-1.763
297900.000			-7.054			-1.763
298001.000			-7.054			-1.763
298101.000			-7.054			-1.763
298201.000			-7.053			-1.763
298301.000			-7.053			-1.763
298400.000			-7.054			-1.763
298500.000			-7.054			-1.763
298601.000			-7.054			-1.763
298700.000			-7.054			-1.763
298800.000			-7.053			-1.763
298901.000			-7.052			-1.763
299000.000			-7.053			-1.763
299102.000			-7.052			-1.763
299201.000			-7.053			-1.763
299300.000			-7.053			-1.763
299401.000			-7.053			-1.763
299500.000			-7.053			-1.763
299600.000			-7.053			-1.763
299701.000			-7.054			-1.763
299800.000			-7.052			-1.763
299900.000			-7.051			-1.763
