# Acquired on 19/12/2023 17:32:48 
# SPIDER: Creep_-1mm_07714532B-1
# CREEP MEASUREMENT

# time [ms]		force [N]		stiffness [N/mm]
1.000			1.386			-1.386
100.000			2.269			-2.269
200.000			2.659			-2.659
301.000			2.720			-2.720
400.000			2.704			-2.704
500.000			2.679			-2.679
602.000			2.671			-2.671
701.000			2.665			-2.665
800.000			2.659			-2.659
901.000			2.654			-2.654
1000.000			2.650			-2.650
1100.000			2.645			-2.645
1201.000			2.642			-2.642
1300.000			2.636			-2.636
1401.000			2.632			-2.632
1502.000			2.629			-2.629
1600.000			2.627			-2.627
1700.000			2.624			-2.624
1800.000			2.623			-2.623
1900.000			2.620			-2.620
2001.000			2.616			-2.616
2101.000			2.615			-2.615
2201.000			2.613			-2.613
2301.000			2.612			-2.612
2400.000			2.610			-2.610
2500.000			2.609			-2.609
2601.000			2.607			-2.607
2700.000			2.604			-2.604
2800.000			2.604			-2.604
2902.000			2.603			-2.603
3001.000			2.601			-2.601
3100.000			2.601			-2.601
3201.000			2.599			-2.599
3300.000			2.598			-2.598
3400.000			2.598			-2.598
3501.000			2.594			-2.594
3601.000			2.594			-2.594
3701.000			2.594			-2.594
3801.000			2.594			-2.594
3900.000			2.593			-2.593
4000.000			2.591			-2.591
4101.000			2.590			-2.590
4200.000			2.588			-2.588
4300.000			2.587			-2.587
4402.000			2.587			-2.587
4501.000			2.587			-2.587
4600.000			2.585			-2.585
4701.000			2.584			-2.584
4800.000			2.584			-2.584
4900.000			2.583			-2.583
5000.000			2.582			-2.582
5100.000			2.582			-2.582
5202.000			2.581			-2.581
5301.000			2.580			-2.580
5400.000			2.579			-2.579
5501.000			2.579			-2.579
5600.000			2.578			-2.578
5700.000			2.578			-2.578
5801.000			2.577			-2.577
5900.000			2.577			-2.577
6001.000			2.575			-2.575
6102.000			2.575			-2.575
6200.000			2.575			-2.575
6300.000			2.574			-2.574
6401.000			2.573			-2.573
6500.000			2.574			-2.574
6600.000			2.573			-2.573
6701.000			2.572			-2.572
6801.000			2.571			-2.571
6901.000			2.571			-2.571
7001.000			2.570			-2.570
7100.000			2.570			-2.570
7200.000			2.569			-2.569
7301.000			2.569			-2.569
7400.000			2.569			-2.569
7500.000			2.569			-2.569
7602.000			2.569			-2.569
7701.000			2.569			-2.569
7800.000			2.568			-2.568
7901.000			2.567			-2.567
8000.000			2.566			-2.566
8100.000			2.566			-2.566
8200.000			2.565			-2.565
8300.000			2.564			-2.564
8402.000			2.565			-2.565
8501.000			2.565			-2.565
8600.000			2.563			-2.563
8701.000			2.563			-2.563
8800.000			2.562			-2.562
8900.000			2.562			-2.562
9001.000			2.562			-2.562
9101.000			2.563			-2.563
9201.000			2.562			-2.562
9301.000			2.562			-2.562
9400.000			2.560			-2.560
9500.000			2.561			-2.561
9601.000			2.560			-2.560
9700.000			2.559			-2.559
9800.000			2.559			-2.559
9902.000			2.560			-2.560
10001.000			2.558			-2.558
10100.000			2.557			-2.557
10201.000			2.557			-2.557
10300.000			2.556			-2.556
10400.000			2.556			-2.556
10501.000			2.556			-2.556
10600.000			2.556			-2.556
10701.000			2.556			-2.556
10802.000			2.556			-2.556
10900.000			2.556			-2.556
11000.000			2.555			-2.555
11101.000			2.554			-2.554
11200.000			2.554			-2.554
11300.000			2.554			-2.554
11400.000			2.554			-2.554
11501.000			2.554			-2.554
11602.000			2.554			-2.554
11700.000			2.553			-2.553
11800.000			2.552			-2.552
11901.000			2.552			-2.552
12000.000			2.552			-2.552
12100.000			2.552			-2.552
12201.000			2.552			-2.552
12301.000			2.551			-2.551
12401.000			2.551			-2.551
12501.000			2.550			-2.550
12600.000			2.551			-2.551
12700.000			2.551			-2.551
12801.000			2.551			-2.551
12900.000			2.549			-2.549
13000.000			2.549			-2.549
13102.000			2.549			-2.549
13201.000			2.549			-2.549
13300.000			2.549			-2.549
13401.000			2.548			-2.548
13500.000			2.548			-2.548
13600.000			2.549			-2.549
13701.000			2.548			-2.548
13800.000			2.548			-2.548
13901.000			2.547			-2.547
14002.000			2.547			-2.547
14100.000			2.547			-2.547
14200.000			2.546			-2.546
14301.000			2.547			-2.547
14400.000			2.545			-2.545
14500.000			2.546			-2.546
14600.000			2.546			-2.546
14701.000			2.547			-2.547
14802.000			2.545			-2.545
14900.000			2.545			-2.545
15000.000			2.545			-2.545
15101.000			2.545			-2.545
15200.000			2.544			-2.544
15300.000			2.544			-2.544
15401.000			2.543			-2.543
15501.000			2.542			-2.542
15601.000			2.543			-2.543
15701.000			2.543			-2.543
15800.000			2.543			-2.543
15900.000			2.542			-2.542
16001.000			2.542			-2.542
16100.000			2.542			-2.542
16201.000			2.542			-2.542
16302.000			2.541			-2.541
16401.000			2.541			-2.541
16500.000			2.540			-2.540
16601.000			2.540			-2.540
16700.000			2.540			-2.540
16800.000			2.540			-2.540
16901.000			2.539			-2.539
17001.000			2.540			-2.540
17101.000			2.538			-2.538
17201.000			2.538			-2.538
17300.000			2.538			-2.538
17400.000			2.538			-2.538
17501.000			2.538			-2.538
17600.000			2.538			-2.538
17700.000			2.538			-2.538
17802.000			2.538			-2.538
17901.000			2.538			-2.538
18002.000			2.538			-2.538
18100.000			2.537			-2.537
18200.000			2.536			-2.536
18301.000			2.535			-2.535
18400.000			2.536			-2.536
18500.000			2.536			-2.536
18601.000			2.536			-2.536
18701.000			2.536			-2.536
18801.000			2.536			-2.536
18901.000			2.535			-2.535
19000.000			2.535			-2.535
19100.000			2.535			-2.535
19201.000			2.535			-2.535
19300.000			2.535			-2.535
19400.000			2.536			-2.536
19502.000			2.536			-2.536
19601.000			2.534			-2.534
19700.000			2.535			-2.535
19801.000			2.534			-2.534
19900.000			2.534			-2.534
20000.000			2.534			-2.534
20101.000			2.533			-2.533
20200.000			2.533			-2.533
20301.000			2.532			-2.532
20402.000			2.532			-2.532
20500.000			2.533			-2.533
20600.000			2.533			-2.533
20701.000			2.534			-2.534
20800.000			2.532			-2.532
20900.000			2.532			-2.532
21002.000			2.532			-2.532
21101.000			2.532			-2.532
21201.000			2.531			-2.531
21300.000			2.531			-2.531
21400.000			2.531			-2.531
21501.000			2.531			-2.531
21600.000			2.530			-2.530
21700.000			2.531			-2.531
21802.000			2.530			-2.530
21901.000			2.530			-2.530
22000.000			2.530			-2.530
22101.000			2.531			-2.531
22200.000			2.530			-2.530
22300.000			2.530			-2.530
22401.000			2.531			-2.531
22500.000			2.531			-2.531
22601.000			2.531			-2.531
22702.000			2.529			-2.529
22800.000			2.530			-2.530
22900.000			2.530			-2.530
23001.000			2.529			-2.529
23100.000			2.529			-2.529
23200.000			2.527			-2.527
23301.000			2.527			-2.527
23401.000			2.528			-2.528
23501.000			2.528			-2.528
23601.000			2.527			-2.527
23700.000			2.526			-2.526
23800.000			2.526			-2.526
23901.000			2.527			-2.527
24000.000			2.528			-2.528
24100.000			2.529			-2.529
24202.000			2.528			-2.528
24301.000			2.527			-2.527
24401.000			2.527			-2.527
24500.000			2.527			-2.527
24600.000			2.526			-2.526
24701.000			2.527			-2.527
24800.000			2.526			-2.526
24900.000			2.526			-2.526
25002.000			2.526			-2.526
25101.000			2.527			-2.527
25200.000			2.526			-2.526
25301.000			2.525			-2.525
25400.000			2.525			-2.525
25500.000			2.526			-2.526
25601.000			2.527			-2.527
25701.000			2.526			-2.526
25801.000			2.527			-2.527
25902.000			2.526			-2.526
26000.000			2.526			-2.526
26100.000			2.526			-2.526
26201.000			2.526			-2.526
26300.000			2.525			-2.525
26400.000			2.524			-2.524
26501.000			2.524			-2.524
26601.000			2.524			-2.524
26701.000			2.524			-2.524
26801.000			2.523			-2.523
26900.000			2.524			-2.524
27000.000			2.525			-2.525
27101.000			2.525			-2.525
27200.000			2.524			-2.524
27300.000			2.524			-2.524
27402.000			2.523			-2.523
27501.000			2.523			-2.523
27601.000			2.523			-2.523
27700.000			2.523			-2.523
27800.000			2.523			-2.523
27901.000			2.523			-2.523
28000.000			2.522			-2.522
28101.000			2.523			-2.523
28202.000			2.523			-2.523
28300.000			2.523			-2.523
28400.000			2.522			-2.522
28501.000			2.521			-2.521
28600.000			2.522			-2.522
28700.000			2.522			-2.522
28801.000			2.522			-2.522
28901.000			2.522			-2.522
29001.000			2.522			-2.522
29101.000			2.521			-2.521
29200.000			2.522			-2.522
29300.000			2.521			-2.521
29401.000			2.521			-2.521
29500.000			2.521			-2.521
29600.000			2.520			-2.520
29702.000			2.521			-2.521
29801.000			2.522			-2.522
29900.000			2.521			-2.521
30001.000			2.521			-2.521
30100.000			2.520			-2.520
30200.000			2.520			-2.520
30301.000			2.521			-2.521
30400.000			2.521			-2.521
30502.000			2.521			-2.521
30601.000			2.519			-2.519
30700.000			2.520			-2.520
30801.000			2.521			-2.521
30900.000			2.521			-2.521
31000.000			2.521			-2.521
31101.000			2.520			-2.520
31200.000			2.520			-2.520
31301.000			2.519			-2.519
31402.000			2.520			-2.520
31500.000			2.521			-2.521
31600.000			2.520			-2.520
31701.000			2.520			-2.520
31800.000			2.520			-2.520
31900.000			2.520			-2.520
32001.000			2.520			-2.520
32101.000			2.519			-2.519
32201.000			2.520			-2.520
32301.000			2.520			-2.520
32400.000			2.520			-2.520
32500.000			2.519			-2.519
32601.000			2.520			-2.520
32700.000			2.520			-2.520
32800.000			2.519			-2.519
32902.000			2.519			-2.519
33001.000			2.520			-2.520
33100.000			2.519			-2.519
33201.000			2.519			-2.519
33300.000			2.519			-2.519
33400.000			2.517			-2.517
33501.000			2.518			-2.518
33601.000			2.518			-2.518
33702.000			2.520			-2.520
33801.000			2.518			-2.518
33900.000			2.519			-2.519
34001.000			2.519			-2.519
34100.000			2.518			-2.518
34200.000			2.518			-2.518
34301.000			2.519			-2.519
34401.000			2.518			-2.518
34501.000			2.518			-2.518
34601.000			2.518			-2.518
34700.000			2.519			-2.519
34800.000			2.519			-2.519
34901.000			2.518			-2.518
35000.000			2.518			-2.518
35100.000			2.519			-2.519
35201.000			2.518			-2.518
35301.000			2.518			-2.518
35401.000			2.518			-2.518
35501.000			2.518			-2.518
35600.000			2.518			-2.518
35700.000			2.518			-2.518
35801.000			2.518			-2.518
35900.000			2.518			-2.518
36000.000			2.519			-2.519
36102.000			2.519			-2.519
36201.000			2.518			-2.518
36300.000			2.519			-2.519
36401.000			2.519			-2.519
36500.000			2.518			-2.518
36600.000			2.518			-2.518
36701.000			2.518			-2.518
36801.000			2.519			-2.519
36902.000			2.518			-2.518
37001.000			2.517			-2.517
37100.000			2.518			-2.518
37201.000			2.518			-2.518
37300.000			2.518			-2.518
37400.000			2.518			-2.518
37501.000			2.518			-2.518
37601.000			2.519			-2.519
37701.000			2.519			-2.519
37802.000			2.518			-2.518
37900.000			2.518			-2.518
38000.000			2.518			-2.518
38101.000			2.518			-2.518
38200.000			2.517			-2.517
38300.000			2.517			-2.517
38401.000			2.518			-2.518
38501.000			2.518			-2.518
38601.000			2.517			-2.517
38701.000			2.517			-2.517
38800.000			2.517			-2.517
38900.000			2.516			-2.516
39001.000			2.517			-2.517
39100.000			2.518			-2.518
39200.000			2.517			-2.517
39302.000			2.516			-2.516
39401.000			2.516			-2.516
39500.000			2.517			-2.517
39601.000			2.517			-2.517
39700.000			2.516			-2.516
39800.000			2.517			-2.517
39901.000			2.517			-2.517
40000.000			2.517			-2.517
40102.000			2.516			-2.516
40201.000			2.518			-2.518
40300.000			2.517			-2.517
40401.000			2.516			-2.516
40500.000			2.515			-2.515
40600.000			2.515			-2.515
40701.000			2.514			-2.514
40800.000			2.515			-2.515
40901.000			2.517			-2.517
41002.000			2.516			-2.516
41100.000			2.516			-2.516
41200.000			2.516			-2.516
41301.000			2.515			-2.515
41400.000			2.516			-2.516
41500.000			2.516			-2.516
41602.000			2.516			-2.516
41701.000			2.516			-2.516
41801.000			2.515			-2.515
41901.000			2.515			-2.515
42000.000			2.516			-2.516
42100.000			2.517			-2.517
42201.000			2.516			-2.516
42300.000			2.515			-2.515
42401.000			2.515			-2.515
42502.000			2.515			-2.515
42600.000			2.515			-2.515
42700.000			2.515			-2.515
42801.000			2.514			-2.514
42900.000			2.515			-2.515
43000.000			2.515			-2.515
43101.000			2.514			-2.514
43201.000			2.514			-2.514
43302.000			2.514			-2.514
43400.000			2.514			-2.514
43500.000			2.514			-2.514
43601.000			2.514			-2.514
43700.000			2.515			-2.515
43800.000			2.514			-2.514
43901.000			2.515			-2.515
44001.000			2.514			-2.514
44101.000			2.515			-2.515
44201.000			2.515			-2.515
44300.000			2.514			-2.514
44400.000			2.515			-2.515
44501.000			2.515			-2.515
44600.000			2.515			-2.515
44700.000			2.515			-2.515
44802.000			2.514			-2.514
44901.000			2.513			-2.513
45000.000			2.513			-2.513
45101.000			2.514			-2.514
45200.000			2.514			-2.514
45300.000			2.514			-2.514
45401.000			2.514			-2.514
45501.000			2.513			-2.513
45601.000			2.515			-2.515
45702.000			2.514			-2.514
45800.000			2.513			-2.513
45900.000			2.513			-2.513
46001.000			2.514			-2.514
46100.000			2.514			-2.514
46200.000			2.513			-2.513
46302.000			2.514			-2.514
46401.000			2.513			-2.513
46502.000			2.513			-2.513
46600.000			2.513			-2.513
46700.000			2.514			-2.514
46801.000			2.512			-2.512
46900.000			2.513			-2.513
47000.000			2.514			-2.514
47102.000			2.513			-2.513
47201.000			2.513			-2.513
47301.000			2.514			-2.514
47401.000			2.513			-2.513
47500.000			2.512			-2.512
47600.000			2.513			-2.513
47701.000			2.513			-2.513
47800.000			2.512			-2.512
47901.000			2.513			-2.513
48002.000			2.513			-2.513
48101.000			2.513			-2.513
48200.000			2.513			-2.513
48301.000			2.511			-2.511
48400.000			2.511			-2.511
48500.000			2.512			-2.512
48601.000			2.511			-2.511
48701.000			2.512			-2.512
48801.000			2.512			-2.512
48901.000			2.511			-2.511
49000.000			2.512			-2.512
49100.000			2.512			-2.512
49201.000			2.513			-2.513
49300.000			2.512			-2.512
49400.000			2.511			-2.511
49502.000			2.511			-2.511
49601.000			2.511			-2.511
49700.000			2.512			-2.512
49800.000			2.511			-2.511
49900.000			2.510			-2.510
50001.000			2.510			-2.510
50100.000			2.510			-2.510
50200.000			2.511			-2.511
50302.000			2.511			-2.511
50401.000			2.511			-2.511
50500.000			2.511			-2.511
50601.000			2.510			-2.510
50700.000			2.510			-2.510
50800.000			2.511			-2.511
50901.000			2.510			-2.510
51000.000			2.510			-2.510
51101.000			2.510			-2.510
51202.000			2.510			-2.510
51300.000			2.510			-2.510
51400.000			2.510			-2.510
51501.000			2.511			-2.511
51600.000			2.510			-2.510
51700.000			2.510			-2.510
51802.000			2.509			-2.509
51901.000			2.509			-2.509
52001.000			2.510			-2.510
52101.000			2.510			-2.510
52200.000			2.510			-2.510
52300.000			2.510			-2.510
52401.000			2.509			-2.509
52500.000			2.509			-2.509
52601.000			2.510			-2.510
52702.000			2.510			-2.510
52800.000			2.510			-2.510
52900.000			2.510			-2.510
53000.000			2.510			-2.510
53100.000			2.509			-2.509
53201.000			2.509			-2.509
53300.000			2.509			-2.509
53401.000			2.510			-2.510
53502.000			2.510			-2.510
53600.000			2.509			-2.509
53700.000			2.509			-2.509
53801.000			2.510			-2.510
53900.000			2.509			-2.509
54000.000			2.508			-2.508
54101.000			2.508			-2.508
54201.000			2.510			-2.510
54301.000			2.509			-2.509
54401.000			2.508			-2.508
54500.000			2.509			-2.509
54600.000			2.509			-2.509
54701.000			2.509			-2.509
54800.000			2.508			-2.508
54900.000			2.507			-2.507
55002.000			2.507			-2.507
55101.000			2.508			-2.508
55200.000			2.508			-2.508
55301.000			2.509			-2.509
55400.000			2.510			-2.510
55500.000			2.509			-2.509
55601.000			2.508			-2.508
55700.000			2.507			-2.507
55801.000			2.506			-2.506
55902.000			2.506			-2.506
56000.000			2.506			-2.506
56100.000			2.507			-2.507
56200.000			2.507			-2.507
56300.000			2.507			-2.507
56401.000			2.507			-2.507
56500.000			2.508			-2.508
56601.000			2.507			-2.507
56702.000			2.507			-2.507
56800.000			2.508			-2.508
56900.000			2.508			-2.508
57001.000			2.506			-2.506
57100.000			2.506			-2.506
57200.000			2.507			-2.507
57301.000			2.507			-2.507
57401.000			2.507			-2.507
57501.000			2.507			-2.507
57601.000			2.506			-2.506
57700.000			2.505			-2.505
57800.000			2.506			-2.506
57901.000			2.505			-2.505
58000.000			2.506			-2.506
58100.000			2.507			-2.507
58202.000			2.506			-2.506
58301.000			2.505			-2.505
58400.000			2.506			-2.506
58501.000			2.506			-2.506
58600.000			2.505			-2.505
58700.000			2.505			-2.505
58801.000			2.505			-2.505
58900.000			2.505			-2.505
59001.000			2.505			-2.505
59102.000			2.505			-2.505
59200.000			2.505			-2.505
59300.000			2.505			-2.505
59400.000			2.503			-2.503
59500.000			2.504			-2.504
59601.000			2.504			-2.504
59700.000			2.504			-2.504
59801.000			2.504			-2.504
59902.000			2.503			-2.503
60000.000			2.503			-2.503
60100.000			2.503			-2.503
60201.000			2.504			-2.504
60300.000			2.503			-2.503
60400.000			2.503			-2.503
60502.000			2.503			-2.503
60601.000			2.503			-2.503
60700.000			2.503			-2.503
60801.000			2.503			-2.503
60900.000			2.503			-2.503
61000.000			2.503			-2.503
61101.000			2.503			-2.503
61200.000			2.502			-2.502
61301.000			2.502			-2.502
61402.000			2.503			-2.503
61500.000			2.502			-2.502
61600.000			2.502			-2.502
61701.000			2.502			-2.502
61800.000			2.502			-2.502
61900.000			2.501			-2.501
62001.000			2.501			-2.501
62101.000			2.502			-2.502
62201.000			2.501			-2.501
62301.000			2.503			-2.503
62400.000			2.502			-2.502
62500.000			2.502			-2.502
62600.000			2.502			-2.502
62700.000			2.501			-2.501
62801.000			2.502			-2.502
62901.000			2.502			-2.502
63001.000			2.501			-2.501
63101.000			2.501			-2.501
63200.000			2.500			-2.500
63300.000			2.500			-2.500
63401.000			2.500			-2.500
63500.000			2.500			-2.500
63601.000			2.500			-2.500
63702.000			2.501			-2.501
63801.000			2.501			-2.501
63900.000			2.500			-2.500
64001.000			2.500			-2.500
64100.000			2.499			-2.499
64200.000			2.499			-2.499
64301.000			2.499			-2.499
64400.000			2.500			-2.500
64501.000			2.500			-2.500
64602.000			2.500			-2.500
64700.000			2.499			-2.499
64800.000			2.500			-2.500
64901.000			2.500			-2.500
65000.000			2.500			-2.500
65100.000			2.499			-2.499
65201.000			2.499			-2.499
65301.000			2.500			-2.500
65401.000			2.500			-2.500
65501.000			2.499			-2.499
65600.000			2.500			-2.500
65700.000			2.500			-2.500
65800.000			2.499			-2.499
65900.000			2.499			-2.499
66001.000			2.500			-2.500
66100.000			2.500			-2.500
66201.000			2.500			-2.500
66302.000			2.498			-2.498
66400.000			2.499			-2.499
66500.000			2.499			-2.499
66601.000			2.499			-2.499
66700.000			2.499			-2.499
66800.000			2.499			-2.499
66901.000			2.499			-2.499
67001.000			2.499			-2.499
67101.000			2.499			-2.499
67201.000			2.499			-2.499
67300.000			2.499			-2.499
67400.000			2.499			-2.499
67501.000			2.499			-2.499
67600.000			2.499			-2.499
67700.000			2.499			-2.499
67801.000			2.498			-2.498
67901.000			2.498			-2.498
68001.000			2.498			-2.498
68101.000			2.498			-2.498
68200.000			2.497			-2.497
68300.000			2.497			-2.497
68401.000			2.498			-2.498
68500.000			2.497			-2.497
68600.000			2.497			-2.497
68702.000			2.497			-2.497
68801.000			2.498			-2.498
68902.000			2.498			-2.498
69000.000			2.498			-2.498
69100.000			2.498			-2.498
69201.000			2.497			-2.497
69300.000			2.497			-2.497
69400.000			2.498			-2.498
69501.000			2.499			-2.499
69601.000			2.498			-2.498
69701.000			2.497			-2.497
69801.000			2.496			-2.496
69900.000			2.497			-2.497
70000.000			2.498			-2.498
70101.000			2.498			-2.498
70200.000			2.498			-2.498
70300.000			2.498			-2.498
70402.000			2.498			-2.498
70501.000			2.498			-2.498
70601.000			2.499			-2.499
70701.000			2.499			-2.499
70800.000			2.499			-2.499
70900.000			2.498			-2.498
71001.000			2.498			-2.498
71100.000			2.498			-2.498
71200.000			2.498			-2.498
71302.000			2.496			-2.496
71401.000			2.497			-2.497
71500.000			2.498			-2.498
71601.000			2.498			-2.498
71700.000			2.497			-2.497
71800.000			2.498			-2.498
71901.000			2.498			-2.498
72000.000			2.498			-2.498
72102.000			2.498			-2.498
72201.000			2.498			-2.498
72301.000			2.497			-2.497
72401.000			2.497			-2.497
72500.000			2.497			-2.497
72600.000			2.497			-2.497
72701.000			2.498			-2.498
72800.000			2.498			-2.498
72900.000			2.498			-2.498
73002.000			2.498			-2.498
73101.000			2.497			-2.497
73200.000			2.498			-2.498
73301.000			2.498			-2.498
73400.000			2.497			-2.497
73500.000			2.497			-2.497
73601.000			2.497			-2.497
73700.000			2.496			-2.496
73801.000			2.497			-2.497
73902.000			2.498			-2.498
74001.000			2.497			-2.497
74100.000			2.496			-2.496
74201.000			2.496			-2.496
74300.000			2.496			-2.496
74400.000			2.496			-2.496
74501.000			2.498			-2.498
74600.000			2.497			-2.497
74701.000			2.497			-2.497
74802.000			2.497			-2.497
74900.000			2.497			-2.497
75000.000			2.497			-2.497
75101.000			2.496			-2.496
75200.000			2.497			-2.497
75300.000			2.496			-2.496
75400.000			2.497			-2.497
75501.000			2.497			-2.497
75602.000			2.496			-2.496
75701.000			2.496			-2.496
75800.000			2.496			-2.496
75901.000			2.496			-2.496
76000.000			2.495			-2.495
76100.000			2.496			-2.496
76201.000			2.497			-2.497
76300.000			2.497			-2.497
76400.000			2.496			-2.496
76502.000			2.495			-2.495
76601.000			2.495			-2.495
76700.000			2.496			-2.496
76801.000			2.496			-2.496
76900.000			2.496			-2.496
77000.000			2.496			-2.496
77101.000			2.496			-2.496
77200.000			2.495			-2.495
77301.000			2.496			-2.496
77402.000			2.496			-2.496
77500.000			2.496			-2.496
77600.000			2.496			-2.496
77701.000			2.496			-2.496
77800.000			2.496			-2.496
77900.000			2.496			-2.496
78001.000			2.495			-2.495
78100.000			2.495			-2.495
78201.000			2.496			-2.496
78302.000			2.495			-2.495
78400.000			2.496			-2.496
78500.000			2.496			-2.496
78600.000			2.495			-2.495
78700.000			2.495			-2.495
78801.000			2.494			-2.494
78900.000			2.494			-2.494
79001.000			2.495			-2.495
79102.000			2.495			-2.495
79201.000			2.495			-2.495
79300.000			2.495			-2.495
79401.000			2.495			-2.495
79500.000			2.495			-2.495
79600.000			2.496			-2.496
79701.000			2.494			-2.494
79800.000			2.495			-2.495
79901.000			2.495			-2.495
80002.000			2.495			-2.495
80100.000			2.495			-2.495
80200.000			2.494			-2.494
80301.000			2.494			-2.494
80400.000			2.493			-2.493
80500.000			2.493			-2.493
80601.000			2.494			-2.494
80701.000			2.494			-2.494
80801.000			2.494			-2.494
80901.000			2.494			-2.494
81000.000			2.495			-2.495
81100.000			2.494			-2.494
81201.000			2.493			-2.493
81300.000			2.494			-2.494
81400.000			2.495			-2.495
81502.000			2.495			-2.495
81601.000			2.494			-2.494
81700.000			2.494			-2.494
81800.000			2.495			-2.495
81900.000			2.495			-2.495
82001.000			2.494			-2.494
82100.000			2.494			-2.494
82200.000			2.494			-2.494
82302.000			2.494			-2.494
82401.000			2.494			-2.494
82501.000			2.494			-2.494
82601.000			2.494			-2.494
82700.000			2.494			-2.494
82800.000			2.494			-2.494
82901.000			2.493			-2.493
83000.000			2.493			-2.493
83100.000			2.493			-2.493
83202.000			2.494			-2.494
83301.000			2.493			-2.493
83400.000			2.493			-2.493
83501.000			2.494			-2.494
83600.000			2.494			-2.494
83700.000			2.494			-2.494
83801.000			2.494			-2.494
83900.000			2.493			-2.493
84001.000			2.494			-2.494
84102.000			2.494			-2.494
84200.000			2.493			-2.493
84300.000			2.493			-2.493
84401.000			2.494			-2.494
84500.000			2.494			-2.494
84600.000			2.494			-2.494
84701.000			2.493			-2.493
84801.000			2.493			-2.493
84902.000			2.493			-2.493
85001.000			2.494			-2.494
85100.000			2.493			-2.493
85201.000			2.493			-2.493
85300.000			2.493			-2.493
85400.000			2.494			-2.494
85501.000			2.494			-2.494
85601.000			2.495			-2.495
85701.000			2.494			-2.494
85802.000			2.494			-2.494
85900.000			2.494			-2.494
86000.000			2.494			-2.494
86101.000			2.494			-2.494
86200.000			2.493			-2.493
86300.000			2.493			-2.493
86401.000			2.494			-2.494
86501.000			2.494			-2.494
86601.000			2.494			-2.494
86701.000			2.494			-2.494
86800.000			2.494			-2.494
86900.000			2.494			-2.494
87001.000			2.493			-2.493
87100.000			2.493			-2.493
87200.000			2.492			-2.492
87302.000			2.493			-2.493
87401.000			2.492			-2.492
87500.000			2.492			-2.492
87601.000			2.492			-2.492
87700.000			2.492			-2.492
87800.000			2.493			-2.493
87901.000			2.492			-2.492
88000.000			2.492			-2.492
88100.000			2.492			-2.492
88202.000			2.492			-2.492
88301.000			2.492			-2.492
88401.000			2.492			-2.492
88500.000			2.492			-2.492
88600.000			2.491			-2.491
88701.000			2.493			-2.493
88800.000			2.493			-2.493
88900.000			2.493			-2.493
89002.000			2.492			-2.492
89101.000			2.492			-2.492
89200.000			2.492			-2.492
89301.000			2.492			-2.492
89400.000			2.491			-2.491
89500.000			2.491			-2.491
89601.000			2.491			-2.491
89700.000			2.491			-2.491
89801.000			2.491			-2.491
89902.000			2.492			-2.492
90001.000			2.492			-2.492
90100.000			2.491			-2.491
90201.000			2.492			-2.492
90300.000			2.492			-2.492
90400.000			2.492			-2.492
90501.000			2.491			-2.491
90601.000			2.490			-2.490
90701.000			2.491			-2.491
90801.000			2.492			-2.492
90900.000			2.491			-2.491
91000.000			2.492			-2.492
91101.000			2.492			-2.492
91200.000			2.492			-2.492
91300.000			2.492			-2.492
91402.000			2.492			-2.492
91501.000			2.491			-2.491
91601.000			2.491			-2.491
91700.000			2.492			-2.492
91800.000			2.491			-2.491
91901.000			2.492			-2.492
92000.000			2.492			-2.492
92100.000			2.491			-2.491
92202.000			2.490			-2.490
92301.000			2.491			-2.491
92401.000			2.491			-2.491
92501.000			2.492			-2.492
92600.000			2.491			-2.491
92700.000			2.491			-2.491
92801.000			2.492			-2.492
92900.000			2.491			-2.491
93000.000			2.490			-2.490
93102.000			2.491			-2.491
93201.000			2.491			-2.491
93300.000			2.490			-2.490
93401.000			2.491			-2.491
93500.000			2.491			-2.491
93600.000			2.491			-2.491
93701.000			2.491			-2.491
93800.000			2.489			-2.489
93901.000			2.490			-2.490
94002.000			2.491			-2.491
94100.000			2.491			-2.491
94200.000			2.491			-2.491
94301.000			2.490			-2.490
94400.000			2.491			-2.491
94500.000			2.491			-2.491
94600.000			2.490			-2.490
94701.000			2.490			-2.490
94802.000			2.491			-2.491
94900.000			2.492			-2.492
95000.000			2.491			-2.491
95101.000			2.490			-2.490
95200.000			2.491			-2.491
95300.000			2.490			-2.490
95401.000			2.490			-2.490
95501.000			2.490			-2.490
95601.000			2.491			-2.491
95701.000			2.491			-2.491
95800.000			2.490			-2.490
95900.000			2.491			-2.491
96001.000			2.492			-2.492
96100.000			2.491			-2.491
96200.000			2.491			-2.491
96302.000			2.491			-2.491
96401.000			2.493			-2.493
96500.000			2.492			-2.492
96601.000			2.492			-2.492
96700.000			2.492			-2.492
96800.000			2.491			-2.491
96901.000			2.492			-2.492
97000.000			2.491			-2.491
97101.000			2.490			-2.490
97202.000			2.490			-2.490
97301.000			2.492			-2.492
97400.000			2.491			-2.491
97501.000			2.491			-2.491
97600.000			2.490			-2.490
97700.000			2.491			-2.491
97800.000			2.490			-2.490
97900.000			2.490			-2.490
98002.000			2.491			-2.491
98101.000			2.490			-2.490
98200.000			2.490			-2.490
98301.000			2.490			-2.490
98400.000			2.490			-2.490
98500.000			2.489			-2.489
98601.000			2.490			-2.490
98700.000			2.490			-2.490
98801.000			2.490			-2.490
98902.000			2.490			-2.490
99001.000			2.490			-2.490
99100.000			2.490			-2.490
99201.000			2.489			-2.489
99300.000			2.490			-2.490
99400.000			2.489			-2.489
99501.000			2.489			-2.489
99600.000			2.489			-2.489
99701.000			2.490			-2.490
99802.000			2.489			-2.489
99900.000			2.488			-2.488
100000.000			2.488			-2.488
100101.000			2.489			-2.489
100200.000			2.489			-2.489
100300.000			2.488			-2.488
100401.000			2.487			-2.487
100501.000			2.487			-2.487
100601.000			2.488			-2.488
100701.000			2.488			-2.488
100800.000			2.489			-2.489
100900.000			2.489			-2.489
101000.000			2.489			-2.489
101100.000			2.488			-2.488
101201.000			2.488			-2.488
101300.000			2.488			-2.488
101401.000			2.488			-2.488
101502.000			2.488			-2.488
101600.000			2.489			-2.489
101700.000			2.488			-2.488
101801.000			2.488			-2.488
101900.000			2.489			-2.489
102000.000			2.488			-2.488
102101.000			2.488			-2.488
102201.000			2.488			-2.488
102301.000			2.487			-2.487
102401.000			2.488			-2.488
102500.000			2.488			-2.488
102600.000			2.487			-2.487
102701.000			2.488			-2.488
102800.000			2.488			-2.488
102900.000			2.487			-2.487
103001.000			2.488			-2.488
103101.000			2.488			-2.488
103201.000			2.488			-2.488
103301.000			2.488			-2.488
103400.000			2.488			-2.488
103500.000			2.488			-2.488
103601.000			2.487			-2.487
103700.000			2.487			-2.487
103800.000			2.488			-2.488
103902.000			2.487			-2.487
104001.000			2.488			-2.488
104100.000			2.489			-2.489
104200.000			2.488			-2.488
104300.000			2.487			-2.487
104401.000			2.488			-2.488
104500.000			2.488			-2.488
104600.000			2.487			-2.487
104701.000			2.488			-2.488
104801.000			2.487			-2.487
104901.000			2.488			-2.488
105001.000			2.488			-2.488
105100.000			2.488			-2.488
105200.000			2.487			-2.487
105301.000			2.487			-2.487
105400.000			2.487			-2.487
105500.000			2.488			-2.488
105602.000			2.488			-2.488
105701.000			2.488			-2.488
105800.000			2.488			-2.488
105901.000			2.488			-2.488
106000.000			2.488			-2.488
106100.000			2.489			-2.489
106201.000			2.489			-2.489
106300.000			2.488			-2.488
106400.000			2.488			-2.488
106502.000			2.488			-2.488
106601.000			2.487			-2.487
106700.000			2.488			-2.488
106801.000			2.487			-2.487
106900.000			2.488			-2.488
107000.000			2.488			-2.488
107101.000			2.488			-2.488
107200.000			2.488			-2.488
107302.000			2.488			-2.488
107401.000			2.488			-2.488
107501.000			2.488			-2.488
107601.000			2.487			-2.487
107700.000			2.487			-2.487
107800.000			2.487			-2.487
107901.000			2.487			-2.487
108000.000			2.487			-2.487
108100.000			2.487			-2.487
108202.000			2.486			-2.486
108301.000			2.485			-2.485
108400.000			2.485			-2.485
108501.000			2.486			-2.486
108600.000			2.486			-2.486
108700.000			2.487			-2.487
108801.000			2.487			-2.487
108900.000			2.487			-2.487
109000.000			2.487			-2.487
109102.000			2.486			-2.486
109201.000			2.486			-2.486
109300.000			2.487			-2.487
109401.000			2.486			-2.486
109500.000			2.488			-2.488
109600.000			2.487			-2.487
109701.000			2.486			-2.486
109800.000			2.487			-2.487
109900.000			2.487			-2.487
110002.000			2.486			-2.486
110101.000			2.486			-2.486
110200.000			2.486			-2.486
110301.000			2.487			-2.487
110400.000			2.486			-2.486
110500.000			2.486			-2.486
110600.000			2.486			-2.486
110700.000			2.486			-2.486
110802.000			2.486			-2.486
110901.000			2.486			-2.486
111000.000			2.487			-2.487
111101.000			2.487			-2.487
111200.000			2.484			-2.484
111300.000			2.485			-2.485
111401.000			2.487			-2.487
111500.000			2.486			-2.486
111601.000			2.486			-2.486
111702.000			2.486			-2.486
111801.000			2.486			-2.486
111900.000			2.486			-2.486
112001.000			2.485			-2.485
112100.000			2.486			-2.486
112200.000			2.486			-2.486
112301.000			2.487			-2.487
112400.000			2.486			-2.486
112501.000			2.486			-2.486
112602.000			2.486			-2.486
112700.000			2.486			-2.486
112800.000			2.486			-2.486
112901.000			2.485			-2.485
113000.000			2.486			-2.486
113100.000			2.487			-2.487
113201.000			2.485			-2.485
113301.000			2.486			-2.486
113401.000			2.487			-2.487
113502.000			2.487			-2.487
113600.000			2.486			-2.486
113700.000			2.485			-2.485
113800.000			2.486			-2.486
113900.000			2.485			-2.485
114001.000			2.486			-2.486
114100.000			2.487			-2.487
114201.000			2.486			-2.486
114302.000			2.485			-2.485
114400.000			2.486			-2.486
114500.000			2.487			-2.487
114601.000			2.486			-2.486
114700.000			2.485			-2.485
114800.000			2.486			-2.486
114901.000			2.486			-2.486
115001.000			2.486			-2.486
115101.000			2.486			-2.486
115202.000			2.486			-2.486
115300.000			2.486			-2.486
115400.000			2.485			-2.485
115501.000			2.484			-2.484
115600.000			2.485			-2.485
115700.000			2.486			-2.486
115801.000			2.486			-2.486
115901.000			2.487			-2.487
116001.000			2.486			-2.486
116101.000			2.485			-2.485
116200.000			2.485			-2.485
116300.000			2.485			-2.485
116401.000			2.486			-2.486
116500.000			2.486			-2.486
116600.000			2.486			-2.486
116702.000			2.485			-2.485
116801.000			2.485			-2.485
116902.000			2.486			-2.486
117000.000			2.485			-2.485
117100.000			2.485			-2.485
117201.000			2.485			-2.485
117300.000			2.485			-2.485
117400.000			2.486			-2.486
117501.000			2.485			-2.485
117601.000			2.484			-2.484
117701.000			2.485			-2.485
117801.000			2.485			-2.485
117900.000			2.485			-2.485
118000.000			2.483			-2.483
118101.000			2.484			-2.484
118200.000			2.484			-2.484
118300.000			2.485			-2.485
118401.000			2.485			-2.485
118501.000			2.484			-2.484
118601.000			2.484			-2.484
118701.000			2.484			-2.484
118800.000			2.484			-2.484
118900.000			2.485			-2.485
119001.000			2.485			-2.485
119100.000			2.485			-2.485
119200.000			2.484			-2.484
119302.000			2.484			-2.484
119401.000			2.485			-2.485
119501.000			2.484			-2.484
119601.000			2.484			-2.484
119700.000			2.485			-2.485
119800.000			2.484			-2.484
119901.000			2.485			-2.485
120000.000			2.485			-2.485
120100.000			2.484			-2.484
120202.000			2.484			-2.484
120301.000			2.483			-2.483
120401.000			2.484			-2.484
120500.000			2.484			-2.484
120600.000			2.483			-2.483
120701.000			2.483			-2.483
120800.000			2.484			-2.484
120900.000			2.483			-2.483
121002.000			2.484			-2.484
121101.000			2.483			-2.483
121200.000			2.483			-2.483
121301.000			2.482			-2.482
121400.000			2.483			-2.483
121500.000			2.484			-2.484
121601.000			2.482			-2.482
121700.000			2.484			-2.484
121800.000			2.484			-2.484
121902.000			2.484			-2.484
122001.000			2.483			-2.483
122100.000			2.482			-2.482
122201.000			2.482			-2.482
122300.000			2.483			-2.483
122400.000			2.484			-2.484
122501.000			2.484			-2.484
122600.000			2.483			-2.483
122701.000			2.483			-2.483
122802.000			2.483			-2.483
122900.000			2.482			-2.482
123000.000			2.481			-2.481
123101.000			2.482			-2.482
123200.000			2.483			-2.483
123300.000			2.483			-2.483
123400.000			2.483			-2.483
123500.000			2.483			-2.483
123602.000			2.482			-2.482
123701.000			2.483			-2.483
123800.000			2.483			-2.483
123901.000			2.481			-2.481
124000.000			2.481			-2.481
124100.000			2.483			-2.483
124201.000			2.484			-2.484
124300.000			2.484			-2.484
124401.000			2.484			-2.484
124502.000			2.483			-2.483
124600.000			2.483			-2.483
124700.000			2.484			-2.484
124801.000			2.484			-2.484
124900.000			2.483			-2.483
125000.000			2.482			-2.482
125101.000			2.483			-2.483
125201.000			2.483			-2.483
125301.000			2.483			-2.483
125401.000			2.482			-2.482
125500.000			2.482			-2.482
125600.000			2.484			-2.484
125701.000			2.484			-2.484
125800.000			2.482			-2.482
125900.000			2.482			-2.482
126002.000			2.483			-2.483
126101.000			2.483			-2.483
126201.000			2.483			-2.483
126301.000			2.482			-2.482
126400.000			2.482			-2.482
126500.000			2.483			-2.483
126600.000			2.483			-2.483
126700.000			2.483			-2.483
126801.000			2.484			-2.484
126901.000			2.484			-2.484
127001.000			2.483			-2.483
127101.000			2.482			-2.482
127200.000			2.483			-2.483
127300.000			2.482			-2.482
127401.000			2.482			-2.482
127500.000			2.482			-2.482
127600.000			2.482			-2.482
127702.000			2.482			-2.482
127801.000			2.482			-2.482
127900.000			2.482			-2.482
128001.000			2.482			-2.482
128100.000			2.482			-2.482
128200.000			2.481			-2.481
128301.000			2.482			-2.482
128400.000			2.482			-2.482
128500.000			2.481			-2.481
128602.000			2.482			-2.482
128701.000			2.481			-2.481
128800.000			2.482			-2.482
128901.000			2.483			-2.483
129000.000			2.483			-2.483
129100.000			2.482			-2.482
129201.000			2.482			-2.482
129300.000			2.482			-2.482
129400.000			2.481			-2.481
129502.000			2.482			-2.482
129601.000			2.482			-2.482
129700.000			2.483			-2.483
129800.000			2.482			-2.482
129900.000			2.481			-2.481
130001.000			2.482			-2.482
130100.000			2.482			-2.482
130200.000			2.482			-2.482
130302.000			2.482			-2.482
130401.000			2.482			-2.482
130501.000			2.481			-2.481
130601.000			2.480			-2.480
130700.000			2.480			-2.480
130800.000			2.481			-2.481
130901.000			2.480			-2.480
131000.000			2.480			-2.480
131100.000			2.480			-2.480
131202.000			2.480			-2.480
131301.000			2.480			-2.480
131400.000			2.480			-2.480
131501.000			2.480			-2.480
131600.000			2.480			-2.480
131700.000			2.481			-2.481
131801.000			2.480			-2.480
131900.000			2.480			-2.480
132000.000			2.480			-2.480
132102.000			2.480			-2.480
132201.000			2.480			-2.480
132300.000			2.481			-2.481
132401.000			2.481			-2.481
132500.000			2.481			-2.481
132600.000			2.480			-2.480
132701.000			2.480			-2.480
132800.000			2.481			-2.481
132900.000			2.480			-2.480
133002.000			2.481			-2.481
133101.000			2.481			-2.481
133201.000			2.481			-2.481
133300.000			2.481			-2.481
133400.000			2.481			-2.481
133501.000			2.481			-2.481
133600.000			2.480			-2.480
133700.000			2.480			-2.480
133801.000			2.481			-2.481
133901.000			2.481			-2.481
134001.000			2.481			-2.481
134102.000			2.480			-2.480
134200.000			2.480			-2.480
134300.000			2.480			-2.480
134401.000			2.480			-2.480
134500.000			2.481			-2.481
134600.000			2.481			-2.481
134701.000			2.481			-2.481
134801.000			2.480			-2.480
134901.000			2.481			-2.481
135002.000			2.480			-2.480
135100.000			2.480			-2.480
135200.000			2.481			-2.481
135301.000			2.481			-2.481
135400.000			2.482			-2.482
135500.000			2.480			-2.480
135601.000			2.480			-2.480
135701.000			2.481			-2.481
135801.000			2.481			-2.481
135902.000			2.482			-2.482
136000.000			2.481			-2.481
136100.000			2.481			-2.481
136200.000			2.480			-2.480
136300.000			2.481			-2.481
136401.000			2.479			-2.479
136500.000			2.481			-2.481
136600.000			2.481			-2.481
136702.000			2.481			-2.481
136801.000			2.481			-2.481
136900.000			2.481			-2.481
137001.000			2.481			-2.481
137100.000			2.481			-2.481
137200.000			2.481			-2.481
137301.000			2.481			-2.481
137400.000			2.480			-2.480
137500.000			2.480			-2.480
137602.000			2.479			-2.479
137701.000			2.480			-2.480
137801.000			2.480			-2.480
137901.000			2.479			-2.479
138000.000			2.480			-2.480
138100.000			2.479			-2.479
138201.000			2.480			-2.480
138300.000			2.480			-2.480
138400.000			2.480			-2.480
138501.000			2.479			-2.479
138601.000			2.480			-2.480
138701.000			2.480			-2.480
138801.000			2.479			-2.479
138900.000			2.479			-2.479
139000.000			2.479			-2.479
139101.000			2.480			-2.480
139200.000			2.480			-2.480
139300.000			2.479			-2.479
139400.000			2.480			-2.480
139501.000			2.479			-2.479
139602.000			2.479			-2.479
139701.000			2.480			-2.480
139800.000			2.481			-2.481
139901.000			2.479			-2.479
140000.000			2.480			-2.480
140100.000			2.480			-2.480
140201.000			2.479			-2.479
140300.000			2.479			-2.479
140400.000			2.479			-2.479
140502.000			2.480			-2.480
140601.000			2.479			-2.479
140700.000			2.479			-2.479
140801.000			2.478			-2.478
140900.000			2.479			-2.479
141000.000			2.480			-2.480
141101.000			2.479			-2.479
141200.000			2.479			-2.479
141300.000			2.479			-2.479
141402.000			2.480			-2.480
141501.000			2.480			-2.480
141601.000			2.480			-2.480
141701.000			2.479			-2.479
141800.000			2.478			-2.478
141900.000			2.480			-2.480
142001.000			2.480			-2.480
142100.000			2.480			-2.480
142200.000			2.480			-2.480
142302.000			2.480			-2.480
142401.000			2.479			-2.479
142502.000			2.479			-2.479
142600.000			2.479			-2.479
142700.000			2.479			-2.479
142801.000			2.480			-2.480
142900.000			2.480			-2.480
143000.000			2.479			-2.479
143101.000			2.479			-2.479
143200.000			2.479			-2.479
143301.000			2.478			-2.478
143402.000			2.478			-2.478
143500.000			2.479			-2.479
143600.000			2.479			-2.479
143701.000			2.479			-2.479
143800.000			2.479			-2.479
143900.000			2.479			-2.479
144001.000			2.478			-2.478
144100.000			2.478			-2.478
144201.000			2.479			-2.479
144302.000			2.479			-2.479
144401.000			2.478			-2.478
144500.000			2.478			-2.478
144601.000			2.479			-2.479
144700.000			2.480			-2.480
144800.000			2.479			-2.479
144901.000			2.477			-2.477
145000.000			2.478			-2.478
145100.000			2.478			-2.478
145202.000			2.478			-2.478
145301.000			2.478			-2.478
145400.000			2.478			-2.478
145501.000			2.478			-2.478
145600.000			2.479			-2.479
145700.000			2.479			-2.479
145800.000			2.478			-2.478
145900.000			2.477			-2.477
146001.000			2.478			-2.478
146101.000			2.478			-2.478
146201.000			2.477			-2.477
146302.000			2.477			-2.477
146400.000			2.478			-2.478
146500.000			2.478			-2.478
146601.000			2.478			-2.478
146700.000			2.479			-2.479
146800.000			2.478			-2.478
146901.000			2.478			-2.478
147000.000			2.478			-2.478
147101.000			2.478			-2.478
147202.000			2.478			-2.478
147301.000			2.478			-2.478
147400.000			2.477			-2.477
147501.000			2.478			-2.478
147600.000			2.477			-2.477
147700.000			2.479			-2.479
147801.000			2.479			-2.479
147900.000			2.478			-2.478
148000.000			2.478			-2.478
148102.000			2.478			-2.478
148201.000			2.479			-2.479
148300.000			2.478			-2.478
148401.000			2.478			-2.478
148500.000			2.478			-2.478
148600.000			2.478			-2.478
148701.000			2.478			-2.478
148800.000			2.478			-2.478
148900.000			2.479			-2.479
149002.000			2.478			-2.478
149101.000			2.478			-2.478
149202.000			2.478			-2.478
149300.000			2.479			-2.479
149400.000			2.478			-2.478
149501.000			2.478			-2.478
149600.000			2.478			-2.478
149700.000			2.477			-2.477
149801.000			2.478			-2.478
149900.000			2.478			-2.478
150001.000			2.477			-2.477
150102.000			2.476			-2.476
150201.000			2.477			-2.477
150300.000			2.478			-2.478
150401.000			2.477			-2.477
150500.000			2.478			-2.478
150600.000			2.478			-2.478
150701.000			2.478			-2.478
150800.000			2.477			-2.477
150900.000			2.478			-2.478
151002.000			2.478			-2.478
151101.000			2.476			-2.476
151200.000			2.477			-2.477
151301.000			2.477			-2.477
151400.000			2.477			-2.477
151500.000			2.477			-2.477
151601.000			2.478			-2.478
151700.000			2.477			-2.477
151800.000			2.478			-2.478
151902.000			2.477			-2.477
152001.000			2.477			-2.477
152102.000			2.477			-2.477
152200.000			2.478			-2.478
152300.000			2.478			-2.478
152401.000			2.478			-2.478
152500.000			2.477			-2.477
152600.000			2.477			-2.477
152701.000			2.477			-2.477
152801.000			2.477			-2.477
152901.000			2.478			-2.478
153002.000			2.478			-2.478
153100.000			2.477			-2.477
153200.000			2.478			-2.478
153301.000			2.478			-2.478
153400.000			2.478			-2.478
153500.000			2.478			-2.478
153601.000			2.479			-2.479
153700.000			2.479			-2.479
153801.000			2.479			-2.479
153902.000			2.479			-2.479
154000.000			2.478			-2.478
154100.000			2.479			-2.479
154201.000			2.479			-2.479
154300.000			2.480			-2.480
154400.000			2.480			-2.480
154501.000			2.481			-2.481
154600.000			2.481			-2.481
154701.000			2.481			-2.481
154802.000			2.480			-2.480
154901.000			2.481			-2.481
155000.000			2.480			-2.480
155101.000			2.480			-2.480
155200.000			2.480			-2.480
155300.000			2.480			-2.480
155400.000			2.480			-2.480
155500.000			2.482			-2.482
155601.000			2.481			-2.481
155701.000			2.480			-2.480
155801.000			2.480			-2.480
155901.000			2.481			-2.481
156000.000			2.481			-2.481
156100.000			2.480			-2.480
156201.000			2.479			-2.479
156300.000			2.479			-2.479
156400.000			2.480			-2.480
156501.000			2.481			-2.481
156601.000			2.480			-2.480
156701.000			2.478			-2.478
156801.000			2.479			-2.479
156900.000			2.479			-2.479
157000.000			2.481			-2.481
157101.000			2.481			-2.481
157200.000			2.479			-2.479
157300.000			2.479			-2.479
157401.000			2.480			-2.480
157501.000			2.480			-2.480
157601.000			2.481			-2.481
157702.000			2.481			-2.481
157800.000			2.480			-2.480
157900.000			2.480			-2.480
158001.000			2.481			-2.481
158100.000			2.481			-2.481
158200.000			2.479			-2.479
158301.000			2.480			-2.480
158400.000			2.482			-2.482
158502.000			2.480			-2.480
158601.000			2.480			-2.480
158701.000			2.481			-2.481
158801.000			2.481			-2.481
158900.000			2.480			-2.480
159000.000			2.479			-2.479
159101.000			2.479			-2.479
159200.000			2.479			-2.479
159300.000			2.479			-2.479
159401.000			2.480			-2.480
159501.000			2.480			-2.480
159601.000			2.480			-2.480
159701.000			2.480			-2.480
159800.000			2.481			-2.481
159900.000			2.481			-2.481
160001.000			2.481			-2.481
160100.000			2.480			-2.480
160200.000			2.480			-2.480
160301.000			2.481			-2.481
160401.000			2.480			-2.480
160501.000			2.480			-2.480
160601.000			2.480			-2.480
160700.000			2.480			-2.480
160800.000			2.480			-2.480
160901.000			2.480			-2.480
161000.000			2.480			-2.480
161100.000			2.480			-2.480
161201.000			2.480			-2.480
161301.000			2.479			-2.479
161401.000			2.480			-2.480
161502.000			2.479			-2.479
161600.000			2.479			-2.479
161700.000			2.479			-2.479
161800.000			2.480			-2.480
161900.000			2.481			-2.481
162001.000			2.480			-2.480
162100.000			2.480			-2.480
162200.000			2.479			-2.479
162302.000			2.478			-2.478
162401.000			2.479			-2.479
162500.000			2.479			-2.479
162601.000			2.478			-2.478
162700.000			2.479			-2.479
162800.000			2.479			-2.479
162901.000			2.479			-2.479
163000.000			2.479			-2.479
163100.000			2.479			-2.479
163202.000			2.479			-2.479
163301.000			2.479			-2.479
163401.000			2.479			-2.479
163501.000			2.478			-2.478
163600.000			2.478			-2.478
163700.000			2.478			-2.478
163801.000			2.479			-2.479
163900.000			2.478			-2.478
164000.000			2.478			-2.478
164101.000			2.479			-2.479
164201.000			2.478			-2.478
164301.000			2.478			-2.478
164401.000			2.479			-2.479
164500.000			2.479			-2.479
164600.000			2.479			-2.479
164701.000			2.478			-2.478
164800.000			2.478			-2.478
164900.000			2.478			-2.478
165000.000			2.479			-2.479
165100.000			2.479			-2.479
165202.000			2.478			-2.478
165301.000			2.478			-2.478
165400.000			2.478			-2.478
165501.000			2.477			-2.477
165600.000			2.477			-2.477
165700.000			2.477			-2.477
165801.000			2.478			-2.478
165900.000			2.478			-2.478
166000.000			2.477			-2.477
166102.000			2.479			-2.479
166201.000			2.478			-2.478
166301.000			2.477			-2.477
166401.000			2.477			-2.477
166500.000			2.478			-2.478
166600.000			2.479			-2.479
166701.000			2.478			-2.478
166800.000			2.478			-2.478
166900.000			2.478			-2.478
167001.000			2.478			-2.478
167101.000			2.477			-2.477
167201.000			2.477			-2.477
167302.000			2.477			-2.477
167400.000			2.477			-2.477
167500.000			2.477			-2.477
167601.000			2.478			-2.478
167700.000			2.478			-2.478
167800.000			2.478			-2.478
167901.000			2.478			-2.478
168000.000			2.479			-2.479
168102.000			2.479			-2.479
168201.000			2.478			-2.478
168300.000			2.477			-2.477
168401.000			2.478			-2.478
168500.000			2.477			-2.477
168600.000			2.478			-2.478
168701.000			2.478			-2.478
168800.000			2.477			-2.477
168900.000			2.478			-2.478
169002.000			2.478			-2.478
169101.000			2.478			-2.478
169201.000			2.478			-2.478
169301.000			2.477			-2.477
169400.000			2.478			-2.478
169500.000			2.477			-2.477
169601.000			2.476			-2.476
169700.000			2.476			-2.476
169800.000			2.477			-2.477
169901.000			2.477			-2.477
170001.000			2.477			-2.477
170101.000			2.476			-2.476
170201.000			2.477			-2.477
170300.000			2.477			-2.477
170400.000			2.477			-2.477
170501.000			2.476			-2.476
170600.000			2.476			-2.476
170700.000			2.477			-2.477
170801.000			2.478			-2.478
170901.000			2.477			-2.477
171001.000			2.476			-2.476
171102.000			2.476			-2.476
171200.000			2.476			-2.476
171300.000			2.475			-2.475
171400.000			2.475			-2.475
171500.000			2.475			-2.475
171601.000			2.475			-2.475
171700.000			2.475			-2.475
171800.000			2.475			-2.475
171902.000			2.476			-2.476
172001.000			2.475			-2.475
172100.000			2.475			-2.475
172201.000			2.475			-2.475
172300.000			2.474			-2.474
172400.000			2.474			-2.474
172501.000			2.474			-2.474
172600.000			2.474			-2.474
172700.000			2.474			-2.474
172802.000			2.475			-2.475
172901.000			2.474			-2.474
173001.000			2.473			-2.473
173101.000			2.475			-2.475
173200.000			2.474			-2.474
173300.000			2.474			-2.474
173401.000			2.474			-2.474
173500.000			2.474			-2.474
173600.000			2.475			-2.475
173701.000			2.474			-2.474
173801.000			2.474			-2.474
173901.000			2.473			-2.473
174001.000			2.475			-2.475
174100.000			2.475			-2.475
174200.000			2.474			-2.474
174301.000			2.474			-2.474
174400.000			2.474			-2.474
174500.000			2.473			-2.473
174600.000			2.474			-2.474
174701.000			2.475			-2.475
174802.000			2.474			-2.474
174901.000			2.474			-2.474
175000.000			2.475			-2.475
175101.000			2.474			-2.474
175200.000			2.474			-2.474
175300.000			2.474			-2.474
175401.000			2.475			-2.475
175500.000			2.474			-2.474
175600.000			2.474			-2.474
175702.000			2.473			-2.473
175801.000			2.474			-2.474
175900.000			2.474			-2.474
176001.000			2.473			-2.473
176100.000			2.472			-2.472
176200.000			2.473			-2.473
176301.000			2.473			-2.473
176400.000			2.473			-2.473
176500.000			2.472			-2.472
176602.000			2.473			-2.473
176701.000			2.473			-2.473
176801.000			2.473			-2.473
176901.000			2.474			-2.474
177000.000			2.473			-2.473
177100.000			2.474			-2.474
177201.000			2.474			-2.474
177300.000			2.473			-2.473
177400.000			2.473			-2.473
177501.000			2.474			-2.474
177601.000			2.473			-2.473
177702.000			2.473			-2.473
177800.000			2.473			-2.473
177900.000			2.473			-2.473
178001.000			2.473			-2.473
178100.000			2.472			-2.472
178200.000			2.472			-2.472
178301.000			2.471			-2.471
178400.000			2.472			-2.472
178501.000			2.472			-2.472
178602.000			2.473			-2.473
178701.000			2.473			-2.473
178800.000			2.472			-2.472
178901.000			2.473			-2.473
179000.000			2.473			-2.473
179100.000			2.473			-2.473
179201.000			2.474			-2.474
179300.000			2.474			-2.474
179400.000			2.474			-2.474
179502.000			2.474			-2.474
179601.000			2.474			-2.474
179701.000			2.474			-2.474
179801.000			2.473			-2.473
179900.000			2.473			-2.473
180000.000			2.472			-2.472
180101.000			2.473			-2.473
180200.000			2.473			-2.473
180300.000			2.471			-2.471
180402.000			2.472			-2.472
180501.000			2.473			-2.473
180601.000			2.474			-2.474
180701.000			2.474			-2.474
180800.000			2.473			-2.473
180900.000			2.474			-2.474
181000.000			2.474			-2.474
181100.000			2.473			-2.473
181201.000			2.474			-2.474
181301.000			2.474			-2.474
181401.000			2.473			-2.473
181502.000			2.473			-2.473
181600.000			2.473			-2.473
181700.000			2.474			-2.474
181801.000			2.473			-2.473
181900.000			2.474			-2.474
182000.000			2.473			-2.473
182101.000			2.473			-2.473
182200.000			2.473			-2.473
182301.000			2.473			-2.473
182402.000			2.472			-2.472
182500.000			2.473			-2.473
182600.000			2.472			-2.472
182701.000			2.472			-2.472
182800.000			2.472			-2.472
182900.000			2.473			-2.473
183001.000			2.472			-2.472
183100.000			2.472			-2.472
183201.000			2.472			-2.472
183302.000			2.471			-2.471
183400.000			2.471			-2.471
183500.000			2.471			-2.471
183601.000			2.471			-2.471
183700.000			2.472			-2.472
183800.000			2.471			-2.471
183901.000			2.470			-2.470
184000.000			2.470			-2.470
184102.000			2.471			-2.471
184201.000			2.471			-2.471
184301.000			2.472			-2.472
184401.000			2.471			-2.471
184500.000			2.472			-2.472
184600.000			2.472			-2.472
184701.000			2.473			-2.473
184800.000			2.473			-2.473
184900.000			2.472			-2.472
185001.000			2.472			-2.472
185101.000			2.471			-2.471
185201.000			2.470			-2.470
185301.000			2.471			-2.471
185400.000			2.471			-2.471
185500.000			2.472			-2.472
185601.000			2.472			-2.472
185700.000			2.471			-2.471
185800.000			2.471			-2.471
185901.000			2.471			-2.471
186001.000			2.471			-2.471
186101.000			2.471			-2.471
186202.000			2.472			-2.472
186300.000			2.472			-2.472
186400.000			2.471			-2.471
186501.000			2.472			-2.472
186600.000			2.473			-2.473
186700.000			2.473			-2.473
186801.000			2.472			-2.472
186900.000			2.472			-2.472
187001.000			2.471			-2.471
187102.000			2.471			-2.471
187200.000			2.472			-2.472
187300.000			2.472			-2.472
187400.000			2.472			-2.472
187500.000			2.473			-2.473
187601.000			2.472			-2.472
187700.000			2.471			-2.471
187800.000			2.471			-2.471
187902.000			2.472			-2.472
188001.000			2.472			-2.472
188101.000			2.473			-2.473
188201.000			2.472			-2.472
188300.000			2.473			-2.473
188400.000			2.472			-2.472
188501.000			2.472			-2.472
188600.000			2.472			-2.472
188700.000			2.473			-2.473
188801.000			2.473			-2.473
188901.000			2.472			-2.472
189001.000			2.472			-2.472
189101.000			2.473			-2.473
189200.000			2.472			-2.472
189300.000			2.472			-2.472
189401.000			2.473			-2.473
189500.000			2.472			-2.472
189600.000			2.471			-2.471
189701.000			2.471			-2.471
189801.000			2.472			-2.472
189901.000			2.473			-2.473
190002.000			2.472			-2.472
190100.000			2.472			-2.472
190200.000			2.471			-2.471
190301.000			2.471			-2.471
190400.000			2.471			-2.471
190500.000			2.472			-2.472
190600.000			2.472			-2.472
190700.000			2.472			-2.472
190802.000			2.471			-2.471
190901.000			2.471			-2.471
191000.000			2.472			-2.472
191101.000			2.472			-2.472
191200.000			2.471			-2.471
191300.000			2.472			-2.472
191401.000			2.472			-2.472
191500.000			2.472			-2.472
191600.000			2.473			-2.473
191702.000			2.473			-2.473
191801.000			2.473			-2.473
191900.000			2.472			-2.472
192001.000			2.471			-2.471
192100.000			2.471			-2.471
192200.000			2.472			-2.472
192301.000			2.471			-2.471
192400.000			2.470			-2.470
192500.000			2.472			-2.472
192602.000			2.471			-2.471
192701.000			2.472			-2.472
192801.000			2.472			-2.472
192901.000			2.471			-2.471
193000.000			2.471			-2.471
193100.000			2.472			-2.472
193201.000			2.472			-2.472
193300.000			2.472			-2.472
193400.000			2.472			-2.472
193502.000			2.471			-2.471
193601.000			2.471			-2.471
193702.000			2.471			-2.471
193800.000			2.472			-2.472
193900.000			2.472			-2.472
194001.000			2.471			-2.471
194100.000			2.472			-2.472
194200.000			2.472			-2.472
194301.000			2.472			-2.472
194400.000			2.471			-2.471
194501.000			2.472			-2.472
194602.000			2.473			-2.473
194700.000			2.472			-2.472
194800.000			2.471			-2.471
194901.000			2.470			-2.470
195000.000			2.470			-2.470
195100.000			2.471			-2.471
195201.000			2.471			-2.471
195300.000			2.471			-2.471
195401.000			2.471			-2.471
195502.000			2.471			-2.471
195601.000			2.472			-2.472
195700.000			2.471			-2.471
195801.000			2.471			-2.471
195900.000			2.472			-2.472
196000.000			2.472			-2.472
196101.000			2.471			-2.471
196200.000			2.470			-2.470
196300.000			2.471			-2.471
196402.000			2.472			-2.472
196501.000			2.471			-2.471
196600.000			2.472			-2.472
196701.000			2.470			-2.470
196800.000			2.472			-2.472
196900.000			2.472			-2.472
197000.000			2.472			-2.472
197100.000			2.471			-2.471
197201.000			2.472			-2.472
197301.000			2.471			-2.471
197401.000			2.473			-2.473
197501.000			2.473			-2.473
197600.000			2.472			-2.472
197700.000			2.472			-2.472
197801.000			2.472			-2.472
197900.000			2.472			-2.472
198000.000			2.472			-2.472
198101.000			2.472			-2.472
198201.000			2.471			-2.471
198301.000			2.471			-2.471
198402.000			2.471			-2.471
198500.000			2.471			-2.471
198600.000			2.471			-2.471
198701.000			2.472			-2.472
198800.000			2.472			-2.472
198900.000			2.471			-2.471
199001.000			2.471			-2.471
199100.000			2.471			-2.471
199201.000			2.472			-2.472
199302.000			2.471			-2.471
199401.000			2.471			-2.471
199500.000			2.471			-2.471
199601.000			2.473			-2.473
199700.000			2.471			-2.471
199800.000			2.471			-2.471
199901.000			2.471			-2.471
200000.000			2.472			-2.472
200100.000			2.472			-2.472
200202.000			2.472			-2.472
200301.000			2.472			-2.472
200401.000			2.471			-2.471
200500.000			2.471			-2.471
200600.000			2.472			-2.472
200701.000			2.472			-2.472
200800.000			2.471			-2.471
200900.000			2.472			-2.472
201001.000			2.471			-2.471
201101.000			2.471			-2.471
201201.000			2.470			-2.470
201301.000			2.470			-2.470
201400.000			2.470			-2.470
201500.000			2.471			-2.471
201601.000			2.471			-2.471
201700.000			2.471			-2.471
201800.000			2.471			-2.471
201901.000			2.470			-2.470
202001.000			2.471			-2.471
202101.000			2.471			-2.471
202201.000			2.471			-2.471
202300.000			2.471			-2.471
202400.000			2.471			-2.471
202501.000			2.471			-2.471
202600.000			2.471			-2.471
202700.000			2.471			-2.471
202801.000			2.471			-2.471
202901.000			2.471			-2.471
203001.000			2.471			-2.471
203101.000			2.471			-2.471
203200.000			2.471			-2.471
203300.000			2.470			-2.470
203400.000			2.470			-2.470
203500.000			2.470			-2.470
203601.000			2.470			-2.470
203700.000			2.470			-2.470
203801.000			2.470			-2.470
203902.000			2.469			-2.469
204000.000			2.471			-2.471
204100.000			2.470			-2.470
204201.000			2.469			-2.469
204300.000			2.469			-2.469
204400.000			2.470			-2.470
204501.000			2.470			-2.470
204600.000			2.469			-2.469
204701.000			2.470			-2.470
204802.000			2.470			-2.470
204901.000			2.471			-2.471
205000.000			2.470			-2.470
205101.000			2.469			-2.469
205200.000			2.470			-2.470
205300.000			2.470			-2.470
205401.000			2.469			-2.469
205500.000			2.470			-2.470
205600.000			2.469			-2.469
205702.000			2.469			-2.469
205801.000			2.469			-2.469
205900.000			2.469			-2.469
206001.000			2.469			-2.469
206100.000			2.470			-2.470
206200.000			2.469			-2.469
206301.000			2.470			-2.470
206400.000			2.471			-2.471
206500.000			2.471			-2.471
206602.000			2.470			-2.470
206701.000			2.469			-2.469
206801.000			2.470			-2.470
206900.000			2.469			-2.469
207000.000			2.468			-2.468
207101.000			2.469			-2.469
207200.000			2.470			-2.470
207300.000			2.470			-2.470
207401.000			2.468			-2.468
207501.000			2.469			-2.469
207601.000			2.469			-2.469
207702.000			2.468			-2.468
207800.000			2.469			-2.469
207900.000			2.469			-2.469
208001.000			2.469			-2.469
208100.000			2.468			-2.468
208200.000			2.468			-2.468
208301.000			2.469			-2.469
208400.000			2.469			-2.469
208501.000			2.470			-2.470
208602.000			2.469			-2.469
208700.000			2.468			-2.468
208800.000			2.468			-2.468
208901.000			2.469			-2.469
209000.000			2.469			-2.469
209100.000			2.469			-2.469
209201.000			2.469			-2.469
209300.000			2.469			-2.469
209401.000			2.468			-2.468
209502.000			2.469			-2.469
209601.000			2.469			-2.469
209700.000			2.469			-2.469
209800.000			2.469			-2.469
209900.000			2.468			-2.468
210001.000			2.470			-2.470
210100.000			2.470			-2.470
210200.000			2.470			-2.470
210301.000			2.469			-2.469
210401.000			2.469			-2.469
210501.000			2.470			-2.470
210601.000			2.470			-2.470
210700.000			2.470			-2.470
210800.000			2.469			-2.469
210901.000			2.469			-2.469
211000.000			2.469			-2.469
211100.000			2.469			-2.469
211201.000			2.468			-2.468
211301.000			2.469			-2.469
211401.000			2.468			-2.468
211501.000			2.468			-2.468
211600.000			2.470			-2.470
211700.000			2.469			-2.469
211801.000			2.470			-2.470
211900.000			2.468			-2.468
212000.000			2.468			-2.468
212101.000			2.469			-2.469
212201.000			2.469			-2.469
212301.000			2.469			-2.469
212401.000			2.469			-2.469
212500.000			2.469			-2.469
212600.000			2.469			-2.469
212701.000			2.469			-2.469
212800.000			2.469			-2.469
212900.000			2.469			-2.469
213000.000			2.469			-2.469
213101.000			2.469			-2.469
213202.000			2.468			-2.468
213300.000			2.468			-2.468
213400.000			2.469			-2.469
213501.000			2.469			-2.469
213600.000			2.469			-2.469
213700.000			2.468			-2.468
213801.000			2.468			-2.468
213900.000			2.469			-2.469
214001.000			2.470			-2.470
214102.000			2.469			-2.469
214201.000			2.469			-2.469
214300.000			2.469			-2.469
214401.000			2.470			-2.470
214500.000			2.469			-2.469
214600.000			2.469			-2.469
214701.000			2.469			-2.469
214800.000			2.468			-2.468
214900.000			2.469			-2.469
215002.000			2.469			-2.469
215101.000			2.468			-2.468
215200.000			2.469			-2.469
215301.000			2.468			-2.468
215400.000			2.468			-2.468
215500.000			2.469			-2.469
215601.000			2.469			-2.469
215700.000			2.468			-2.468
215800.000			2.469			-2.469
215902.000			2.468			-2.468
216001.000			2.467			-2.467
216102.000			2.468			-2.468
216200.000			2.469			-2.469
216300.000			2.469			-2.469
216401.000			2.469			-2.469
216500.000			2.469			-2.469
216600.000			2.468			-2.468
216701.000			2.468			-2.468
216801.000			2.469			-2.469
216901.000			2.469			-2.469
217002.000			2.468			-2.468
217100.000			2.468			-2.468
217200.000			2.469			-2.469
217301.000			2.468			-2.468
217400.000			2.468			-2.468
217500.000			2.469			-2.469
217601.000			2.469			-2.469
217700.000			2.469			-2.469
217801.000			2.469			-2.469
217902.000			2.469			-2.469
218000.000			2.469			-2.469
218100.000			2.470			-2.470
218201.000			2.469			-2.469
218300.000			2.469			-2.469
218400.000			2.470			-2.470
218501.000			2.470			-2.470
218600.000			2.468			-2.468
218701.000			2.469			-2.469
218802.000			2.468			-2.468
218901.000			2.469			-2.469
219000.000			2.469			-2.469
219101.000			2.468			-2.468
219200.000			2.468			-2.468
219300.000			2.469			-2.469
219400.000			2.470			-2.470
219500.000			2.469			-2.469
219601.000			2.470			-2.470
219701.000			2.469			-2.469
219801.000			2.469			-2.469
219902.000			2.469			-2.469
220000.000			2.468			-2.468
220100.000			2.469			-2.469
220201.000			2.469			-2.469
220300.000			2.468			-2.468
220400.000			2.468			-2.468
220501.000			2.468			-2.468
220601.000			2.468			-2.468
220701.000			2.468			-2.468
220802.000			2.469			-2.469
220900.000			2.468			-2.468
221000.000			2.468			-2.468
221101.000			2.469			-2.469
221200.000			2.468			-2.468
221300.000			2.467			-2.467
221401.000			2.467			-2.467
221501.000			2.468			-2.468
221601.000			2.469			-2.469
221702.000			2.468			-2.468
221800.000			2.467			-2.467
221900.000			2.467			-2.467
222001.000			2.468			-2.468
222100.000			2.468			-2.468
222200.000			2.468			-2.468
222301.000			2.468			-2.468
222400.000			2.467			-2.467
222502.000			2.466			-2.466
222601.000			2.467			-2.467
222700.000			2.467			-2.467
222801.000			2.468			-2.468
222900.000			2.468			-2.468
223000.000			2.467			-2.467
223101.000			2.468			-2.468
223200.000			2.468			-2.468
223300.000			2.467			-2.467
223402.000			2.467			-2.467
223501.000			2.467			-2.467
223600.000			2.467			-2.467
223701.000			2.467			-2.467
223800.000			2.467			-2.467
223900.000			2.467			-2.467
224001.000			2.467			-2.467
224100.000			2.467			-2.467
224200.000			2.467			-2.467
224302.000			2.467			-2.467
224401.000			2.467			-2.467
224501.000			2.467			-2.467
224601.000			2.467			-2.467
224700.000			2.467			-2.467
224800.000			2.467			-2.467
224901.000			2.467			-2.467
225000.000			2.467			-2.467
225100.000			2.467			-2.467
225202.000			2.467			-2.467
225301.000			2.466			-2.466
225401.000			2.467			-2.467
225501.000			2.466			-2.466
225600.000			2.467			-2.467
225700.000			2.467			-2.467
225800.000			2.467			-2.467
225900.000			2.467			-2.467
226001.000			2.467			-2.467
226100.000			2.466			-2.466
226201.000			2.467			-2.467
226302.000			2.467			-2.467
226400.000			2.467			-2.467
226500.000			2.467			-2.467
226601.000			2.467			-2.467
226700.000			2.466			-2.466
226800.000			2.467			-2.467
226901.000			2.466			-2.466
227000.000			2.466			-2.466
227101.000			2.466			-2.466
227202.000			2.466			-2.466
227301.000			2.467			-2.467
227400.000			2.467			-2.467
227501.000			2.467			-2.467
227600.000			2.467			-2.467
227700.000			2.467			-2.467
227801.000			2.467			-2.467
227900.000			2.467			-2.467
228000.000			2.466			-2.466
228102.000			2.467			-2.467
228201.000			2.467			-2.467
228300.000			2.467			-2.467
228401.000			2.466			-2.466
228500.000			2.467			-2.467
228600.000			2.467			-2.467
228701.000			2.467			-2.467
228800.000			2.467			-2.467
228900.000			2.467			-2.467
229002.000			2.467			-2.467
229101.000			2.467			-2.467
229202.000			2.467			-2.467
229300.000			2.467			-2.467
229400.000			2.468			-2.468
229501.000			2.467			-2.467
229600.000			2.465			-2.465
229700.000			2.466			-2.466
229801.000			2.467			-2.467
229900.000			2.465			-2.465
230001.000			2.466			-2.466
230102.000			2.466			-2.466
230200.000			2.466			-2.466
230300.000			2.466			-2.466
230401.000			2.466			-2.466
230500.000			2.466			-2.466
230600.000			2.466			-2.466
230701.000			2.466			-2.466
230800.000			2.467			-2.467
230901.000			2.466			-2.466
231002.000			2.466			-2.466
231101.000			2.466			-2.466
231200.000			2.466			-2.466
231301.000			2.466			-2.466
231400.000			2.466			-2.466
231500.000			2.466			-2.466
231601.000			2.466			-2.466
231700.000			2.467			-2.467
231801.000			2.466			-2.466
231902.000			2.466			-2.466
232001.000			2.465			-2.465
232100.000			2.465			-2.465
232200.000			2.466			-2.466
232300.000			2.466			-2.466
232401.000			2.467			-2.467
232500.000			2.466			-2.466
232600.000			2.466			-2.466
232702.000			2.466			-2.466
232801.000			2.465			-2.465
232901.000			2.467			-2.467
233001.000			2.467			-2.467
233100.000			2.467			-2.467
233200.000			2.467			-2.467
233301.000			2.468			-2.468
233400.000			2.465			-2.465
233500.000			2.466			-2.466
233601.000			2.466			-2.466
233701.000			2.466			-2.466
233801.000			2.467			-2.467
233901.000			2.466			-2.466
234000.000			2.466			-2.466
234100.000			2.466			-2.466
234201.000			2.465			-2.465
234300.000			2.466			-2.466
234400.000			2.465			-2.465
234501.000			2.466			-2.466
234601.000			2.466			-2.466
234701.000			2.465			-2.465
234801.000			2.465			-2.465
234900.000			2.466			-2.466
235000.000			2.467			-2.467
235101.000			2.466			-2.466
235200.000			2.465			-2.465
235300.000			2.465			-2.465
235400.000			2.466			-2.466
235501.000			2.465			-2.465
235602.000			2.466			-2.466
235700.000			2.468			-2.468
235800.000			2.468			-2.468
235901.000			2.468			-2.468
236000.000			2.468			-2.468
236100.000			2.467			-2.467
236201.000			2.466			-2.466
236300.000			2.466			-2.466
236401.000			2.467			-2.467
236502.000			2.468			-2.468
236601.000			2.467			-2.467
236700.000			2.466			-2.466
236801.000			2.465			-2.465
236900.000			2.466			-2.466
237000.000			2.468			-2.468
237101.000			2.467			-2.467
237200.000			2.466			-2.466
237300.000			2.467			-2.467
237402.000			2.468			-2.468
237501.000			2.468			-2.468
237600.000			2.468			-2.468
237701.000			2.467			-2.467
237800.000			2.467			-2.467
237900.000			2.466			-2.466
238001.000			2.467			-2.467
238100.000			2.468			-2.468
238200.000			2.467			-2.467
238302.000			2.466			-2.466
238401.000			2.466			-2.466
238502.000			2.466			-2.466
238600.000			2.467			-2.467
238700.000			2.467			-2.467
238801.000			2.466			-2.466
238900.000			2.466			-2.466
239000.000			2.466			-2.466
239101.000			2.466			-2.466
239200.000			2.466			-2.466
239301.000			2.465			-2.465
239402.000			2.465			-2.465
239500.000			2.466			-2.466
239600.000			2.466			-2.466
239701.000			2.467			-2.467
239800.000			2.465			-2.465
239900.000			2.464			-2.464
240001.000			2.464			-2.464
240100.000			2.466			-2.466
240201.000			2.466			-2.466
240302.000			2.466			-2.466
240401.000			2.466			-2.466
240500.000			2.466			-2.466
240601.000			2.466			-2.466
240700.000			2.466			-2.466
240800.000			2.465			-2.465
240901.000			2.465			-2.465
241000.000			2.465			-2.465
241101.000			2.465			-2.465
241202.000			2.466			-2.466
241301.000			2.465			-2.465
241400.000			2.465			-2.465
241501.000			2.465			-2.465
241600.000			2.466			-2.466
241700.000			2.467			-2.467
241800.000			2.467			-2.467
241900.000			2.466			-2.466
242001.000			2.466			-2.466
242101.000			2.466			-2.466
242201.000			2.465			-2.465
242301.000			2.465			-2.465
242400.000			2.466			-2.466
242500.000			2.466			-2.466
242601.000			2.465			-2.465
242700.000			2.465			-2.465
242800.000			2.465			-2.465
242901.000			2.466			-2.466
243001.000			2.466			-2.466
243101.000			2.466			-2.466
243201.000			2.465			-2.465
243300.000			2.466			-2.466
243400.000			2.466			-2.466
243501.000			2.466			-2.466
243600.000			2.466			-2.466
243700.000			2.466			-2.466
243801.000			2.466			-2.466
243901.000			2.466			-2.466
244001.000			2.465			-2.465
244101.000			2.466			-2.466
244200.000			2.466			-2.466
244300.000			2.466			-2.466
244401.000			2.467			-2.467
244500.000			2.466			-2.466
244600.000			2.466			-2.466
244701.000			2.466			-2.466
244801.000			2.467			-2.467
244902.000			2.466			-2.466
245001.000			2.465			-2.465
245100.000			2.466			-2.466
245201.000			2.465			-2.465
245300.000			2.466			-2.466
245400.000			2.466			-2.466
245501.000			2.465			-2.465
245600.000			2.464			-2.464
245700.000			2.465			-2.465
245802.000			2.466			-2.466
245901.000			2.466			-2.466
246001.000			2.466			-2.466
246101.000			2.465			-2.465
246200.000			2.465			-2.465
246300.000			2.465			-2.465
246401.000			2.466			-2.466
246500.000			2.466			-2.466
246600.000			2.466			-2.466
246702.000			2.466			-2.466
246801.000			2.466			-2.466
246901.000			2.466			-2.466
247001.000			2.466			-2.466
247100.000			2.465			-2.465
247200.000			2.465			-2.465
247301.000			2.466			-2.466
247400.000			2.465			-2.465
247500.000			2.466			-2.466
247601.000			2.466			-2.466
247701.000			2.467			-2.467
247801.000			2.466			-2.466
247901.000			2.465			-2.465
248000.000			2.464			-2.464
248100.000			2.466			-2.466
248200.000			2.465			-2.465
248300.000			2.466			-2.466
248401.000			2.466			-2.466
248500.000			2.466			-2.466
248601.000			2.465			-2.465
248702.000			2.466			-2.466
248801.000			2.466			-2.466
248900.000			2.465			-2.465
249001.000			2.464			-2.464
249100.000			2.465			-2.465
249200.000			2.465			-2.465
249301.000			2.466			-2.466
249400.000			2.465			-2.465
249500.000			2.465			-2.465
249602.000			2.465			-2.465
249701.000			2.464			-2.464
249800.000			2.464			-2.464
249901.000			2.464			-2.464
250000.000			2.464			-2.464
250100.000			2.464			-2.464
250201.000			2.465			-2.465
250300.000			2.464			-2.464
250400.000			2.463			-2.463
250502.000			2.464			-2.464
250601.000			2.464			-2.464
250700.000			2.465			-2.465
250801.000			2.464			-2.464
250900.000			2.465			-2.465
251000.000			2.465			-2.465
251101.000			2.465			-2.465
251200.000			2.465			-2.465
251300.000			2.465			-2.465
251402.000			2.465			-2.465
251501.000			2.465			-2.465
251601.000			2.465			-2.465
251700.000			2.464			-2.464
251800.000			2.464			-2.464
251901.000			2.463			-2.463
252000.000			2.464			-2.464
252100.000			2.464			-2.464
252201.000			2.465			-2.465
252301.000			2.465			-2.465
252401.000			2.465			-2.465
252502.000			2.463			-2.463
252600.000			2.463			-2.463
252700.000			2.464			-2.464
252801.000			2.464			-2.464
252900.000			2.465			-2.465
253000.000			2.465			-2.465
253101.000			2.465			-2.465
253201.000			2.465			-2.465
253301.000			2.463			-2.463
253402.000			2.465			-2.465
253500.000			2.464			-2.464
253600.000			2.463			-2.463
253701.000			2.464			-2.464
253800.000			2.464			-2.464
253900.000			2.464			-2.464
254001.000			2.465			-2.465
254100.000			2.465			-2.465
254201.000			2.464			-2.464
254302.000			2.464			-2.464
254400.000			2.464			-2.464
254500.000			2.464			-2.464
254600.000			2.464			-2.464
254700.000			2.463			-2.463
254801.000			2.464			-2.464
254900.000			2.464			-2.464
255000.000			2.463			-2.463
255102.000			2.463			-2.463
255201.000			2.464			-2.464
255301.000			2.464			-2.464
255401.000			2.463			-2.463
255500.000			2.464			-2.464
255600.000			2.464			-2.464
255701.000			2.464			-2.464
255800.000			2.463			-2.463
255900.000			2.463			-2.463
256002.000			2.463			-2.463
256101.000			2.464			-2.464
256201.000			2.465			-2.465
256301.000			2.464			-2.464
256400.000			2.463			-2.463
256500.000			2.463			-2.463
256601.000			2.463			-2.463
256700.000			2.463			-2.463
256800.000			2.463			-2.463
256901.000			2.464			-2.464
257001.000			2.464			-2.464
257101.000			2.463			-2.463
257201.000			2.464			-2.464
257300.000			2.464			-2.464
257400.000			2.464			-2.464
257501.000			2.464			-2.464
257600.000			2.464			-2.464
257700.000			2.464			-2.464
257800.000			2.463			-2.463
257901.000			2.463			-2.463
258002.000			2.463			-2.463
258101.000			2.463			-2.463
258200.000			2.463			-2.463
258301.000			2.463			-2.463
258400.000			2.464			-2.464
258500.000			2.464			-2.464
258601.000			2.464			-2.464
258700.000			2.462			-2.462
258800.000			2.462			-2.462
258902.000			2.462			-2.462
259001.000			2.463			-2.463
259100.000			2.463			-2.463
259201.000			2.463			-2.463
259300.000			2.463			-2.463
259400.000			2.464			-2.464
259501.000			2.464			-2.464
259600.000			2.463			-2.463
259700.000			2.464			-2.464
259802.000			2.464			-2.464
259901.000			2.463			-2.463
260001.000			2.463			-2.463
260101.000			2.464			-2.464
260200.000			2.463			-2.463
260300.000			2.463			-2.463
260401.000			2.463			-2.463
260500.000			2.463			-2.463
260600.000			2.462			-2.462
260702.000			2.462			-2.462
260801.000			2.463			-2.463
260902.000			2.463			-2.463
261000.000			2.464			-2.464
261100.000			2.464			-2.464
261201.000			2.463			-2.463
261300.000			2.463			-2.463
261400.000			2.463			-2.463
261501.000			2.463			-2.463
261601.000			2.462			-2.462
261701.000			2.462			-2.462
261802.000			2.462			-2.462
261900.000			2.463			-2.463
262000.000			2.463			-2.463
262101.000			2.464			-2.464
262200.000			2.463			-2.463
262300.000			2.462			-2.462
262401.000			2.462			-2.462
262501.000			2.463			-2.463
262601.000			2.462			-2.462
262702.000			2.462			-2.462
262800.000			2.462			-2.462
262900.000			2.462			-2.462
263001.000			2.463			-2.463
263100.000			2.463			-2.463
263200.000			2.463			-2.463
263301.000			2.462			-2.462
263401.000			2.463			-2.463
263501.000			2.463			-2.463
263602.000			2.464			-2.464
263700.000			2.463			-2.463
263800.000			2.463			-2.463
263901.000			2.464			-2.464
264000.000			2.464			-2.464
264100.000			2.464			-2.464
264200.000			2.464			-2.464
264300.000			2.463			-2.463
264402.000			2.463			-2.463
264501.000			2.463			-2.463
264600.000			2.463			-2.463
264701.000			2.463			-2.463
264800.000			2.463			-2.463
264900.000			2.464			-2.464
265001.000			2.462			-2.462
265100.000			2.462			-2.462
265200.000			2.463			-2.463
265302.000			2.464			-2.464
265401.000			2.463			-2.463
265500.000			2.463			-2.463
265601.000			2.463			-2.463
265700.000			2.462			-2.462
265800.000			2.462			-2.462
265901.000			2.462			-2.462
266000.000			2.463			-2.463
266100.000			2.462			-2.462
266202.000			2.462			-2.462
266301.000			2.462			-2.462
266401.000			2.461			-2.461
266501.000			2.462			-2.462
266600.000			2.463			-2.463
266700.000			2.463			-2.463
266801.000			2.462			-2.462
266900.000			2.463			-2.463
267000.000			2.462			-2.462
267102.000			2.462			-2.462
267201.000			2.462			-2.462
267302.000			2.463			-2.463
267400.000			2.462			-2.462
267500.000			2.463			-2.463
267601.000			2.463			-2.463
267700.000			2.462			-2.462
267800.000			2.462			-2.462
267901.000			2.462			-2.462
268000.000			2.463			-2.463
268101.000			2.463			-2.463
268202.000			2.463			-2.463
268300.000			2.463			-2.463
268400.000			2.463			-2.463
268501.000			2.464			-2.464
268600.000			2.465			-2.465
268700.000			2.464			-2.464
268801.000			2.464			-2.464
268900.000			2.463			-2.463
269000.000			2.464			-2.464
269102.000			2.464			-2.464
269201.000			2.464			-2.464
269300.000			2.463			-2.463
269401.000			2.463			-2.463
269500.000			2.464			-2.464
269600.000			2.464			-2.464
269701.000			2.464			-2.464
269800.000			2.464			-2.464
269900.000			2.464			-2.464
270002.000			2.463			-2.463
270101.000			2.463			-2.463
270200.000			2.462			-2.462
270301.000			2.462			-2.462
270400.000			2.462			-2.462
270500.000			2.463			-2.463
270600.000			2.463			-2.463
270700.000			2.463			-2.463
270801.000			2.463			-2.463
270901.000			2.462			-2.462
271001.000			2.463			-2.463
271101.000			2.463			-2.463
271200.000			2.462			-2.462
271300.000			2.462			-2.462
271401.000			2.463			-2.463
271500.000			2.463			-2.463
271600.000			2.463			-2.463
271701.000			2.463			-2.463
271801.000			2.462			-2.462
271901.000			2.462			-2.462
272001.000			2.462			-2.462
272100.000			2.463			-2.463
272200.000			2.462			-2.462
272301.000			2.462			-2.462
272400.000			2.463			-2.463
272500.000			2.463			-2.463
272601.000			2.462			-2.462
272701.000			2.463			-2.463
272801.000			2.463			-2.463
272901.000			2.463			-2.463
273000.000			2.462			-2.462
273100.000			2.462			-2.462
273201.000			2.462			-2.462
273300.000			2.462			-2.462
273400.000			2.462			-2.462
273501.000			2.462			-2.462
273601.000			2.462			-2.462
273702.000			2.462			-2.462
273801.000			2.462			-2.462
273900.000			2.461			-2.461
274001.000			2.461			-2.461
274100.000			2.462			-2.462
274200.000			2.462			-2.462
274301.000			2.462			-2.462
274400.000			2.462			-2.462
274501.000			2.461			-2.461
274602.000			2.462			-2.462
274701.000			2.462			-2.462
274800.000			2.462			-2.462
274901.000			2.462			-2.462
275000.000			2.461			-2.461
275100.000			2.462			-2.462
275201.000			2.463			-2.463
275300.000			2.462			-2.462
275400.000			2.461			-2.461
275502.000			2.463			-2.463
275601.000			2.463			-2.463
275700.000			2.463			-2.463
275801.000			2.464			-2.464
275900.000			2.464			-2.464
276000.000			2.463			-2.463
276101.000			2.461			-2.461
276200.000			2.462			-2.462
276300.000			2.463			-2.463
276402.000			2.462			-2.462
276501.000			2.463			-2.463
276600.000			2.463			-2.463
276701.000			2.462			-2.462
276800.000			2.463			-2.463
276900.000			2.462			-2.462
277000.000			2.463			-2.463
277100.000			2.462			-2.462
277201.000			2.461			-2.461
277301.000			2.462			-2.462
277401.000			2.462			-2.462
277501.000			2.461			-2.461
277600.000			2.462			-2.462
277700.000			2.461			-2.461
277801.000			2.461			-2.461
277900.000			2.461			-2.461
278000.000			2.461			-2.461
278101.000			2.461			-2.461
278201.000			2.462			-2.462
278301.000			2.461			-2.461
278402.000			2.461			-2.461
278500.000			2.461			-2.461
278600.000			2.462			-2.462
278701.000			2.461			-2.461
278800.000			2.461			-2.461
278900.000			2.462			-2.462
279001.000			2.461			-2.461
279100.000			2.460			-2.460
279201.000			2.461			-2.461
279302.000			2.460			-2.460
279400.000			2.460			-2.460
279500.000			2.462			-2.462
279601.000			2.461			-2.461
279700.000			2.460			-2.460
279800.000			2.461			-2.461
279901.000			2.462			-2.462
280000.000			2.462			-2.462
280102.000			2.462			-2.462
280201.000			2.462			-2.462
280301.000			2.461			-2.461
280401.000			2.461			-2.461
280500.000			2.462			-2.462
280600.000			2.461			-2.461
280701.000			2.461			-2.461
280800.000			2.461			-2.461
280900.000			2.461			-2.461
281002.000			2.460			-2.460
281101.000			2.461			-2.461
281201.000			2.462			-2.462
281301.000			2.462			-2.462
281400.000			2.461			-2.461
281500.000			2.461			-2.461
281601.000			2.461			-2.461
281700.000			2.461			-2.461
281800.000			2.461			-2.461
281901.000			2.460			-2.460
282001.000			2.461			-2.461
282101.000			2.461			-2.461
282201.000			2.461			-2.461
282300.000			2.461			-2.461
282400.000			2.462			-2.462
282501.000			2.461			-2.461
282600.000			2.461			-2.461
282700.000			2.460			-2.460
282801.000			2.461			-2.461
282901.000			2.461			-2.461
283001.000			2.461			-2.461
283101.000			2.461			-2.461
283200.000			2.461			-2.461
283300.000			2.461			-2.461
283400.000			2.460			-2.460
283500.000			2.460			-2.460
283601.000			2.460			-2.460
283700.000			2.461			-2.461
283801.000			2.462			-2.462
283902.000			2.461			-2.461
284000.000			2.461			-2.461
284100.000			2.462			-2.462
284201.000			2.461			-2.461
284300.000			2.461			-2.461
284400.000			2.461			-2.461
284501.000			2.461			-2.461
284600.000			2.462			-2.462
284701.000			2.462			-2.462
284802.000			2.461			-2.461
284900.000			2.461			-2.461
285000.000			2.461			-2.461
285101.000			2.460			-2.460
285200.000			2.461			-2.461
285300.000			2.461			-2.461
285401.000			2.461			-2.461
285500.000			2.461			-2.461
285601.000			2.461			-2.461
285702.000			2.462			-2.462
285801.000			2.462			-2.462
285900.000			2.460			-2.460
286001.000			2.462			-2.462
286100.000			2.462			-2.462
286200.000			2.463			-2.463
286301.000			2.462			-2.462
286400.000			2.462			-2.462
286502.000			2.462			-2.462
286601.000			2.462			-2.462
286701.000			2.462			-2.462
286801.000			2.462			-2.462
286900.000			2.463			-2.463
287000.000			2.463			-2.463
287101.000			2.462			-2.462
287200.000			2.461			-2.461
287300.000			2.462			-2.462
287401.000			2.462			-2.462
287501.000			2.462			-2.462
287601.000			2.463			-2.463
287701.000			2.461			-2.461
287800.000			2.462			-2.462
287900.000			2.462			-2.462
288001.000			2.462			-2.462
288100.000			2.462			-2.462
288200.000			2.462			-2.462
288301.000			2.461			-2.461
288401.000			2.460			-2.460
288501.000			2.461			-2.461
288602.000			2.461			-2.461
288700.000			2.461			-2.461
288800.000			2.461			-2.461
288901.000			2.461			-2.461
289000.000			2.461			-2.461
289100.000			2.461			-2.461
289201.000			2.461			-2.461
289300.000			2.461			-2.461
289401.000			2.461			-2.461
289502.000			2.462			-2.462
289600.000			2.463			-2.463
289700.000			2.462			-2.462
289800.000			2.462			-2.462
289900.000			2.461			-2.461
290001.000			2.461			-2.461
290100.000			2.460			-2.460
290200.000			2.461			-2.461
290302.000			2.461			-2.461
290401.000			2.461			-2.461
290501.000			2.460			-2.460
290601.000			2.460			-2.460
290700.000			2.460			-2.460
290800.000			2.460			-2.460
290901.000			2.460			-2.460
291000.000			2.461			-2.461
291100.000			2.461			-2.461
291202.000			2.461			-2.461
291301.000			2.461			-2.461
291401.000			2.460			-2.460
291501.000			2.460			-2.460
291600.000			2.460			-2.460
291700.000			2.461			-2.461
291801.000			2.461			-2.461
291900.000			2.461			-2.461
292000.000			2.460			-2.460
292101.000			2.459			-2.459
292201.000			2.459			-2.459
292301.000			2.458			-2.458
292401.000			2.459			-2.459
292500.000			2.460			-2.460
292600.000			2.460			-2.460
292701.000			2.460			-2.460
292800.000			2.460			-2.460
292900.000			2.460			-2.460
293000.000			2.459			-2.459
293101.000			2.459			-2.459
293202.000			2.459			-2.459
293301.000			2.459			-2.459
293400.000			2.460			-2.460
293501.000			2.460			-2.460
293600.000			2.460			-2.460
293700.000			2.460			-2.460
293801.000			2.459			-2.459
293900.000			2.458			-2.458
294000.000			2.459			-2.459
294102.000			2.461			-2.461
294201.000			2.461			-2.461
294300.000			2.460			-2.460
294401.000			2.460			-2.460
294500.000			2.460			-2.460
294600.000			2.459			-2.459
294701.000			2.459			-2.459
294800.000			2.460			-2.460
294900.000			2.460			-2.460
295002.000			2.458			-2.458
295101.000			2.459			-2.459
295201.000			2.459			-2.459
295301.000			2.459			-2.459
295400.000			2.458			-2.458
295500.000			2.458			-2.458
295601.000			2.459			-2.459
295700.000			2.459			-2.459
295800.000			2.460			-2.460
295901.000			2.459			-2.459
296001.000			2.459			-2.459
296102.000			2.459			-2.459
296201.000			2.459			-2.459
296300.000			2.458			-2.458
296401.000			2.459			-2.459
296500.000			2.459			-2.459
296600.000			2.460			-2.460
296701.000			2.460			-2.460
296800.000			2.459			-2.459
296900.000			2.460			-2.460
297002.000			2.459			-2.459
297101.000			2.458			-2.458
297200.000			2.459			-2.459
297301.000			2.459			-2.459
297400.000			2.459			-2.459
297500.000			2.459			-2.459
297601.000			2.459			-2.459
297700.000			2.458			-2.458
297800.000			2.458			-2.458
297902.000			2.458			-2.458
298001.000			2.458			-2.458
298101.000			2.458			-2.458
298201.000			2.458			-2.458
298300.000			2.458			-2.458
298400.000			2.459			-2.459
298501.000			2.458			-2.458
298600.000			2.459			-2.459
298700.000			2.458			-2.458
298801.000			2.459			-2.459
298901.000			2.459			-2.459
299001.000			2.459			-2.459
299102.000			2.459			-2.459
299200.000			2.458			-2.458
299300.000			2.458			-2.458
299400.000			2.457			-2.457
299500.000			2.458			-2.458
299601.000			2.458			-2.458
299700.000			2.459			-2.459
299800.000			2.458			-2.458
299902.000			2.458			-2.458
