# Acquired on 20/12/2023 14:17:05 
# SPIDER: Creep_-5mm_0771453C
# CREEP MEASUREMENT

# time [ms]		force [N]		stiffness [N/mm]
0.000			21.884			-4.377
100.000			24.287			-4.857
201.000			25.805			-5.161
300.000			25.745			-5.149
401.000			25.674			-5.135
502.000			25.620			-5.124
600.000			25.574			-5.115
700.000			25.535			-5.107
801.000			25.500			-5.100
900.000			25.441			-5.088
1000.000			25.416			-5.083
1102.000			25.393			-5.079
1201.000			25.371			-5.074
1300.000			25.351			-5.070
1401.000			25.332			-5.066
1500.000			25.314			-5.063
1600.000			25.280			-5.056
1701.000			25.265			-5.053
1800.000			25.251			-5.050
1901.000			25.236			-5.047
2002.000			25.223			-5.045
2100.000			25.211			-5.042
2200.000			25.198			-5.040
2301.000			25.186			-5.037
2400.000			25.164			-5.033
2500.000			25.153			-5.031
2600.000			25.144			-5.029
2701.000			25.134			-5.027
2802.000			25.125			-5.025
2900.000			25.116			-5.023
3000.000			25.106			-5.021
3101.000			25.089			-5.018
3200.000			25.080			-5.016
3300.000			25.072			-5.014
3402.000			25.064			-5.013
3501.000			25.057			-5.011
3600.000			25.049			-5.010
3701.000			25.042			-5.008
3800.000			25.029			-5.006
3900.000			25.022			-5.004
4001.000			25.015			-5.003
4100.000			25.009			-5.002
4201.000			25.003			-5.001
4302.000			24.996			-4.999
4400.000			24.989			-4.998
4500.000			24.983			-4.997
4601.000			24.971			-4.994
4700.000			24.966			-4.993
4800.000			24.960			-4.992
4902.000			24.955			-4.991
5001.000			24.950			-4.990
5101.000			24.943			-4.989
5201.000			24.938			-4.988
5300.000			24.929			-4.986
5400.000			24.923			-4.985
5501.000			24.918			-4.984
5600.000			24.913			-4.983
5702.000			24.909			-4.982
5801.000			24.905			-4.981
5900.000			24.901			-4.980
6001.000			24.896			-4.979
6100.000			24.885			-4.977
6200.000			24.881			-4.976
6301.000			24.877			-4.975
6400.000			24.875			-4.975
6501.000			24.870			-4.974
6602.000			24.865			-4.973
6700.000			24.861			-4.972
6800.000			24.854			-4.971
6901.000			24.849			-4.970
7000.000			24.846			-4.969
7100.000			24.841			-4.968
7201.000			24.837			-4.967
7301.000			24.834			-4.967
7401.000			24.830			-4.966
7501.000			24.823			-4.965
7600.000			24.820			-4.964
7700.000			24.817			-4.963
7801.000			24.812			-4.962
7900.000			24.808			-4.962
8000.000			24.805			-4.961
8102.000			24.803			-4.961
8201.000			24.799			-4.960
8300.000			24.792			-4.958
8401.000			24.789			-4.958
8500.000			24.785			-4.957
8600.000			24.783			-4.957
8701.000			24.780			-4.956
8801.000			24.776			-4.955
8902.000			24.773			-4.955
9001.000			24.766			-4.953
9100.000			24.763			-4.953
9201.000			24.761			-4.952
9300.000			24.758			-4.952
9400.000			24.754			-4.951
9501.000			24.751			-4.950
9601.000			24.750			-4.950
9701.000			24.743			-4.949
9801.000			24.742			-4.948
9900.000			24.739			-4.948
10000.000			24.735			-4.947
10101.000			24.733			-4.947
10200.000			24.731			-4.946
10300.000			24.728			-4.946
10402.000			24.725			-4.945
10501.000			24.719			-4.944
10600.000			24.717			-4.943
10701.000			24.715			-4.943
10800.000			24.713			-4.943
10900.000			24.710			-4.942
11001.000			24.707			-4.941
11100.000			24.704			-4.941
11201.000			24.700			-4.940
11302.000			24.698			-4.940
11401.000			24.694			-4.939
11500.000			24.692			-4.938
11601.000			24.689			-4.938
11700.000			24.688			-4.938
11800.000			24.686			-4.937
11901.000			24.680			-4.936
12000.000			24.679			-4.936
12102.000			24.677			-4.935
12201.000			24.675			-4.935
12300.000			24.672			-4.934
12401.000			24.670			-4.934
12500.000			24.667			-4.933
12600.000			24.664			-4.933
12701.000			24.661			-4.932
12800.000			24.658			-4.932
12901.000			24.656			-4.931
13002.000			24.654			-4.931
13100.000			24.652			-4.931
13200.000			24.650			-4.930
13301.000			24.647			-4.929
13400.000			24.643			-4.929
13500.000			24.641			-4.928
13601.000			24.640			-4.928
13701.000			24.638			-4.928
13801.000			24.635			-4.927
13901.000			24.634			-4.927
14000.000			24.631			-4.926
14100.000			24.629			-4.926
14201.000			24.625			-4.925
14300.000			24.624			-4.925
14400.000			24.622			-4.924
14502.000			24.620			-4.924
14601.000			24.618			-4.924
14700.000			24.616			-4.923
14801.000			24.614			-4.923
14900.000			24.609			-4.922
15000.000			24.608			-4.922
15101.000			24.606			-4.921
15201.000			24.604			-4.921
15302.000			24.603			-4.921
15401.000			24.601			-4.920
15500.000			24.599			-4.920
15601.000			24.595			-4.919
15700.000			24.594			-4.919
15800.000			24.592			-4.918
15901.000			24.590			-4.918
16000.000			24.588			-4.918
16101.000			24.588			-4.918
16202.000			24.585			-4.917
16300.000			24.583			-4.917
16400.000			24.580			-4.916
16501.000			24.578			-4.916
16600.000			24.577			-4.915
16700.000			24.575			-4.915
16801.000			24.574			-4.915
16901.000			24.572			-4.914
17001.000			24.570			-4.914
17101.000			24.567			-4.913
17200.000			24.565			-4.913
17300.000			24.563			-4.913
17401.000			24.562			-4.912
17500.000			24.562			-4.912
17600.000			24.559			-4.912
17702.000			24.558			-4.912
17801.000			24.555			-4.911
17900.000			24.553			-4.911
18001.000			24.552			-4.910
18100.000			24.549			-4.910
18200.000			24.549			-4.910
18301.000			24.548			-4.910
18400.000			24.546			-4.909
18502.000			24.544			-4.909
18601.000			24.541			-4.908
18700.000			24.540			-4.908
18801.000			24.539			-4.908
18900.000			24.536			-4.907
19000.000			24.534			-4.907
19101.000			24.534			-4.907
19200.000			24.533			-4.907
19301.000			24.529			-4.906
19402.000			24.528			-4.906
19500.000			24.526			-4.905
19600.000			24.525			-4.905
19701.000			24.524			-4.905
19800.000			24.523			-4.905
19900.000			24.521			-4.904
20001.000			24.519			-4.904
20101.000			24.516			-4.903
20201.000			24.515			-4.903
20301.000			24.514			-4.903
20400.000			24.513			-4.903
20500.000			24.512			-4.902
20601.000			24.510			-4.902
20700.000			24.509			-4.902
20800.000			24.507			-4.901
20902.000			24.504			-4.901
21001.000			24.504			-4.901
21100.000			24.502			-4.900
21201.000			24.501			-4.900
21300.000			24.500			-4.900
21400.000			24.499			-4.900
21501.000			24.496			-4.899
21600.000			24.495			-4.899
21702.000			24.494			-4.899
21801.000			24.492			-4.898
21900.000			24.491			-4.898
22001.000			24.489			-4.898
22100.000			24.488			-4.898
22200.000			24.487			-4.897
22301.000			24.484			-4.897
22400.000			24.483			-4.897
22501.000			24.482			-4.896
22602.000			24.481			-4.896
22700.000			24.480			-4.896
22800.000			24.479			-4.896
22901.000			24.477			-4.895
23000.000			24.475			-4.895
23100.000			24.474			-4.895
23201.000			24.472			-4.894
23301.000			24.470			-4.894
23401.000			24.470			-4.894
23501.000			24.469			-4.894
23600.000			24.468			-4.894
23700.000			24.466			-4.893
23801.000			24.464			-4.893
23900.000			24.463			-4.893
24000.000			24.461			-4.892
24102.000			24.459			-4.892
24201.000			24.459			-4.892
24300.000			24.458			-4.892
24401.000			24.457			-4.891
24500.000			24.455			-4.891
24600.000			24.454			-4.891
24701.000			24.452			-4.890
24800.000			24.452			-4.890
24902.000			24.450			-4.890
25001.000			24.448			-4.890
25100.000			24.447			-4.889
25201.000			24.444			-4.889
25300.000			24.444			-4.889
25400.000			24.444			-4.889
25501.000			24.443			-4.889
25600.000			24.441			-4.888
25701.000			24.440			-4.888
25802.000			24.439			-4.888
25900.000			24.438			-4.888
26000.000			24.435			-4.887
26101.000			24.434			-4.887
26200.000			24.434			-4.887
26300.000			24.433			-4.887
26401.000			24.431			-4.886
26501.000			24.430			-4.886
26601.000			24.430			-4.886
26701.000			24.427			-4.885
26800.000			24.426			-4.885
26900.000			24.425			-4.885
27001.000			24.424			-4.885
27100.000			24.424			-4.885
27201.000			24.422			-4.884
27302.000			24.421			-4.884
27400.000			24.419			-4.884
27500.000			24.418			-4.884
27601.000			24.417			-4.883
27700.000			24.415			-4.883
27800.000			24.413			-4.883
27901.000			24.413			-4.883
28001.000			24.413			-4.883
28102.000			24.412			-4.882
28200.000			24.410			-4.882
28300.000			24.408			-4.882
28401.000			24.407			-4.881
28500.000			24.406			-4.881
28600.000			24.405			-4.881
28701.000			24.405			-4.881
28801.000			24.404			-4.881
28901.000			24.402			-4.880
29001.000			24.402			-4.880
29100.000			24.401			-4.880
29200.000			24.399			-4.880
29301.000			24.399			-4.880
29400.000			24.397			-4.879
29500.000			24.396			-4.879
29602.000			24.395			-4.879
29701.000			24.394			-4.879
29800.000			24.393			-4.879
29901.000			24.391			-4.878
30000.000			24.390			-4.878
30100.000			24.390			-4.878
30201.000			24.389			-4.878
30300.000			24.387			-4.877
30401.000			24.386			-4.877
30502.000			24.385			-4.877
30600.000			24.384			-4.877
30700.000			24.383			-4.877
30801.000			24.382			-4.876
30900.000			24.382			-4.876
31000.000			24.381			-4.876
31101.000			24.378			-4.876
31201.000			24.377			-4.875
31302.000			24.376			-4.875
31400.000			24.376			-4.875
31500.000			24.375			-4.875
31601.000			24.374			-4.875
31700.000			24.373			-4.875
31800.000			24.372			-4.874
31901.000			24.371			-4.874
32001.000			24.370			-4.874
32101.000			24.369			-4.874
32201.000			24.368			-4.874
32300.000			24.367			-4.873
32400.000			24.367			-4.873
32501.000			24.366			-4.873
32600.000			24.363			-4.873
32700.000			24.363			-4.873
32802.000			24.362			-4.872
32901.000			24.360			-4.872
33000.000			24.359			-4.872
33101.000			24.359			-4.872
33200.000			24.359			-4.872
33300.000			24.357			-4.871
33401.000			24.356			-4.871
33500.000			24.355			-4.871
33601.000			24.354			-4.871
33702.000			24.353			-4.871
33800.000			24.352			-4.870
33900.000			24.352			-4.870
34001.000			24.351			-4.870
34100.000			24.350			-4.870
34200.000			24.349			-4.870
34301.000			24.348			-4.870
34401.000			24.347			-4.869
34502.000			24.346			-4.869
34600.000			24.345			-4.869
34700.000			24.344			-4.869
34801.000			24.343			-4.869
34900.000			24.342			-4.868
35000.000			24.341			-4.868
35101.000			24.340			-4.868
35201.000			24.340			-4.868
35301.000			24.340			-4.868
35401.000			24.339			-4.868
35500.000			24.336			-4.867
35600.000			24.335			-4.867
35701.000			24.335			-4.867
35800.000			24.334			-4.867
35900.000			24.333			-4.867
36002.000			24.332			-4.866
36101.000			24.332			-4.866
36200.000			24.331			-4.866
36301.000			24.331			-4.866
36400.000			24.329			-4.866
36500.000			24.329			-4.866
36601.000			24.328			-4.866
36701.000			24.326			-4.865
36801.000			24.326			-4.865
36902.000			24.326			-4.865
37000.000			24.324			-4.865
37100.000			24.323			-4.865
37201.000			24.322			-4.864
37300.000			24.321			-4.864
37400.000			24.321			-4.864
37502.000			24.319			-4.864
37601.000			24.319			-4.864
37702.000			24.318			-4.864
37800.000			24.317			-4.863
37900.000			24.316			-4.863
38001.000			24.316			-4.863
38100.000			24.316			-4.863
38200.000			24.314			-4.863
38302.000			24.313			-4.863
38401.000			24.313			-4.863
38500.000			24.311			-4.862
38601.000			24.311			-4.862
38700.000			24.310			-4.862
38800.000			24.309			-4.862
38901.000			24.308			-4.862
39000.000			24.308			-4.862
39101.000			24.307			-4.861
39202.000			24.305			-4.861
39300.000			24.305			-4.861
39400.000			24.304			-4.861
39501.000			24.303			-4.861
39600.000			24.302			-4.860
39700.000			24.302			-4.860
39801.000			24.302			-4.860
39901.000			24.300			-4.860
40001.000			24.300			-4.860
40101.000			24.298			-4.860
40200.000			24.298			-4.860
40300.000			24.298			-4.860
40401.000			24.296			-4.859
40500.000			24.296			-4.859
40600.000			24.295			-4.859
40702.000			24.294			-4.859
40801.000			24.294			-4.859
40900.000			24.293			-4.859
41000.000			24.292			-4.858
41100.000			24.290			-4.858
41201.000			24.290			-4.858
41300.000			24.290			-4.858
41400.000			24.289			-4.858
41502.000			24.289			-4.858
41601.000			24.288			-4.858
41700.000			24.286			-4.857
41801.000			24.286			-4.857
41900.000			24.285			-4.857
42000.000			24.285			-4.857
42101.000			24.284			-4.857
42200.000			24.282			-4.856
42301.000			24.281			-4.856
42402.000			24.280			-4.856
42500.000			24.280			-4.856
42600.000			24.281			-4.856
42701.000			24.280			-4.856
42800.000			24.278			-4.856
42900.000			24.279			-4.856
43001.000			24.278			-4.856
43101.000			24.277			-4.855
43201.000			24.276			-4.855
43301.000			24.274			-4.855
43400.000			24.274			-4.855
43500.000			24.273			-4.855
43601.000			24.273			-4.855
43700.000			24.273			-4.855
43800.000			24.270			-4.854
43902.000			24.269			-4.854
44001.000			24.269			-4.854
44100.000			24.269			-4.854
44200.000			24.269			-4.854
44300.000			24.268			-4.854
44401.000			24.266			-4.853
44500.000			24.266			-4.853
44600.000			24.265			-4.853
44702.000			24.264			-4.853
44801.000			24.265			-4.853
44900.000			24.263			-4.853
45001.000			24.264			-4.853
45100.000			24.261			-4.852
45200.000			24.260			-4.852
45301.000			24.260			-4.852
45400.000			24.260			-4.852
45501.000			24.259			-4.852
45602.000			24.259			-4.852
45700.000			24.258			-4.852
45800.000			24.257			-4.851
45901.000			24.256			-4.851
46000.000			24.255			-4.851
46100.000			24.255			-4.851
46201.000			24.255			-4.851
46301.000			24.254			-4.851
46401.000			24.252			-4.850
46501.000			24.251			-4.850
46600.000			24.252			-4.850
46700.000			24.251			-4.850
46801.000			24.250			-4.850
46900.000			24.249			-4.850
47000.000			24.248			-4.850
47102.000			24.248			-4.850
47201.000			24.248			-4.850
47300.000			24.248			-4.850
47400.000			24.246			-4.849
47500.000			24.246			-4.849
47601.000			24.246			-4.849
47700.000			24.245			-4.849
47800.000			24.245			-4.849
47902.000			24.244			-4.849
48001.000			24.242			-4.848
48100.000			24.241			-4.848
48201.000			24.241			-4.848
48300.000			24.241			-4.848
48400.000			24.239			-4.848
48501.000			24.238			-4.848
48600.000			24.238			-4.848
48701.000			24.238			-4.848
48802.000			24.238			-4.848
48900.000			24.237			-4.847
49000.000			24.236			-4.847
49101.000			24.234			-4.847
49200.000			24.234			-4.847
49300.000			24.234			-4.847
49401.000			24.233			-4.847
49501.000			24.232			-4.846
49601.000			24.232			-4.846
49701.000			24.232			-4.846
49800.000			24.230			-4.846
49900.000			24.230			-4.846
50001.000			24.230			-4.846
50100.000			24.229			-4.846
50200.000			24.228			-4.846
50302.000			24.226			-4.845
50401.000			24.226			-4.845
50500.000			24.226			-4.845
50600.000			24.226			-4.845
50700.000			24.225			-4.845
50801.000			24.225			-4.845
50900.000			24.225			-4.845
51000.000			24.222			-4.844
51102.000			24.221			-4.844
51201.000			24.221			-4.844
51300.000			24.221			-4.844
51401.000			24.220			-4.844
51500.000			24.220			-4.844
51600.000			24.219			-4.844
51701.000			24.218			-4.844
51801.000			24.217			-4.843
51901.000			24.218			-4.844
52001.000			24.217			-4.843
52100.000			24.216			-4.843
52200.000			24.216			-4.843
52301.000			24.215			-4.843
52400.000			24.214			-4.843
52500.000			24.214			-4.843
52602.000			24.213			-4.843
52701.000			24.212			-4.842
52800.000			24.211			-4.842
52901.000			24.211			-4.842
53000.000			24.210			-4.842
53100.000			24.211			-4.842
53201.000			24.209			-4.842
53301.000			24.209			-4.842
53401.000			24.209			-4.842
53502.000			24.208			-4.842
53600.000			24.207			-4.841
53700.000			24.206			-4.841
53800.000			24.206			-4.841
53900.000			24.205			-4.841
54001.000			24.205			-4.841
54101.000			24.204			-4.841
54201.000			24.204			-4.841
54301.000			24.203			-4.841
54400.000			24.203			-4.841
54500.000			24.202			-4.840
54601.000			24.201			-4.840
54700.000			24.201			-4.840
54800.000			24.200			-4.840
54902.000			24.199			-4.840
55001.000			24.198			-4.840
55100.000			24.198			-4.840
55201.000			24.198			-4.840
55300.000			24.198			-4.840
55400.000			24.195			-4.839
55501.000			24.196			-4.839
55600.000			24.196			-4.839
55701.000			24.194			-4.839
55802.000			24.193			-4.839
55901.000			24.193			-4.839
56000.000			24.193			-4.839
56101.000			24.192			-4.838
56200.000			24.192			-4.838
56300.000			24.191			-4.838
56401.000			24.191			-4.838
56501.000			24.191			-4.838
56601.000			24.191			-4.838
56701.000			24.190			-4.838
56800.000			24.189			-4.838
56900.000			24.188			-4.838
57000.000			24.188			-4.838
57100.000			24.187			-4.837
57201.000			24.187			-4.837
57300.000			24.186			-4.837
57401.000			24.185			-4.837
57502.000			24.186			-4.837
57600.000			24.184			-4.837
57700.000			24.183			-4.837
57801.000			24.182			-4.836
57900.000			24.182			-4.836
58000.000			24.181			-4.836
58101.000			24.181			-4.836
58201.000			24.180			-4.836
58301.000			24.180			-4.836
58401.000			24.180			-4.836
58500.000			24.180			-4.836
58600.000			24.179			-4.836
58701.000			24.178			-4.836
58800.000			24.177			-4.835
58900.000			24.177			-4.835
59002.000			24.176			-4.835
59101.000			24.175			-4.835
59200.000			24.175			-4.835
59301.000			24.174			-4.835
59400.000			24.174			-4.835
59500.000			24.174			-4.835
59601.000			24.173			-4.835
59700.000			24.172			-4.834
59801.000			24.171			-4.834
59902.000			24.171			-4.834
60000.000			24.172			-4.834
60100.000			24.172			-4.834
60200.000			24.170			-4.834
60300.000			24.169			-4.834
60401.000			24.168			-4.834
60500.000			24.168			-4.834
60601.000			24.166			-4.833
60702.000			24.166			-4.833
60800.000			24.167			-4.833
60900.000			24.167			-4.833
61001.000			24.166			-4.833
61100.000			24.164			-4.833
61200.000			24.163			-4.833
61301.000			24.164			-4.833
61401.000			24.163			-4.833
61501.000			24.162			-4.832
61601.000			24.162			-4.832
61700.000			24.161			-4.832
61800.000			24.161			-4.832
61901.000			24.161			-4.832
62000.000			24.160			-4.832
62100.000			24.160			-4.832
62202.000			24.159			-4.832
62301.000			24.158			-4.832
62400.000			24.159			-4.832
62501.000			24.158			-4.832
62600.000			24.158			-4.832
62700.000			24.157			-4.831
62801.000			24.157			-4.831
62900.000			24.155			-4.831
63001.000			24.156			-4.831
63102.000			24.155			-4.831
63200.000			24.154			-4.831
63300.000			24.154			-4.831
63400.000			24.153			-4.831
63500.000			24.153			-4.831
63601.000			24.152			-4.830
63701.000			24.151			-4.830
63801.000			24.152			-4.830
63901.000			24.152			-4.830
64000.000			24.150			-4.830
64100.000			24.149			-4.830
64201.000			24.149			-4.830
64300.000			24.148			-4.830
64400.000			24.147			-4.829
64502.000			24.146			-4.829
64601.000			24.147			-4.829
64700.000			24.146			-4.829
64801.000			24.146			-4.829
64900.000			24.146			-4.829
65000.000			24.145			-4.829
65101.000			24.145			-4.829
65200.000			24.144			-4.829
65301.000			24.143			-4.829
65402.000			24.142			-4.828
65500.000			24.141			-4.828
65600.000			24.141			-4.828
65701.000			24.141			-4.828
65800.000			24.141			-4.828
65900.000			24.140			-4.828
66001.000			24.140			-4.828
66101.000			24.140			-4.828
66201.000			24.139			-4.828
66301.000			24.139			-4.828
66400.000			24.139			-4.828
66500.000			24.137			-4.827
66600.000			24.137			-4.827
66700.000			24.136			-4.827
66801.000			24.136			-4.827
66901.000			24.136			-4.827
67001.000			24.135			-4.827
67101.000			24.135			-4.827
67200.000			24.134			-4.827
67300.000			24.133			-4.827
67401.000			24.132			-4.826
67500.000			24.131			-4.826
67600.000			24.131			-4.826
67702.000			24.132			-4.826
67801.000			24.132			-4.826
67900.000			24.131			-4.826
68001.000			24.129			-4.826
68100.000			24.129			-4.826
68200.000			24.129			-4.826
68301.000			24.128			-4.826
68400.000			24.128			-4.826
68501.000			24.128			-4.826
68602.000			24.127			-4.825
68701.000			24.127			-4.825
68800.000			24.127			-4.825
68901.000			24.126			-4.825
69000.000			24.125			-4.825
69100.000			24.125			-4.825
69201.000			24.123			-4.825
69300.000			24.123			-4.825
69401.000			24.123			-4.825
69502.000			24.123			-4.825
69600.000			24.123			-4.825
69700.000			24.122			-4.824
69800.000			24.121			-4.824
69900.000			24.121			-4.824
70001.000			24.121			-4.824
70100.000			24.119			-4.824
70201.000			24.119			-4.824
70302.000			24.118			-4.824
70400.000			24.117			-4.823
70500.000			24.117			-4.823
70601.000			24.118			-4.824
70700.000			24.118			-4.824
70800.000			24.117			-4.823
70901.000			24.116			-4.823
71001.000			24.116			-4.823
71101.000			24.115			-4.823
71201.000			24.115			-4.823
71300.000			24.115			-4.823
71400.000			24.114			-4.823
71501.000			24.114			-4.823
71600.000			24.113			-4.823
71700.000			24.112			-4.822
71802.000			24.112			-4.822
71901.000			24.112			-4.822
72000.000			24.111			-4.822
72101.000			24.111			-4.822
72200.000			24.110			-4.822
72300.000			24.110			-4.822
72401.000			24.109			-4.822
72501.000			24.109			-4.822
72601.000			24.109			-4.822
72701.000			24.108			-4.822
72800.000			24.108			-4.822
72900.000			24.107			-4.821
73000.000			24.107			-4.821
73100.000			24.107			-4.821
73201.000			24.106			-4.821
73301.000			24.105			-4.821
73401.000			24.105			-4.821
73501.000			24.104			-4.821
73600.000			24.103			-4.821
73700.000			24.102			-4.820
73801.000			24.104			-4.821
73900.000			24.103			-4.821
74000.000			24.102			-4.820
74102.000			24.102			-4.820
74201.000			24.103			-4.821
74300.000			24.102			-4.820
74401.000			24.101			-4.820
74500.000			24.100			-4.820
74600.000			24.099			-4.820
74701.000			24.099			-4.820
74800.000			24.098			-4.820
74901.000			24.098			-4.820
75002.000			24.098			-4.820
75101.000			24.098			-4.820
75200.000			24.097			-4.819
75301.000			24.096			-4.819
75400.000			24.096			-4.819
75500.000			24.097			-4.819
75601.000			24.096			-4.819
75701.000			24.096			-4.819
75801.000			24.095			-4.819
75902.000			24.095			-4.819
76000.000			24.093			-4.819
76100.000			24.093			-4.819
76200.000			24.093			-4.819
76300.000			24.092			-4.818
76401.000			24.092			-4.818
76500.000			24.091			-4.818
76601.000			24.091			-4.818
76702.000			24.091			-4.818
76800.000			24.090			-4.818
76900.000			24.090			-4.818
77001.000			24.089			-4.818
77100.000			24.089			-4.818
77200.000			24.088			-4.818
77301.000			24.089			-4.818
77401.000			24.089			-4.818
77501.000			24.088			-4.818
77601.000			24.087			-4.817
77700.000			24.087			-4.817
77800.000			24.086			-4.817
77901.000			24.085			-4.817
78000.000			24.085			-4.817
78100.000			24.086			-4.817
78202.000			24.085			-4.817
78301.000			24.084			-4.817
78400.000			24.083			-4.817
78501.000			24.083			-4.817
78600.000			24.083			-4.817
78700.000			24.082			-4.816
78801.000			24.082			-4.816
78900.000			24.082			-4.816
79000.000			24.082			-4.816
79102.000			24.081			-4.816
79201.000			24.081			-4.816
79300.000			24.081			-4.816
79400.000			24.081			-4.816
79500.000			24.080			-4.816
79601.000			24.079			-4.816
79700.000			24.079			-4.816
79800.000			24.078			-4.816
79902.000			24.077			-4.815
80001.000			24.076			-4.815
80100.000			24.077			-4.815
80201.000			24.077			-4.815
80300.000			24.076			-4.815
80400.000			24.075			-4.815
80501.000			24.075			-4.815
80600.000			24.076			-4.815
80701.000			24.075			-4.815
80802.000			24.075			-4.815
80901.000			24.074			-4.815
81000.000			24.074			-4.815
81101.000			24.074			-4.815
81200.000			24.073			-4.815
81300.000			24.072			-4.814
81401.000			24.072			-4.814
81501.000			24.072			-4.814
81601.000			24.071			-4.814
81701.000			24.071			-4.814
81800.000			24.071			-4.814
81900.000			24.070			-4.814
82001.000			24.070			-4.814
82100.000			24.069			-4.814
82200.000			24.068			-4.814
82302.000			24.069			-4.814
82401.000			24.067			-4.813
82500.000			24.068			-4.814
82600.000			24.066			-4.813
82700.000			24.066			-4.813
82801.000			24.066			-4.813
82900.000			24.065			-4.813
83000.000			24.065			-4.813
83102.000			24.065			-4.813
83201.000			24.066			-4.813
83301.000			24.064			-4.813
83401.000			24.063			-4.813
83500.000			24.063			-4.813
83600.000			24.063			-4.813
83701.000			24.062			-4.812
83800.000			24.062			-4.812
83900.000			24.061			-4.812
84002.000			24.061			-4.812
84101.000			24.060			-4.812
84200.000			24.060			-4.812
84301.000			24.060			-4.812
84400.000			24.059			-4.812
84500.000			24.059			-4.812
84601.000			24.058			-4.812
84700.000			24.058			-4.812
84801.000			24.058			-4.812
84902.000			24.058			-4.812
85000.000			24.058			-4.812
85100.000			24.058			-4.812
85201.000			24.056			-4.811
85300.000			24.056			-4.811
85400.000			24.055			-4.811
85501.000			24.056			-4.811
85601.000			24.055			-4.811
85702.000			24.054			-4.811
85800.000			24.055			-4.811
85900.000			24.056			-4.811
86001.000			24.055			-4.811
86100.000			24.055			-4.811
86200.000			24.053			-4.811
86301.000			24.052			-4.810
86401.000			24.051			-4.810
86501.000			24.051			-4.810
86601.000			24.051			-4.810
86700.000			24.051			-4.810
86800.000			24.050			-4.810
86901.000			24.050			-4.810
87000.000			24.050			-4.810
87100.000			24.049			-4.810
87202.000			24.049			-4.810
87301.000			24.049			-4.810
87400.000			24.048			-4.810
87501.000			24.047			-4.809
87600.000			24.047			-4.809
87700.000			24.047			-4.809
87801.000			24.047			-4.809
87900.000			24.047			-4.809
88001.000			24.046			-4.809
88102.000			24.046			-4.809
88201.000			24.046			-4.809
88300.000			24.046			-4.809
88401.000			24.045			-4.809
88500.000			24.043			-4.809
88600.000			24.042			-4.808
88701.000			24.042			-4.808
88800.000			24.043			-4.809
88902.000			24.043			-4.809
89001.000			24.042			-4.808
89100.000			24.041			-4.808
89201.000			24.041			-4.808
89300.000			24.041			-4.808
89400.000			24.041			-4.808
89501.000			24.041			-4.808
89600.000			24.040			-4.808
89701.000			24.039			-4.808
89802.000			24.039			-4.808
89900.000			24.038			-4.808
90000.000			24.038			-4.808
90101.000			24.037			-4.807
90200.000			24.037			-4.807
90300.000			24.037			-4.807
90401.000			24.036			-4.807
90501.000			24.037			-4.807
90601.000			24.036			-4.807
90701.000			24.036			-4.807
90800.000			24.034			-4.807
90900.000			24.034			-4.807
91001.000			24.034			-4.807
91100.000			24.034			-4.807
91200.000			24.034			-4.807
91302.000			24.034			-4.807
91401.000			24.034			-4.807
91500.000			24.032			-4.806
91601.000			24.033			-4.807
91700.000			24.032			-4.806
91800.000			24.032			-4.806
91901.000			24.031			-4.806
92000.000			24.031			-4.806
92102.000			24.030			-4.806
92201.000			24.030			-4.806
92300.000			24.029			-4.806
92401.000			24.030			-4.806
92500.000			24.029			-4.806
92600.000			24.028			-4.806
92701.000			24.028			-4.806
92800.000			24.028			-4.806
92901.000			24.027			-4.805
93002.000			24.027			-4.805
93100.000			24.027			-4.805
93200.000			24.026			-4.805
93301.000			24.026			-4.805
93400.000			24.025			-4.805
93500.000			24.025			-4.805
93601.000			24.026			-4.805
93701.000			24.024			-4.805
93801.000			24.024			-4.805
93901.000			24.024			-4.805
94000.000			24.024			-4.805
94100.000			24.023			-4.805
94201.000			24.023			-4.805
94300.000			24.023			-4.805
94400.000			24.023			-4.805
94502.000			24.022			-4.804
94601.000			24.021			-4.804
94700.000			24.021			-4.804
94801.000			24.021			-4.804
94900.000			24.021			-4.804
95000.000			24.021			-4.804
95101.000			24.020			-4.804
95200.000			24.019			-4.804
95302.000			24.020			-4.804
95401.000			24.020			-4.804
95500.000			24.019			-4.804
95601.000			24.017			-4.803
95700.000			24.018			-4.804
95800.000			24.017			-4.803
95901.000			24.017			-4.803
96000.000			24.017			-4.803
96101.000			24.016			-4.803
96202.000			24.015			-4.803
96300.000			24.015			-4.803
96400.000			24.015			-4.803
96501.000			24.014			-4.803
96600.000			24.014			-4.803
96700.000			24.013			-4.803
96801.000			24.013			-4.803
96901.000			24.013			-4.803
97001.000			24.013			-4.803
97101.000			24.013			-4.803
97200.000			24.013			-4.803
97300.000			24.013			-4.803
97401.000			24.011			-4.802
97500.000			24.012			-4.802
97600.000			24.012			-4.802
97702.000			24.012			-4.802
97801.000			24.012			-4.802
97901.000			24.011			-4.802
98001.000			24.010			-4.802
98100.000			24.009			-4.802
98200.000			24.009			-4.802
98301.000			24.009			-4.802
98400.000			24.009			-4.802
98500.000			24.008			-4.802
98602.000			24.008			-4.802
98701.000			24.007			-4.801
98801.000			24.007			-4.801
98900.000			24.006			-4.801
99000.000			24.006			-4.801
99101.000			24.005			-4.801
99200.000			24.006			-4.801
99300.000			24.006			-4.801
99402.000			24.005			-4.801
99501.000			24.005			-4.801
99600.000			24.006			-4.801
99701.000			24.005			-4.801
99800.000			24.004			-4.801
99900.000			24.003			-4.801
100001.000			24.004			-4.801
100100.000			24.003			-4.801
100201.000			24.002			-4.800
100302.000			24.002			-4.800
100400.000			24.002			-4.800
100500.000			24.002			-4.800
100601.000			24.001			-4.800
100700.000			24.000			-4.800
100800.000			24.000			-4.800
100901.000			24.000			-4.800
101001.000			24.000			-4.800
101101.000			24.000			-4.800
101201.000			24.000			-4.800
101300.000			23.999			-4.800
101400.000			23.999			-4.800
101501.000			23.998			-4.800
101600.000			23.998			-4.800
101700.000			23.997			-4.799
101802.000			23.997			-4.799
101901.000			23.996			-4.799
102001.000			23.997			-4.799
102100.000			23.997			-4.799
102200.000			23.996			-4.799
102301.000			23.996			-4.799
102400.000			23.996			-4.799
102500.000			23.995			-4.799
102601.000			23.994			-4.799
102701.000			23.994			-4.799
102801.000			23.993			-4.799
102901.000			23.994			-4.799
103000.000			23.994			-4.799
103100.000			23.993			-4.799
103201.000			23.992			-4.798
103300.000			23.992			-4.798
103400.000			23.992			-4.798
103502.000			23.992			-4.798
103601.000			23.991			-4.798
103700.000			23.991			-4.798
103801.000			23.991			-4.798
103900.000			23.990			-4.798
104000.000			23.991			-4.798
104101.000			23.990			-4.798
104200.000			23.990			-4.798
104300.000			23.991			-4.798
104402.000			23.989			-4.798
104501.000			23.989			-4.798
104600.000			23.989			-4.798
104701.000			23.989			-4.798
104800.000			23.989			-4.798
104900.000			23.988			-4.798
105000.000			23.987			-4.797
105100.000			23.987			-4.797
105202.000			23.987			-4.797
105301.000			23.987			-4.797
105401.000			23.987			-4.797
105501.000			23.984			-4.797
105600.000			23.984			-4.797
105700.000			23.984			-4.797
105801.000			23.985			-4.797
105900.000			23.985			-4.797
106000.000			23.984			-4.797
106102.000			23.983			-4.797
106201.000			23.983			-4.797
106300.000			23.982			-4.796
106401.000			23.982			-4.796
106500.000			23.982			-4.796
106600.000			23.982			-4.796
106701.000			23.982			-4.796
106800.000			23.982			-4.796
106900.000			23.981			-4.796
107002.000			23.981			-4.796
107101.000			23.981			-4.796
107200.000			23.980			-4.796
107301.000			23.979			-4.796
107400.000			23.979			-4.796
107500.000			23.979			-4.796
107601.000			23.980			-4.796
107700.000			23.978			-4.796
107801.000			23.978			-4.796
107902.000			23.978			-4.796
108001.000			23.978			-4.796
108100.000			23.977			-4.795
108200.000			23.977			-4.795
108300.000			23.976			-4.795
108401.000			23.976			-4.795
108500.000			23.976			-4.795
108600.000			23.976			-4.795
108702.000			23.977			-4.795
108801.000			23.977			-4.795
108900.000			23.976			-4.795
109001.000			23.975			-4.795
109100.000			23.974			-4.795
109200.000			23.974			-4.795
109301.000			23.973			-4.795
109400.000			23.974			-4.795
109500.000			23.975			-4.795
109602.000			23.973			-4.795
109701.000			23.973			-4.795
109800.000			23.973			-4.795
109901.000			23.971			-4.794
110000.000			23.971			-4.794
110100.000			23.971			-4.794
110201.000			23.971			-4.794
110300.000			23.970			-4.794
110401.000			23.971			-4.794
110502.000			23.972			-4.794
110601.000			23.970			-4.794
110700.000			23.970			-4.794
110801.000			23.970			-4.794
110900.000			23.969			-4.794
111000.000			23.968			-4.794
111101.000			23.968			-4.794
111200.000			23.968			-4.794
111302.000			23.968			-4.794
111401.000			23.968			-4.794
111500.000			23.967			-4.793
111601.000			23.966			-4.793
111700.000			23.967			-4.793
111800.000			23.967			-4.793
111901.000			23.966			-4.793
112000.000			23.966			-4.793
112100.000			23.965			-4.793
112202.000			23.965			-4.793
112301.000			23.966			-4.793
112400.000			23.965			-4.793
112501.000			23.965			-4.793
112600.000			23.964			-4.793
112700.000			23.963			-4.793
112801.000			23.964			-4.793
112900.000			23.963			-4.793
113001.000			23.964			-4.793
113102.000			23.963			-4.793
113200.000			23.962			-4.792
113300.000			23.962			-4.792
113401.000			23.962			-4.792
113500.000			23.962			-4.792
113600.000			23.962			-4.792
113701.000			23.962			-4.792
113801.000			23.962			-4.792
113901.000			23.962			-4.792
114001.000			23.960			-4.792
114100.000			23.959			-4.792
114200.000			23.960			-4.792
114301.000			23.961			-4.792
114400.000			23.959			-4.792
114500.000			23.959			-4.792
114600.000			23.959			-4.792
114701.000			23.959			-4.792
114802.000			23.958			-4.792
114900.000			23.958			-4.792
115000.000			23.958			-4.792
115101.000			23.957			-4.791
115200.000			23.956			-4.791
115300.000			23.957			-4.791
115401.000			23.957			-4.791
115500.000			23.956			-4.791
115601.000			23.954			-4.791
115702.000			23.955			-4.791
115800.000			23.955			-4.791
115900.000			23.955			-4.791
116001.000			23.954			-4.791
116100.000			23.954			-4.791
116200.000			23.954			-4.791
116301.000			23.954			-4.791
116401.000			23.953			-4.791
116501.000			23.954			-4.791
116602.000			23.953			-4.791
116700.000			23.953			-4.791
116800.000			23.953			-4.791
116901.000			23.952			-4.790
117000.000			23.951			-4.790
117100.000			23.950			-4.790
117201.000			23.951			-4.790
117301.000			23.950			-4.790
117401.000			23.950			-4.790
117501.000			23.950			-4.790
117600.000			23.950			-4.790
117700.000			23.949			-4.790
117800.000			23.950			-4.790
117900.000			23.950			-4.790
118001.000			23.949			-4.790
118100.000			23.949			-4.790
118201.000			23.947			-4.789
118302.000			23.948			-4.790
118400.000			23.948			-4.790
118500.000			23.947			-4.789
118601.000			23.947			-4.789
118700.000			23.947			-4.789
118800.000			23.947			-4.789
118901.000			23.947			-4.789
119000.000			23.946			-4.789
119101.000			23.945			-4.789
119202.000			23.945			-4.789
119300.000			23.945			-4.789
119400.000			23.945			-4.789
119501.000			23.944			-4.789
119600.000			23.944			-4.789
119700.000			23.944			-4.789
119801.000			23.943			-4.789
119900.000			23.943			-4.789
120001.000			23.943			-4.789
120102.000			23.944			-4.789
120200.000			23.943			-4.789
120300.000			23.942			-4.788
120401.000			23.941			-4.788
120500.000			23.941			-4.788
120600.000			23.942			-4.788
120701.000			23.943			-4.789
120801.000			23.943			-4.789
120902.000			23.941			-4.788
121000.000			23.941			-4.788
121100.000			23.941			-4.788
121201.000			23.941			-4.788
121300.000			23.941			-4.788
121400.000			23.941			-4.788
121501.000			23.940			-4.788
121601.000			23.939			-4.788
121701.000			23.938			-4.788
121802.000			23.939			-4.788
121900.000			23.938			-4.788
122000.000			23.938			-4.788
122101.000			23.938			-4.788
122200.000			23.938			-4.788
122300.000			23.938			-4.788
122401.000			23.937			-4.787
122501.000			23.936			-4.787
122601.000			23.935			-4.787
122701.000			23.936			-4.787
122800.000			23.936			-4.787
122900.000			23.936			-4.787
123001.000			23.935			-4.787
123100.000			23.935			-4.787
123200.000			23.936			-4.787
123302.000			23.935			-4.787
123401.000			23.934			-4.787
123501.000			23.935			-4.787
123601.000			23.935			-4.787
123700.000			23.934			-4.787
123800.000			23.933			-4.787
123901.000			23.933			-4.787
124000.000			23.933			-4.787
124100.000			23.932			-4.786
124202.000			23.932			-4.786
124301.000			23.932			-4.786
124401.000			23.932			-4.786
124500.000			23.932			-4.786
124600.000			23.932			-4.786
124701.000			23.931			-4.786
124800.000			23.931			-4.786
124900.000			23.930			-4.786
125002.000			23.930			-4.786
125101.000			23.929			-4.786
125201.000			23.929			-4.786
125301.000			23.929			-4.786
125400.000			23.929			-4.786
125500.000			23.928			-4.786
125601.000			23.928			-4.786
125700.000			23.927			-4.785
125800.000			23.927			-4.785
125902.000			23.928			-4.786
126001.000			23.927			-4.785
126100.000			23.927			-4.785
126201.000			23.927			-4.785
126300.000			23.927			-4.785
126400.000			23.928			-4.786
126501.000			23.926			-4.785
126600.000			23.926			-4.785
126700.000			23.926			-4.785
126802.000			23.925			-4.785
126901.000			23.925			-4.785
127000.000			23.925			-4.785
127101.000			23.924			-4.785
127200.000			23.924			-4.785
127300.000			23.924			-4.785
127400.000			23.924			-4.785
127500.000			23.924			-4.785
127602.000			23.924			-4.785
127701.000			23.923			-4.785
127800.000			23.923			-4.785
127901.000			23.923			-4.785
128000.000			23.923			-4.785
128100.000			23.923			-4.785
128201.000			23.922			-4.784
128300.000			23.923			-4.785
128400.000			23.923			-4.785
128502.000			23.921			-4.784
128601.000			23.921			-4.784
128700.000			23.921			-4.784
128801.000			23.922			-4.784
128900.000			23.922			-4.784
129000.000			23.920			-4.784
129101.000			23.920			-4.784
129200.000			23.920			-4.784
129301.000			23.919			-4.784
129402.000			23.918			-4.784
129501.000			23.918			-4.784
129600.000			23.919			-4.784
129701.000			23.918			-4.784
129800.000			23.919			-4.784
129900.000			23.919			-4.784
130001.000			23.918			-4.784
130100.000			23.917			-4.783
130201.000			23.917			-4.783
130302.000			23.917			-4.783
130400.000			23.917			-4.783
130500.000			23.916			-4.783
130600.000			23.915			-4.783
130700.000			23.915			-4.783
130801.000			23.915			-4.783
130900.000			23.915			-4.783
131001.000			23.915			-4.783
131102.000			23.915			-4.783
131201.000			23.914			-4.783
131300.000			23.914			-4.783
131401.000			23.914			-4.783
131500.000			23.913			-4.783
131600.000			23.913			-4.783
131701.000			23.913			-4.783
131800.000			23.913			-4.783
131901.000			23.913			-4.783
132002.000			23.914			-4.783
132101.000			23.913			-4.783
132200.000			23.912			-4.782
132301.000			23.912			-4.782
132400.000			23.912			-4.782
132500.000			23.912			-4.782
132601.000			23.910			-4.782
132700.000			23.911			-4.782
132800.000			23.911			-4.782
132902.000			23.911			-4.782
133001.000			23.910			-4.782
133100.000			23.910			-4.782
133201.000			23.909			-4.782
133300.000			23.910			-4.782
133400.000			23.909			-4.782
133501.000			23.909			-4.782
133600.000			23.908			-4.782
133700.000			23.908			-4.782
133802.000			23.908			-4.782
133901.000			23.908			-4.782
134001.000			23.908			-4.782
134100.000			23.907			-4.781
134200.000			23.908			-4.782
134301.000			23.908			-4.782
134400.000			23.906			-4.781
134500.000			23.906			-4.781
134601.000			23.906			-4.781
134701.000			23.905			-4.781
134801.000			23.905			-4.781
134901.000			23.905			-4.781
135000.000			23.905			-4.781
135100.000			23.904			-4.781
135201.000			23.904			-4.781
135300.000			23.905			-4.781
135400.000			23.905			-4.781
135501.000			23.904			-4.781
135601.000			23.904			-4.781
135701.000			23.905			-4.781
135802.000			23.903			-4.781
135900.000			23.903			-4.781
136000.000			23.902			-4.780
136101.000			23.903			-4.781
136200.000			23.902			-4.780
136300.000			23.901			-4.780
136401.000			23.900			-4.780
136501.000			23.900			-4.780
136601.000			23.901			-4.780
136702.000			23.902			-4.780
136800.000			23.900			-4.780
136900.000			23.900			-4.780
137000.000			23.900			-4.780
137100.000			23.900			-4.780
137201.000			23.900			-4.780
137300.000			23.900			-4.780
137400.000			23.899			-4.780
137502.000			23.899			-4.780
137601.000			23.898			-4.780
137700.000			23.899			-4.780
137801.000			23.899			-4.780
137900.000			23.898			-4.780
138000.000			23.898			-4.780
138101.000			23.897			-4.779
138200.000			23.898			-4.780
138300.000			23.897			-4.779
138401.000			23.896			-4.779
138501.000			23.896			-4.779
138601.000			23.897			-4.779
138701.000			23.897			-4.779
138800.000			23.897			-4.779
138900.000			23.896			-4.779
139001.000			23.896			-4.779
139100.000			23.895			-4.779
139200.000			23.894			-4.779
139301.000			23.894			-4.779
139401.000			23.894			-4.779
139501.000			23.894			-4.779
139602.000			23.893			-4.779
139700.000			23.893			-4.779
139800.000			23.893			-4.779
139901.000			23.893			-4.779
140000.000			23.893			-4.779
140100.000			23.892			-4.778
140200.000			23.893			-4.779
140300.000			23.892			-4.778
140402.000			23.892			-4.778
140501.000			23.892			-4.778
140601.000			23.892			-4.778
140701.000			23.891			-4.778
140800.000			23.891			-4.778
140900.000			23.890			-4.778
141001.000			23.891			-4.778
141100.000			23.890			-4.778
141200.000			23.890			-4.778
141301.000			23.889			-4.778
141401.000			23.889			-4.778
141501.000			23.889			-4.778
141601.000			23.889			-4.778
141700.000			23.889			-4.778
141800.000			23.889			-4.778
141901.000			23.888			-4.778
142000.000			23.888			-4.778
142100.000			23.888			-4.778
142201.000			23.887			-4.777
142300.000			23.887			-4.777
142401.000			23.887			-4.777
142502.000			23.887			-4.777
142600.000			23.887			-4.777
142700.000			23.887			-4.777
142801.000			23.887			-4.777
142900.000			23.888			-4.778
143000.000			23.887			-4.777
143101.000			23.886			-4.777
143200.000			23.886			-4.777
143302.000			23.887			-4.777
143401.000			23.886			-4.777
143501.000			23.884			-4.777
143601.000			23.884			-4.777
143700.000			23.884			-4.777
143800.000			23.884			-4.777
143901.000			23.884			-4.777
144000.000			23.883			-4.777
144100.000			23.883			-4.777
144201.000			23.883			-4.777
144301.000			23.884			-4.777
144401.000			23.882			-4.776
144501.000			23.882			-4.776
144600.000			23.883			-4.777
144700.000			23.883			-4.777
144801.000			23.882			-4.776
144900.000			23.882			-4.776
145000.000			23.882			-4.776
145101.000			23.881			-4.776
145200.000			23.881			-4.776
145301.000			23.880			-4.776
145402.000			23.881			-4.776
145500.000			23.880			-4.776
145600.000			23.881			-4.776
145701.000			23.881			-4.776
145800.000			23.880			-4.776
145900.000			23.879			-4.776
146001.000			23.878			-4.776
146100.000			23.878			-4.776
146201.000			23.878			-4.776
146302.000			23.878			-4.776
146401.000			23.878			-4.776
146500.000			23.878			-4.776
146600.000			23.878			-4.776
146700.000			23.879			-4.776
146801.000			23.878			-4.776
146900.000			23.878			-4.776
147000.000			23.878			-4.776
147101.000			23.877			-4.775
147201.000			23.876			-4.775
147301.000			23.876			-4.775
147402.000			23.876			-4.775
147500.000			23.876			-4.775
147600.000			23.875			-4.775
147701.000			23.874			-4.775
147800.000			23.874			-4.775
147900.000			23.874			-4.775
148001.000			23.874			-4.775
148100.000			23.874			-4.775
148201.000			23.873			-4.775
148302.000			23.873			-4.775
148400.000			23.874			-4.775
148500.000			23.874			-4.775
148601.000			23.873			-4.775
148700.000			23.873			-4.775
148800.000			23.872			-4.774
148901.000			23.872			-4.774
149000.000			23.872			-4.774
149101.000			23.872			-4.774
149202.000			23.871			-4.774
149301.000			23.871			-4.774
149400.000			23.871			-4.774
149501.000			23.872			-4.774
149600.000			23.871			-4.774
149700.000			23.871			-4.774
149800.000			23.870			-4.774
149900.000			23.871			-4.774
150001.000			23.871			-4.774
150101.000			23.870			-4.774
150201.000			23.869			-4.774
150302.000			23.869			-4.774
150400.000			23.868			-4.774
150500.000			23.869			-4.774
150601.000			23.869			-4.774
150700.000			23.869			-4.774
150800.000			23.869			-4.774
150901.000			23.868			-4.774
151000.000			23.868			-4.774
151101.000			23.868			-4.774
151202.000			23.868			-4.774
151300.000			23.867			-4.773
151400.000			23.867			-4.773
151501.000			23.867			-4.773
151600.000			23.867			-4.773
151700.000			23.867			-4.773
151801.000			23.867			-4.773
151900.000			23.867			-4.773
152001.000			23.866			-4.773
152102.000			23.865			-4.773
152201.000			23.866			-4.773
152300.000			23.865			-4.773
152401.000			23.864			-4.773
152500.000			23.863			-4.773
152600.000			23.863			-4.773
152701.000			23.863			-4.773
152800.000			23.864			-4.773
152900.000			23.864			-4.773
153002.000			23.864			-4.773
153101.000			23.863			-4.773
153201.000			23.862			-4.772
153300.000			23.863			-4.773
153400.000			23.862			-4.772
153501.000			23.862			-4.772
153600.000			23.861			-4.772
153700.000			23.861			-4.772
153801.000			23.860			-4.772
153901.000			23.861			-4.772
154001.000			23.861			-4.772
154101.000			23.861			-4.772
154200.000			23.860			-4.772
154300.000			23.860			-4.772
154401.000			23.860			-4.772
154500.000			23.860			-4.772
154600.000			23.860			-4.772
154701.000			23.860			-4.772
154801.000			23.860			-4.772
154901.000			23.859			-4.772
155002.000			23.859			-4.772
155100.000			23.860			-4.772
155200.000			23.860			-4.772
155301.000			23.859			-4.772
155400.000			23.860			-4.772
155500.000			23.858			-4.772
155601.000			23.857			-4.771
155700.000			23.858			-4.772
155801.000			23.858			-4.772
155902.000			23.858			-4.772
156001.000			23.857			-4.771
156100.000			23.857			-4.771
156200.000			23.855			-4.771
156300.000			23.855			-4.771
156401.000			23.855			-4.771
156500.000			23.856			-4.771
156600.000			23.857			-4.771
156701.000			23.855			-4.771
156801.000			23.854			-4.771
156901.000			23.855			-4.771
157001.000			23.854			-4.771
157100.000			23.854			-4.771
157200.000			23.855			-4.771
157301.000			23.855			-4.771
157400.000			23.853			-4.771
157500.000			23.853			-4.771
157601.000			23.853			-4.771
157701.000			23.854			-4.771
157801.000			23.854			-4.771
157902.000			23.853			-4.771
158000.000			23.852			-4.770
158100.000			23.851			-4.770
158201.000			23.851			-4.770
158300.000			23.851			-4.770
158400.000			23.849			-4.770
158501.000			23.851			-4.770
158600.000			23.853			-4.771
158701.000			23.852			-4.770
158802.000			23.851			-4.770
158900.000			23.851			-4.770
159000.000			23.850			-4.770
159101.000			23.850			-4.770
159200.000			23.850			-4.770
159300.000			23.850			-4.770
159400.000			23.850			-4.770
159500.000			23.850			-4.770
159602.000			23.849			-4.770
159701.000			23.849			-4.770
159801.000			23.849			-4.770
159901.000			23.848			-4.770
160000.000			23.849			-4.770
160100.000			23.849			-4.770
160201.000			23.849			-4.770
160300.000			23.849			-4.770
160400.000			23.848			-4.770
160501.000			23.847			-4.769
160601.000			23.847			-4.769
160701.000			23.847			-4.769
160802.000			23.847			-4.769
160900.000			23.846			-4.769
161000.000			23.846			-4.769
161101.000			23.846			-4.769
161200.000			23.845			-4.769
161300.000			23.846			-4.769
161401.000			23.844			-4.769
161501.000			23.845			-4.769
161601.000			23.844			-4.769
161702.000			23.845			-4.769
161800.000			23.845			-4.769
161900.000			23.844			-4.769
162001.000			23.844			-4.769
162100.000			23.844			-4.769
162200.000			23.845			-4.769
162301.000			23.844			-4.769
162400.000			23.843			-4.769
162502.000			23.843			-4.769
162601.000			23.843			-4.769
162700.000			23.843			-4.769
162801.000			23.844			-4.769
162900.000			23.843			-4.769
163000.000			23.843			-4.769
163101.000			23.842			-4.768
163200.000			23.841			-4.768
163300.000			23.841			-4.768
163402.000			23.841			-4.768
163501.000			23.841			-4.768
163601.000			23.841			-4.768
163701.000			23.841			-4.768
163800.000			23.841			-4.768
163900.000			23.841			-4.768
164001.000			23.840			-4.768
164100.000			23.839			-4.768
164200.000			23.839			-4.768
164301.000			23.839			-4.768
164401.000			23.839			-4.768
164501.000			23.839			-4.768
164601.000			23.839			-4.768
164700.000			23.838			-4.768
164800.000			23.839			-4.768
164901.000			23.839			-4.768
165000.000			23.838			-4.768
165100.000			23.839			-4.768
165201.000			23.838			-4.768
165301.000			23.837			-4.767
165401.000			23.837			-4.767
165502.000			23.838			-4.768
165600.000			23.838			-4.768
165700.000			23.837			-4.767
165800.000			23.836			-4.767
165900.000			23.836			-4.767
166001.000			23.836			-4.767
166100.000			23.836			-4.767
166200.000			23.836			-4.767
166302.000			23.835			-4.767
166401.000			23.834			-4.767
166501.000			23.835			-4.767
166601.000			23.835			-4.767
166700.000			23.835			-4.767
166800.000			23.834			-4.767
166901.000			23.835			-4.767
167000.000			23.834			-4.767
167100.000			23.834			-4.767
167201.000			23.834			-4.767
167301.000			23.833			-4.767
167401.000			23.834			-4.767
167501.000			23.833			-4.767
167600.000			23.832			-4.766
167700.000			23.832			-4.766
167801.000			23.833			-4.767
167900.000			23.833			-4.767
168000.000			23.832			-4.766
168101.000			23.830			-4.766
168201.000			23.830			-4.766
168301.000			23.829			-4.766
168402.000			23.830			-4.766
168500.000			23.830			-4.766
168600.000			23.830			-4.766
168701.000			23.830			-4.766
168800.000			23.830			-4.766
168900.000			23.831			-4.766
169000.000			23.830			-4.766
169100.000			23.829			-4.766
169202.000			23.829			-4.766
169301.000			23.829			-4.766
169400.000			23.830			-4.766
169501.000			23.830			-4.766
169600.000			23.829			-4.766
169700.000			23.828			-4.766
169801.000			23.828			-4.766
169900.000			23.828			-4.766
170000.000			23.828			-4.766
170101.000			23.829			-4.766
170201.000			23.827			-4.765
170301.000			23.828			-4.766
170401.000			23.828			-4.766
170500.000			23.827			-4.765
170600.000			23.826			-4.765
170701.000			23.825			-4.765
170800.000			23.827			-4.765
170900.000			23.827			-4.765
171001.000			23.826			-4.765
171101.000			23.824			-4.765
171201.000			23.825			-4.765
171302.000			23.827			-4.765
171400.000			23.826			-4.765
171500.000			23.826			-4.765
171601.000			23.825			-4.765
171700.000			23.825			-4.765
171800.000			23.824			-4.765
171901.000			23.823			-4.765
172001.000			23.823			-4.765
172102.000			23.823			-4.765
172201.000			23.823			-4.765
172300.000			23.823			-4.765
172401.000			23.822			-4.764
172500.000			23.822			-4.764
172600.000			23.823			-4.765
172701.000			23.823			-4.765
172800.000			23.823			-4.765
172900.000			23.822			-4.764
173002.000			23.821			-4.764
173101.000			23.821			-4.764
173200.000			23.822			-4.764
173301.000			23.822			-4.764
173400.000			23.821			-4.764
173500.000			23.821			-4.764
173601.000			23.821			-4.764
173700.000			23.820			-4.764
173800.000			23.819			-4.764
173902.000			23.819			-4.764
174001.000			23.820			-4.764
174100.000			23.820			-4.764
174201.000			23.820			-4.764
174300.000			23.820			-4.764
174400.000			23.820			-4.764
174501.000			23.819			-4.764
174600.000			23.819			-4.764
174700.000			23.819			-4.764
174802.000			23.818			-4.764
174901.000			23.818			-4.764
175001.000			23.818			-4.764
175101.000			23.818			-4.764
175200.000			23.818			-4.764
175300.000			23.818			-4.764
175400.000			23.817			-4.763
175500.000			23.817			-4.763
175601.000			23.816			-4.763
175700.000			23.816			-4.763
175801.000			23.816			-4.763
175902.000			23.815			-4.763
176001.000			23.815			-4.763
176100.000			23.815			-4.763
176201.000			23.815			-4.763
176300.000			23.814			-4.763
176400.000			23.814			-4.763
176501.000			23.814			-4.763
176600.000			23.814			-4.763
176700.000			23.814			-4.763
176802.000			23.815			-4.763
176901.000			23.815			-4.763
177000.000			23.814			-4.763
177101.000			23.813			-4.763
177200.000			23.813			-4.763
177300.000			23.813			-4.763
177401.000			23.813			-4.763
177500.000			23.813			-4.763
177600.000			23.813			-4.763
177702.000			23.812			-4.762
177801.000			23.812			-4.762
177901.000			23.811			-4.762
178001.000			23.810			-4.762
178100.000			23.811			-4.762
178200.000			23.811			-4.762
178301.000			23.812			-4.762
178400.000			23.812			-4.762
178500.000			23.810			-4.762
178600.000			23.810			-4.762
178701.000			23.810			-4.762
178802.000			23.811			-4.762
178900.000			23.810			-4.762
179000.000			23.810			-4.762
179101.000			23.810			-4.762
179200.000			23.809			-4.762
179300.000			23.809			-4.762
179401.000			23.809			-4.762
179500.000			23.809			-4.762
179601.000			23.808			-4.762
179702.000			23.808			-4.762
179801.000			23.807			-4.761
179900.000			23.808			-4.762
180001.000			23.808			-4.762
180100.000			23.808			-4.762
180200.000			23.808			-4.762
180301.000			23.809			-4.762
180400.000			23.809			-4.762
180500.000			23.807			-4.761
180602.000			23.806			-4.761
180701.000			23.806			-4.761
180800.000			23.807			-4.761
180901.000			23.807			-4.761
181000.000			23.807			-4.761
181100.000			23.807			-4.761
181201.000			23.807			-4.761
181300.000			23.805			-4.761
181400.000			23.806			-4.761
181502.000			23.807			-4.761
181601.000			23.806			-4.761
181702.000			23.805			-4.761
181800.000			23.805			-4.761
181900.000			23.805			-4.761
182001.000			23.804			-4.761
182100.000			23.804			-4.761
182200.000			23.804			-4.761
182301.000			23.805			-4.761
182400.000			23.804			-4.761
182501.000			23.803			-4.761
182602.000			23.803			-4.761
182700.000			23.802			-4.760
182800.000			23.802			-4.760
182901.000			23.803			-4.761
183000.000			23.803			-4.761
183100.000			23.802			-4.760
183201.000			23.802			-4.760
183300.000			23.802			-4.760
183401.000			23.802			-4.760
183502.000			23.800			-4.760
183600.000			23.800			-4.760
183700.000			23.800			-4.760
183801.000			23.801			-4.760
183900.000			23.801			-4.760
184000.000			23.801			-4.760
184101.000			23.800			-4.760
184200.000			23.801			-4.760
184301.000			23.800			-4.760
184402.000			23.799			-4.760
184501.000			23.800			-4.760
184600.000			23.800			-4.760
184701.000			23.800			-4.760
184800.000			23.799			-4.760
184900.000			23.799			-4.760
185000.000			23.799			-4.760
185100.000			23.799			-4.760
185201.000			23.798			-4.760
185301.000			23.798			-4.760
185401.000			23.799			-4.760
185502.000			23.799			-4.760
185600.000			23.798			-4.760
185700.000			23.798			-4.760
185801.000			23.797			-4.759
185900.000			23.797			-4.759
186000.000			23.798			-4.760
186101.000			23.798			-4.760
186200.000			23.798			-4.760
186301.000			23.797			-4.759
186402.000			23.798			-4.760
186501.000			23.798			-4.760
186600.000			23.798			-4.760
186701.000			23.797			-4.759
186800.000			23.797			-4.759
186900.000			23.797			-4.759
187001.000			23.796			-4.759
187100.000			23.795			-4.759
187200.000			23.797			-4.759
187302.000			23.795			-4.759
187401.000			23.794			-4.759
187501.000			23.795			-4.759
187601.000			23.795			-4.759
187700.000			23.794			-4.759
187800.000			23.794			-4.759
187901.000			23.795			-4.759
188000.000			23.796			-4.759
188100.000			23.794			-4.759
188200.000			23.794			-4.759
188301.000			23.794			-4.759
188402.000			23.794			-4.759
188501.000			23.795			-4.759
188600.000			23.793			-4.759
188701.000			23.793			-4.759
188800.000			23.794			-4.759
188900.000			23.794			-4.759
189001.000			23.793			-4.759
189100.000			23.792			-4.758
189200.000			23.791			-4.758
189302.000			23.791			-4.758
189401.000			23.792			-4.758
189501.000			23.792			-4.758
189601.000			23.791			-4.758
189700.000			23.791			-4.758
189800.000			23.791			-4.758
189901.000			23.791			-4.758
190000.000			23.791			-4.758
190100.000			23.790			-4.758
190201.000			23.790			-4.758
190301.000			23.791			-4.758
190401.000			23.791			-4.758
190502.000			23.790			-4.758
190600.000			23.789			-4.758
190700.000			23.789			-4.758
190801.000			23.789			-4.758
190900.000			23.789			-4.758
191000.000			23.788			-4.758
191101.000			23.787			-4.757
191200.000			23.788			-4.758
191302.000			23.788			-4.758
191401.000			23.789			-4.758
191501.000			23.788			-4.758
191601.000			23.788			-4.758
191700.000			23.788			-4.758
191800.000			23.787			-4.757
191901.000			23.787			-4.757
192000.000			23.787			-4.757
192100.000			23.786			-4.757
192201.000			23.787			-4.757
192301.000			23.787			-4.757
192401.000			23.786			-4.757
192502.000			23.787			-4.757
192600.000			23.788			-4.758
192700.000			23.786			-4.757
192801.000			23.785			-4.757
192900.000			23.784			-4.757
193000.000			23.785			-4.757
193101.000			23.785			-4.757
193200.000			23.785			-4.757
193301.000			23.784			-4.757
193402.000			23.784			-4.757
193501.000			23.784			-4.757
193600.000			23.785			-4.757
193701.000			23.784			-4.757
193800.000			23.784			-4.757
193900.000			23.784			-4.757
194001.000			23.783			-4.757
194100.000			23.783			-4.757
194200.000			23.784			-4.757
194302.000			23.783			-4.757
194401.000			23.783			-4.757
194500.000			23.782			-4.756
194600.000			23.782			-4.756
194700.000			23.782			-4.756
194801.000			23.782			-4.756
194900.000			23.783			-4.757
195000.000			23.782			-4.756
195101.000			23.781			-4.756
195200.000			23.782			-4.756
195301.000			23.781			-4.756
195402.000			23.781			-4.756
195500.000			23.782			-4.756
195600.000			23.781			-4.756
195701.000			23.780			-4.756
195800.000			23.781			-4.756
195900.000			23.781			-4.756
196001.000			23.780			-4.756
196100.000			23.780			-4.756
196200.000			23.780			-4.756
196302.000			23.780			-4.756
196401.000			23.780			-4.756
196500.000			23.780			-4.756
196601.000			23.780			-4.756
196700.000			23.778			-4.756
196800.000			23.778			-4.756
196901.000			23.778			-4.756
197000.000			23.779			-4.756
197100.000			23.779			-4.756
197201.000			23.779			-4.756
197301.000			23.778			-4.756
197401.000			23.778			-4.756
197501.000			23.778			-4.756
197600.000			23.778			-4.756
197700.000			23.779			-4.756
197800.000			23.778			-4.756
197900.000			23.777			-4.755
198001.000			23.777			-4.755
198100.000			23.777			-4.755
198200.000			23.776			-4.755
198302.000			23.776			-4.755
198401.000			23.776			-4.755
198501.000			23.776			-4.755
198601.000			23.775			-4.755
198700.000			23.775			-4.755
198800.000			23.776			-4.755
198901.000			23.774			-4.755
199000.000			23.775			-4.755
199100.000			23.774			-4.755
199201.000			23.774			-4.755
199301.000			23.773			-4.755
199401.000			23.774			-4.755
199502.000			23.774			-4.755
199600.000			23.774			-4.755
199700.000			23.773			-4.755
199801.000			23.774			-4.755
199900.000			23.773			-4.755
200000.000			23.772			-4.754
200101.000			23.772			-4.754
200200.000			23.772			-4.754
200301.000			23.772			-4.754
200402.000			23.773			-4.755
200500.000			23.773			-4.755
200600.000			23.772			-4.754
200701.000			23.772			-4.754
200800.000			23.771			-4.754
200900.000			23.772			-4.754
201000.000			23.772			-4.754
201100.000			23.771			-4.754
201202.000			23.772			-4.754
201301.000			23.771			-4.754
201400.000			23.771			-4.754
201501.000			23.771			-4.754
201600.000			23.772			-4.754
201700.000			23.772			-4.754
201801.000			23.771			-4.754
201900.000			23.770			-4.754
202000.000			23.770			-4.754
202102.000			23.770			-4.754
202201.000			23.769			-4.754
202300.000			23.769			-4.754
202401.000			23.769			-4.754
202500.000			23.769			-4.754
202600.000			23.769			-4.754
202701.000			23.769			-4.754
202800.000			23.769			-4.754
202900.000			23.768			-4.754
203002.000			23.768			-4.754
203101.000			23.769			-4.754
203201.000			23.769			-4.754
203301.000			23.767			-4.753
203400.000			23.768			-4.754
203500.000			23.768			-4.754
203601.000			23.768			-4.754
203700.000			23.768			-4.754
203800.000			23.767			-4.753
203901.000			23.766			-4.753
204001.000			23.766			-4.753
204102.000			23.766			-4.753
204200.000			23.766			-4.753
204300.000			23.765			-4.753
204401.000			23.766			-4.753
204500.000			23.766			-4.753
204600.000			23.765			-4.753
204701.000			23.765			-4.753
204800.000			23.766			-4.753
204901.000			23.765			-4.753
205002.000			23.764			-4.753
205101.000			23.764			-4.753
205200.000			23.764			-4.753
205301.000			23.764			-4.753
205400.000			23.764			-4.753
205500.000			23.764			-4.753
205601.000			23.764			-4.753
205700.000			23.763			-4.753
205801.000			23.764			-4.753
205902.000			23.764			-4.753
206001.000			23.763			-4.753
206100.000			23.764			-4.753
206201.000			23.763			-4.753
206300.000			23.763			-4.753
206400.000			23.763			-4.753
206501.000			23.764			-4.753
206600.000			23.764			-4.753
206700.000			23.763			-4.753
206802.000			23.762			-4.752
206901.000			23.762			-4.752
207000.000			23.760			-4.752
207101.000			23.760			-4.752
207200.000			23.761			-4.752
207300.000			23.762			-4.752
207400.000			23.760			-4.752
207500.000			23.760			-4.752
207601.000			23.760			-4.752
207701.000			23.759			-4.752
207801.000			23.760			-4.752
207901.000			23.760			-4.752
208000.000			23.761			-4.752
208100.000			23.761			-4.752
208201.000			23.760			-4.752
208300.000			23.759			-4.752
208400.000			23.760			-4.752
208501.000			23.759			-4.752
208601.000			23.759			-4.752
208701.000			23.759			-4.752
208802.000			23.759			-4.752
208900.000			23.758			-4.752
209000.000			23.758			-4.752
209101.000			23.758			-4.752
209200.000			23.758			-4.752
209300.000			23.757			-4.751
209401.000			23.757			-4.751
209500.000			23.758			-4.752
209601.000			23.758			-4.752
209702.000			23.757			-4.751
209801.000			23.757			-4.751
209900.000			23.757			-4.751
210001.000			23.757			-4.751
210100.000			23.756			-4.751
210200.000			23.756			-4.751
210301.000			23.756			-4.751
210400.000			23.756			-4.751
210500.000			23.757			-4.751
210602.000			23.757			-4.751
210701.000			23.755			-4.751
210801.000			23.755			-4.751
210900.000			23.755			-4.751
211000.000			23.755			-4.751
211101.000			23.755			-4.751
211200.000			23.755			-4.751
211300.000			23.755			-4.751
211401.000			23.754			-4.751
211501.000			23.754			-4.751
211601.000			23.753			-4.751
211701.000			23.754			-4.751
211800.000			23.753			-4.751
211900.000			23.753			-4.751
212001.000			23.753			-4.751
212100.000			23.753			-4.751
212200.000			23.753			-4.751
212301.000			23.753			-4.751
212401.000			23.753			-4.751
212501.000			23.753			-4.751
212601.000			23.753			-4.751
212700.000			23.753			-4.751
212800.000			23.753			-4.751
212901.000			23.751			-4.750
213000.000			23.751			-4.750
213100.000			23.752			-4.750
213201.000			23.752			-4.750
213301.000			23.751			-4.750
213401.000			23.752			-4.750
213501.000			23.753			-4.751
213600.000			23.751			-4.750
213700.000			23.751			-4.750
213800.000			23.750			-4.750
213900.000			23.750			-4.750
214001.000			23.751			-4.750
214100.000			23.750			-4.750
214201.000			23.750			-4.750
214302.000			23.750			-4.750
214401.000			23.749			-4.750
214500.000			23.749			-4.750
214601.000			23.748			-4.750
214700.000			23.748			-4.750
214800.000			23.749			-4.750
214901.000			23.749			-4.750
215000.000			23.749			-4.750
215100.000			23.747			-4.749
215202.000			23.748			-4.750
215301.000			23.748			-4.750
215400.000			23.748			-4.750
215501.000			23.748			-4.750
215600.000			23.747			-4.749
215700.000			23.746			-4.749
215801.000			23.746			-4.749
215900.000			23.747			-4.749
216000.000			23.747			-4.749
216102.000			23.746			-4.749
216201.000			23.746			-4.749
216300.000			23.747			-4.749
216401.000			23.746			-4.749
216500.000			23.745			-4.749
216600.000			23.745			-4.749
216701.000			23.746			-4.749
216800.000			23.745			-4.749
216900.000			23.746			-4.749
217002.000			23.746			-4.749
217101.000			23.745			-4.749
217202.000			23.744			-4.749
217300.000			23.745			-4.749
217400.000			23.744			-4.749
217501.000			23.744			-4.749
217600.000			23.744			-4.749
217700.000			23.745			-4.749
217801.000			23.745			-4.749
217900.000			23.745			-4.749
218001.000			23.744			-4.749
218102.000			23.743			-4.749
218200.000			23.742			-4.748
218300.000			23.742			-4.748
218401.000			23.742			-4.748
218500.000			23.742			-4.748
218600.000			23.742			-4.748
218701.000			23.742			-4.748
218800.000			23.741			-4.748
218901.000			23.742			-4.748
219002.000			23.741			-4.748
219101.000			23.742			-4.748
219200.000			23.743			-4.749
219301.000			23.743			-4.749
219400.000			23.741			-4.748
219500.000			23.740			-4.748
219601.000			23.740			-4.748
219700.000			23.740			-4.748
219800.000			23.739			-4.748
219902.000			23.740			-4.748
220001.000			23.739			-4.748
220100.000			23.739			-4.748
220200.000			23.740			-4.748
220300.000			23.738			-4.748
220401.000			23.738			-4.748
220500.000			23.740			-4.748
220600.000			23.739			-4.748
220701.000			23.739			-4.748
220801.000			23.738			-4.748
220901.000			23.738			-4.748
221001.000			23.739			-4.748
221100.000			23.739			-4.748
221200.000			23.738			-4.748
221301.000			23.739			-4.748
221400.000			23.739			-4.748
221500.000			23.738			-4.748
221601.000			23.737			-4.747
221701.000			23.737			-4.747
221801.000			23.738			-4.748
221902.000			23.738			-4.748
222000.000			23.737			-4.747
222100.000			23.737			-4.747
222201.000			23.737			-4.747
222300.000			23.737			-4.747
222400.000			23.736			-4.747
222501.000			23.736			-4.747
222601.000			23.736			-4.747
222701.000			23.736			-4.747
222802.000			23.736			-4.747
222900.000			23.736			-4.747
223000.000			23.736			-4.747
223101.000			23.736			-4.747
223200.000			23.734			-4.747
223300.000			23.735			-4.747
223400.000			23.734			-4.747
223500.000			23.734			-4.747
223602.000			23.735			-4.747
223701.000			23.735			-4.747
223800.000			23.734			-4.747
223901.000			23.734			-4.747
224000.000			23.735			-4.747
224100.000			23.733			-4.747
224201.000			23.733			-4.747
224300.000			23.732			-4.746
224400.000			23.733			-4.747
224502.000			23.732			-4.746
224601.000			23.732			-4.746
224700.000			23.732			-4.746
224801.000			23.732			-4.746
224900.000			23.731			-4.746
225000.000			23.733			-4.747
225101.000			23.732			-4.746
225200.000			23.732			-4.746
225300.000			23.732			-4.746
225402.000			23.731			-4.746
225501.000			23.732			-4.746
225600.000			23.732			-4.746
225701.000			23.731			-4.746
225800.000			23.731			-4.746
225900.000			23.731			-4.746
226001.000			23.732			-4.746
226100.000			23.732			-4.746
226200.000			23.730			-4.746
226302.000			23.729			-4.746
226401.000			23.729			-4.746
226500.000			23.729			-4.746
226600.000			23.730			-4.746
226700.000			23.729			-4.746
226801.000			23.730			-4.746
226900.000			23.729			-4.746
227000.000			23.729			-4.746
227101.000			23.730			-4.746
227201.000			23.730			-4.746
227301.000			23.728			-4.746
227402.000			23.728			-4.746
227500.000			23.728			-4.746
227600.000			23.727			-4.745
227701.000			23.727			-4.745
227800.000			23.728			-4.746
227900.000			23.727			-4.745
228001.000			23.727			-4.745
228100.000			23.727			-4.745
228201.000			23.726			-4.745
228302.000			23.726			-4.745
228401.000			23.726			-4.745
228500.000			23.726			-4.745
228601.000			23.725			-4.745
228700.000			23.726			-4.745
228800.000			23.727			-4.745
228901.000			23.727			-4.745
229000.000			23.726			-4.745
229100.000			23.726			-4.745
229202.000			23.726			-4.745
229301.000			23.725			-4.745
229400.000			23.725			-4.745
229501.000			23.725			-4.745
229600.000			23.724			-4.745
229700.000			23.725			-4.745
229800.000			23.725			-4.745
229900.000			23.725			-4.745
230001.000			23.725			-4.745
230101.000			23.725			-4.745
230201.000			23.725			-4.745
230301.000			23.724			-4.745
230400.000			23.723			-4.745
230500.000			23.725			-4.745
230601.000			23.723			-4.745
230700.000			23.723			-4.745
230800.000			23.723			-4.745
230901.000			23.724			-4.745
231001.000			23.724			-4.745
231101.000			23.723			-4.745
231201.000			23.723			-4.745
231300.000			23.723			-4.745
231400.000			23.724			-4.745
231501.000			23.723			-4.745
231600.000			23.721			-4.744
231700.000			23.722			-4.744
231801.000			23.723			-4.745
231901.000			23.723			-4.745
232001.000			23.722			-4.744
232101.000			23.722			-4.744
232200.000			23.721			-4.744
232300.000			23.722			-4.744
232401.000			23.722			-4.744
232500.000			23.722			-4.744
232600.000			23.721			-4.744
232701.000			23.720			-4.744
232801.000			23.720			-4.744
232902.000			23.721			-4.744
233001.000			23.721			-4.744
233100.000			23.721			-4.744
233201.000			23.720			-4.744
233300.000			23.721			-4.744
233400.000			23.720			-4.744
233501.000			23.720			-4.744
233600.000			23.719			-4.744
233701.000			23.719			-4.744
233802.000			23.720			-4.744
233901.000			23.719			-4.744
234000.000			23.718			-4.744
234101.000			23.718			-4.744
234200.000			23.719			-4.744
234300.000			23.718			-4.744
234401.000			23.718			-4.744
234500.000			23.719			-4.744
234600.000			23.719			-4.744
234702.000			23.718			-4.744
234801.000			23.718			-4.744
234900.000			23.718			-4.744
235001.000			23.717			-4.743
235100.000			23.717			-4.743
235200.000			23.717			-4.743
235301.000			23.716			-4.743
235400.000			23.716			-4.743
235500.000			23.716			-4.743
235602.000			23.715			-4.743
235701.000			23.715			-4.743
235800.000			23.716			-4.743
235901.000			23.717			-4.743
236000.000			23.716			-4.743
236100.000			23.715			-4.743
236200.000			23.714			-4.743
236300.000			23.714			-4.743
236401.000			23.713			-4.743
236501.000			23.715			-4.743
236601.000			23.714			-4.743
236702.000			23.715			-4.743
236800.000			23.715			-4.743
236900.000			23.714			-4.743
237001.000			23.713			-4.743
237100.000			23.713			-4.743
237200.000			23.714			-4.743
237301.000			23.713			-4.743
237401.000			23.714			-4.743
237501.000			23.714			-4.743
237602.000			23.714			-4.743
237700.000			23.714			-4.743
237800.000			23.713			-4.743
237901.000			23.712			-4.742
238000.000			23.712			-4.742
238100.000			23.713			-4.743
238201.000			23.713			-4.743
238300.000			23.712			-4.742
238401.000			23.711			-4.742
238502.000			23.712			-4.742
238600.000			23.711			-4.742
238700.000			23.712			-4.742
238801.000			23.712			-4.742
238900.000			23.712			-4.742
239000.000			23.711			-4.742
239101.000			23.711			-4.742
239200.000			23.710			-4.742
239302.000			23.710			-4.742
239401.000			23.711			-4.742
239501.000			23.712			-4.742
239601.000			23.711			-4.742
239700.000			23.710			-4.742
239800.000			23.710			-4.742
239901.000			23.710			-4.742
240000.000			23.710			-4.742
240100.000			23.709			-4.742
240201.000			23.709			-4.742
240301.000			23.709			-4.742
240401.000			23.708			-4.742
240501.000			23.708			-4.742
240600.000			23.708			-4.742
240700.000			23.708			-4.742
240801.000			23.708			-4.742
240900.000			23.708			-4.742
241000.000			23.708			-4.742
241101.000			23.707			-4.741
241201.000			23.707			-4.741
241301.000			23.708			-4.742
241401.000			23.707			-4.741
241500.000			23.708			-4.742
241600.000			23.707			-4.741
241701.000			23.707			-4.741
241800.000			23.707			-4.741
241900.000			23.707			-4.741
242001.000			23.706			-4.741
242101.000			23.706			-4.741
242201.000			23.706			-4.741
242301.000			23.705			-4.741
242400.000			23.705			-4.741
242500.000			23.705			-4.741
242600.000			23.705			-4.741
242700.000			23.705			-4.741
242801.000			23.705			-4.741
242900.000			23.704			-4.741
243001.000			23.704			-4.741
243102.000			23.705			-4.741
243201.000			23.705			-4.741
243300.000			23.705			-4.741
243401.000			23.705			-4.741
243500.000			23.704			-4.741
243600.000			23.704			-4.741
243701.000			23.704			-4.741
243800.000			23.704			-4.741
243900.000			23.703			-4.741
244002.000			23.703			-4.741
244101.000			23.704			-4.741
244200.000			23.703			-4.741
244301.000			23.704			-4.741
244400.000			23.703			-4.741
244500.000			23.703			-4.741
244601.000			23.703			-4.741
244700.000			23.702			-4.740
244800.000			23.702			-4.740
244902.000			23.703			-4.741
245001.000			23.702			-4.740
245100.000			23.701			-4.740
245201.000			23.701			-4.740
245300.000			23.702			-4.740
245400.000			23.702			-4.740
245501.000			23.700			-4.740
245600.000			23.700			-4.740
245700.000			23.701			-4.740
245802.000			23.701			-4.740
245901.000			23.701			-4.740
246001.000			23.700			-4.740
246100.000			23.701			-4.740
246200.000			23.700			-4.740
246301.000			23.700			-4.740
246400.000			23.701			-4.740
246500.000			23.700			-4.740
246601.000			23.700			-4.740
246701.000			23.700			-4.740
246801.000			23.699			-4.740
246902.000			23.699			-4.740
247000.000			23.699			-4.740
247100.000			23.699			-4.740
247201.000			23.699			-4.740
247300.000			23.698			-4.740
247400.000			23.699			-4.740
247501.000			23.699			-4.740
247600.000			23.699			-4.740
247701.000			23.700			-4.740
247802.000			23.699			-4.740
247901.000			23.699			-4.740
248000.000			23.699			-4.740
248101.000			23.697			-4.739
248200.000			23.697			-4.739
248300.000			23.697			-4.739
248401.000			23.697			-4.739
248500.000			23.697			-4.739
248600.000			23.697			-4.739
248702.000			23.698			-4.740
248801.000			23.697			-4.739
248902.000			23.697			-4.739
249000.000			23.696			-4.739
249100.000			23.696			-4.739
249201.000			23.696			-4.739
249300.000			23.696			-4.739
249400.000			23.696			-4.739
249501.000			23.696			-4.739
249600.000			23.695			-4.739
249701.000			23.694			-4.739
249802.000			23.695			-4.739
249901.000			23.695			-4.739
250000.000			23.694			-4.739
250101.000			23.694			-4.739
250200.000			23.695			-4.739
250300.000			23.694			-4.739
250401.000			23.696			-4.739
250500.000			23.693			-4.739
250600.000			23.693			-4.739
250702.000			23.693			-4.739
250801.000			23.693			-4.739
250900.000			23.694			-4.739
251001.000			23.694			-4.739
251100.000			23.694			-4.739
251200.000			23.692			-4.738
251301.000			23.693			-4.739
251400.000			23.693			-4.739
251500.000			23.693			-4.739
251602.000			23.692			-4.738
251701.000			23.692			-4.738
251801.000			23.692			-4.738
251901.000			23.693			-4.739
252000.000			23.693			-4.739
252100.000			23.693			-4.739
252200.000			23.692			-4.738
252300.000			23.692			-4.738
252401.000			23.692			-4.738
252501.000			23.692			-4.738
252601.000			23.692			-4.738
252702.000			23.691			-4.738
252800.000			23.691			-4.738
252900.000			23.691			-4.738
253001.000			23.691			-4.738
253100.000			23.690			-4.738
253200.000			23.690			-4.738
253301.000			23.691			-4.738
253400.000			23.690			-4.738
253501.000			23.690			-4.738
253602.000			23.690			-4.738
253701.000			23.690			-4.738
253800.000			23.690			-4.738
253901.000			23.690			-4.738
254000.000			23.690			-4.738
254100.000			23.689			-4.738
254201.000			23.688			-4.738
254300.000			23.688			-4.738
254400.000			23.688			-4.738
254502.000			23.688			-4.738
254601.000			23.689			-4.738
254701.000			23.690			-4.738
254801.000			23.689			-4.738
254900.000			23.687			-4.737
255000.000			23.687			-4.737
255101.000			23.687			-4.737
255200.000			23.688			-4.738
255300.000			23.689			-4.738
255400.000			23.689			-4.738
255501.000			23.688			-4.738
255602.000			23.686			-4.737
255701.000			23.685			-4.737
255800.000			23.686			-4.737
255901.000			23.687			-4.737
256000.000			23.687			-4.737
256100.000			23.685			-4.737
256201.000			23.685			-4.737
256300.000			23.685			-4.737
256400.000			23.685			-4.737
256502.000			23.686			-4.737
256601.000			23.686			-4.737
256700.000			23.686			-4.737
256801.000			23.686			-4.737
256900.000			23.686			-4.737
257000.000			23.686			-4.737
257101.000			23.685			-4.737
257200.000			23.685			-4.737
257300.000			23.685			-4.737
257402.000			23.684			-4.737
257501.000			23.684			-4.737
257601.000			23.684			-4.737
257701.000			23.684			-4.737
257800.000			23.685			-4.737
257900.000			23.684			-4.737
258001.000			23.684			-4.737
258100.000			23.684			-4.737
258200.000			23.684			-4.737
258301.000			23.684			-4.737
258401.000			23.683			-4.737
258502.000			23.684			-4.737
258601.000			23.683			-4.737
258700.000			23.683			-4.737
258801.000			23.683			-4.737
258900.000			23.683			-4.737
259000.000			23.682			-4.736
259101.000			23.681			-4.736
259200.000			23.682			-4.736
259300.000			23.682			-4.736
259402.000			23.682			-4.736
259501.000			23.681			-4.736
259601.000			23.682			-4.736
259701.000			23.682			-4.736
259800.000			23.682			-4.736
259900.000			23.682			-4.736
260001.000			23.680			-4.736
260100.000			23.681			-4.736
260200.000			23.681			-4.736
260301.000			23.681			-4.736
260401.000			23.680			-4.736
260501.000			23.679			-4.736
260601.000			23.679			-4.736
260700.000			23.679			-4.736
260800.000			23.680			-4.736
260901.000			23.680			-4.736
261000.000			23.681			-4.736
261100.000			23.680			-4.736
261201.000			23.681			-4.736
261301.000			23.680			-4.736
261401.000			23.678			-4.736
261502.000			23.679			-4.736
261600.000			23.680			-4.736
261700.000			23.679			-4.736
261800.000			23.679			-4.736
261900.000			23.679			-4.736
262001.000			23.679			-4.736
262100.000			23.678			-4.736
262200.000			23.677			-4.735
262302.000			23.678			-4.736
262401.000			23.678			-4.736
262501.000			23.678			-4.736
262601.000			23.678			-4.736
262700.000			23.678			-4.736
262800.000			23.677			-4.735
262901.000			23.677			-4.735
263000.000			23.678			-4.736
263100.000			23.677			-4.735
263201.000			23.677			-4.735
263301.000			23.677			-4.735
263401.000			23.676			-4.735
263501.000			23.677			-4.735
263600.000			23.678			-4.736
263700.000			23.676			-4.735
263801.000			23.676			-4.735
263900.000			23.677			-4.735
264000.000			23.676			-4.735
264101.000			23.675			-4.735
264201.000			23.675			-4.735
264301.000			23.675			-4.735
264402.000			23.675			-4.735
264500.000			23.675			-4.735
264600.000			23.676			-4.735
264701.000			23.675			-4.735
264800.000			23.675			-4.735
264900.000			23.675			-4.735
265000.000			23.676			-4.735
265100.000			23.676			-4.735
265202.000			23.675			-4.735
265301.000			23.674			-4.735
265400.000			23.674			-4.735
265501.000			23.673			-4.735
265600.000			23.673			-4.735
265700.000			23.673			-4.735
265801.000			23.673			-4.735
265900.000			23.673			-4.735
266000.000			23.674			-4.735
266102.000			23.674			-4.735
266201.000			23.673			-4.735
266301.000			23.673			-4.735
266401.000			23.672			-4.734
266500.000			23.672			-4.734
266600.000			23.673			-4.735
266701.000			23.671			-4.734
266800.000			23.671			-4.734
266900.000			23.673			-4.735
267001.000			23.672			-4.734
267101.000			23.671			-4.734
267201.000			23.671			-4.734
267301.000			23.672			-4.734
267400.000			23.671			-4.734
267500.000			23.672			-4.734
267601.000			23.672			-4.734
267700.000			23.672			-4.734
267800.000			23.671			-4.734
267901.000			23.671			-4.734
268001.000			23.671			-4.734
268102.000			23.671			-4.734
268201.000			23.671			-4.734
268300.000			23.671			-4.734
268401.000			23.670			-4.734
268500.000			23.669			-4.734
268600.000			23.670			-4.734
268701.000			23.671			-4.734
268800.000			23.669			-4.734
268900.000			23.670			-4.734
269002.000			23.670			-4.734
269101.000			23.670			-4.734
269201.000			23.669			-4.734
269301.000			23.668			-4.734
269400.000			23.668			-4.734
269500.000			23.668			-4.734
269601.000			23.668			-4.734
269700.000			23.668			-4.734
269800.000			23.669			-4.734
269901.000			23.668			-4.734
270001.000			23.668			-4.734
270101.000			23.667			-4.733
270202.000			23.667			-4.733
270300.000			23.667			-4.733
270400.000			23.668			-4.734
270501.000			23.667			-4.733
270600.000			23.667			-4.733
270700.000			23.666			-4.733
270801.000			23.666			-4.733
270900.000			23.668			-4.734
271001.000			23.667			-4.733
271102.000			23.667			-4.733
271200.000			23.667			-4.733
271300.000			23.667			-4.733
271400.000			23.667			-4.733
271500.000			23.666			-4.733
271601.000			23.666			-4.733
271700.000			23.666			-4.733
271800.000			23.666			-4.733
271902.000			23.665			-4.733
272001.000			23.665			-4.733
272101.000			23.666			-4.733
272201.000			23.666			-4.733
272300.000			23.665			-4.733
272400.000			23.665			-4.733
272501.000			23.665			-4.733
272600.000			23.665			-4.733
272700.000			23.665			-4.733
272801.000			23.665			-4.733
272901.000			23.665			-4.733
273001.000			23.664			-4.733
273101.000			23.664			-4.733
273200.000			23.663			-4.733
273300.000			23.664			-4.733
273401.000			23.663			-4.733
273500.000			23.663			-4.733
273600.000			23.663			-4.733
273701.000			23.663			-4.733
273801.000			23.663			-4.733
273901.000			23.663			-4.733
274002.000			23.662			-4.732
274100.000			23.663			-4.733
274200.000			23.663			-4.733
274301.000			23.661			-4.732
274400.000			23.662			-4.732
274500.000			23.663			-4.733
274600.000			23.662			-4.732
274700.000			23.662			-4.732
274802.000			23.662			-4.732
274901.000			23.661			-4.732
275000.000			23.661			-4.732
275101.000			23.661			-4.732
275200.000			23.660			-4.732
275300.000			23.660			-4.732
275401.000			23.661			-4.732
275500.000			23.661			-4.732
275600.000			23.661			-4.732
275702.000			23.660			-4.732
275801.000			23.660			-4.732
275901.000			23.661			-4.732
276001.000			23.660			-4.732
276100.000			23.660			-4.732
276200.000			23.660			-4.732
276301.000			23.660			-4.732
276400.000			23.660			-4.732
276500.000			23.659			-4.732
276601.000			23.660			-4.732
276701.000			23.659			-4.732
276801.000			23.659			-4.732
276901.000			23.659			-4.732
277000.000			23.659			-4.732
277100.000			23.659			-4.732
277201.000			23.659			-4.732
277300.000			23.660			-4.732
277400.000			23.659			-4.732
277501.000			23.659			-4.732
277600.000			23.658			-4.732
277702.000			23.658			-4.732
277801.000			23.658			-4.732
277900.000			23.658			-4.732
278001.000			23.658			-4.732
278100.000			23.657			-4.731
278200.000			23.658			-4.732
278301.000			23.658			-4.732
278400.000			23.658			-4.732
278500.000			23.657			-4.731
278601.000			23.656			-4.731
278701.000			23.656			-4.731
278801.000			23.657			-4.731
278901.000			23.657			-4.731
279000.000			23.657			-4.731
279100.000			23.658			-4.732
279201.000			23.657			-4.731
279300.000			23.657			-4.731
279400.000			23.656			-4.731
279501.000			23.657			-4.731
279601.000			23.656			-4.731
279701.000			23.656			-4.731
279802.000			23.656			-4.731
279900.000			23.656			-4.731
280000.000			23.655			-4.731
280101.000			23.656			-4.731
280200.000			23.656			-4.731
280300.000			23.655			-4.731
280401.000			23.656			-4.731
280500.000			23.655			-4.731
280601.000			23.654			-4.731
280702.000			23.655			-4.731
280800.000			23.655			-4.731
280900.000			23.654			-4.731
281000.000			23.653			-4.731
281100.000			23.654			-4.731
281201.000			23.654			-4.731
281300.000			23.654			-4.731
281400.000			23.654			-4.731
281502.000			23.654			-4.731
281601.000			23.653			-4.731
281701.000			23.654			-4.731
281801.000			23.653			-4.731
281900.000			23.653			-4.731
282000.000			23.653			-4.731
282101.000			23.654			-4.731
282200.000			23.653			-4.731
282300.000			23.653			-4.731
282401.000			23.653			-4.731
282501.000			23.653			-4.731
282601.000			23.652			-4.730
282701.000			23.652			-4.730
282800.000			23.652			-4.730
282900.000			23.651			-4.730
283001.000			23.652			-4.730
283100.000			23.652			-4.730
283200.000			23.652			-4.730
283301.000			23.652			-4.730
283401.000			23.652			-4.730
283501.000			23.652			-4.730
283601.000			23.650			-4.730
283700.000			23.651			-4.730
283800.000			23.651			-4.730
283901.000			23.651			-4.730
284000.000			23.651			-4.730
284100.000			23.651			-4.730
284200.000			23.651			-4.730
284301.000			23.649			-4.730
284402.000			23.649			-4.730
284501.000			23.649			-4.730
284600.000			23.650			-4.730
284701.000			23.649			-4.730
284800.000			23.649			-4.730
284900.000			23.648			-4.730
285001.000			23.648			-4.730
285100.000			23.648			-4.730
285200.000			23.649			-4.730
285302.000			23.649			-4.730
285401.000			23.648			-4.730
285501.000			23.648			-4.730
285601.000			23.648			-4.730
285700.000			23.646			-4.729
285800.000			23.647			-4.729
285901.000			23.647			-4.729
286000.000			23.647			-4.729
286100.000			23.648			-4.730
286201.000			23.647			-4.729
286301.000			23.647			-4.729
286401.000			23.647			-4.729
286501.000			23.647			-4.729
286600.000			23.648			-4.730
286700.000			23.648			-4.730
286801.000			23.646			-4.729
286900.000			23.646			-4.729
287000.000			23.646			-4.729
287101.000			23.647			-4.729
287201.000			23.645			-4.729
287302.000			23.645			-4.729
287401.000			23.647			-4.729
287500.000			23.647			-4.729
287601.000			23.646			-4.729
287700.000			23.647			-4.729
287800.000			23.646			-4.729
287901.000			23.646			-4.729
288000.000			23.645			-4.729
288100.000			23.645			-4.729
288202.000			23.645			-4.729
288301.000			23.644			-4.729
288401.000			23.644			-4.729
288501.000			23.645			-4.729
288600.000			23.645			-4.729
288700.000			23.644			-4.729
288801.000			23.644			-4.729
288900.000			23.644			-4.729
289000.000			23.644			-4.729
289101.000			23.644			-4.729
289201.000			23.644			-4.729
289301.000			23.644			-4.729
289401.000			23.643			-4.729
289500.000			23.643			-4.729
289600.000			23.643			-4.729
289701.000			23.644			-4.729
289800.000			23.644			-4.729
289900.000			23.643			-4.729
290001.000			23.642			-4.728
290101.000			23.643			-4.729
290201.000			23.643			-4.729
290302.000			23.642			-4.728
290400.000			23.642			-4.728
290500.000			23.642			-4.728
290600.000			23.641			-4.728
290700.000			23.641			-4.728
290801.000			23.641			-4.728
290900.000			23.642			-4.728
291000.000			23.642			-4.728
291102.000			23.641			-4.728
291201.000			23.641			-4.728
291300.000			23.643			-4.729
291401.000			23.641			-4.728
291500.000			23.641			-4.728
291600.000			23.641			-4.728
291701.000			23.641			-4.728
291800.000			23.641			-4.728
291900.000			23.642			-4.728
292002.000			23.641			-4.728
292101.000			23.640			-4.728
292201.000			23.641			-4.728
292301.000			23.642			-4.728
292400.000			23.641			-4.728
292500.000			23.640			-4.728
292601.000			23.640			-4.728
292700.000			23.641			-4.728
292800.000			23.640			-4.728
292902.000			23.640			-4.728
293001.000			23.640			-4.728
293101.000			23.642			-4.728
293201.000			23.641			-4.728
293300.000			23.640			-4.728
293400.000			23.639			-4.728
293501.000			23.638			-4.728
293600.000			23.639			-4.728
293700.000			23.640			-4.728
293800.000			23.641			-4.728
293901.000			23.639			-4.728
294002.000			23.639			-4.728
294100.000			23.639			-4.728
294200.000			23.638			-4.728
294301.000			23.639			-4.728
294400.000			23.639			-4.728
294500.000			23.639			-4.728
294601.000			23.638			-4.728
294700.000			23.638			-4.728
294801.000			23.639			-4.728
294902.000			23.639			-4.728
295001.000			23.638			-4.728
295100.000			23.638			-4.728
295201.000			23.639			-4.728
295300.000			23.637			-4.727
295400.000			23.637			-4.727
295501.000			23.637			-4.727
295600.000			23.638			-4.728
295700.000			23.637			-4.727
295802.000			23.637			-4.727
295901.000			23.638			-4.728
296001.000			23.637			-4.727
296101.000			23.636			-4.727
296200.000			23.637			-4.727
296300.000			23.637			-4.727
296401.000			23.637			-4.727
296500.000			23.636			-4.727
296600.000			23.636			-4.727
296701.000			23.635			-4.727
296801.000			23.635			-4.727
296902.000			23.636			-4.727
297000.000			23.636			-4.727
297100.000			23.635			-4.727
297201.000			23.635			-4.727
297300.000			23.636			-4.727
297400.000			23.635			-4.727
297501.000			23.634			-4.727
297600.000			23.635			-4.727
297701.000			23.635			-4.727
297802.000			23.635			-4.727
297901.000			23.635			-4.727
298000.000			23.635			-4.727
298101.000			23.634			-4.727
298200.000			23.634			-4.727
298300.000			23.633			-4.727
298401.000			23.634			-4.727
298500.000			23.634			-4.727
298600.000			23.634			-4.727
298702.000			23.633			-4.727
298801.000			23.633			-4.727
298901.000			23.634			-4.727
299001.000			23.634			-4.727
299100.000			23.634			-4.727
299200.000			23.634			-4.727
299301.000			23.634			-4.727
299400.000			23.633			-4.727
299500.000			23.632			-4.726
299601.000			23.632			-4.726
299701.000			23.634			-4.727
299801.000			23.633			-4.727
299902.000			23.633			-4.727
