# Acquired on 09/01/2024 11:26:40 
# SPIDER: Creep_-6mm_07714532C-1
# CREEP MEASUREMENT

# time [ms]		force [N]		stiffness [N/mm]
0.000			8.367			-1.395
100.000			8.828			-1.471
201.000			8.984			-1.497
300.000			8.968			-1.495
401.000			8.925			-1.487
502.000			8.891			-1.482
600.000			8.840			-1.473
700.000			8.820			-1.470
801.000			8.802			-1.467
900.000			8.785			-1.464
1000.000			8.771			-1.462
1102.000			8.758			-1.460
1201.000			8.744			-1.457
1300.000			8.722			-1.454
1401.000			8.712			-1.452
1500.000			8.704			-1.451
1600.000			8.695			-1.449
1701.000			8.685			-1.448
1800.000			8.678			-1.446
1902.000			8.670			-1.445
2001.000			8.655			-1.443
2100.000			8.648			-1.441
2201.000			8.641			-1.440
2300.000			8.635			-1.439
2400.000			8.630			-1.438
2501.000			8.624			-1.437
2600.000			8.618			-1.436
2701.000			8.612			-1.435
2802.000			8.602			-1.434
2900.000			8.596			-1.433
3000.000			8.591			-1.432
3101.000			8.586			-1.431
3200.000			8.582			-1.430
3300.000			8.578			-1.430
3402.000			8.573			-1.429
3501.000			8.565			-1.427
3600.000			8.561			-1.427
3701.000			8.557			-1.426
3800.000			8.553			-1.425
3900.000			8.549			-1.425
4001.000			8.546			-1.424
4100.000			8.542			-1.424
4201.000			8.536			-1.423
4302.000			8.532			-1.422
4400.000			8.528			-1.421
4500.000			8.524			-1.421
4601.000			8.522			-1.420
4700.000			8.519			-1.420
4800.000			8.516			-1.419
4901.000			8.509			-1.418
5001.000			8.506			-1.418
5102.000			8.503			-1.417
5200.000			8.500			-1.417
5300.000			8.498			-1.416
5401.000			8.495			-1.416
5500.000			8.492			-1.415
5600.000			8.491			-1.415
5702.000			8.485			-1.414
5801.000			8.483			-1.414
5901.000			8.480			-1.413
6001.000			8.477			-1.413
6100.000			8.474			-1.412
6200.000			8.473			-1.412
6301.000			8.470			-1.412
6400.000			8.466			-1.411
6501.000			8.464			-1.411
6602.000			8.462			-1.410
6700.000			8.460			-1.410
6800.000			8.457			-1.409
6901.000			8.454			-1.409
7000.000			8.452			-1.409
7100.000			8.448			-1.408
7201.000			8.446			-1.408
7301.000			8.444			-1.407
7401.000			8.442			-1.407
7501.000			8.440			-1.407
7600.000			8.438			-1.406
7700.000			8.437			-1.406
7801.000			8.433			-1.405
7900.000			8.430			-1.405
8000.000			8.428			-1.405
8102.000			8.426			-1.404
8201.000			8.425			-1.404
8300.000			8.423			-1.404
8400.000			8.422			-1.404
8500.000			8.418			-1.403
8601.000			8.415			-1.402
8700.000			8.414			-1.402
8801.000			8.412			-1.402
8902.000			8.411			-1.402
9001.000			8.409			-1.402
9100.000			8.407			-1.401
9201.000			8.407			-1.401
9300.000			8.402			-1.400
9400.000			8.402			-1.400
9501.000			8.400			-1.400
9601.000			8.398			-1.400
9701.000			8.398			-1.400
9801.000			8.396			-1.399
9900.000			8.393			-1.399
10000.000			8.392			-1.399
10101.000			8.390			-1.398
10200.000			8.388			-1.398
10300.000			8.387			-1.398
10402.000			8.384			-1.397
10501.000			8.383			-1.397
10600.000			8.382			-1.397
10701.000			8.379			-1.397
10800.000			8.378			-1.396
10900.000			8.378			-1.396
11001.000			8.377			-1.396
11100.000			8.375			-1.396
11201.000			8.373			-1.395
11302.000			8.371			-1.395
11400.000			8.369			-1.395
11500.000			8.368			-1.395
11600.000			8.367			-1.394
11700.000			8.366			-1.394
11801.000			8.364			-1.394
11900.000			8.363			-1.394
12001.000			8.361			-1.394
12102.000			8.360			-1.393
12200.000			8.358			-1.393
12300.000			8.356			-1.393
12401.000			8.356			-1.393
12500.000			8.355			-1.392
12600.000			8.354			-1.392
12701.000			8.353			-1.392
12801.000			8.352			-1.392
12901.000			8.349			-1.392
13001.000			8.348			-1.391
13100.000			8.346			-1.391
13200.000			8.345			-1.391
13301.000			8.344			-1.391
13400.000			8.344			-1.391
13500.000			8.343			-1.390
13602.000			8.340			-1.390
13701.000			8.339			-1.390
13800.000			8.339			-1.390
13901.000			8.337			-1.390
14000.000			8.336			-1.389
14100.000			8.336			-1.389
14201.000			8.334			-1.389
14300.000			8.333			-1.389
14401.000			8.331			-1.389
14502.000			8.330			-1.388
14600.000			8.329			-1.388
14700.000			8.328			-1.388
14800.000			8.328			-1.388
14900.000			8.327			-1.388
15001.000			8.326			-1.388
15100.000			8.323			-1.387
15201.000			8.321			-1.387
15302.000			8.321			-1.387
15400.000			8.321			-1.387
15500.000			8.319			-1.387
15601.000			8.318			-1.386
15700.000			8.318			-1.386
15800.000			8.315			-1.386
15901.000			8.314			-1.386
16001.000			8.314			-1.386
16101.000			8.312			-1.385
16201.000			8.311			-1.385
16300.000			8.310			-1.385
16400.000			8.309			-1.385
16501.000			8.308			-1.385
16600.000			8.307			-1.384
16700.000			8.305			-1.384
16802.000			8.305			-1.384
16901.000			8.304			-1.384
17000.000			8.303			-1.384
17101.000			8.301			-1.384
17200.000			8.299			-1.383
17300.000			8.297			-1.383
17401.000			8.298			-1.383
17500.000			8.297			-1.383
17601.000			8.297			-1.383
17702.000			8.297			-1.383
17801.000			8.295			-1.383
17900.000			8.295			-1.382
18000.000			8.292			-1.382
18100.000			8.293			-1.382
18201.000			8.291			-1.382
18300.000			8.289			-1.381
18400.000			8.288			-1.381
18502.000			8.287			-1.381
18601.000			8.287			-1.381
18700.000			8.286			-1.381
18801.000			8.284			-1.381
18900.000			8.283			-1.381
19000.000			8.282			-1.380
19101.000			8.282			-1.380
19200.000			8.281			-1.380
19301.000			8.280			-1.380
19402.000			8.279			-1.380
19500.000			8.278			-1.380
19600.000			8.277			-1.379
19701.000			8.276			-1.379
19800.000			8.275			-1.379
19900.000			8.275			-1.379
20001.000			8.273			-1.379
20101.000			8.272			-1.379
20201.000			8.271			-1.379
20301.000			8.271			-1.378
20400.000			8.270			-1.378
20500.000			8.269			-1.378
20601.000			8.270			-1.378
20700.000			8.268			-1.378
20800.000			8.268			-1.378
20902.000			8.266			-1.378
21001.000			8.265			-1.378
21100.000			8.264			-1.377
21200.000			8.263			-1.377
21300.000			8.263			-1.377
21401.000			8.262			-1.377
21500.000			8.261			-1.377
21600.000			8.260			-1.377
21702.000			8.259			-1.377
21801.000			8.259			-1.376
21900.000			8.258			-1.376
22001.000			8.257			-1.376
22100.000			8.258			-1.376
22200.000			8.257			-1.376
22301.000			8.255			-1.376
22401.000			8.254			-1.376
22501.000			8.253			-1.375
22602.000			8.252			-1.375
22700.000			8.251			-1.375
22800.000			8.252			-1.375
22901.000			8.252			-1.375
23000.000			8.249			-1.375
23100.000			8.250			-1.375
23202.000			8.248			-1.375
23301.000			8.247			-1.374
23401.000			8.246			-1.374
23501.000			8.247			-1.374
23600.000			8.247			-1.374
23700.000			8.246			-1.374
23801.000			8.244			-1.374
23900.000			8.244			-1.374
24001.000			8.244			-1.374
24102.000			8.242			-1.374
24200.000			8.241			-1.373
24300.000			8.241			-1.373
24400.000			8.240			-1.373
24500.000			8.239			-1.373
24601.000			8.238			-1.373
24700.000			8.237			-1.373
24801.000			8.236			-1.373
24902.000			8.236			-1.373
25001.000			8.237			-1.373
25100.000			8.236			-1.373
25201.000			8.235			-1.372
25300.000			8.235			-1.372
25400.000			8.234			-1.372
25501.000			8.233			-1.372
25601.000			8.233			-1.372
25701.000			8.233			-1.372
25801.000			8.231			-1.372
25900.000			8.230			-1.372
26000.000			8.229			-1.371
26101.000			8.228			-1.371
26200.000			8.227			-1.371
26300.000			8.228			-1.371
26402.000			8.227			-1.371
26501.000			8.226			-1.371
26600.000			8.226			-1.371
26701.000			8.225			-1.371
26800.000			8.224			-1.371
26900.000			8.223			-1.370
27001.000			8.223			-1.371
27100.000			8.222			-1.370
27201.000			8.222			-1.370
27302.000			8.222			-1.370
27400.000			8.220			-1.370
27500.000			8.220			-1.370
27600.000			8.220			-1.370
27700.000			8.217			-1.370
27801.000			8.216			-1.369
27900.000			8.216			-1.369
28001.000			8.216			-1.369
28102.000			8.215			-1.369
28200.000			8.215			-1.369
28300.000			8.214			-1.369
28401.000			8.215			-1.369
28500.000			8.213			-1.369
28600.000			8.212			-1.369
28701.000			8.212			-1.369
28801.000			8.212			-1.369
28901.000			8.212			-1.369
29001.000			8.211			-1.368
29100.000			8.209			-1.368
29200.000			8.208			-1.368
29301.000			8.208			-1.368
29400.000			8.208			-1.368
29500.000			8.207			-1.368
29602.000			8.206			-1.368
29701.000			8.206			-1.368
29800.000			8.205			-1.367
29901.000			8.205			-1.367
30000.000			8.205			-1.367
30100.000			8.204			-1.367
30201.000			8.203			-1.367
30300.000			8.202			-1.367
30401.000			8.202			-1.367
30502.000			8.202			-1.367
30600.000			8.201			-1.367
30700.000			8.201			-1.367
30800.000			8.200			-1.367
30900.000			8.200			-1.367
31001.000			8.198			-1.366
31100.000			8.199			-1.366
31201.000			8.198			-1.366
31302.000			8.197			-1.366
31400.000			8.197			-1.366
31500.000			8.196			-1.366
31601.000			8.195			-1.366
31700.000			8.195			-1.366
31800.000			8.196			-1.366
31901.000			8.196			-1.366
32001.000			8.194			-1.366
32101.000			8.193			-1.366
32201.000			8.193			-1.366
32300.000			8.193			-1.366
32400.000			8.192			-1.365
32501.000			8.191			-1.365
32600.000			8.190			-1.365
32700.000			8.190			-1.365
32802.000			8.191			-1.365
32901.000			8.191			-1.365
33000.000			8.190			-1.365
33101.000			8.189			-1.365
33200.000			8.188			-1.365
33300.000			8.188			-1.365
33401.000			8.188			-1.365
33500.000			8.188			-1.365
33601.000			8.186			-1.364
33702.000			8.185			-1.364
33800.000			8.184			-1.364
33900.000			8.184			-1.364
34000.000			8.184			-1.364
34100.000			8.184			-1.364
34201.000			8.184			-1.364
34300.000			8.182			-1.364
34401.000			8.181			-1.364
34502.000			8.182			-1.364
34600.000			8.181			-1.363
34700.000			8.180			-1.363
34801.000			8.179			-1.363
34900.000			8.180			-1.363
35000.000			8.180			-1.363
35101.000			8.179			-1.363
35201.000			8.178			-1.363
35301.000			8.177			-1.363
35401.000			8.175			-1.363
35500.000			8.176			-1.363
35600.000			8.176			-1.363
35701.000			8.176			-1.363
35800.000			8.175			-1.363
35900.000			8.173			-1.362
36002.000			8.175			-1.362
36101.000			8.173			-1.362
36200.000			8.172			-1.362
36301.000			8.172			-1.362
36400.000			8.172			-1.362
36500.000			8.170			-1.362
36601.000			8.171			-1.362
36700.000			8.171			-1.362
36801.000			8.169			-1.362
36902.000			8.168			-1.361
37000.000			8.169			-1.361
37100.000			8.167			-1.361
37200.000			8.167			-1.361
37300.000			8.168			-1.361
37401.000			8.168			-1.361
37500.000			8.166			-1.361
37601.000			8.166			-1.361
37702.000			8.165			-1.361
37800.000			8.165			-1.361
37900.000			8.165			-1.361
38001.000			8.164			-1.361
38100.000			8.163			-1.360
38200.000			8.162			-1.360
38301.000			8.162			-1.360
38401.000			8.163			-1.360
38501.000			8.162			-1.360
38601.000			8.161			-1.360
38700.000			8.160			-1.360
38800.000			8.160			-1.360
38901.000			8.160			-1.360
39000.000			8.160			-1.360
39100.000			8.160			-1.360
39202.000			8.158			-1.360
39301.000			8.158			-1.360
39400.000			8.158			-1.360
39501.000			8.157			-1.359
39600.000			8.157			-1.359
39700.000			8.156			-1.359
39801.000			8.156			-1.359
39900.000			8.156			-1.359
40001.000			8.156			-1.359
40102.000			8.155			-1.359
40200.000			8.154			-1.359
40300.000			8.154			-1.359
40400.000			8.154			-1.359
40500.000			8.153			-1.359
40601.000			8.153			-1.359
40700.000			8.152			-1.359
40801.000			8.152			-1.359
40902.000			8.152			-1.359
41000.000			8.151			-1.359
41100.000			8.151			-1.358
41201.000			8.149			-1.358
41300.000			8.150			-1.358
41400.000			8.149			-1.358
41501.000			8.149			-1.358
41601.000			8.148			-1.358
41701.000			8.148			-1.358
41801.000			8.148			-1.358
41900.000			8.147			-1.358
42000.000			8.147			-1.358
42101.000			8.147			-1.358
42200.000			8.146			-1.358
42300.000			8.146			-1.358
42402.000			8.146			-1.358
42501.000			8.146			-1.358
42600.000			8.145			-1.358
42701.000			8.144			-1.357
42800.000			8.144			-1.357
42900.000			8.144			-1.357
43001.000			8.143			-1.357
43101.000			8.143			-1.357
43201.000			8.143			-1.357
43302.000			8.142			-1.357
43400.000			8.141			-1.357
43500.000			8.141			-1.357
43600.000			8.142			-1.357
43700.000			8.140			-1.357
43801.000			8.140			-1.357
43901.000			8.140			-1.357
44001.000			8.139			-1.357
44101.000			8.139			-1.356
44200.000			8.139			-1.356
44300.000			8.139			-1.356
44401.000			8.138			-1.356
44500.000			8.138			-1.356
44600.000			8.137			-1.356
44702.000			8.137			-1.356
44801.000			8.135			-1.356
44900.000			8.135			-1.356
45001.000			8.135			-1.356
45100.000			8.135			-1.356
45200.000			8.135			-1.356
45301.000			8.135			-1.356
45400.000			8.134			-1.356
45501.000			8.133			-1.356
45602.000			8.134			-1.356
45700.000			8.132			-1.355
45800.000			8.131			-1.355
45901.000			8.132			-1.355
46000.000			8.132			-1.355
46100.000			8.132			-1.355
46201.000			8.131			-1.355
46301.000			8.129			-1.355
46401.000			8.129			-1.355
46501.000			8.129			-1.355
46600.000			8.129			-1.355
46700.000			8.128			-1.355
46800.000			8.129			-1.355
46900.000			8.128			-1.355
47001.000			8.129			-1.355
47101.000			8.127			-1.355
47201.000			8.126			-1.354
47301.000			8.127			-1.354
47400.000			8.127			-1.354
47500.000			8.126			-1.354
47601.000			8.125			-1.354
47700.000			8.125			-1.354
47800.000			8.125			-1.354
47902.000			8.125			-1.354
48001.000			8.124			-1.354
48100.000			8.124			-1.354
48201.000			8.124			-1.354
48300.000			8.123			-1.354
48400.000			8.122			-1.354
48501.000			8.123			-1.354
48600.000			8.122			-1.354
48701.000			8.121			-1.353
48802.000			8.120			-1.353
48900.000			8.121			-1.353
49000.000			8.121			-1.353
49101.000			8.120			-1.353
49200.000			8.120			-1.353
49300.000			8.120			-1.353
49401.000			8.118			-1.353
49501.000			8.117			-1.353
49601.000			8.118			-1.353
49701.000			8.118			-1.353
49800.000			8.118			-1.353
49900.000			8.116			-1.353
50000.000			8.117			-1.353
50100.000			8.117			-1.353
50201.000			8.115			-1.353
50301.000			8.115			-1.352
50401.000			8.115			-1.353
50501.000			8.115			-1.352
50600.000			8.114			-1.352
50700.000			8.114			-1.352
50801.000			8.114			-1.352
50900.000			8.114			-1.352
51000.000			8.113			-1.352
51102.000			8.112			-1.352
51201.000			8.111			-1.352
51300.000			8.113			-1.352
51401.000			8.112			-1.352
51500.000			8.112			-1.352
51600.000			8.111			-1.352
51701.000			8.112			-1.352
51801.000			8.112			-1.352
51901.000			8.110			-1.352
52002.000			8.109			-1.352
52100.000			8.109			-1.351
52200.000			8.110			-1.352
52301.000			8.109			-1.352
52400.000			8.108			-1.351
52500.000			8.109			-1.351
52602.000			8.108			-1.351
52701.000			8.108			-1.351
52801.000			8.107			-1.351
52901.000			8.107			-1.351
53000.000			8.107			-1.351
53100.000			8.106			-1.351
53200.000			8.105			-1.351
53300.000			8.105			-1.351
53402.000			8.105			-1.351
53501.000			8.105			-1.351
53600.000			8.104			-1.351
53701.000			8.104			-1.351
53800.000			8.104			-1.351
53900.000			8.104			-1.351
54001.000			8.103			-1.351
54100.000			8.103			-1.351
54201.000			8.104			-1.351
54302.000			8.103			-1.351
54400.000			8.102			-1.350
54500.000			8.100			-1.350
54601.000			8.101			-1.350
54700.000			8.101			-1.350
54800.000			8.100			-1.350
54901.000			8.101			-1.350
55001.000			8.100			-1.350
55101.000			8.099			-1.350
55201.000			8.098			-1.350
55300.000			8.099			-1.350
55400.000			8.099			-1.350
55501.000			8.099			-1.350
55600.000			8.099			-1.350
55700.000			8.098			-1.350
55802.000			8.098			-1.350
55901.000			8.098			-1.350
56000.000			8.097			-1.349
56101.000			8.097			-1.350
56200.000			8.097			-1.350
56300.000			8.098			-1.350
56400.000			8.096			-1.349
56500.000			8.096			-1.349
56602.000			8.095			-1.349
56701.000			8.095			-1.349
56801.000			8.094			-1.349
56901.000			8.095			-1.349
57000.000			8.095			-1.349
57100.000			8.095			-1.349
57201.000			8.093			-1.349
57300.000			8.093			-1.349
57400.000			8.093			-1.349
57502.000			8.093			-1.349
57601.000			8.093			-1.349
57700.000			8.092			-1.349
57801.000			8.092			-1.349
57900.000			8.091			-1.349
58000.000			8.092			-1.349
58101.000			8.091			-1.348
58200.000			8.089			-1.348
58301.000			8.090			-1.348
58402.000			8.091			-1.348
58500.000			8.090			-1.348
58600.000			8.090			-1.348
58701.000			8.089			-1.348
58800.000			8.088			-1.348
58900.000			8.088			-1.348
59001.000			8.088			-1.348
59101.000			8.088			-1.348
59201.000			8.088			-1.348
59301.000			8.087			-1.348
59400.000			8.087			-1.348
59500.000			8.087			-1.348
59600.000			8.087			-1.348
59700.000			8.086			-1.348
59801.000			8.086			-1.348
59900.000			8.086			-1.348
60001.000			8.084			-1.347
60102.000			8.085			-1.347
60200.000			8.085			-1.347
60300.000			8.084			-1.347
60401.000			8.084			-1.347
60500.000			8.084			-1.347
60600.000			8.083			-1.347
60701.000			8.083			-1.347
60801.000			8.082			-1.347
60901.000			8.083			-1.347
61001.000			8.083			-1.347
61100.000			8.082			-1.347
61200.000			8.082			-1.347
61301.000			8.082			-1.347
61400.000			8.081			-1.347
61500.000			8.080			-1.347
61602.000			8.081			-1.347
61701.000			8.081			-1.347
61800.000			8.080			-1.347
61901.000			8.079			-1.347
62000.000			8.080			-1.347
62100.000			8.079			-1.346
62201.000			8.079			-1.346
62300.000			8.079			-1.347
62401.000			8.079			-1.346
62502.000			8.079			-1.347
62600.000			8.079			-1.347
62700.000			8.078			-1.346
62800.000			8.078			-1.346
62900.000			8.077			-1.346
63001.000			8.077			-1.346
63100.000			8.076			-1.346
63201.000			8.076			-1.346
63302.000			8.076			-1.346
63400.000			8.076			-1.346
63500.000			8.076			-1.346
63601.000			8.075			-1.346
63700.000			8.075			-1.346
63800.000			8.075			-1.346
63901.000			8.075			-1.346
64001.000			8.075			-1.346
64101.000			8.075			-1.346
64201.000			8.074			-1.346
64300.000			8.073			-1.346
64400.000			8.073			-1.346
64501.000			8.073			-1.345
64600.000			8.072			-1.345
64700.000			8.071			-1.345
64802.000			8.071			-1.345
64901.000			8.071			-1.345
65000.000			8.071			-1.345
65101.000			8.070			-1.345
65200.000			8.070			-1.345
65300.000			8.071			-1.345
65401.000			8.071			-1.345
65500.000			8.071			-1.345
65601.000			8.070			-1.345
65702.000			8.069			-1.345
65800.000			8.068			-1.345
65900.000			8.069			-1.345
66000.000			8.069			-1.345
66100.000			8.068			-1.345
66201.000			8.068			-1.345
66300.000			8.068			-1.345
66401.000			8.068			-1.345
66502.000			8.067			-1.345
66601.000			8.067			-1.344
66700.000			8.066			-1.344
66801.000			8.066			-1.344
66900.000			8.066			-1.344
67000.000			8.066			-1.344
67101.000			8.066			-1.344
67200.000			8.065			-1.344
67301.000			8.066			-1.344
67402.000			8.065			-1.344
67500.000			8.064			-1.344
67600.000			8.064			-1.344
67701.000			8.065			-1.344
67800.000			8.064			-1.344
67900.000			8.064			-1.344
68001.000			8.063			-1.344
68101.000			8.062			-1.344
68201.000			8.062			-1.344
68301.000			8.062			-1.344
68400.000			8.062			-1.344
68500.000			8.062			-1.344
68601.000			8.062			-1.344
68700.000			8.062			-1.344
68800.000			8.061			-1.344
68902.000			8.061			-1.343
69001.000			8.061			-1.343
69100.000			8.060			-1.343
69200.000			8.061			-1.344
69300.000			8.061			-1.344
69401.000			8.060			-1.343
69500.000			8.060			-1.343
69600.000			8.059			-1.343
69702.000			8.059			-1.343
69801.000			8.059			-1.343
69900.000			8.058			-1.343
70001.000			8.057			-1.343
70100.000			8.058			-1.343
70200.000			8.058			-1.343
70301.000			8.058			-1.343
70400.000			8.057			-1.343
70501.000			8.058			-1.343
70602.000			8.057			-1.343
70701.000			8.057			-1.343
70800.000			8.057			-1.343
70901.000			8.056			-1.343
71000.000			8.056			-1.343
71100.000			8.055			-1.343
71201.000			8.055			-1.342
71301.000			8.054			-1.342
71401.000			8.055			-1.343
71501.000			8.054			-1.342
71600.000			8.054			-1.342
71700.000			8.054			-1.342
71801.000			8.053			-1.342
71900.000			8.053			-1.342
72000.000			8.053			-1.342
72102.000			8.052			-1.342
72201.000			8.054			-1.342
72302.000			8.054			-1.342
72400.000			8.054			-1.342
72500.000			8.052			-1.342
72601.000			8.051			-1.342
72700.000			8.050			-1.342
72800.000			8.050			-1.342
72902.000			8.050			-1.342
73001.000			8.050			-1.342
73101.000			8.051			-1.342
73201.000			8.050			-1.342
73300.000			8.049			-1.342
73400.000			8.049			-1.342
73501.000			8.050			-1.342
73600.000			8.050			-1.342
73700.000			8.048			-1.341
73802.000			8.048			-1.341
73901.000			8.048			-1.341
74000.000			8.048			-1.341
74101.000			8.048			-1.341
74200.000			8.048			-1.341
74300.000			8.048			-1.341
74401.000			8.048			-1.341
74500.000			8.048			-1.341
74601.000			8.048			-1.341
74702.000			8.047			-1.341
74800.000			8.046			-1.341
74900.000			8.046			-1.341
75001.000			8.046			-1.341
75100.000			8.046			-1.341
75200.000			8.046			-1.341
75301.000			8.045			-1.341
75401.000			8.045			-1.341
75502.000			8.045			-1.341
75600.000			8.045			-1.341
75700.000			8.044			-1.341
75801.000			8.044			-1.341
75900.000			8.044			-1.341
76000.000			8.044			-1.341
76101.000			8.043			-1.341
76201.000			8.043			-1.340
76301.000			8.043			-1.341
76401.000			8.044			-1.341
76500.000			8.043			-1.340
76600.000			8.042			-1.340
76701.000			8.042			-1.340
76800.000			8.042			-1.340
76900.000			8.042			-1.340
77002.000			8.042			-1.340
77101.000			8.042			-1.340
77201.000			8.041			-1.340
77301.000			8.041			-1.340
77400.000			8.040			-1.340
77500.000			8.041			-1.340
77601.000			8.040			-1.340
77700.000			8.040			-1.340
77800.000			8.041			-1.340
77902.000			8.040			-1.340
78001.000			8.039			-1.340
78100.000			8.039			-1.340
78201.000			8.039			-1.340
78300.000			8.038			-1.340
78400.000			8.038			-1.340
78501.000			8.037			-1.340
78600.000			8.038			-1.340
78702.000			8.038			-1.340
78801.000			8.039			-1.340
78900.000			8.039			-1.340
79001.000			8.037			-1.340
79100.000			8.037			-1.340
79200.000			8.037			-1.340
79301.000			8.037			-1.340
79400.000			8.037			-1.339
79501.000			8.036			-1.339
79602.000			8.035			-1.339
79701.000			8.034			-1.339
79800.000			8.035			-1.339
79901.000			8.035			-1.339
80000.000			8.034			-1.339
80100.000			8.034			-1.339
80201.000			8.035			-1.339
80301.000			8.035			-1.339
80401.000			8.034			-1.339
80502.000			8.033			-1.339
80600.000			8.034			-1.339
80700.000			8.033			-1.339
80801.000			8.033			-1.339
80900.000			8.033			-1.339
81000.000			8.033			-1.339
81102.000			8.033			-1.339
81201.000			8.033			-1.339
81300.000			8.033			-1.339
81401.000			8.032			-1.339
81500.000			8.031			-1.338
81600.000			8.030			-1.338
81701.000			8.031			-1.339
81800.000			8.032			-1.339
81902.000			8.032			-1.339
82001.000			8.032			-1.339
82101.000			8.032			-1.339
82201.000			8.031			-1.339
82300.000			8.030			-1.338
82400.000			8.031			-1.339
82501.000			8.030			-1.338
82600.000			8.030			-1.338
82700.000			8.030			-1.338
82802.000			8.029			-1.338
82901.000			8.029			-1.338
83000.000			8.029			-1.338
83101.000			8.029			-1.338
83200.000			8.029			-1.338
83300.000			8.028			-1.338
83401.000			8.027			-1.338
83500.000			8.027			-1.338
83601.000			8.028			-1.338
83702.000			8.027			-1.338
83800.000			8.027			-1.338
83900.000			8.027			-1.338
84001.000			8.026			-1.338
84100.000			8.027			-1.338
84200.000			8.027			-1.338
84301.000			8.026			-1.338
84401.000			8.026			-1.338
84501.000			8.027			-1.338
84601.000			8.025			-1.338
84700.000			8.026			-1.338
84800.000			8.026			-1.338
84901.000			8.027			-1.338
85000.000			8.025			-1.338
85100.000			8.024			-1.337
85202.000			8.024			-1.337
85301.000			8.023			-1.337
85401.000			8.024			-1.337
85500.000			8.024			-1.337
85600.000			8.023			-1.337
85701.000			8.022			-1.337
85800.000			8.022			-1.337
85900.000			8.023			-1.337
86002.000			8.023			-1.337
86101.000			8.023			-1.337
86200.000			8.022			-1.337
86301.000			8.022			-1.337
86400.000			8.022			-1.337
86500.000			8.022			-1.337
86601.000			8.021			-1.337
86700.000			8.021			-1.337
86801.000			8.022			-1.337
86902.000			8.021			-1.337
87000.000			8.020			-1.337
87100.000			8.021			-1.337
87201.000			8.021			-1.337
87300.000			8.020			-1.337
87400.000			8.021			-1.337
87501.000			8.019			-1.336
87601.000			8.019			-1.336
87701.000			8.019			-1.337
87801.000			8.019			-1.337
87900.000			8.019			-1.337
88000.000			8.019			-1.337
88101.000			8.018			-1.336
88200.000			8.019			-1.336
88300.000			8.019			-1.337
88402.000			8.019			-1.337
88501.000			8.019			-1.337
88601.000			8.018			-1.336
88700.000			8.017			-1.336
88800.000			8.017			-1.336
88901.000			8.016			-1.336
89000.000			8.018			-1.336
89100.000			8.017			-1.336
89201.000			8.016			-1.336
89301.000			8.015			-1.336
89401.000			8.015			-1.336
89501.000			8.015			-1.336
89600.000			8.015			-1.336
89700.000			8.015			-1.336
89801.000			8.016			-1.336
89900.000			8.015			-1.336
90000.000			8.015			-1.336
90102.000			8.016			-1.336
90201.000			8.015			-1.336
90300.000			8.015			-1.336
90401.000			8.014			-1.336
90500.000			8.013			-1.336
90600.000			8.014			-1.336
90701.000			8.013			-1.335
90800.000			8.013			-1.336
90901.000			8.012			-1.335
91002.000			8.013			-1.335
91100.000			8.013			-1.335
91200.000			8.011			-1.335
91301.000			8.012			-1.335
91400.000			8.012			-1.335
91500.000			8.012			-1.335
91600.000			8.011			-1.335
91701.000			8.011			-1.335
91802.000			8.011			-1.335
91900.000			8.010			-1.335
92000.000			8.011			-1.335
92101.000			8.010			-1.335
92200.000			8.011			-1.335
92300.000			8.011			-1.335
92401.000			8.010			-1.335
92501.000			8.010			-1.335
92601.000			8.011			-1.335
92701.000			8.011			-1.335
92800.000			8.011			-1.335
92900.000			8.010			-1.335
93001.000			8.009			-1.335
93100.000			8.009			-1.335
93200.000			8.008			-1.335
93302.000			8.008			-1.335
93401.000			8.007			-1.335
93500.000			8.007			-1.335
93601.000			8.008			-1.335
93700.000			8.007			-1.334
93800.000			8.007			-1.335
93901.000			8.007			-1.335
94000.000			8.007			-1.335
94101.000			8.007			-1.334
94202.000			8.006			-1.334
94300.000			8.007			-1.334
94400.000			8.006			-1.334
94501.000			8.005			-1.334
94600.000			8.005			-1.334
94700.000			8.006			-1.334
94800.000			8.005			-1.334
94901.000			8.005			-1.334
95002.000			8.006			-1.334
95101.000			8.005			-1.334
95200.000			8.005			-1.334
95301.000			8.005			-1.334
95400.000			8.003			-1.334
95500.000			8.004			-1.334
95601.000			8.004			-1.334
95700.000			8.004			-1.334
95801.000			8.003			-1.334
95902.000			8.003			-1.334
96000.000			8.003			-1.334
96100.000			8.002			-1.334
96201.000			8.003			-1.334
96300.000			8.002			-1.334
96400.000			8.002			-1.334
96501.000			8.002			-1.334
96601.000			8.003			-1.334
96701.000			8.003			-1.334
96801.000			8.002			-1.334
96900.000			8.002			-1.334
97000.000			8.001			-1.333
97101.000			8.000			-1.333
97200.000			8.000			-1.333
97300.000			7.999			-1.333
97402.000			8.000			-1.333
97501.000			8.000			-1.333
97600.000			8.002			-1.334
97701.000			8.000			-1.333
97800.000			8.000			-1.333
97900.000			8.000			-1.333
98000.000			8.000			-1.333
98100.000			7.999			-1.333
98202.000			7.999			-1.333
98301.000			7.997			-1.333
98401.000			7.999			-1.333
98501.000			7.999			-1.333
98600.000			7.999			-1.333
98700.000			7.997			-1.333
98801.000			7.997			-1.333
98900.000			7.997			-1.333
99000.000			7.997			-1.333
99102.000			7.997			-1.333
99201.000			7.996			-1.333
99301.000			7.997			-1.333
99401.000			7.996			-1.333
99500.000			7.996			-1.333
99600.000			7.997			-1.333
99701.000			7.995			-1.332
99800.000			7.994			-1.332
99900.000			7.995			-1.333
100002.000			7.995			-1.332
100101.000			7.994			-1.332
100201.000			7.995			-1.332
100301.000			7.995			-1.332
100400.000			7.994			-1.332
100500.000			7.993			-1.332
100601.000			7.993			-1.332
100700.000			7.993			-1.332
100800.000			7.993			-1.332
100902.000			7.993			-1.332
101001.000			7.993			-1.332
101100.000			7.994			-1.332
101200.000			7.993			-1.332
101300.000			7.993			-1.332
101401.000			7.992			-1.332
101500.000			7.992			-1.332
101600.000			7.993			-1.332
101701.000			7.993			-1.332
101801.000			7.991			-1.332
101901.000			7.991			-1.332
102001.000			7.991			-1.332
102100.000			7.991			-1.332
102200.000			7.991			-1.332
102301.000			7.992			-1.332
102400.000			7.991			-1.332
102500.000			7.991			-1.332
102602.000			7.991			-1.332
102701.000			7.991			-1.332
102801.000			7.990			-1.332
102901.000			7.990			-1.332
103000.000			7.990			-1.332
103100.000			7.990			-1.332
103201.000			7.989			-1.331
103300.000			7.989			-1.332
103400.000			7.989			-1.332
103501.000			7.989			-1.332
103601.000			7.989			-1.331
103701.000			7.989			-1.331
103801.000			7.989			-1.331
103900.000			7.989			-1.331
104000.000			7.989			-1.331
104101.000			7.988			-1.331
104200.000			7.988			-1.331
104300.000			7.987			-1.331
104402.000			7.988			-1.331
104501.000			7.986			-1.331
104602.000			7.987			-1.331
104700.000			7.986			-1.331
104800.000			7.987			-1.331
104901.000			7.987			-1.331
105000.000			7.987			-1.331
105100.000			7.986			-1.331
105201.000			7.984			-1.331
105301.000			7.985			-1.331
105401.000			7.985			-1.331
105502.000			7.986			-1.331
105600.000			7.985			-1.331
105700.000			7.985			-1.331
105801.000			7.985			-1.331
105900.000			7.985			-1.331
106000.000			7.984			-1.331
106101.000			7.985			-1.331
106201.000			7.984			-1.331
106301.000			7.985			-1.331
106401.000			7.984			-1.331
106500.000			7.983			-1.331
106600.000			7.983			-1.330
106701.000			7.983			-1.331
106800.000			7.983			-1.331
106900.000			7.983			-1.330
107001.000			7.983			-1.330
107101.000			7.982			-1.330
107201.000			7.982			-1.330
107301.000			7.983			-1.331
107400.000			7.983			-1.330
107500.000			7.983			-1.331
107600.000			7.982			-1.330
107700.000			7.981			-1.330
107801.000			7.981			-1.330
107900.000			7.981			-1.330
108001.000			7.982			-1.330
108102.000			7.982			-1.330
108200.000			7.982			-1.330
108300.000			7.981			-1.330
108401.000			7.981			-1.330
108500.000			7.981			-1.330
108600.000			7.980			-1.330
108701.000			7.980			-1.330
108800.000			7.980			-1.330
108901.000			7.981			-1.330
109002.000			7.980			-1.330
109100.000			7.980			-1.330
109200.000			7.979			-1.330
109301.000			7.979			-1.330
109400.000			7.980			-1.330
109500.000			7.980			-1.330
109601.000			7.978			-1.330
109700.000			7.979			-1.330
109801.000			7.979			-1.330
109902.000			7.978			-1.330
110000.000			7.978			-1.330
110100.000			7.978			-1.330
110201.000			7.977			-1.330
110300.000			7.977			-1.329
110400.000			7.977			-1.329
110501.000			7.977			-1.330
110601.000			7.977			-1.330
110702.000			7.977			-1.329
110801.000			7.976			-1.329
110900.000			7.976			-1.329
111001.000			7.975			-1.329
111100.000			7.975			-1.329
111200.000			7.975			-1.329
111301.000			7.976			-1.329
111400.000			7.975			-1.329
111501.000			7.976			-1.329
111602.000			7.974			-1.329
111701.000			7.975			-1.329
111800.000			7.977			-1.329
111901.000			7.975			-1.329
112000.000			7.975			-1.329
112100.000			7.975			-1.329
112201.000			7.974			-1.329
112300.000			7.973			-1.329
112401.000			7.973			-1.329
112502.000			7.973			-1.329
112601.000			7.975			-1.329
112700.000			7.975			-1.329
112801.000			7.974			-1.329
112900.000			7.973			-1.329
113000.000			7.973			-1.329
113101.000			7.972			-1.329
113200.000			7.972			-1.329
113301.000			7.973			-1.329
113402.000			7.973			-1.329
113500.000			7.974			-1.329
113600.000			7.973			-1.329
113701.000			7.972			-1.329
113800.000			7.972			-1.329
113900.000			7.972			-1.329
114000.000			7.972			-1.329
114100.000			7.972			-1.329
114202.000			7.972			-1.329
114301.000			7.972			-1.329
114400.000			7.971			-1.329
114501.000			7.971			-1.329
114600.000			7.970			-1.328
114700.000			7.971			-1.328
114801.000			7.971			-1.329
114900.000			7.969			-1.328
115001.000			7.970			-1.328
115102.000			7.972			-1.329
115201.000			7.971			-1.329
115300.000			7.970			-1.328
115401.000			7.969			-1.328
115500.000			7.968			-1.328
115600.000			7.968			-1.328
115701.000			7.969			-1.328
115800.000			7.969			-1.328
115901.000			7.968			-1.328
116002.000			7.969			-1.328
116101.000			7.969			-1.328
116200.000			7.969			-1.328
116301.000			7.969			-1.328
116400.000			7.968			-1.328
116500.000			7.969			-1.328
116601.000			7.969			-1.328
116700.000			7.969			-1.328
116801.000			7.967			-1.328
116902.000			7.967			-1.328
117001.000			7.967			-1.328
117100.000			7.968			-1.328
117200.000			7.968			-1.328
117300.000			7.967			-1.328
117401.000			7.967			-1.328
117500.000			7.966			-1.328
117600.000			7.966			-1.328
117702.000			7.965			-1.328
117801.000			7.965			-1.328
117900.000			7.965			-1.328
118001.000			7.967			-1.328
118100.000			7.966			-1.328
118200.000			7.965			-1.328
118301.000			7.965			-1.328
118400.000			7.965			-1.327
118500.000			7.965			-1.328
118602.000			7.964			-1.327
118701.000			7.964			-1.327
118800.000			7.965			-1.327
118901.000			7.965			-1.327
119000.000			7.965			-1.327
119100.000			7.964			-1.327
119201.000			7.964			-1.327
119300.000			7.964			-1.327
119400.000			7.963			-1.327
119502.000			7.963			-1.327
119601.000			7.963			-1.327
119700.000			7.963			-1.327
119801.000			7.963			-1.327
119900.000			7.963			-1.327
120000.000			7.962			-1.327
120101.000			7.962			-1.327
120200.000			7.962			-1.327
120300.000			7.961			-1.327
120402.000			7.962			-1.327
120501.000			7.963			-1.327
120601.000			7.962			-1.327
120700.000			7.963			-1.327
120800.000			7.962			-1.327
120901.000			7.961			-1.327
121000.000			7.961			-1.327
121100.000			7.962			-1.327
121202.000			7.961			-1.327
121301.000			7.961			-1.327
121401.000			7.961			-1.327
121501.000			7.960			-1.327
121600.000			7.959			-1.327
121700.000			7.959			-1.327
121801.000			7.959			-1.326
121900.000			7.960			-1.327
122000.000			7.960			-1.327
122102.000			7.959			-1.327
122201.000			7.959			-1.327
122300.000			7.960			-1.327
122401.000			7.959			-1.326
122500.000			7.959			-1.327
122600.000			7.959			-1.326
122701.000			7.958			-1.326
122800.000			7.959			-1.327
122900.000			7.958			-1.326
123002.000			7.958			-1.326
123101.000			7.958			-1.326
123200.000			7.958			-1.326
123301.000			7.958			-1.326
123400.000			7.957			-1.326
123500.000			7.957			-1.326
123600.000			7.958			-1.326
123700.000			7.957			-1.326
123801.000			7.956			-1.326
123901.000			7.957			-1.326
124001.000			7.958			-1.326
124101.000			7.957			-1.326
124200.000			7.957			-1.326
124300.000			7.958			-1.326
124401.000			7.956			-1.326
124500.000			7.956			-1.326
124600.000			7.956			-1.326
124701.000			7.956			-1.326
124801.000			7.955			-1.326
124901.000			7.955			-1.326
125001.000			7.955			-1.326
125100.000			7.955			-1.326
125200.000			7.956			-1.326
125301.000			7.956			-1.326
125400.000			7.956			-1.326
125500.000			7.956			-1.326
125601.000			7.956			-1.326
125701.000			7.956			-1.326
125801.000			7.955			-1.326
125901.000			7.954			-1.326
126000.000			7.954			-1.326
126100.000			7.954			-1.326
126201.000			7.954			-1.326
126300.000			7.954			-1.326
126400.000			7.953			-1.326
126502.000			7.952			-1.325
126601.000			7.952			-1.325
126702.000			7.952			-1.325
126800.000			7.952			-1.325
126900.000			7.953			-1.325
127001.000			7.953			-1.326
127100.000			7.954			-1.326
127200.000			7.953			-1.326
127301.000			7.952			-1.325
127401.000			7.952			-1.325
127501.000			7.952			-1.325
127601.000			7.952			-1.325
127700.000			7.952			-1.325
127800.000			7.951			-1.325
127901.000			7.950			-1.325
128000.000			7.951			-1.325
128100.000			7.952			-1.325
128201.000			7.951			-1.325
128301.000			7.951			-1.325
128401.000			7.950			-1.325
128501.000			7.950			-1.325
128600.000			7.950			-1.325
128700.000			7.950			-1.325
128801.000			7.950			-1.325
128900.000			7.950			-1.325
129000.000			7.950			-1.325
129101.000			7.951			-1.325
129201.000			7.950			-1.325
129301.000			7.950			-1.325
129401.000			7.949			-1.325
129500.000			7.950			-1.325
129600.000			7.950			-1.325
129701.000			7.949			-1.325
129800.000			7.949			-1.325
129900.000			7.948			-1.325
130000.000			7.949			-1.325
130101.000			7.949			-1.325
130202.000			7.948			-1.325
130300.000			7.948			-1.325
130400.000			7.948			-1.325
130501.000			7.948			-1.325
130600.000			7.948			-1.325
130700.000			7.948			-1.325
130801.000			7.948			-1.325
130900.000			7.948			-1.325
131001.000			7.947			-1.324
131102.000			7.946			-1.324
131200.000			7.946			-1.324
131300.000			7.946			-1.324
131401.000			7.946			-1.324
131500.000			7.946			-1.324
131600.000			7.946			-1.324
131701.000			7.946			-1.324
131800.000			7.945			-1.324
131901.000			7.946			-1.324
132002.000			7.946			-1.324
132101.000			7.946			-1.324
132200.000			7.946			-1.324
132301.000			7.944			-1.324
132400.000			7.945			-1.324
132500.000			7.945			-1.324
132601.000			7.945			-1.324
132700.000			7.944			-1.324
132801.000			7.945			-1.324
132902.000			7.945			-1.324
133001.000			7.945			-1.324
133100.000			7.944			-1.324
133200.000			7.944			-1.324
133300.000			7.945			-1.324
133401.000			7.945			-1.324
133500.000			7.944			-1.324
133600.000			7.944			-1.324
133701.000			7.943			-1.324
133801.000			7.944			-1.324
133901.000			7.944			-1.324
134002.000			7.943			-1.324
134100.000			7.943			-1.324
134200.000			7.943			-1.324
134301.000			7.943			-1.324
134400.000			7.943			-1.324
134500.000			7.943			-1.324
134601.000			7.942			-1.324
134701.000			7.942			-1.324
134801.000			7.942			-1.324
134902.000			7.942			-1.324
135000.000			7.942			-1.324
135100.000			7.942			-1.324
135201.000			7.942			-1.324
135300.000			7.941			-1.324
135400.000			7.940			-1.323
135501.000			7.940			-1.323
135600.000			7.941			-1.323
135701.000			7.941			-1.323
135802.000			7.941			-1.324
135900.000			7.941			-1.324
136000.000			7.941			-1.323
136101.000			7.940			-1.323
136200.000			7.940			-1.323
136300.000			7.940			-1.323
136400.000			7.940			-1.323
136500.000			7.939			-1.323
136602.000			7.941			-1.323
136701.000			7.940			-1.323
136801.000			7.939			-1.323
136901.000			7.939			-1.323
137000.000			7.939			-1.323
137100.000			7.939			-1.323
137201.000			7.940			-1.323
137300.000			7.940			-1.323
137400.000			7.938			-1.323
137501.000			7.938			-1.323
137601.000			7.938			-1.323
137701.000			7.937			-1.323
137802.000			7.937			-1.323
137900.000			7.938			-1.323
138000.000			7.937			-1.323
138101.000			7.936			-1.323
138200.000			7.937			-1.323
138300.000			7.937			-1.323
138401.000			7.937			-1.323
138500.000			7.937			-1.323
138601.000			7.938			-1.323
138702.000			7.937			-1.323
138801.000			7.937			-1.323
138900.000			7.936			-1.323
139001.000			7.936			-1.323
139100.000			7.937			-1.323
139200.000			7.937			-1.323
139301.000			7.936			-1.323
139400.000			7.936			-1.323
139500.000			7.936			-1.323
139602.000			7.937			-1.323
139701.000			7.936			-1.323
139801.000			7.935			-1.323
139900.000			7.936			-1.323
140000.000			7.936			-1.323
140101.000			7.934			-1.322
140200.000			7.934			-1.322
140300.000			7.934			-1.322
140401.000			7.934			-1.322
140501.000			7.934			-1.322
140601.000			7.934			-1.322
140702.000			7.934			-1.322
140800.000			7.933			-1.322
140900.000			7.934			-1.322
141001.000			7.933			-1.322
141100.000			7.933			-1.322
141200.000			7.934			-1.322
141301.000			7.934			-1.322
141400.000			7.933			-1.322
141501.000			7.932			-1.322
141602.000			7.933			-1.322
141700.000			7.934			-1.322
141800.000			7.933			-1.322
141901.000			7.932			-1.322
142000.000			7.933			-1.322
142100.000			7.933			-1.322
142201.000			7.932			-1.322
142300.000			7.932			-1.322
142401.000			7.931			-1.322
142502.000			7.932			-1.322
142600.000			7.932			-1.322
142700.000			7.931			-1.322
142800.000			7.930			-1.322
142900.000			7.930			-1.322
143001.000			7.931			-1.322
143100.000			7.932			-1.322
143200.000			7.930			-1.322
143302.000			7.931			-1.322
143401.000			7.931			-1.322
143501.000			7.931			-1.322
143601.000			7.931			-1.322
143700.000			7.930			-1.322
143800.000			7.930			-1.322
143901.000			7.930			-1.322
144000.000			7.930			-1.322
144100.000			7.930			-1.322
144202.000			7.930			-1.322
144301.000			7.929			-1.322
144401.000			7.929			-1.322
144501.000			7.930			-1.322
144600.000			7.929			-1.322
144700.000			7.930			-1.322
144801.000			7.929			-1.322
144900.000			7.929			-1.322
145000.000			7.928			-1.321
145101.000			7.929			-1.321
145201.000			7.928			-1.321
145301.000			7.928			-1.321
145402.000			7.928			-1.321
145500.000			7.929			-1.322
145600.000			7.929			-1.321
145701.000			7.927			-1.321
145800.000			7.927			-1.321
145900.000			7.927			-1.321
146000.000			7.927			-1.321
146100.000			7.927			-1.321
146202.000			7.928			-1.321
146301.000			7.928			-1.321
146401.000			7.926			-1.321
146501.000			7.926			-1.321
146600.000			7.927			-1.321
146700.000			7.926			-1.321
146801.000			7.926			-1.321
146900.000			7.926			-1.321
147000.000			7.926			-1.321
147101.000			7.925			-1.321
147201.000			7.926			-1.321
147301.000			7.925			-1.321
147401.000			7.925			-1.321
147500.000			7.925			-1.321
147600.000			7.925			-1.321
147701.000			7.925			-1.321
147800.000			7.925			-1.321
147900.000			7.925			-1.321
148001.000			7.925			-1.321
148101.000			7.925			-1.321
148201.000			7.925			-1.321
148302.000			7.925			-1.321
148400.000			7.924			-1.321
148500.000			7.924			-1.321
148601.000			7.924			-1.321
148700.000			7.925			-1.321
148800.000			7.924			-1.321
148901.000			7.924			-1.321
149000.000			7.924			-1.321
149102.000			7.924			-1.321
149201.000			7.923			-1.321
149301.000			7.923			-1.320
149401.000			7.923			-1.321
149500.000			7.923			-1.321
149600.000			7.923			-1.320
149701.000			7.922			-1.320
149800.000			7.923			-1.321
149900.000			7.922			-1.320
150001.000			7.922			-1.320
150101.000			7.923			-1.320
150201.000			7.923			-1.320
150301.000			7.922			-1.320
150400.000			7.921			-1.320
150500.000			7.923			-1.320
150601.000			7.922			-1.320
150700.000			7.922			-1.320
150800.000			7.922			-1.320
150901.000			7.921			-1.320
151001.000			7.922			-1.320
151101.000			7.921			-1.320
151202.000			7.920			-1.320
151300.000			7.921			-1.320
151400.000			7.921			-1.320
151501.000			7.921			-1.320
151600.000			7.921			-1.320
151700.000			7.920			-1.320
151801.000			7.920			-1.320
151901.000			7.920			-1.320
152001.000			7.919			-1.320
152102.000			7.920			-1.320
152200.000			7.919			-1.320
152300.000			7.918			-1.320
152400.000			7.919			-1.320
152500.000			7.920			-1.320
152601.000			7.920			-1.320
152700.000			7.919			-1.320
152800.000			7.920			-1.320
152902.000			7.920			-1.320
153001.000			7.919			-1.320
153101.000			7.918			-1.320
153201.000			7.918			-1.320
153300.000			7.918			-1.320
153400.000			7.918			-1.320
153501.000			7.919			-1.320
153600.000			7.918			-1.320
153700.000			7.918			-1.320
153801.000			7.918			-1.320
153901.000			7.917			-1.319
154001.000			7.917			-1.320
154101.000			7.919			-1.320
154200.000			7.917			-1.320
154300.000			7.917			-1.320
154401.000			7.916			-1.319
154500.000			7.917			-1.319
154600.000			7.917			-1.319
154701.000			7.917			-1.319
154801.000			7.916			-1.319
154901.000			7.916			-1.319
155002.000			7.916			-1.319
155100.000			7.915			-1.319
155200.000			7.915			-1.319
155301.000			7.915			-1.319
155400.000			7.916			-1.319
155500.000			7.915			-1.319
155600.000			7.915			-1.319
155700.000			7.916			-1.319
155802.000			7.916			-1.319
155901.000			7.916			-1.319
156001.000			7.915			-1.319
156101.000			7.915			-1.319
156200.000			7.915			-1.319
156300.000			7.914			-1.319
156401.000			7.915			-1.319
156500.000			7.914			-1.319
156600.000			7.913			-1.319
156701.000			7.914			-1.319
156801.000			7.913			-1.319
156901.000			7.914			-1.319
157001.000			7.913			-1.319
157100.000			7.913			-1.319
157200.000			7.913			-1.319
157301.000			7.914			-1.319
157400.000			7.913			-1.319
157500.000			7.912			-1.319
157601.000			7.913			-1.319
157701.000			7.913			-1.319
157801.000			7.912			-1.319
157902.000			7.912			-1.319
158000.000			7.912			-1.319
158100.000			7.912			-1.319
158201.000			7.912			-1.319
158300.000			7.913			-1.319
158400.000			7.912			-1.319
158501.000			7.910			-1.318
158600.000			7.912			-1.319
158702.000			7.912			-1.319
158801.000			7.912			-1.319
158901.000			7.911			-1.318
159001.000			7.910			-1.318
159100.000			7.910			-1.318
159200.000			7.910			-1.318
159301.000			7.911			-1.318
159400.000			7.911			-1.319
159500.000			7.911			-1.318
159601.000			7.911			-1.318
159701.000			7.911			-1.318
159801.000			7.911			-1.318
159901.000			7.910			-1.318
160000.000			7.910			-1.318
160100.000			7.910			-1.318
160201.000			7.910			-1.318
160300.000			7.910			-1.318
160400.000			7.909			-1.318
160501.000			7.909			-1.318
160601.000			7.908			-1.318
160701.000			7.909			-1.318
160802.000			7.909			-1.318
160900.000			7.909			-1.318
161000.000			7.908			-1.318
161101.000			7.908			-1.318
161200.000			7.909			-1.318
161300.000			7.909			-1.318
161401.000			7.909			-1.318
161500.000			7.909			-1.318
161601.000			7.908			-1.318
161702.000			7.908			-1.318
161801.000			7.908			-1.318
161900.000			7.907			-1.318
162000.000			7.908			-1.318
162100.000			7.909			-1.318
162201.000			7.908			-1.318
162300.000			7.907			-1.318
162400.000			7.908			-1.318
162501.000			7.908			-1.318
162601.000			7.907			-1.318
162701.000			7.907			-1.318
162801.000			7.907			-1.318
162900.000			7.906			-1.318
163000.000			7.906			-1.318
163101.000			7.906			-1.318
163200.000			7.906			-1.318
163300.000			7.906			-1.318
163401.000			7.906			-1.318
163501.000			7.906			-1.318
163601.000			7.906			-1.318
163702.000			7.906			-1.318
163800.000			7.905			-1.318
163900.000			7.905			-1.318
164001.000			7.906			-1.318
164100.000			7.907			-1.318
164200.000			7.906			-1.318
164301.000			7.905			-1.317
164400.000			7.904			-1.317
164501.000			7.905			-1.317
164602.000			7.906			-1.318
164700.000			7.905			-1.317
164800.000			7.904			-1.317
164901.000			7.904			-1.317
165000.000			7.905			-1.317
165100.000			7.904			-1.317
165200.000			7.904			-1.317
165300.000			7.904			-1.317
165402.000			7.904			-1.317
165501.000			7.904			-1.317
165601.000			7.903			-1.317
165701.000			7.902			-1.317
165800.000			7.903			-1.317
165900.000			7.904			-1.317
166001.000			7.903			-1.317
166100.000			7.903			-1.317
166200.000			7.903			-1.317
166301.000			7.903			-1.317
166401.000			7.903			-1.317
166501.000			7.902			-1.317
166601.000			7.901			-1.317
166700.000			7.902			-1.317
166800.000			7.902			-1.317
166901.000			7.902			-1.317
167000.000			7.903			-1.317
167100.000			7.903			-1.317
167201.000			7.902			-1.317
167301.000			7.902			-1.317
167401.000			7.901			-1.317
167502.000			7.902			-1.317
167600.000			7.902			-1.317
167700.000			7.901			-1.317
167801.000			7.900			-1.317
167900.000			7.901			-1.317
168000.000			7.901			-1.317
168101.000			7.900			-1.317
168200.000			7.900			-1.317
168302.000			7.901			-1.317
168401.000			7.901			-1.317
168501.000			7.901			-1.317
168601.000			7.901			-1.317
168700.000			7.900			-1.317
168800.000			7.900			-1.317
168901.000			7.899			-1.317
169000.000			7.900			-1.317
169100.000			7.900			-1.317
169201.000			7.900			-1.317
169301.000			7.900			-1.317
169401.000			7.900			-1.317
169501.000			7.901			-1.317
169600.000			7.900			-1.317
169700.000			7.899			-1.317
169801.000			7.900			-1.317
169900.000			7.900			-1.317
170000.000			7.900			-1.317
170101.000			7.899			-1.317
170200.000			7.900			-1.317
170301.000			7.898			-1.316
170402.000			7.898			-1.316
170500.000			7.899			-1.316
170600.000			7.898			-1.316
170701.000			7.898			-1.316
170800.000			7.899			-1.316
170900.000			7.899			-1.316
171001.000			7.898			-1.316
171100.000			7.897			-1.316
171200.000			7.897			-1.316
171302.000			7.897			-1.316
171401.000			7.898			-1.316
171500.000			7.898			-1.316
171600.000			7.898			-1.316
171700.000			7.897			-1.316
171801.000			7.897			-1.316
171900.000			7.897			-1.316
172000.000			7.898			-1.316
172101.000			7.897			-1.316
172200.000			7.897			-1.316
172301.000			7.896			-1.316
172402.000			7.896			-1.316
172501.000			7.896			-1.316
172600.000			7.896			-1.316
172701.000			7.896			-1.316
172800.000			7.895			-1.316
172900.000			7.895			-1.316
173001.000			7.895			-1.316
173100.000			7.895			-1.316
173200.000			7.895			-1.316
173302.000			7.895			-1.316
173401.000			7.894			-1.316
173500.000			7.895			-1.316
173601.000			7.895			-1.316
173700.000			7.894			-1.316
173800.000			7.894			-1.316
173901.000			7.896			-1.316
174000.000			7.896			-1.316
174100.000			7.894			-1.316
174201.000			7.894			-1.316
174301.000			7.894			-1.316
174401.000			7.895			-1.316
174501.000			7.894			-1.316
174600.000			7.894			-1.316
174700.000			7.893			-1.316
174800.000			7.892			-1.315
174900.000			7.892			-1.315
175001.000			7.893			-1.315
175100.000			7.894			-1.316
175200.000			7.893			-1.316
175302.000			7.893			-1.316
175401.000			7.894			-1.316
175500.000			7.893			-1.316
175601.000			7.893			-1.316
175700.000			7.893			-1.315
175800.000			7.893			-1.316
175901.000			7.892			-1.315
176000.000			7.893			-1.315
176100.000			7.893			-1.315
176202.000			7.892			-1.315
176301.000			7.891			-1.315
176401.000			7.892			-1.315
176501.000			7.892			-1.315
176600.000			7.891			-1.315
176700.000			7.892			-1.315
176801.000			7.892			-1.315
176900.000			7.891			-1.315
177000.000			7.891			-1.315
177101.000			7.891			-1.315
177201.000			7.891			-1.315
177301.000			7.891			-1.315
177402.000			7.891			-1.315
177500.000			7.890			-1.315
177600.000			7.890			-1.315
177701.000			7.890			-1.315
177800.000			7.890			-1.315
177900.000			7.890			-1.315
178000.000			7.891			-1.315
178100.000			7.890			-1.315
178201.000			7.889			-1.315
178301.000			7.889			-1.315
178401.000			7.890			-1.315
178501.000			7.890			-1.315
178600.000			7.890			-1.315
178700.000			7.891			-1.315
178801.000			7.888			-1.315
178900.000			7.888			-1.315
179000.000			7.889			-1.315
179101.000			7.890			-1.315
179200.000			7.889			-1.315
179301.000			7.889			-1.315
179402.000			7.889			-1.315
179501.000			7.889			-1.315
179600.000			7.888			-1.315
179701.000			7.888			-1.315
179800.000			7.887			-1.314
179900.000			7.888			-1.315
180001.000			7.888			-1.315
180100.000			7.888			-1.315
180200.000			7.887			-1.314
180302.000			7.887			-1.314
180401.000			7.887			-1.315
180501.000			7.887			-1.315
180601.000			7.888			-1.315
180700.000			7.887			-1.315
180800.000			7.888			-1.315
180901.000			7.887			-1.315
181000.000			7.886			-1.314
181100.000			7.886			-1.314
181200.000			7.886			-1.314
181301.000			7.887			-1.315
181402.000			7.886			-1.314
181501.000			7.886			-1.314
181600.000			7.886			-1.314
181701.000			7.886			-1.314
181800.000			7.885			-1.314
181900.000			7.886			-1.314
182001.000			7.886			-1.314
182100.000			7.885			-1.314
182200.000			7.885			-1.314
182302.000			7.886			-1.314
182401.000			7.886			-1.314
182501.000			7.885			-1.314
182601.000			7.885			-1.314
182700.000			7.886			-1.314
182800.000			7.885			-1.314
182901.000			7.885			-1.314
183000.000			7.885			-1.314
183100.000			7.884			-1.314
183201.000			7.884			-1.314
183301.000			7.884			-1.314
183401.000			7.884			-1.314
183502.000			7.883			-1.314
183600.000			7.883			-1.314
183700.000			7.884			-1.314
183801.000			7.884			-1.314
183900.000			7.885			-1.314
184000.000			7.885			-1.314
184101.000			7.884			-1.314
184200.000			7.883			-1.314
184300.000			7.883			-1.314
184402.000			7.884			-1.314
184501.000			7.884			-1.314
184601.000			7.883			-1.314
184700.000			7.883			-1.314
184800.000			7.883			-1.314
184901.000			7.882			-1.314
185000.000			7.883			-1.314
185100.000			7.881			-1.314
185201.000			7.881			-1.314
185301.000			7.883			-1.314
185401.000			7.883			-1.314
185502.000			7.882			-1.314
185600.000			7.882			-1.314
185700.000			7.883			-1.314
185801.000			7.882			-1.314
185900.000			7.882			-1.314
186000.000			7.882			-1.314
186101.000			7.882			-1.314
186200.000			7.882			-1.314
186300.000			7.882			-1.314
186402.000			7.881			-1.313
186501.000			7.881			-1.313
186600.000			7.881			-1.313
186701.000			7.881			-1.313
186800.000			7.881			-1.314
186900.000			7.881			-1.314
187001.000			7.881			-1.313
187100.000			7.880			-1.313
187200.000			7.880			-1.313
187302.000			7.880			-1.313
187401.000			7.881			-1.313
187502.000			7.880			-1.313
187600.000			7.880			-1.313
187700.000			7.881			-1.313
187801.000			7.880			-1.313
187900.000			7.880			-1.313
188000.000			7.879			-1.313
188101.000			7.880			-1.313
188200.000			7.879			-1.313
188300.000			7.879			-1.313
188402.000			7.878			-1.313
188501.000			7.879			-1.313
188600.000			7.879			-1.313
188701.000			7.879			-1.313
188800.000			7.879			-1.313
188900.000			7.880			-1.313
189001.000			7.879			-1.313
189100.000			7.879			-1.313
189200.000			7.879			-1.313
189301.000			7.879			-1.313
189401.000			7.878			-1.313
189501.000			7.877			-1.313
189602.000			7.878			-1.313
189700.000			7.879			-1.313
189800.000			7.879			-1.313
189901.000			7.878			-1.313
190000.000			7.877			-1.313
190100.000			7.878			-1.313
190201.000			7.878			-1.313
190300.000			7.878			-1.313
190401.000			7.878			-1.313
190502.000			7.878			-1.313
190601.000			7.878			-1.313
190700.000			7.878			-1.313
190800.000			7.879			-1.313
190900.000			7.878			-1.313
191001.000			7.877			-1.313
191100.000			7.877			-1.313
191200.000			7.877			-1.313
191301.000			7.877			-1.313
191401.000			7.877			-1.313
191501.000			7.877			-1.313
191602.000			7.876			-1.313
191700.000			7.876			-1.313
191800.000			7.877			-1.313
191901.000			7.877			-1.313
192000.000			7.876			-1.313
192100.000			7.876			-1.313
192201.000			7.876			-1.313
192300.000			7.877			-1.313
192401.000			7.877			-1.313
192502.000			7.876			-1.313
192601.000			7.876			-1.313
192700.000			7.876			-1.313
192801.000			7.875			-1.313
192900.000			7.876			-1.313
193000.000			7.875			-1.313
193101.000			7.875			-1.313
193200.000			7.875			-1.313
193300.000			7.875			-1.313
193402.000			7.875			-1.313
193501.000			7.875			-1.312
193601.000			7.876			-1.313
193701.000			7.875			-1.313
193800.000			7.875			-1.313
193900.000			7.875			-1.313
194000.000			7.875			-1.312
194100.000			7.875			-1.312
194201.000			7.875			-1.312
194300.000			7.875			-1.313
194401.000			7.875			-1.313
194502.000			7.875			-1.312
194601.000			7.874			-1.312
194700.000			7.874			-1.312
194801.000			7.874			-1.312
194900.000			7.874			-1.312
195000.000			7.873			-1.312
195101.000			7.874			-1.312
195200.000			7.874			-1.312
195300.000			7.874			-1.312
195402.000			7.874			-1.312
195501.000			7.874			-1.312
195601.000			7.874			-1.312
195701.000			7.873			-1.312
195800.000			7.872			-1.312
195900.000			7.872			-1.312
196001.000			7.873			-1.312
196100.000			7.873			-1.312
196200.000			7.872			-1.312
196301.000			7.873			-1.312
196401.000			7.872			-1.312
196501.000			7.872			-1.312
196602.000			7.872			-1.312
196700.000			7.872			-1.312
196800.000			7.872			-1.312
196901.000			7.873			-1.312
197000.000			7.873			-1.312
197100.000			7.873			-1.312
197200.000			7.873			-1.312
197300.000			7.872			-1.312
197402.000			7.872			-1.312
197501.000			7.872			-1.312
197601.000			7.871			-1.312
197701.000			7.871			-1.312
197800.000			7.871			-1.312
197900.000			7.871			-1.312
198001.000			7.871			-1.312
198100.000			7.871			-1.312
198200.000			7.871			-1.312
198301.000			7.871			-1.312
198401.000			7.870			-1.312
198501.000			7.871			-1.312
198602.000			7.870			-1.312
198700.000			7.870			-1.312
198800.000			7.871			-1.312
198901.000			7.870			-1.312
199000.000			7.870			-1.312
199100.000			7.870			-1.312
199201.000			7.870			-1.312
199300.000			7.870			-1.312
199400.000			7.869			-1.312
199502.000			7.869			-1.311
199601.000			7.869			-1.312
199700.000			7.870			-1.312
199801.000			7.869			-1.311
199900.000			7.869			-1.311
200000.000			7.869			-1.311
200101.000			7.868			-1.311
200200.000			7.868			-1.311
200300.000			7.869			-1.311
200400.000			7.869			-1.311
200501.000			7.869			-1.311
200602.000			7.869			-1.311
200700.000			7.869			-1.311
200800.000			7.869			-1.312
200901.000			7.869			-1.311
201000.000			7.869			-1.311
201100.000			7.868			-1.311
201201.000			7.867			-1.311
201300.000			7.867			-1.311
201401.000			7.867			-1.311
201502.000			7.867			-1.311
201601.000			7.867			-1.311
201700.000			7.867			-1.311
201801.000			7.868			-1.311
201900.000			7.868			-1.311
202000.000			7.867			-1.311
202101.000			7.867			-1.311
202200.000			7.865			-1.311
202300.000			7.866			-1.311
202402.000			7.866			-1.311
202501.000			7.867			-1.311
202600.000			7.867			-1.311
202701.000			7.866			-1.311
202800.000			7.866			-1.311
202900.000			7.866			-1.311
203001.000			7.866			-1.311
203100.000			7.865			-1.311
203200.000			7.866			-1.311
203302.000			7.865			-1.311
203401.000			7.865			-1.311
203502.000			7.866			-1.311
203600.000			7.866			-1.311
203700.000			7.865			-1.311
203801.000			7.865			-1.311
203900.000			7.865			-1.311
204000.000			7.865			-1.311
204101.000			7.865			-1.311
204200.000			7.866			-1.311
204301.000			7.865			-1.311
204402.000			7.865			-1.311
204500.000			7.865			-1.311
204600.000			7.865			-1.311
204701.000			7.864			-1.311
204800.000			7.864			-1.311
204900.000			7.864			-1.311
205001.000			7.864			-1.311
205100.000			7.864			-1.311
205201.000			7.864			-1.311
205302.000			7.865			-1.311
205401.000			7.864			-1.311
205500.000			7.863			-1.311
205601.000			7.863			-1.311
205700.000			7.863			-1.311
205800.000			7.863			-1.311
205901.000			7.863			-1.311
206000.000			7.864			-1.311
206100.000			7.863			-1.311
206202.000			7.863			-1.310
206301.000			7.863			-1.310
206400.000			7.862			-1.310
206501.000			7.863			-1.310
206600.000			7.863			-1.310
206700.000			7.863			-1.311
206800.000			7.863			-1.311
206900.000			7.862			-1.310
207001.000			7.862			-1.310
207101.000			7.863			-1.311
207201.000			7.863			-1.310
207302.000			7.863			-1.311
207400.000			7.863			-1.311
207500.000			7.862			-1.310
207601.000			7.861			-1.310
207700.000			7.860			-1.310
207800.000			7.861			-1.310
207901.000			7.861			-1.310
208000.000			7.860			-1.310
208101.000			7.861			-1.310
208202.000			7.862			-1.310
208300.000			7.863			-1.310
208400.000			7.863			-1.310
208501.000			7.861			-1.310
208600.000			7.861			-1.310
208700.000			7.860			-1.310
208801.000			7.860			-1.310
208900.000			7.861			-1.310
209001.000			7.862			-1.310
209102.000			7.861			-1.310
209201.000			7.860			-1.310
209300.000			7.860			-1.310
209401.000			7.861			-1.310
209500.000			7.859			-1.310
209600.000			7.859			-1.310
209701.000			7.860			-1.310
209800.000			7.859			-1.310
209900.000			7.859			-1.310
210002.000			7.860			-1.310
210101.000			7.859			-1.310
210202.000			7.860			-1.310
210300.000			7.859			-1.310
210400.000			7.859			-1.310
210501.000			7.858			-1.310
210600.000			7.859			-1.310
210700.000			7.858			-1.310
210801.000			7.858			-1.310
210900.000			7.858			-1.310
211001.000			7.859			-1.310
211102.000			7.859			-1.310
211200.000			7.858			-1.310
211300.000			7.857			-1.310
211401.000			7.858			-1.310
211500.000			7.858			-1.310
211600.000			7.858			-1.310
211701.000			7.858			-1.310
211800.000			7.858			-1.310
211901.000			7.858			-1.310
212002.000			7.858			-1.310
212101.000			7.857			-1.310
212200.000			7.857			-1.310
212301.000			7.858			-1.310
212400.000			7.857			-1.310
212500.000			7.857			-1.309
212601.000			7.857			-1.310
212700.000			7.858			-1.310
212800.000			7.857			-1.310
212902.000			7.856			-1.309
213001.000			7.856			-1.309
213100.000			7.857			-1.309
213200.000			7.857			-1.309
213300.000			7.857			-1.309
213401.000			7.856			-1.309
213500.000			7.856			-1.309
213600.000			7.857			-1.309
213701.000			7.857			-1.310
213801.000			7.856			-1.309
213901.000			7.856			-1.309
214002.000			7.855			-1.309
214100.000			7.856			-1.309
214200.000			7.856			-1.309
214301.000			7.856			-1.309
214400.000			7.856			-1.309
214500.000			7.855			-1.309
214601.000			7.855			-1.309
214700.000			7.855			-1.309
214801.000			7.856			-1.309
214902.000			7.855			-1.309
215000.000			7.855			-1.309
215100.000			7.855			-1.309
215201.000			7.855			-1.309
215300.000			7.855			-1.309
215400.000			7.855			-1.309
215501.000			7.855			-1.309
215600.000			7.853			-1.309
215701.000			7.853			-1.309
215802.000			7.854			-1.309
215901.000			7.854			-1.309
216000.000			7.855			-1.309
216101.000			7.855			-1.309
216200.000			7.854			-1.309
216300.000			7.853			-1.309
216400.000			7.854			-1.309
216500.000			7.853			-1.309
216601.000			7.853			-1.309
216701.000			7.853			-1.309
216801.000			7.853			-1.309
216901.000			7.853			-1.309
217000.000			7.853			-1.309
217100.000			7.853			-1.309
217201.000			7.854			-1.309
217300.000			7.854			-1.309
217400.000			7.853			-1.309
217501.000			7.853			-1.309
217601.000			7.853			-1.309
217701.000			7.852			-1.309
217802.000			7.852			-1.309
217900.000			7.852			-1.309
218000.000			7.852			-1.309
218101.000			7.852			-1.309
218200.000			7.852			-1.309
218300.000			7.852			-1.309
218401.000			7.852			-1.309
218501.000			7.852			-1.309
218601.000			7.852			-1.309
218702.000			7.850			-1.308
218800.000			7.852			-1.309
218900.000			7.852			-1.309
219001.000			7.852			-1.309
219100.000			7.852			-1.309
219200.000			7.851			-1.309
219301.000			7.851			-1.309
219400.000			7.851			-1.309
219502.000			7.850			-1.308
219601.000			7.850			-1.308
219701.000			7.850			-1.308
219801.000			7.851			-1.308
219900.000			7.850			-1.308
220000.000			7.850			-1.308
220101.000			7.851			-1.309
220200.000			7.851			-1.308
220300.000			7.850			-1.308
220401.000			7.850			-1.308
220501.000			7.849			-1.308
220601.000			7.850			-1.308
220701.000			7.850			-1.308
220800.000			7.850			-1.308
220900.000			7.849			-1.308
221001.000			7.849			-1.308
221100.000			7.849			-1.308
221200.000			7.850			-1.308
221301.000			7.849			-1.308
221401.000			7.848			-1.308
221501.000			7.848			-1.308
221601.000			7.849			-1.308
221700.000			7.848			-1.308
221800.000			7.849			-1.308
221901.000			7.849			-1.308
222000.000			7.849			-1.308
222100.000			7.848			-1.308
222201.000			7.848			-1.308
222301.000			7.847			-1.308
222401.000			7.848			-1.308
222502.000			7.849			-1.308
222600.000			7.848			-1.308
222700.000			7.848			-1.308
222800.000			7.847			-1.308
222900.000			7.847			-1.308
223001.000			7.847			-1.308
223100.000			7.847			-1.308
223200.000			7.847			-1.308
223302.000			7.847			-1.308
223401.000			7.848			-1.308
223501.000			7.847			-1.308
223601.000			7.846			-1.308
223700.000			7.846			-1.308
223800.000			7.847			-1.308
223901.000			7.847			-1.308
224000.000			7.846			-1.308
224100.000			7.846			-1.308
224201.000			7.846			-1.308
224301.000			7.846			-1.308
224401.000			7.847			-1.308
224501.000			7.848			-1.308
224600.000			7.847			-1.308
224700.000			7.846			-1.308
224801.000			7.847			-1.308
224900.000			7.847			-1.308
225000.000			7.847			-1.308
225101.000			7.846			-1.308
225201.000			7.846			-1.308
225301.000			7.846			-1.308
225402.000			7.846			-1.308
225500.000			7.846			-1.308
225600.000			7.845			-1.307
225701.000			7.844			-1.307
225800.000			7.845			-1.307
225900.000			7.846			-1.308
226000.000			7.846			-1.308
226100.000			7.846			-1.308
226202.000			7.845			-1.308
226301.000			7.844			-1.307
226400.000			7.845			-1.307
226501.000			7.845			-1.307
226600.000			7.845			-1.307
226700.000			7.844			-1.307
226801.000			7.845			-1.307
226900.000			7.845			-1.308
227000.000			7.844			-1.307
227102.000			7.844			-1.307
227201.000			7.844			-1.307
227301.000			7.845			-1.308
227401.000			7.844			-1.307
227500.000			7.844			-1.307
227600.000			7.844			-1.307
227701.000			7.844			-1.307
227800.000			7.843			-1.307
227900.000			7.844			-1.307
228001.000			7.844			-1.307
228101.000			7.843			-1.307
228201.000			7.843			-1.307
228302.000			7.843			-1.307
228400.000			7.843			-1.307
228500.000			7.843			-1.307
228601.000			7.843			-1.307
228700.000			7.843			-1.307
228800.000			7.843			-1.307
228901.000			7.842			-1.307
229000.000			7.842			-1.307
229102.000			7.842			-1.307
229201.000			7.843			-1.307
229300.000			7.842			-1.307
229401.000			7.842			-1.307
229500.000			7.843			-1.307
229600.000			7.842			-1.307
229701.000			7.841			-1.307
229800.000			7.842			-1.307
229900.000			7.842			-1.307
230001.000			7.842			-1.307
230101.000			7.842			-1.307
230201.000			7.841			-1.307
230301.000			7.841			-1.307
230400.000			7.842			-1.307
230500.000			7.843			-1.307
230601.000			7.843			-1.307
230700.000			7.841			-1.307
230800.000			7.841			-1.307
230901.000			7.843			-1.307
231001.000			7.842			-1.307
231101.000			7.842			-1.307
231201.000			7.841			-1.307
231300.000			7.841			-1.307
231400.000			7.841			-1.307
231501.000			7.840			-1.307
231600.000			7.840			-1.307
231700.000			7.840			-1.307
231801.000			7.840			-1.307
231901.000			7.840			-1.307
232001.000			7.840			-1.307
232101.000			7.840			-1.307
232200.000			7.841			-1.307
232300.000			7.841			-1.307
232400.000			7.840			-1.307
232500.000			7.840			-1.307
232601.000			7.840			-1.307
232700.000			7.841			-1.307
232801.000			7.841			-1.307
232902.000			7.840			-1.307
233001.000			7.840			-1.307
233100.000			7.840			-1.307
233201.000			7.840			-1.307
233300.000			7.839			-1.307
233400.000			7.839			-1.306
233501.000			7.839			-1.306
233600.000			7.840			-1.307
233700.000			7.839			-1.307
233802.000			7.839			-1.307
233901.000			7.839			-1.306
234001.000			7.838			-1.306
234101.000			7.838			-1.306
234200.000			7.839			-1.306
234300.000			7.839			-1.306
234401.000			7.839			-1.306
234500.000			7.839			-1.306
234600.000			7.838			-1.306
234701.000			7.839			-1.307
234801.000			7.839			-1.306
234901.000			7.838			-1.306
235001.000			7.838			-1.306
235100.000			7.838			-1.306
235200.000			7.838			-1.306
235301.000			7.837			-1.306
235400.000			7.838			-1.306
235500.000			7.838			-1.306
235600.000			7.838			-1.306
235701.000			7.838			-1.306
235802.000			7.837			-1.306
235901.000			7.836			-1.306
236000.000			7.837			-1.306
236101.000			7.837			-1.306
236200.000			7.837			-1.306
236300.000			7.836			-1.306
236401.000			7.836			-1.306
236500.000			7.836			-1.306
236600.000			7.836			-1.306
236702.000			7.838			-1.306
236801.000			7.837			-1.306
236901.000			7.837			-1.306
237001.000			7.837			-1.306
237100.000			7.836			-1.306
237200.000			7.836			-1.306
237301.000			7.837			-1.306
237400.000			7.836			-1.306
237500.000			7.835			-1.306
237601.000			7.835			-1.306
237701.000			7.835			-1.306
237801.000			7.835			-1.306
237902.000			7.835			-1.306
238000.000			7.836			-1.306
238100.000			7.836			-1.306
238201.000			7.836			-1.306
238300.000			7.835			-1.306
238400.000			7.834			-1.306
238501.000			7.835			-1.306
238600.000			7.836			-1.306
238702.000			7.835			-1.306
238801.000			7.835			-1.306
238900.000			7.834			-1.306
239001.000			7.835			-1.306
239100.000			7.835			-1.306
239200.000			7.834			-1.306
239301.000			7.834			-1.306
239400.000			7.834			-1.306
239500.000			7.834			-1.306
239602.000			7.834			-1.306
239701.000			7.834			-1.306
239801.000			7.833			-1.305
239901.000			7.834			-1.306
240000.000			7.834			-1.306
240100.000			7.833			-1.305
240201.000			7.833			-1.306
240300.000			7.833			-1.306
240400.000			7.832			-1.305
240501.000			7.833			-1.305
240601.000			7.833			-1.305
240701.000			7.833			-1.306
240801.000			7.834			-1.306
240900.000			7.833			-1.306
241000.000			7.833			-1.306
241101.000			7.832			-1.305
241200.000			7.832			-1.305
241300.000			7.833			-1.305
241401.000			7.833			-1.305
241501.000			7.833			-1.305
241601.000			7.833			-1.305
241702.000			7.833			-1.305
241800.000			7.832			-1.305
241900.000			7.832			-1.305
242000.000			7.832			-1.305
242100.000			7.833			-1.305
242201.000			7.832			-1.305
242300.000			7.833			-1.305
242400.000			7.832			-1.305
242502.000			7.831			-1.305
242601.000			7.831			-1.305
242700.000			7.832			-1.305
242801.000			7.832			-1.305
242900.000			7.832			-1.305
243000.000			7.832			-1.305
243101.000			7.832			-1.305
243200.000			7.832			-1.305
243300.000			7.832			-1.305
243402.000			7.831			-1.305
243501.000			7.832			-1.305
243601.000			7.831			-1.305
243701.000			7.831			-1.305
243800.000			7.830			-1.305
243900.000			7.830			-1.305
244001.000			7.831			-1.305
244100.000			7.831			-1.305
244200.000			7.831			-1.305
244301.000			7.831			-1.305
244401.000			7.830			-1.305
244501.000			7.830			-1.305
244601.000			7.830			-1.305
244700.000			7.830			-1.305
244800.000			7.829			-1.305
244901.000			7.830			-1.305
245000.000			7.829			-1.305
245100.000			7.829			-1.305
245200.000			7.829			-1.305
245301.000			7.830			-1.305
245402.000			7.830			-1.305
245501.000			7.829			-1.305
245600.000			7.829			-1.305
245701.000			7.829			-1.305
245800.000			7.829			-1.305
245900.000			7.829			-1.305
246001.000			7.829			-1.305
246100.000			7.828			-1.305
246200.000			7.829			-1.305
246302.000			7.829			-1.305
246401.000			7.829			-1.305
246501.000			7.829			-1.305
246601.000			7.829			-1.305
246700.000			7.828			-1.305
246800.000			7.829			-1.305
246901.000			7.829			-1.305
247000.000			7.829			-1.305
247100.000			7.829			-1.305
247201.000			7.829			-1.305
247301.000			7.828			-1.305
247401.000			7.827			-1.305
247501.000			7.828			-1.305
247600.000			7.828			-1.305
247700.000			7.828			-1.305
247801.000			7.828			-1.305
247900.000			7.828			-1.305
248000.000			7.828			-1.305
248101.000			7.828			-1.305
248200.000			7.829			-1.305
248302.000			7.828			-1.305
248401.000			7.827			-1.305
248500.000			7.827			-1.305
248601.000			7.827			-1.304
248700.000			7.827			-1.304
248800.000			7.826			-1.304
248901.000			7.826			-1.304
249000.000			7.827			-1.304
249100.000			7.828			-1.305
249201.000			7.828			-1.305
249301.000			7.827			-1.305
249401.000			7.826			-1.304
249501.000			7.827			-1.304
249600.000			7.827			-1.304
249700.000			7.826			-1.304
249801.000			7.826			-1.304
249900.000			7.825			-1.304
250000.000			7.827			-1.304
250101.000			7.827			-1.304
250201.000			7.826			-1.304
250301.000			7.826			-1.304
250402.000			7.826			-1.304
250500.000			7.826			-1.304
250600.000			7.826			-1.304
250701.000			7.825			-1.304
250800.000			7.826			-1.304
250900.000			7.826			-1.304
251001.000			7.825			-1.304
251100.000			7.826			-1.304
251201.000			7.826			-1.304
251302.000			7.826			-1.304
251401.000			7.826			-1.304
251500.000			7.825			-1.304
251600.000			7.825			-1.304
251700.000			7.825			-1.304
251801.000			7.825			-1.304
251900.000			7.824			-1.304
252000.000			7.825			-1.304
252101.000			7.823			-1.304
252201.000			7.823			-1.304
252301.000			7.824			-1.304
252401.000			7.824			-1.304
252500.000			7.824			-1.304
252600.000			7.824			-1.304
252701.000			7.824			-1.304
252800.000			7.823			-1.304
252900.000			7.824			-1.304
253001.000			7.824			-1.304
253101.000			7.824			-1.304
253201.000			7.823			-1.304
253302.000			7.823			-1.304
253400.000			7.823			-1.304
253500.000			7.824			-1.304
253601.000			7.823			-1.304
253700.000			7.823			-1.304
253800.000			7.823			-1.304
253901.000			7.824			-1.304
254000.000			7.823			-1.304
254101.000			7.822			-1.304
254202.000			7.823			-1.304
254300.000			7.823			-1.304
254400.000			7.823			-1.304
254501.000			7.822			-1.304
254600.000			7.822			-1.304
254700.000			7.822			-1.304
254800.000			7.822			-1.304
254900.000			7.823			-1.304
255002.000			7.823			-1.304
255101.000			7.822			-1.304
255201.000			7.822			-1.304
255301.000			7.823			-1.304
255400.000			7.823			-1.304
255500.000			7.822			-1.304
255601.000			7.822			-1.304
255700.000			7.822			-1.304
255800.000			7.822			-1.304
255901.000			7.822			-1.304
256001.000			7.822			-1.304
256101.000			7.821			-1.304
256201.000			7.822			-1.304
256300.000			7.822			-1.304
256400.000			7.821			-1.304
256501.000			7.821			-1.303
256600.000			7.821			-1.303
256700.000			7.821			-1.303
256801.000			7.821			-1.303
256901.000			7.821			-1.303
257001.000			7.821			-1.303
257102.000			7.821			-1.304
257200.000			7.820			-1.303
257300.000			7.820			-1.303
257401.000			7.821			-1.303
257500.000			7.821			-1.303
257600.000			7.820			-1.303
257701.000			7.821			-1.303
257800.000			7.821			-1.303
257902.000			7.820			-1.303
258001.000			7.820			-1.303
258101.000			7.820			-1.303
258201.000			7.820			-1.303
258300.000			7.820			-1.303
258400.000			7.821			-1.303
258501.000			7.820			-1.303
258600.000			7.820			-1.303
258700.000			7.820			-1.303
258801.000			7.819			-1.303
258901.000			7.820			-1.303
259001.000			7.819			-1.303
259101.000			7.820			-1.303
259200.000			7.820			-1.303
259300.000			7.819			-1.303
259401.000			7.819			-1.303
259500.000			7.820			-1.303
259600.000			7.820			-1.303
259701.000			7.819			-1.303
259801.000			7.819			-1.303
259901.000			7.819			-1.303
260002.000			7.819			-1.303
260100.000			7.820			-1.303
260200.000			7.818			-1.303
260301.000			7.819			-1.303
260400.000			7.819			-1.303
260500.000			7.818			-1.303
260601.000			7.819			-1.303
260700.000			7.819			-1.303
260801.000			7.819			-1.303
260902.000			7.818			-1.303
261001.000			7.818			-1.303
261100.000			7.818			-1.303
261200.000			7.818			-1.303
261300.000			7.818			-1.303
261401.000			7.818			-1.303
261500.000			7.817			-1.303
261600.000			7.817			-1.303
261701.000			7.817			-1.303
261801.000			7.817			-1.303
261901.000			7.817			-1.303
262001.000			7.816			-1.303
262100.000			7.817			-1.303
262200.000			7.817			-1.303
262301.000			7.817			-1.303
262400.000			7.817			-1.303
262500.000			7.817			-1.303
262601.000			7.817			-1.303
262701.000			7.817			-1.303
262801.000			7.817			-1.303
262902.000			7.816			-1.303
263000.000			7.817			-1.303
263100.000			7.816			-1.303
263201.000			7.816			-1.303
263300.000			7.817			-1.303
263400.000			7.817			-1.303
263501.000			7.816			-1.303
263600.000			7.816			-1.303
263701.000			7.816			-1.303
263802.000			7.816			-1.303
263901.000			7.816			-1.303
264000.000			7.816			-1.303
264101.000			7.816			-1.303
264200.000			7.815			-1.302
264300.000			7.815			-1.302
264400.000			7.815			-1.303
264500.000			7.815			-1.303
264601.000			7.815			-1.302
264701.000			7.815			-1.302
264801.000			7.815			-1.303
264901.000			7.815			-1.303
265000.000			7.815			-1.303
265100.000			7.815			-1.303
265201.000			7.815			-1.303
265300.000			7.816			-1.303
265400.000			7.815			-1.302
265501.000			7.814			-1.302
265601.000			7.814			-1.302
265701.000			7.815			-1.303
265801.000			7.816			-1.303
265900.000			7.814			-1.302
266000.000			7.814			-1.302
266101.000			7.814			-1.302
266200.000			7.814			-1.302
266300.000			7.814			-1.302
266401.000			7.815			-1.302
266500.000			7.815			-1.302
266601.000			7.814			-1.302
266702.000			7.814			-1.302
266800.000			7.814			-1.302
266900.000			7.813			-1.302
267001.000			7.813			-1.302
267100.000			7.813			-1.302
267200.000			7.814			-1.302
267301.000			7.815			-1.302
267400.000			7.814			-1.302
267502.000			7.813			-1.302
267601.000			7.813			-1.302
267701.000			7.813			-1.302
267801.000			7.813			-1.302
267900.000			7.814			-1.302
268000.000			7.813			-1.302
268101.000			7.813			-1.302
268200.000			7.813			-1.302
268300.000			7.814			-1.302
268401.000			7.813			-1.302
268501.000			7.813			-1.302
268601.000			7.812			-1.302
268701.000			7.812			-1.302
268800.000			7.812			-1.302
268900.000			7.812			-1.302
269001.000			7.812			-1.302
269100.000			7.812			-1.302
269200.000			7.812			-1.302
269301.000			7.811			-1.302
269401.000			7.812			-1.302
269501.000			7.811			-1.302
269602.000			7.811			-1.302
269700.000			7.812			-1.302
269800.000			7.812			-1.302
269901.000			7.812			-1.302
270000.000			7.811			-1.302
270100.000			7.811			-1.302
270201.000			7.811			-1.302
270300.000			7.811			-1.302
270401.000			7.811			-1.302
270502.000			7.810			-1.302
270600.000			7.810			-1.302
270700.000			7.811			-1.302
270800.000			7.812			-1.302
270900.000			7.811			-1.302
271001.000			7.811			-1.302
271100.000			7.810			-1.302
271200.000			7.810			-1.302
271302.000			7.810			-1.302
271401.000			7.811			-1.302
271500.000			7.809			-1.302
271601.000			7.809			-1.302
271700.000			7.810			-1.302
271800.000			7.810			-1.302
271901.000			7.811			-1.302
272000.000			7.810			-1.302
272100.000			7.810			-1.302
272202.000			7.810			-1.302
272301.000			7.810			-1.302
272401.000			7.809			-1.302
272501.000			7.809			-1.301
272600.000			7.810			-1.302
272700.000			7.810			-1.302
272801.000			7.810			-1.302
272900.000			7.810			-1.302
273000.000			7.809			-1.302
273101.000			7.809			-1.302
273201.000			7.809			-1.302
273301.000			7.809			-1.301
273401.000			7.809			-1.302
273500.000			7.809			-1.301
273600.000			7.808			-1.301
273701.000			7.808			-1.301
273800.000			7.808			-1.301
273900.000			7.809			-1.302
274000.000			7.809			-1.301
274100.000			7.808			-1.301
274202.000			7.808			-1.301
274301.000			7.808			-1.301
274400.000			7.808			-1.301
274501.000			7.808			-1.301
274600.000			7.808			-1.301
274700.000			7.807			-1.301
274801.000			7.807			-1.301
274900.000			7.807			-1.301
275000.000			7.807			-1.301
275102.000			7.807			-1.301
275201.000			7.807			-1.301
275301.000			7.808			-1.301
275401.000			7.808			-1.301
275500.000			7.807			-1.301
275600.000			7.807			-1.301
275701.000			7.808			-1.301
275800.000			7.808			-1.301
275900.000			7.807			-1.301
276001.000			7.807			-1.301
276101.000			7.807			-1.301
276201.000			7.807			-1.301
276301.000			7.808			-1.301
276400.000			7.808			-1.301
276500.000			7.808			-1.301
276601.000			7.807			-1.301
276700.000			7.807			-1.301
276800.000			7.807			-1.301
276901.000			7.807			-1.301
277000.000			7.806			-1.301
277102.000			7.806			-1.301
277201.000			7.805			-1.301
277300.000			7.807			-1.301
277401.000			7.807			-1.301
277500.000			7.808			-1.301
277600.000			7.807			-1.301
277701.000			7.806			-1.301
277800.000			7.806			-1.301
277900.000			7.806			-1.301
278002.000			7.805			-1.301
278101.000			7.806			-1.301
278201.000			7.806			-1.301
278301.000			7.806			-1.301
278400.000			7.806			-1.301
278500.000			7.806			-1.301
278601.000			7.805			-1.301
278700.000			7.805			-1.301
278800.000			7.805			-1.301
278901.000			7.805			-1.301
279001.000			7.805			-1.301
279101.000			7.805			-1.301
279202.000			7.805			-1.301
279300.000			7.804			-1.301
279400.000			7.805			-1.301
279501.000			7.805			-1.301
279600.000			7.805			-1.301
279700.000			7.805			-1.301
279801.000			7.804			-1.301
279900.000			7.804			-1.301
280001.000			7.805			-1.301
280102.000			7.804			-1.301
280201.000			7.804			-1.301
280300.000			7.805			-1.301
280400.000			7.804			-1.301
280500.000			7.805			-1.301
280601.000			7.804			-1.301
280700.000			7.804			-1.301
280800.000			7.805			-1.301
280901.000			7.804			-1.301
281001.000			7.803			-1.301
281101.000			7.804			-1.301
281201.000			7.803			-1.301
281300.000			7.803			-1.300
281400.000			7.804			-1.301
281501.000			7.804			-1.301
281600.000			7.803			-1.300
281700.000			7.803			-1.301
281801.000			7.804			-1.301
281901.000			7.802			-1.300
282001.000			7.803			-1.300
282102.000			7.803			-1.301
282200.000			7.803			-1.301
282300.000			7.803			-1.301
282401.000			7.804			-1.301
282500.000			7.804			-1.301
282600.000			7.803			-1.300
282701.000			7.803			-1.301
282801.000			7.803			-1.301
282901.000			7.804			-1.301
283002.000			7.804			-1.301
283100.000			7.803			-1.300
283200.000			7.803			-1.300
283301.000			7.802			-1.300
283400.000			7.802			-1.300
283500.000			7.801			-1.300
283600.000			7.801			-1.300
283700.000			7.802			-1.300
283802.000			7.802			-1.300
283901.000			7.803			-1.300
284001.000			7.801			-1.300
284101.000			7.802			-1.300
284200.000			7.802			-1.300
284300.000			7.802			-1.300
284401.000			7.802			-1.300
284500.000			7.802			-1.300
284600.000			7.800			-1.300
284702.000			7.801			-1.300
284801.000			7.801			-1.300
284901.000			7.802			-1.300
285001.000			7.802			-1.300
285100.000			7.801			-1.300
285200.000			7.801			-1.300
285301.000			7.801			-1.300
285400.000			7.801			-1.300
285500.000			7.801			-1.300
285601.000			7.801			-1.300
285701.000			7.801			-1.300
285801.000			7.801			-1.300
285901.000			7.800			-1.300
286000.000			7.800			-1.300
286100.000			7.799			-1.300
286201.000			7.801			-1.300
286300.000			7.801			-1.300
286400.000			7.801			-1.300
286501.000			7.801			-1.300
286601.000			7.800			-1.300
286702.000			7.800			-1.300
286801.000			7.800			-1.300
286900.000			7.800			-1.300
287001.000			7.800			-1.300
287100.000			7.801			-1.300
287200.000			7.800			-1.300
287301.000			7.799			-1.300
287400.000			7.799			-1.300
287500.000			7.799			-1.300
287602.000			7.799			-1.300
287701.000			7.799			-1.300
287801.000			7.799			-1.300
287901.000			7.800			-1.300
288000.000			7.800			-1.300
288100.000			7.799			-1.300
288201.000			7.799			-1.300
288300.000			7.798			-1.300
288400.000			7.799			-1.300
288501.000			7.799			-1.300
288601.000			7.799			-1.300
288701.000			7.798			-1.300
288802.000			7.798			-1.300
288900.000			7.798			-1.300
289000.000			7.799			-1.300
289101.000			7.799			-1.300
289200.000			7.798			-1.300
289300.000			7.798			-1.300
289401.000			7.797			-1.299
289500.000			7.797			-1.299
289600.000			7.797			-1.299
289702.000			7.796			-1.299
289801.000			7.798			-1.300
289902.000			7.799			-1.300
290000.000			7.798			-1.300
290100.000			7.798			-1.300
290201.000			7.797			-1.300
290300.000			7.796			-1.299
290400.000			7.796			-1.299
290501.000			7.797			-1.299
290600.000			7.797			-1.299
290701.000			7.796			-1.299
290802.000			7.797			-1.300
290901.000			7.797			-1.299
291000.000			7.797			-1.299
291101.000			7.797			-1.300
291200.000			7.796			-1.299
291300.000			7.796			-1.299
291401.000			7.797			-1.299
291500.000			7.796			-1.299
291600.000			7.797			-1.299
291702.000			7.797			-1.300
291801.000			7.797			-1.299
291901.000			7.796			-1.299
292001.000			7.796			-1.299
292100.000			7.795			-1.299
292200.000			7.795			-1.299
292301.000			7.795			-1.299
292400.000			7.795			-1.299
292500.000			7.796			-1.299
292601.000			7.796			-1.299
292701.000			7.795			-1.299
292801.000			7.794			-1.299
292902.000			7.794			-1.299
293000.000			7.795			-1.299
293100.000			7.795			-1.299
293200.000			7.794			-1.299
293300.000			7.794			-1.299
293401.000			7.794			-1.299
293500.000			7.794			-1.299
293600.000			7.794			-1.299
293702.000			7.794			-1.299
293801.000			7.794			-1.299
293901.000			7.794			-1.299
294001.000			7.794			-1.299
294100.000			7.794			-1.299
294200.000			7.794			-1.299
294301.000			7.794			-1.299
294400.000			7.794			-1.299
294500.000			7.794			-1.299
294601.000			7.794			-1.299
294701.000			7.794			-1.299
294801.000			7.793			-1.299
294902.000			7.794			-1.299
295000.000			7.794			-1.299
295100.000			7.793			-1.299
295201.000			7.793			-1.299
295300.000			7.794			-1.299
295400.000			7.793			-1.299
295501.000			7.794			-1.299
295600.000			7.793			-1.299
295700.000			7.793			-1.299
295802.000			7.793			-1.299
295901.000			7.793			-1.299
296000.000			7.793			-1.299
296101.000			7.793			-1.299
296200.000			7.792			-1.299
296300.000			7.793			-1.299
296400.000			7.792			-1.299
296500.000			7.793			-1.299
296601.000			7.794			-1.299
296701.000			7.793			-1.299
296801.000			7.791			-1.299
296902.000			7.792			-1.299
297000.000			7.792			-1.299
297100.000			7.791			-1.299
297201.000			7.792			-1.299
297300.000			7.792			-1.299
297400.000			7.792			-1.299
297501.000			7.792			-1.299
297600.000			7.791			-1.298
297700.000			7.791			-1.299
297802.000			7.793			-1.299
297901.000			7.792			-1.299
298000.000			7.792			-1.299
298101.000			7.793			-1.299
298200.000			7.792			-1.299
298300.000			7.791			-1.299
298401.000			7.792			-1.299
298500.000			7.791			-1.299
298600.000			7.791			-1.298
298701.000			7.790			-1.298
298801.000			7.791			-1.299
298901.000			7.791			-1.299
299001.000			7.791			-1.299
299100.000			7.790			-1.298
299200.000			7.791			-1.298
299301.000			7.790			-1.298
299400.000			7.791			-1.298
299500.000			7.790			-1.298
299600.000			7.790			-1.298
299700.000			7.791			-1.298
299802.000			7.791			-1.298
299901.000			7.790			-1.298
