# Acquired on 26/01/2024 11:39:52 
# SPIDER: Creep_4mm_HM077x145x38AB-2
# CREEP MEASUREMENT

# time [ms]		force [N]		stiffness [N/mm]
0.000			-14.122			-3.530
104.000			-14.798			-3.699
205.000			-14.997			-3.749
303.000			-14.957			-3.739
404.000			-14.876			-3.719
505.000			-14.850			-3.713
604.000			-14.828			-3.707
705.000			-14.807			-3.702
803.000			-14.788			-3.697
904.000			-14.772			-3.693
1005.000			-14.757			-3.689
1104.000			-14.728			-3.682
1204.000			-14.715			-3.679
1305.000			-14.703			-3.676
1404.000			-14.692			-3.673
1503.000			-14.682			-3.670
1605.000			-14.671			-3.668
1704.000			-14.662			-3.666
1804.000			-14.643			-3.661
1905.000			-14.634			-3.658
2003.000			-14.626			-3.657
2104.000			-14.619			-3.655
2205.000			-14.611			-3.653
2304.000			-14.603			-3.651
2404.000			-14.594			-3.649
2505.000			-14.588			-3.647
2604.000			-14.574			-3.643
2703.000			-14.567			-3.642
2805.000			-14.563			-3.641
2904.000			-14.557			-3.639
3004.000			-14.551			-3.638
3105.000			-14.545			-3.636
3204.000			-14.539			-3.635
3304.000			-14.528			-3.632
3404.000			-14.521			-3.630
3504.000			-14.517			-3.629
3604.000			-14.511			-3.628
3704.000			-14.506			-3.626
3804.000			-14.501			-3.625
3903.000			-14.496			-3.624
4004.000			-14.486			-3.621
4104.000			-14.482			-3.620
4205.000			-14.478			-3.619
4304.000			-14.474			-3.618
4404.000			-14.468			-3.617
4505.000			-14.463			-3.616
4603.000			-14.459			-3.615
4704.000			-14.452			-3.613
4805.000			-14.449			-3.612
4904.000			-14.445			-3.611
5004.000			-14.440			-3.610
5105.000			-14.436			-3.609
5204.000			-14.433			-3.608
5303.000			-14.429			-3.607
5405.000			-14.425			-3.606
5504.000			-14.417			-3.604
5604.000			-14.415			-3.604
5705.000			-14.412			-3.603
5803.000			-14.408			-3.602
5904.000			-14.404			-3.601
6005.000			-14.401			-3.600
6104.000			-14.397			-3.599
6204.000			-14.392			-3.598
6305.000			-14.389			-3.597
6404.000			-14.386			-3.596
6503.000			-14.382			-3.596
6605.000			-14.378			-3.595
6704.000			-14.376			-3.594
6804.000			-14.372			-3.593
6905.000			-14.367			-3.592
7003.000			-14.364			-3.591
7105.000			-14.361			-3.590
7204.000			-14.359			-3.590
7304.000			-14.356			-3.589
7405.000			-14.354			-3.588
7504.000			-14.352			-3.588
7604.000			-14.346			-3.587
7704.000			-14.344			-3.586
7804.000			-14.341			-3.585
7904.000			-14.338			-3.584
8005.000			-14.336			-3.584
8104.000			-14.333			-3.583
8204.000			-14.330			-3.583
8305.000			-14.328			-3.582
8403.000			-14.323			-3.581
8504.000			-14.321			-3.580
8605.000			-14.319			-3.580
8704.000			-14.316			-3.579
8804.000			-14.313			-3.578
8904.000			-14.312			-3.578
9004.000			-14.310			-3.577
9104.000			-14.305			-3.576
9205.000			-14.302			-3.576
9304.000			-14.299			-3.575
9404.000			-14.297			-3.574
9505.000			-14.296			-3.574
9603.000			-14.293			-3.573
9704.000			-14.291			-3.573
9805.000			-14.287			-3.572
9904.000			-14.284			-3.571
10004.000			-14.282			-3.571
10104.000			-14.280			-3.570
10204.000			-14.278			-3.570
10303.000			-14.277			-3.569
10404.000			-14.275			-3.569
10504.000			-14.270			-3.568
10605.000			-14.269			-3.567
10704.000			-14.268			-3.567
10803.000			-14.265			-3.566
10905.000			-14.263			-3.566
11004.000			-14.262			-3.565
11104.000			-14.260			-3.565
11205.000			-14.258			-3.564
11304.000			-14.253			-3.563
11404.000			-14.251			-3.563
11504.000			-14.250			-3.563
11604.000			-14.248			-3.562
11704.000			-14.246			-3.562
11805.000			-14.244			-3.561
11904.000			-14.242			-3.561
12004.000			-14.239			-3.560
12105.000			-14.237			-3.559
12203.000			-14.236			-3.559
12304.000			-14.234			-3.558
12405.000			-14.232			-3.558
12504.000			-14.230			-3.558
12604.000			-14.229			-3.557
12705.000			-14.225			-3.556
12804.000			-14.224			-3.556
12903.000			-14.223			-3.556
13005.000			-14.221			-3.555
13104.000			-14.219			-3.555
13204.000			-14.216			-3.554
13305.000			-14.215			-3.554
13403.000			-14.214			-3.554
13505.000			-14.211			-3.553
13604.000			-14.208			-3.552
13704.000			-14.206			-3.552
13805.000			-14.206			-3.551
13904.000			-14.205			-3.551
14004.000			-14.203			-3.551
14104.000			-14.201			-3.550
14204.000			-14.197			-3.549
14304.000			-14.196			-3.549
14405.000			-14.196			-3.549
14504.000			-14.193			-3.548
14604.000			-14.192			-3.548
14705.000			-14.191			-3.548
14803.000			-14.189			-3.547
14904.000			-14.186			-3.547
15005.000			-14.185			-3.546
15104.000			-14.183			-3.546
15204.000			-14.182			-3.545
15305.000			-14.181			-3.545
15404.000			-14.179			-3.545
15503.000			-14.177			-3.544
15605.000			-14.176			-3.544
15704.000			-14.174			-3.544
15804.000			-14.172			-3.543
15905.000			-14.171			-3.543
16004.000			-14.169			-3.542
16104.000			-14.167			-3.542
16204.000			-14.166			-3.542
16304.000			-14.166			-3.541
16404.000			-14.162			-3.541
16504.000			-14.161			-3.540
16604.000			-14.160			-3.540
16703.000			-14.158			-3.540
16804.000			-14.157			-3.539
16903.000			-14.156			-3.539
17005.000			-14.156			-3.539
17104.000			-14.152			-3.538
17204.000			-14.150			-3.537
17305.000			-14.148			-3.537
17403.000			-14.149			-3.537
17504.000			-14.147			-3.537
17605.000			-14.146			-3.537
17704.000			-14.145			-3.536
17804.000			-14.142			-3.535
17905.000			-14.141			-3.535
18004.000			-14.139			-3.535
18103.000			-14.137			-3.534
18205.000			-14.137			-3.534
18304.000			-14.135			-3.534
18404.000			-14.134			-3.533
18505.000			-14.131			-3.533
18604.000			-14.130			-3.532
18704.000			-14.129			-3.532
18804.000			-14.128			-3.532
18904.000			-14.127			-3.532
19004.000			-14.126			-3.532
19105.000			-14.124			-3.531
19204.000			-14.122			-3.530
19304.000			-14.121			-3.530
19405.000			-14.120			-3.530
19503.000			-14.118			-3.529
19604.000			-14.117			-3.529
19705.000			-14.116			-3.529
19804.000			-14.115			-3.529
19905.000			-14.114			-3.529
20003.000			-14.112			-3.528
20104.000			-14.111			-3.528
20205.000			-14.109			-3.527
20304.000			-14.108			-3.527
20404.000			-14.107			-3.527
20505.000			-14.106			-3.526
20604.000			-14.105			-3.526
20703.000			-14.102			-3.525
20805.000			-14.100			-3.525
20904.000			-14.100			-3.525
21004.000			-14.099			-3.525
21105.000			-14.098			-3.525
21204.000			-14.097			-3.524
21304.000			-14.096			-3.524
21404.000			-14.094			-3.524
21504.000			-14.093			-3.523
21604.000			-14.092			-3.523
21705.000			-14.090			-3.523
21804.000			-14.089			-3.522
21903.000			-14.089			-3.522
22005.000			-14.088			-3.522
22104.000			-14.088			-3.522
22204.000			-14.085			-3.521
22305.000			-14.084			-3.521
22404.000			-14.083			-3.521
22504.000			-14.081			-3.520
22604.000			-14.080			-3.520
22704.000			-14.079			-3.520
22804.000			-14.079			-3.520
22904.000			-14.077			-3.519
23004.000			-14.075			-3.519
23105.000			-14.074			-3.518
23204.000			-14.072			-3.518
23303.000			-14.072			-3.518
23405.000			-14.072			-3.518
23504.000			-14.071			-3.518
23604.000			-14.069			-3.517
23705.000			-14.067			-3.517
23804.000			-14.067			-3.517
23904.000			-14.067			-3.517
24004.000			-14.066			-3.516
24104.000			-14.065			-3.516
24204.000			-14.063			-3.516
24305.000			-14.062			-3.516
24404.000			-14.061			-3.515
24504.000			-14.059			-3.515
24605.000			-14.059			-3.515
24703.000			-14.058			-3.514
24804.000			-14.056			-3.514
24905.000			-14.055			-3.514
25004.000			-14.054			-3.513
25104.000			-14.053			-3.513
25204.000			-14.051			-3.513
25304.000			-14.050			-3.513
25404.000			-14.050			-3.513
25505.000			-14.049			-3.512
25604.000			-14.048			-3.512
25704.000			-14.048			-3.512
25805.000			-14.046			-3.511
25903.000			-14.045			-3.511
26004.000			-14.044			-3.511
26105.000			-14.043			-3.511
26204.000			-14.042			-3.510
26305.000			-14.041			-3.510
26404.000			-14.039			-3.510
26504.000			-14.038			-3.509
26604.000			-14.038			-3.509
26704.000			-14.036			-3.509
26804.000			-14.036			-3.509
26905.000			-14.036			-3.509
27004.000			-14.034			-3.509
27104.000			-14.034			-3.508
27205.000			-14.031			-3.508
27304.000			-14.030			-3.508
27404.000			-14.029			-3.507
27505.000			-14.028			-3.507
27604.000			-14.027			-3.507
27704.000			-14.026			-3.507
27804.000			-14.026			-3.506
27904.000			-14.025			-3.506
28004.000			-14.023			-3.506
28105.000			-14.023			-3.506
28204.000			-14.021			-3.505
28304.000			-14.020			-3.505
28405.000			-14.019			-3.505
28503.000			-14.019			-3.505
28604.000			-14.019			-3.505
28705.000			-14.017			-3.504
28804.000			-14.016			-3.504
28904.000			-14.015			-3.504
29005.000			-14.014			-3.504
29104.000			-14.014			-3.503
29203.000			-14.014			-3.503
29305.000			-14.013			-3.503
29404.000			-14.011			-3.503
29505.000			-14.009			-3.502
29604.000			-14.009			-3.502
29703.000			-14.009			-3.502
29805.000			-14.008			-3.502
29904.000			-14.007			-3.502
30004.000			-14.007			-3.502
30105.000			-14.004			-3.501
30204.000			-14.004			-3.501
30304.000			-14.003			-3.501
30404.000			-14.001			-3.500
30504.000			-14.001			-3.500
30604.000			-14.000			-3.500
30705.000			-13.999			-3.500
30804.000			-13.998			-3.500
30904.000			-13.998			-3.499
31005.000			-13.997			-3.499
31103.000			-13.996			-3.499
31204.000			-13.994			-3.499
31305.000			-13.994			-3.499
31404.000			-13.994			-3.498
31504.000			-13.993			-3.498
31605.000			-13.991			-3.498
31704.000			-13.990			-3.497
31803.000			-13.989			-3.497
31905.000			-13.989			-3.497
32004.000			-13.989			-3.497
32104.000			-13.988			-3.497
32205.000			-13.987			-3.497
32304.000			-13.986			-3.497
32404.000			-13.985			-3.496
32503.000			-13.985			-3.496
32604.000			-13.984			-3.496
32705.000			-13.984			-3.496
32804.000			-13.983			-3.496
32904.000			-13.980			-3.495
33005.000			-13.978			-3.494
33104.000			-13.979			-3.495
33203.000			-13.979			-3.495
33305.000			-13.978			-3.494
33404.000			-13.977			-3.494
33504.000			-13.977			-3.494
33605.000			-13.976			-3.494
33704.000			-13.975			-3.494
33804.000			-13.974			-3.493
33904.000			-13.972			-3.493
34004.000			-13.972			-3.493
34104.000			-13.971			-3.493
34205.000			-13.970			-3.493
34304.000			-13.970			-3.493
34404.000			-13.969			-3.492
34505.000			-13.968			-3.492
34603.000			-13.968			-3.492
34704.000			-13.967			-3.492
34805.000			-13.965			-3.491
34904.000			-13.963			-3.491
35004.000			-13.962			-3.491
35105.000			-13.963			-3.491
35204.000			-13.961			-3.490
35303.000			-13.961			-3.490
35405.000			-13.962			-3.490
35504.000			-13.960			-3.490
35604.000			-13.958			-3.489
35705.000			-13.958			-3.489
35804.000			-13.957			-3.489
35905.000			-13.957			-3.489
36003.000			-13.955			-3.489
36104.000			-13.955			-3.489
36205.000			-13.954			-3.488
36304.000			-13.954			-3.488
36404.000			-13.954			-3.488
36505.000			-13.952			-3.488
36604.000			-13.952			-3.488
36703.000			-13.949			-3.487
36805.000			-13.949			-3.487
36904.000			-13.950			-3.488
37004.000			-13.950			-3.487
37105.000			-13.948			-3.487
37204.000			-13.946			-3.487
37304.000			-13.946			-3.486
37404.000			-13.945			-3.486
37504.000			-13.944			-3.486
37604.000			-13.945			-3.486
37705.000			-13.943			-3.486
37804.000			-13.941			-3.485
37904.000			-13.941			-3.485
38005.000			-13.942			-3.485
38103.000			-13.940			-3.485
38204.000			-13.939			-3.485
38305.000			-13.938			-3.485
38404.000			-13.938			-3.485
38504.000			-13.938			-3.484
38605.000			-13.937			-3.484
38704.000			-13.936			-3.484
38803.000			-13.935			-3.484
38905.000			-13.935			-3.484
39004.000			-13.934			-3.484
39105.000			-13.933			-3.483
39204.000			-13.932			-3.483
39304.000			-13.931			-3.483
39405.000			-13.931			-3.483
39503.000			-13.930			-3.483
39604.000			-13.929			-3.482
39705.000			-13.929			-3.482
39804.000			-13.928			-3.482
39904.000			-13.927			-3.482
40005.000			-13.928			-3.482
40104.000			-13.927			-3.482
40203.000			-13.925			-3.481
40305.000			-13.925			-3.481
40404.000			-13.923			-3.481
40504.000			-13.923			-3.481
40605.000			-13.923			-3.481
40703.000			-13.923			-3.481
40804.000			-13.921			-3.480
40905.000			-13.922			-3.480
41004.000			-13.920			-3.480
41104.000			-13.919			-3.480
41205.000			-13.918			-3.480
41304.000			-13.917			-3.479
41403.000			-13.917			-3.479
41505.000			-13.917			-3.479
41604.000			-13.916			-3.479
41704.000			-13.916			-3.479
41805.000			-13.915			-3.479
41904.000			-13.913			-3.478
42004.000			-13.913			-3.478
42103.000			-13.913			-3.478
42204.000			-13.912			-3.478
42305.000			-13.912			-3.478
42404.000			-13.911			-3.478
42504.000			-13.911			-3.478
42605.000			-13.911			-3.478
42704.000			-13.910			-3.478
42803.000			-13.909			-3.477
42905.000			-13.908			-3.477
43004.000			-13.908			-3.477
43104.000			-13.907			-3.477
43205.000			-13.905			-3.476
43304.000			-13.905			-3.476
43404.000			-13.904			-3.476
43504.000			-13.903			-3.476
43604.000			-13.903			-3.476
43704.000			-13.903			-3.476
43805.000			-13.902			-3.475
43904.000			-13.901			-3.475
44004.000			-13.901			-3.475
44105.000			-13.901			-3.475
44204.000			-13.899			-3.475
44304.000			-13.899			-3.475
44405.000			-13.899			-3.475
44504.000			-13.898			-3.474
44604.000			-13.897			-3.474
44704.000			-13.896			-3.474
44804.000			-13.895			-3.474
44903.000			-13.895			-3.474
45005.000			-13.894			-3.474
45104.000			-13.894			-3.473
45204.000			-13.895			-3.474
45305.000			-13.894			-3.473
45403.000			-13.892			-3.473
45505.000			-13.891			-3.473
45604.000			-13.891			-3.473
45704.000			-13.890			-3.473
45805.000			-13.890			-3.472
45904.000			-13.889			-3.472
46004.000			-13.888			-3.472
46105.000			-13.887			-3.472
46204.000			-13.886			-3.472
46303.000			-13.886			-3.472
46405.000			-13.885			-3.471
46504.000			-13.884			-3.471
46604.000			-13.884			-3.471
46705.000			-13.884			-3.471
46804.000			-13.883			-3.471
46904.000			-13.882			-3.471
47004.000			-13.882			-3.470
47104.000			-13.881			-3.470
47204.000			-13.881			-3.470
47305.000			-13.881			-3.470
47404.000			-13.879			-3.470
47504.000			-13.879			-3.470
47605.000			-13.878			-3.470
47703.000			-13.877			-3.469
47804.000			-13.877			-3.469
47905.000			-13.877			-3.469
48004.000			-13.876			-3.469
48104.000			-13.875			-3.469
48205.000			-13.874			-3.469
48304.000			-13.874			-3.468
48403.000			-13.873			-3.468
48505.000			-13.873			-3.468
48604.000			-13.873			-3.468
48705.000			-13.873			-3.468
48804.000			-13.872			-3.468
48904.000			-13.871			-3.468
49005.000			-13.870			-3.467
49103.000			-13.870			-3.467
49204.000			-13.868			-3.467
49305.000			-13.867			-3.467
49404.000			-13.867			-3.467
49504.000			-13.868			-3.467
49605.000			-13.868			-3.467
49704.000			-13.866			-3.466
49803.000			-13.865			-3.466
49905.000			-13.864			-3.466
50004.000			-13.864			-3.466
50104.000			-13.864			-3.466
50205.000			-13.864			-3.466
50304.000			-13.862			-3.466
50404.000			-13.862			-3.466
50504.000			-13.861			-3.465
50604.000			-13.860			-3.465
50704.000			-13.861			-3.465
50805.000			-13.861			-3.465
50904.000			-13.860			-3.465
51004.000			-13.859			-3.465
51105.000			-13.859			-3.465
51203.000			-13.857			-3.464
51304.000			-13.856			-3.464
51405.000			-13.855			-3.464
51504.000			-13.856			-3.464
51604.000			-13.856			-3.464
51704.000			-13.856			-3.464
51804.000			-13.856			-3.464
51903.000			-13.853			-3.463
52004.000			-13.852			-3.463
52104.000			-13.853			-3.463
52205.000			-13.853			-3.463
52304.000			-13.852			-3.463
52404.000			-13.852			-3.463
52505.000			-13.851			-3.463
52603.000			-13.851			-3.463
52704.000			-13.849			-3.462
52805.000			-13.849			-3.462
52904.000			-13.849			-3.462
53004.000			-13.849			-3.462
53105.000			-13.848			-3.462
53204.000			-13.847			-3.462
53303.000			-13.846			-3.461
53405.000			-13.844			-3.461
53504.000			-13.844			-3.461
53604.000			-13.845			-3.461
53705.000			-13.844			-3.461
53803.000			-13.842			-3.460
53904.000			-13.842			-3.460
54004.000			-13.842			-3.460
54104.000			-13.841			-3.460
54204.000			-13.839			-3.460
54305.000			-13.840			-3.460
54404.000			-13.840			-3.460
54503.000			-13.839			-3.460
54605.000			-13.839			-3.460
54704.000			-13.838			-3.460
54804.000			-13.838			-3.460
54905.000			-13.838			-3.459
55004.000			-13.837			-3.459
55105.000			-13.838			-3.459
55204.000			-13.837			-3.459
55304.000			-13.836			-3.459
55404.000			-13.835			-3.459
55504.000			-13.834			-3.459
55604.000			-13.833			-3.458
55705.000			-13.833			-3.458
55804.000			-13.832			-3.458
55903.000			-13.832			-3.458
56005.000			-13.832			-3.458
56104.000			-13.831			-3.458
56204.000			-13.830			-3.458
56305.000			-13.830			-3.458
56404.000			-13.830			-3.457
56504.000			-13.829			-3.457
56604.000			-13.829			-3.457
56704.000			-13.829			-3.457
56804.000			-13.829			-3.457
56905.000			-13.828			-3.457
57004.000			-13.826			-3.457
57104.000			-13.826			-3.456
57205.000			-13.825			-3.456
57303.000			-13.826			-3.456
57404.000			-13.825			-3.456
57505.000			-13.825			-3.456
57604.000			-13.825			-3.456
57704.000			-13.824			-3.456
57805.000			-13.823			-3.456
57904.000			-13.823			-3.456
58003.000			-13.822			-3.455
58105.000			-13.821			-3.455
58204.000			-13.821			-3.455
58305.000			-13.822			-3.455
58404.000			-13.821			-3.455
58504.000			-13.819			-3.455
58605.000			-13.818			-3.455
58703.000			-13.818			-3.455
58804.000			-13.818			-3.455
58905.000			-13.817			-3.454
59004.000			-13.816			-3.454
59104.000			-13.817			-3.454
59205.000			-13.817			-3.454
59304.000			-13.815			-3.454
59403.000			-13.815			-3.454
59505.000			-13.815			-3.454
59604.000			-13.814			-3.453
59704.000			-13.814			-3.453
59805.000			-13.814			-3.453
59904.000			-13.813			-3.453
60004.000			-13.813			-3.453
60104.000			-13.812			-3.453
60204.000			-13.812			-3.453
60304.000			-13.811			-3.453
60405.000			-13.810			-3.452
60504.000			-13.810			-3.452
60604.000			-13.809			-3.452
60705.000			-13.809			-3.452
60803.000			-13.809			-3.452
60904.000			-13.809			-3.452
61005.000			-13.808			-3.452
61104.000			-13.808			-3.452
61204.000			-13.807			-3.452
61304.000			-13.805			-3.451
61404.000			-13.805			-3.451
61503.000			-13.805			-3.451
61604.000			-13.805			-3.451
61704.000			-13.805			-3.451
61805.000			-13.804			-3.451
61904.000			-13.804			-3.451
62004.000			-13.804			-3.451
62105.000			-13.803			-3.451
62203.000			-13.802			-3.451
62304.000			-13.801			-3.450
62405.000			-13.801			-3.450
62504.000			-13.801			-3.450
62604.000			-13.800			-3.450
62705.000			-13.800			-3.450
62804.000			-13.799			-3.450
62903.000			-13.799			-3.450
63005.000			-13.798			-3.449
63104.000			-13.797			-3.449
63204.000			-13.798			-3.449
63305.000			-13.797			-3.449
63404.000			-13.795			-3.449
63504.000			-13.796			-3.449
63604.000			-13.795			-3.449
63704.000			-13.795			-3.449
63804.000			-13.795			-3.449
63905.000			-13.794			-3.448
64004.000			-13.794			-3.448
64104.000			-13.794			-3.448
64205.000			-13.794			-3.448
64303.000			-13.792			-3.448
64404.000			-13.790			-3.448
64505.000			-13.791			-3.448
64604.000			-13.791			-3.448
64705.000			-13.790			-3.448
64804.000			-13.790			-3.448
64904.000			-13.790			-3.448
65004.000			-13.789			-3.447
65104.000			-13.790			-3.447
65204.000			-13.789			-3.447
65305.000			-13.788			-3.447
65404.000			-13.787			-3.447
65504.000			-13.787			-3.447
65605.000			-13.787			-3.447
65703.000			-13.786			-3.446
65804.000			-13.786			-3.446
65905.000			-13.785			-3.446
66004.000			-13.785			-3.446
66104.000			-13.786			-3.446
66205.000			-13.785			-3.446
66304.000			-13.784			-3.446
66403.000			-13.784			-3.446
66505.000			-13.782			-3.446
66604.000			-13.782			-3.445
66704.000			-13.781			-3.445
66805.000			-13.781			-3.445
66904.000			-13.781			-3.445
67004.000			-13.780			-3.445
67104.000			-13.780			-3.445
67204.000			-13.779			-3.445
67303.000			-13.779			-3.445
67405.000			-13.779			-3.445
67504.000			-13.778			-3.444
67604.000			-13.778			-3.444
67705.000			-13.778			-3.444
67804.000			-13.778			-3.444
67905.000			-13.777			-3.444
68003.000			-13.776			-3.444
68104.000			-13.776			-3.444
68205.000			-13.776			-3.444
68304.000			-13.775			-3.444
68404.000			-13.775			-3.444
68505.000			-13.774			-3.444
68604.000			-13.773			-3.443
68703.000			-13.773			-3.443
68805.000			-13.772			-3.443
68904.000			-13.772			-3.443
69004.000			-13.772			-3.443
69105.000			-13.772			-3.443
69204.000			-13.771			-3.443
69304.000			-13.772			-3.443
69404.000			-13.771			-3.443
69504.000			-13.770			-3.442
69604.000			-13.770			-3.442
69705.000			-13.769			-3.442
69804.000			-13.769			-3.442
69904.000			-13.770			-3.442
70005.000			-13.769			-3.442
70104.000			-13.768			-3.442
70204.000			-13.767			-3.442
70304.000			-13.767			-3.442
70404.000			-13.766			-3.442
70504.000			-13.766			-3.441
70605.000			-13.765			-3.441
70704.000			-13.765			-3.441
70804.000			-13.765			-3.441
70905.000			-13.764			-3.441
71003.000			-13.764			-3.441
71105.000			-13.763			-3.441
71204.000			-13.764			-3.441
71304.000			-13.764			-3.441
71405.000			-13.764			-3.441
71504.000			-13.763			-3.441
71604.000			-13.762			-3.440
71704.000			-13.761			-3.440
71804.000			-13.760			-3.440
71904.000			-13.761			-3.440
72005.000			-13.760			-3.440
72104.000			-13.759			-3.440
72204.000			-13.760			-3.440
72305.000			-13.759			-3.440
72403.000			-13.759			-3.440
72504.000			-13.759			-3.440
72605.000			-13.757			-3.439
72704.000			-13.757			-3.439
72804.000			-13.757			-3.439
72905.000			-13.756			-3.439
73004.000			-13.756			-3.439
73103.000			-13.756			-3.439
73205.000			-13.756			-3.439
73304.000			-13.755			-3.439
73404.000			-13.754			-3.439
73505.000			-13.755			-3.439
73604.000			-13.755			-3.439
73704.000			-13.753			-3.438
73804.000			-13.753			-3.438
73904.000			-13.753			-3.438
74004.000			-13.752			-3.438
74104.000			-13.752			-3.438
74204.000			-13.752			-3.438
74305.000			-13.752			-3.438
74404.000			-13.750			-3.438
74503.000			-13.750			-3.437
74605.000			-13.750			-3.438
74704.000			-13.751			-3.438
74804.000			-13.749			-3.437
74905.000			-13.749			-3.437
75004.000			-13.749			-3.437
75104.000			-13.747			-3.437
75204.000			-13.746			-3.437
75304.000			-13.747			-3.437
75404.000			-13.747			-3.437
75505.000			-13.746			-3.437
75604.000			-13.747			-3.437
75704.000			-13.747			-3.437
75805.000			-13.746			-3.436
75903.000			-13.746			-3.436
76004.000			-13.746			-3.437
76105.000			-13.746			-3.437
76204.000			-13.745			-3.436
76304.000			-13.744			-3.436
76405.000			-13.745			-3.436
76504.000			-13.745			-3.436
76603.000			-13.743			-3.436
76705.000			-13.743			-3.436
76804.000			-13.743			-3.436
76904.000			-13.743			-3.436
77005.000			-13.743			-3.436
77104.000			-13.743			-3.436
77204.000			-13.741			-3.435
77303.000			-13.741			-3.435
77404.000			-13.741			-3.435
77505.000			-13.740			-3.435
77604.000			-13.740			-3.435
77704.000			-13.739			-3.435
77805.000			-13.739			-3.435
77904.000			-13.738			-3.435
78003.000			-13.738			-3.434
78105.000			-13.738			-3.434
78204.000			-13.737			-3.434
78304.000			-13.737			-3.434
78405.000			-13.736			-3.434
78504.000			-13.736			-3.434
78604.000			-13.736			-3.434
78704.000			-13.735			-3.434
78804.000			-13.735			-3.434
78904.000			-13.735			-3.434
79005.000			-13.734			-3.434
79104.000			-13.734			-3.434
79204.000			-13.734			-3.434
79305.000			-13.733			-3.433
79403.000			-13.732			-3.433
79504.000			-13.732			-3.433
79605.000			-13.732			-3.433
79704.000			-13.730			-3.433
79804.000			-13.730			-3.433
79905.000			-13.730			-3.433
80004.000			-13.731			-3.433
80103.000			-13.731			-3.433
80205.000			-13.730			-3.432
80304.000			-13.729			-3.432
80404.000			-13.729			-3.432
80505.000			-13.729			-3.432
80604.000			-13.728			-3.432
80705.000			-13.728			-3.432
80803.000			-13.728			-3.432
80904.000			-13.727			-3.432
81005.000			-13.727			-3.432
81104.000			-13.728			-3.432
81204.000			-13.727			-3.432
81305.000			-13.727			-3.432
81404.000			-13.726			-3.432
81503.000			-13.725			-3.431
81605.000			-13.723			-3.431
81704.000			-13.723			-3.431
81804.000			-13.724			-3.431
81905.000			-13.724			-3.431
82004.000			-13.723			-3.431
82104.000			-13.723			-3.431
82204.000			-13.722			-3.431
82304.000			-13.722			-3.431
82404.000			-13.722			-3.430
82505.000			-13.721			-3.430
82604.000			-13.721			-3.430
82704.000			-13.721			-3.430
82805.000			-13.720			-3.430
82903.000			-13.720			-3.430
83004.000			-13.720			-3.430
83105.000			-13.719			-3.430
83204.000			-13.719			-3.430
83304.000			-13.718			-3.430
83405.000			-13.718			-3.430
83504.000			-13.718			-3.429
83603.000			-13.718			-3.429
83705.000			-13.719			-3.430
83804.000			-13.718			-3.429
83905.000			-13.717			-3.429
84004.000			-13.717			-3.429
84104.000			-13.716			-3.429
84205.000			-13.716			-3.429
84303.000			-13.716			-3.429
84404.000			-13.715			-3.429
84505.000			-13.714			-3.428
84604.000			-13.714			-3.429
84704.000			-13.714			-3.429
84805.000			-13.714			-3.429
84904.000			-13.714			-3.428
85003.000			-13.713			-3.428
85105.000			-13.714			-3.428
85204.000			-13.712			-3.428
85304.000			-13.712			-3.428
85405.000			-13.712			-3.428
85504.000			-13.713			-3.428
85604.000			-13.712			-3.428
85705.000			-13.711			-3.428
85804.000			-13.710			-3.428
85903.000			-13.709			-3.427
86005.000			-13.709			-3.427
86104.000			-13.709			-3.427
86204.000			-13.709			-3.427
86305.000			-13.708			-3.427
86404.000			-13.708			-3.427
86504.000			-13.707			-3.427
86604.000			-13.707			-3.427
86704.000			-13.706			-3.427
86804.000			-13.706			-3.426
86904.000			-13.705			-3.426
87004.000			-13.705			-3.426
87105.000			-13.705			-3.426
87204.000			-13.705			-3.426
87303.000			-13.704			-3.426
87405.000			-13.704			-3.426
87504.000			-13.705			-3.426
87604.000			-13.704			-3.426
87705.000			-13.704			-3.426
87804.000			-13.703			-3.426
87904.000			-13.703			-3.426
88004.000			-13.704			-3.426
88104.000			-13.703			-3.426
88204.000			-13.702			-3.426
88305.000			-13.702			-3.425
88404.000			-13.702			-3.425
88504.000			-13.701			-3.425
88605.000			-13.701			-3.425
88703.000			-13.701			-3.425
88804.000			-13.700			-3.425
88905.000			-13.700			-3.425
89004.000			-13.699			-3.425
89104.000			-13.698			-3.425
89205.000			-13.698			-3.425
89304.000			-13.698			-3.425
89403.000			-13.698			-3.424
89505.000			-13.697			-3.424
89604.000			-13.697			-3.424
89704.000			-13.697			-3.424
89805.000			-13.698			-3.424
89904.000			-13.697			-3.424
90004.000			-13.697			-3.424
90103.000			-13.696			-3.424
90204.000			-13.695			-3.424
90305.000			-13.694			-3.424
90404.000			-13.694			-3.423
90504.000			-13.694			-3.423
90605.000			-13.694			-3.423
90704.000			-13.694			-3.423
90803.000			-13.694			-3.424
90905.000			-13.694			-3.423
91004.000			-13.693			-3.423
91104.000			-13.693			-3.423
91205.000			-13.692			-3.423
91304.000			-13.691			-3.423
91404.000			-13.691			-3.423
91504.000			-13.691			-3.423
91604.000			-13.690			-3.423
91704.000			-13.689			-3.422
91805.000			-13.689			-3.422
91904.000			-13.689			-3.422
92004.000			-13.688			-3.422
92105.000			-13.688			-3.422
92204.000			-13.688			-3.422
92304.000			-13.687			-3.422
92404.000			-13.687			-3.422
92504.000			-13.688			-3.422
92604.000			-13.688			-3.422
92705.000			-13.686			-3.422
92804.000			-13.686			-3.422
92904.000			-13.686			-3.421
93005.000			-13.686			-3.421
93103.000			-13.685			-3.421
93204.000			-13.686			-3.421
93305.000			-13.685			-3.421
93404.000			-13.684			-3.421
93505.000			-13.684			-3.421
93604.000			-13.684			-3.421
93704.000			-13.684			-3.421
93804.000			-13.684			-3.421
93904.000			-13.682			-3.421
94004.000			-13.681			-3.420
94105.000			-13.682			-3.420
94204.000			-13.683			-3.421
94304.000			-13.683			-3.421
94405.000			-13.682			-3.420
94503.000			-13.681			-3.420
94604.000			-13.681			-3.420
94705.000			-13.680			-3.420
94804.000			-13.681			-3.420
94904.000			-13.680			-3.420
95005.000			-13.679			-3.420
95104.000			-13.679			-3.420
95204.000			-13.679			-3.420
95305.000			-13.680			-3.420
95403.000			-13.678			-3.420
95504.000			-13.678			-3.420
95605.000			-13.679			-3.420
95704.000			-13.678			-3.420
95804.000			-13.677			-3.419
95905.000			-13.677			-3.419
96004.000			-13.676			-3.419
96103.000			-13.675			-3.419
96205.000			-13.676			-3.419
96304.000			-13.675			-3.419
96404.000			-13.676			-3.419
96505.000			-13.676			-3.419
96604.000			-13.675			-3.419
96705.000			-13.675			-3.419
96803.000			-13.676			-3.419
96904.000			-13.675			-3.419
97005.000			-13.675			-3.419
97104.000			-13.674			-3.418
97204.000			-13.673			-3.418
97305.000			-13.672			-3.418
97404.000			-13.672			-3.418
97504.000			-13.673			-3.418
97605.000			-13.672			-3.418
97703.000			-13.671			-3.418
97804.000			-13.672			-3.418
97905.000			-13.672			-3.418
98004.000			-13.671			-3.418
98104.000			-13.671			-3.418
98205.000			-13.671			-3.418
98304.000			-13.670			-3.417
98403.000			-13.670			-3.418
98505.000			-13.670			-3.418
98604.000			-13.669			-3.417
98704.000			-13.668			-3.417
98805.000			-13.669			-3.417
98904.000			-13.669			-3.417
99004.000			-13.668			-3.417
99104.000			-13.668			-3.417
99204.000			-13.668			-3.417
99304.000			-13.667			-3.417
99405.000			-13.667			-3.417
99504.000			-13.667			-3.417
99604.000			-13.666			-3.417
99705.000			-13.666			-3.416
99803.000			-13.666			-3.416
99905.000			-13.666			-3.416
100003.000			-13.666			-3.416
100104.000			-13.665			-3.416
100205.000			-13.664			-3.416
100304.000			-13.664			-3.416
100404.000			-13.663			-3.416
100505.000			-13.663			-3.416
100604.000			-13.663			-3.416
100703.000			-13.663			-3.416
100805.000			-13.662			-3.415
100904.000			-13.662			-3.416
101004.000			-13.663			-3.416
101105.000			-13.662			-3.415
101204.000			-13.662			-3.416
101304.000			-13.662			-3.415
101404.000			-13.661			-3.415
101504.000			-13.661			-3.415
101604.000			-13.661			-3.415
101705.000			-13.660			-3.415
101804.000			-13.659			-3.415
101904.000			-13.660			-3.415
102005.000			-13.660			-3.415
102103.000			-13.659			-3.415
102204.000			-13.659			-3.415
102305.000			-13.658			-3.415
102404.000			-13.658			-3.415
102504.000			-13.658			-3.415
102605.000			-13.657			-3.414
102704.000			-13.657			-3.414
102803.000			-13.657			-3.414
102905.000			-13.657			-3.414
103004.000			-13.656			-3.414
103105.000			-13.656			-3.414
103204.000			-13.656			-3.414
103304.000			-13.655			-3.414
103405.000			-13.655			-3.414
103503.000			-13.655			-3.414
103604.000			-13.655			-3.414
103705.000			-13.654			-3.414
103804.000			-13.653			-3.413
103904.000			-13.654			-3.414
104005.000			-13.654			-3.413
104104.000			-13.652			-3.413
104203.000			-13.652			-3.413
104305.000			-13.652			-3.413
104404.000			-13.651			-3.413
104504.000			-13.652			-3.413
104605.000			-13.653			-3.413
104704.000			-13.653			-3.413
104804.000			-13.650			-3.412
104904.000			-13.650			-3.412
105004.000			-13.650			-3.412
105103.000			-13.650			-3.413
105205.000			-13.650			-3.412
105304.000			-13.648			-3.412
105404.000			-13.649			-3.412
105505.000			-13.649			-3.412
105604.000			-13.648			-3.412
105704.000			-13.649			-3.412
105804.000			-13.648			-3.412
105904.000			-13.649			-3.412
106004.000			-13.649			-3.412
106104.000			-13.647			-3.412
106204.000			-13.646			-3.412
106305.000			-13.647			-3.412
106404.000			-13.646			-3.412
106503.000			-13.646			-3.411
106605.000			-13.646			-3.411
106704.000			-13.645			-3.411
106804.000			-13.646			-3.411
106905.000			-13.645			-3.411
107004.000			-13.644			-3.411
107104.000			-13.643			-3.411
107204.000			-13.643			-3.411
107304.000			-13.643			-3.411
107404.000			-13.643			-3.411
107505.000			-13.643			-3.411
107604.000			-13.642			-3.411
107704.000			-13.643			-3.411
107805.000			-13.643			-3.411
107903.000			-13.643			-3.411
108004.000			-13.642			-3.410
108105.000			-13.641			-3.410
108204.000			-13.642			-3.410
108304.000			-13.642			-3.410
108405.000			-13.641			-3.410
108504.000			-13.640			-3.410
108603.000			-13.640			-3.410
108705.000			-13.639			-3.410
108803.000			-13.639			-3.410
108904.000			-13.639			-3.410
109005.000			-13.639			-3.410
109104.000			-13.639			-3.410
109204.000			-13.638			-3.409
109304.000			-13.637			-3.409
109404.000			-13.638			-3.409
109503.000			-13.637			-3.409
109604.000			-13.637			-3.409
109704.000			-13.638			-3.409
109805.000			-13.636			-3.409
109904.000			-13.636			-3.409
110004.000			-13.636			-3.409
110105.000			-13.635			-3.409
110203.000			-13.635			-3.409
110304.000			-13.636			-3.409
110405.000			-13.636			-3.409
110504.000			-13.635			-3.409
110604.000			-13.635			-3.409
110705.000			-13.635			-3.409
110804.000			-13.634			-3.408
110903.000			-13.632			-3.408
111005.000			-13.632			-3.408
111104.000			-13.632			-3.408
111204.000			-13.632			-3.408
111305.000			-13.632			-3.408
111404.000			-13.633			-3.408
111504.000			-13.632			-3.408
111604.000			-13.631			-3.408
111704.000			-13.631			-3.408
111804.000			-13.630			-3.407
111905.000			-13.630			-3.408
112004.000			-13.630			-3.408
112104.000			-13.631			-3.408
112205.000			-13.630			-3.408
112303.000			-13.631			-3.408
112404.000			-13.631			-3.408
112505.000			-13.630			-3.408
112604.000			-13.630			-3.407
112705.000			-13.629			-3.407
112804.000			-13.628			-3.407
112904.000			-13.628			-3.407
113005.000			-13.627			-3.407
113104.000			-13.627			-3.407
113203.000			-13.627			-3.407
113305.000			-13.628			-3.407
113404.000			-13.627			-3.407
113504.000			-13.626			-3.406
113605.000			-13.627			-3.407
113704.000			-13.626			-3.407
113804.000			-13.625			-3.406
113904.000			-13.625			-3.406
114004.000			-13.625			-3.406
114104.000			-13.626			-3.407
114205.000			-13.625			-3.406
114304.000			-13.624			-3.406
114404.000			-13.624			-3.406
114505.000			-13.624			-3.406
114603.000			-13.624			-3.406
114704.000			-13.625			-3.406
114805.000			-13.625			-3.406
114904.000			-13.624			-3.406
115004.000			-13.623			-3.406
115105.000			-13.623			-3.406
115204.000			-13.622			-3.406
115303.000			-13.622			-3.405
115405.000			-13.622			-3.406
115504.000			-13.623			-3.406
115604.000			-13.621			-3.405
115705.000			-13.621			-3.405
115804.000			-13.620			-3.405
115905.000			-13.620			-3.405
116003.000			-13.620			-3.405
116104.000			-13.619			-3.405
116205.000			-13.618			-3.405
116304.000			-13.618			-3.405
116404.000			-13.619			-3.405
116505.000			-13.618			-3.405
116604.000			-13.617			-3.404
116703.000			-13.618			-3.405
116805.000			-13.618			-3.405
116904.000			-13.618			-3.404
117004.000			-13.618			-3.404
117105.000			-13.616			-3.404
117204.000			-13.616			-3.404
117304.000			-13.616			-3.404
117404.000			-13.616			-3.404
117504.000			-13.616			-3.404
117604.000			-13.616			-3.404
117705.000			-13.616			-3.404
117804.000			-13.615			-3.404
117904.000			-13.615			-3.404
118005.000			-13.614			-3.404
118104.000			-13.613			-3.403
118204.000			-13.614			-3.403
118304.000			-13.614			-3.403
118404.000			-13.613			-3.403
118504.000			-13.614			-3.404
118605.000			-13.613			-3.403
118704.000			-13.612			-3.403
118804.000			-13.612			-3.403
118905.000			-13.612			-3.403
119003.000			-13.612			-3.403
119105.000			-13.612			-3.403
119204.000			-13.613			-3.403
119304.000			-13.610			-3.403
119405.000			-13.610			-3.402
119504.000			-13.610			-3.402
119604.000			-13.609			-3.402
119704.000			-13.609			-3.402
119804.000			-13.610			-3.403
119904.000			-13.610			-3.402
120005.000			-13.610			-3.402
120104.000			-13.609			-3.402
120204.000			-13.609			-3.402
120305.000			-13.609			-3.402
120403.000			-13.609			-3.402
120504.000			-13.609			-3.402
120605.000			-13.608			-3.402
120704.000			-13.608			-3.402
120804.000			-13.607			-3.402
120905.000			-13.607			-3.402
121004.000			-13.608			-3.402
121103.000			-13.607			-3.402
121205.000			-13.607			-3.402
121304.000			-13.606			-3.401
121404.000			-13.606			-3.401
121505.000			-13.605			-3.401
121604.000			-13.605			-3.401
121704.000			-13.606			-3.401
121804.000			-13.606			-3.402
121904.000			-13.605			-3.401
122003.000			-13.605			-3.401
122105.000			-13.605			-3.401
122204.000			-13.605			-3.401
122305.000			-13.604			-3.401
122404.000			-13.604			-3.401
122504.000			-13.604			-3.401
122605.000			-13.604			-3.401
122703.000			-13.603			-3.401
122804.000			-13.602			-3.400
122905.000			-13.602			-3.400
123004.000			-13.602			-3.401
123104.000			-13.603			-3.401
123205.000			-13.602			-3.400
123304.000			-13.601			-3.400
123403.000			-13.601			-3.400
123505.000			-13.601			-3.400
123604.000			-13.602			-3.401
123704.000			-13.601			-3.400
123805.000			-13.600			-3.400
123904.000			-13.599			-3.400
124004.000			-13.598			-3.400
124104.000			-13.600			-3.400
124204.000			-13.601			-3.400
124304.000			-13.600			-3.400
124405.000			-13.600			-3.400
124504.000			-13.599			-3.400
124604.000			-13.598			-3.399
124705.000			-13.599			-3.400
124803.000			-13.599			-3.400
124904.000			-13.598			-3.400
125005.000			-13.597			-3.399
125104.000			-13.597			-3.399
125204.000			-13.596			-3.399
125304.000			-13.596			-3.399
125404.000			-13.595			-3.399
125503.000			-13.595			-3.399
125604.000			-13.595			-3.399
125703.000			-13.594			-3.399
125805.000			-13.596			-3.399
125904.000			-13.595			-3.399
126004.000			-13.594			-3.399
126105.000			-13.595			-3.399
126204.000			-13.595			-3.399
126304.000			-13.594			-3.398
126404.000			-13.594			-3.398
126504.000			-13.593			-3.398
126604.000			-13.593			-3.398
126705.000			-13.593			-3.398
126804.000			-13.593			-3.398
126904.000			-13.593			-3.398
127005.000			-13.592			-3.398
127103.000			-13.591			-3.398
127204.000			-13.591			-3.398
127305.000			-13.591			-3.398
127404.000			-13.591			-3.398
127504.000			-13.592			-3.398
127605.000			-13.591			-3.398
127704.000			-13.590			-3.398
127803.000			-13.590			-3.398
127905.000			-13.591			-3.398
128004.000			-13.588			-3.397
128104.000			-13.589			-3.397
128205.000			-13.589			-3.397
128304.000			-13.589			-3.397
128404.000			-13.589			-3.397
128504.000			-13.589			-3.397
128604.000			-13.589			-3.397
128703.000			-13.588			-3.397
128804.000			-13.589			-3.397
128904.000			-13.589			-3.397
129005.000			-13.588			-3.397
129104.000			-13.588			-3.397
129204.000			-13.587			-3.397
129305.000			-13.586			-3.396
129403.000			-13.586			-3.397
129504.000			-13.587			-3.397
129604.000			-13.586			-3.396
129704.000			-13.585			-3.396
129804.000			-13.586			-3.396
129905.000			-13.585			-3.396
130004.000			-13.585			-3.396
130104.000			-13.585			-3.396
130205.000			-13.585			-3.396
130303.000			-13.584			-3.396
130404.000			-13.584			-3.396
130505.000			-13.583			-3.396
130604.000			-13.583			-3.396
130704.000			-13.584			-3.396
130805.000			-13.584			-3.396
130904.000			-13.583			-3.396
131003.000			-13.584			-3.396
131105.000			-13.583			-3.396
131204.000			-13.583			-3.396
131304.000			-13.583			-3.396
131405.000			-13.583			-3.396
131504.000			-13.583			-3.396
131604.000			-13.582			-3.395
131704.000			-13.581			-3.395
131804.000			-13.581			-3.395
131903.000			-13.581			-3.395
132004.000			-13.580			-3.395
132104.000			-13.581			-3.395
132205.000			-13.581			-3.395
132304.000			-13.580			-3.395
132404.000			-13.581			-3.395
132505.000			-13.581			-3.395
132604.000			-13.579			-3.395
132704.000			-13.580			-3.395
132804.000			-13.579			-3.395
132904.000			-13.579			-3.395
133004.000			-13.579			-3.395
133105.000			-13.579			-3.395
133204.000			-13.578			-3.395
133304.000			-13.578			-3.394
133405.000			-13.579			-3.395
133504.000			-13.578			-3.394
133604.000			-13.576			-3.394
133704.000			-13.576			-3.394
133804.000			-13.577			-3.394
133903.000			-13.577			-3.394
134005.000			-13.576			-3.394
134104.000			-13.576			-3.394
134204.000			-13.577			-3.394
134305.000			-13.576			-3.394
134404.000			-13.576			-3.394
134504.000			-13.575			-3.394
134605.000			-13.575			-3.394
134704.000			-13.575			-3.394
134803.000			-13.575			-3.394
134905.000			-13.574			-3.393
135004.000			-13.574			-3.394
135105.000			-13.574			-3.393
135204.000			-13.574			-3.393
135304.000			-13.572			-3.393
135405.000			-13.572			-3.393
135504.000			-13.572			-3.393
135604.000			-13.571			-3.393
135704.000			-13.571			-3.393
135804.000			-13.572			-3.393
135904.000			-13.571			-3.393
136005.000			-13.571			-3.393
136104.000			-13.571			-3.393
136204.000			-13.572			-3.393
136305.000			-13.570			-3.393
136404.000			-13.569			-3.392
136504.000			-13.570			-3.392
136604.000			-13.570			-3.393
136704.000			-13.569			-3.392
136804.000			-13.570			-3.392
136905.000			-13.570			-3.393
137004.000			-13.570			-3.393
137104.000			-13.570			-3.392
137205.000			-13.569			-3.392
137304.000			-13.569			-3.392
137404.000			-13.567			-3.392
137504.000			-13.568			-3.392
137604.000			-13.568			-3.392
137704.000			-13.567			-3.392
137805.000			-13.567			-3.392
137904.000			-13.567			-3.392
138004.000			-13.567			-3.392
138105.000			-13.567			-3.392
138204.000			-13.567			-3.392
138305.000			-13.566			-3.392
138403.000			-13.565			-3.391
138504.000			-13.564			-3.391
138605.000			-13.565			-3.391
138704.000			-13.565			-3.391
138804.000			-13.565			-3.391
138905.000			-13.565			-3.391
139004.000			-13.565			-3.391
139104.000			-13.564			-3.391
139205.000			-13.564			-3.391
139303.000			-13.564			-3.391
139404.000			-13.564			-3.391
139505.000			-13.564			-3.391
139604.000			-13.563			-3.391
139704.000			-13.564			-3.391
139805.000			-13.563			-3.391
139904.000			-13.562			-3.391
140004.000			-13.563			-3.391
140105.000			-13.562			-3.391
140203.000			-13.562			-3.391
140304.000			-13.562			-3.390
140405.000			-13.561			-3.390
140504.000			-13.561			-3.390
140604.000			-13.561			-3.390
140705.000			-13.561			-3.390
140804.000			-13.562			-3.390
140904.000			-13.562			-3.390
141005.000			-13.561			-3.390
141103.000			-13.560			-3.390
141204.000			-13.560			-3.390
141305.000			-13.561			-3.390
141404.000			-13.561			-3.390
141505.000			-13.560			-3.390
141604.000			-13.559			-3.390
141704.000			-13.559			-3.390
141805.000			-13.559			-3.390
141904.000			-13.558			-3.389
142003.000			-13.557			-3.389
142105.000			-13.557			-3.389
142204.000			-13.558			-3.389
142304.000			-13.558			-3.389
142405.000			-13.556			-3.389
142504.000			-13.556			-3.389
142604.000			-13.556			-3.389
142705.000			-13.557			-3.389
142804.000			-13.556			-3.389
142903.000			-13.557			-3.389
143005.000			-13.557			-3.389
143104.000			-13.556			-3.389
143204.000			-13.554			-3.388
143305.000			-13.554			-3.389
143404.000			-13.554			-3.389
143504.000			-13.554			-3.389
143604.000			-13.554			-3.389
143704.000			-13.554			-3.388
143803.000			-13.553			-3.388
143905.000			-13.554			-3.389
144004.000			-13.553			-3.388
144104.000			-13.553			-3.388
144205.000			-13.553			-3.388
144304.000			-13.552			-3.388
144404.000			-13.552			-3.388
144503.000			-13.553			-3.388
144604.000			-13.553			-3.388
144705.000			-13.553			-3.388
144804.000			-13.553			-3.388
144904.000			-13.551			-3.388
145005.000			-13.550			-3.388
145104.000			-13.550			-3.388
145204.000			-13.551			-3.388
145305.000			-13.551			-3.388
145403.000			-13.550			-3.388
145504.000			-13.550			-3.388
145605.000			-13.551			-3.388
145704.000			-13.550			-3.387
145804.000			-13.548			-3.387
145905.000			-13.549			-3.387
146004.000			-13.551			-3.388
146103.000			-13.549			-3.387
146205.000			-13.549			-3.387
146303.000			-13.548			-3.387
146404.000			-13.548			-3.387
146505.000			-13.547			-3.387
146604.000			-13.547			-3.387
146704.000			-13.548			-3.387
146805.000			-13.547			-3.387
146904.000			-13.546			-3.387
147004.000			-13.546			-3.387
147105.000			-13.548			-3.387
147203.000			-13.548			-3.387
147304.000			-13.547			-3.387
147405.000			-13.546			-3.387
147504.000			-13.544			-3.386
147604.000			-13.545			-3.386
147704.000			-13.546			-3.387
147804.000			-13.546			-3.386
147905.000			-13.546			-3.386
148004.000			-13.545			-3.386
148103.000			-13.545			-3.386
148205.000			-13.545			-3.386
148304.000			-13.544			-3.386
148404.000			-13.545			-3.386
148505.000			-13.544			-3.386
148604.000			-13.544			-3.386
148704.000			-13.543			-3.386
148804.000			-13.543			-3.386
148904.000			-13.543			-3.386
149003.000			-13.542			-3.386
149105.000			-13.542			-3.385
149204.000			-13.542			-3.385
149304.000			-13.542			-3.385
149405.000			-13.541			-3.385
149504.000			-13.541			-3.385
149604.000			-13.541			-3.385
149704.000			-13.540			-3.385
149804.000			-13.541			-3.385
149903.000			-13.540			-3.385
150005.000			-13.540			-3.385
150104.000			-13.539			-3.385
150204.000			-13.539			-3.385
150305.000			-13.539			-3.385
150404.000			-13.539			-3.385
150504.000			-13.537			-3.384
150604.000			-13.537			-3.384
150704.000			-13.537			-3.384
150804.000			-13.538			-3.384
150904.000			-13.537			-3.384
151004.000			-13.537			-3.384
151105.000			-13.538			-3.384
151204.000			-13.538			-3.384
151304.000			-13.538			-3.384
151405.000			-13.537			-3.384
151503.000			-13.537			-3.384
151604.000			-13.537			-3.384
151705.000			-13.537			-3.384
151804.000			-13.536			-3.384
151904.000			-13.536			-3.384
152005.000			-13.536			-3.384
152104.000			-13.535			-3.384
152204.000			-13.536			-3.384
152305.000			-13.535			-3.384
152403.000			-13.535			-3.384
152504.000			-13.535			-3.384
152605.000			-13.535			-3.384
152704.000			-13.535			-3.384
152804.000			-13.535			-3.384
152905.000			-13.535			-3.384
153004.000			-13.536			-3.384
153104.000			-13.535			-3.384
153205.000			-13.534			-3.383
153303.000			-13.534			-3.384
153404.000			-13.533			-3.383
153505.000			-13.534			-3.383
153604.000			-13.533			-3.383
153704.000			-13.533			-3.383
153805.000			-13.534			-3.383
153904.000			-13.532			-3.383
154003.000			-13.531			-3.383
154105.000			-13.532			-3.383
154203.000			-13.532			-3.383
154305.000			-13.532			-3.383
154404.000			-13.531			-3.383
154504.000			-13.531			-3.383
154605.000			-13.533			-3.383
154704.000			-13.531			-3.383
154804.000			-13.530			-3.383
154904.000			-13.531			-3.383
155004.000			-13.531			-3.383
155104.000			-13.531			-3.383
155205.000			-13.530			-3.382
155304.000			-13.529			-3.382
155404.000			-13.529			-3.382
155505.000			-13.528			-3.382
155604.000			-13.529			-3.382
155704.000			-13.530			-3.382
155804.000			-13.529			-3.382
155904.000			-13.529			-3.382
156004.000			-13.529			-3.382
156105.000			-13.529			-3.382
156204.000			-13.528			-3.382
156304.000			-13.528			-3.382
156405.000			-13.528			-3.382
156504.000			-13.527			-3.382
156604.000			-13.527			-3.382
156704.000			-13.526			-3.382
156804.000			-13.526			-3.382
156904.000			-13.527			-3.382
157005.000			-13.527			-3.382
157104.000			-13.527			-3.382
157204.000			-13.526			-3.381
157305.000			-13.525			-3.381
157404.000			-13.525			-3.381
157505.000			-13.526			-3.382
157603.000			-13.526			-3.381
157704.000			-13.525			-3.381
157805.000			-13.524			-3.381
157904.000			-13.524			-3.381
158004.000			-13.525			-3.381
158105.000			-13.524			-3.381
158204.000			-13.525			-3.381
158304.000			-13.524			-3.381
158405.000			-13.524			-3.381
158503.000			-13.524			-3.381
158604.000			-13.523			-3.381
158705.000			-13.523			-3.381
158804.000			-13.523			-3.381
158904.000			-13.523			-3.381
159005.000			-13.522			-3.381
159104.000			-13.522			-3.381
159204.000			-13.522			-3.380
159305.000			-13.522			-3.380
159403.000			-13.521			-3.380
159504.000			-13.521			-3.380
159605.000			-13.521			-3.380
159704.000			-13.521			-3.380
159804.000			-13.521			-3.380
159905.000			-13.521			-3.380
160004.000			-13.520			-3.380
160104.000			-13.518			-3.380
160205.000			-13.519			-3.380
160303.000			-13.519			-3.380
160404.000			-13.519			-3.380
160505.000			-13.519			-3.380
160604.000			-13.518			-3.379
160705.000			-13.518			-3.379
160804.000			-13.518			-3.380
160904.000			-13.518			-3.380
161004.000			-13.518			-3.379
161104.000			-13.517			-3.379
161203.000			-13.517			-3.379
161305.000			-13.517			-3.379
161404.000			-13.516			-3.379
161504.000			-13.517			-3.379
161605.000			-13.517			-3.379
161704.000			-13.515			-3.379
161804.000			-13.516			-3.379
161904.000			-13.516			-3.379
162004.000			-13.516			-3.379
162103.000			-13.515			-3.379
162205.000			-13.514			-3.379
162304.000			-13.514			-3.379
162404.000			-13.515			-3.379
162505.000			-13.514			-3.379
162604.000			-13.515			-3.379
162704.000			-13.515			-3.379
162804.000			-13.515			-3.379
162904.000			-13.514			-3.378
163004.000			-13.513			-3.378
163105.000			-13.513			-3.378
163204.000			-13.513			-3.378
163304.000			-13.512			-3.378
163405.000			-13.512			-3.378
163504.000			-13.512			-3.378
163604.000			-13.512			-3.378
163703.000			-13.511			-3.378
163804.000			-13.512			-3.378
163905.000			-13.512			-3.378
164004.000			-13.512			-3.378
164104.000			-13.512			-3.378
164205.000			-13.511			-3.378
164304.000			-13.511			-3.378
164403.000			-13.511			-3.378
164505.000			-13.512			-3.378
164604.000			-13.511			-3.378
164704.000			-13.510			-3.377
164805.000			-13.510			-3.377
164904.000			-13.509			-3.377
165004.000			-13.509			-3.377
165105.000			-13.510			-3.377
165204.000			-13.509			-3.377
165303.000			-13.509			-3.377
165405.000			-13.508			-3.377
165504.000			-13.508			-3.377
165604.000			-13.509			-3.377
165705.000			-13.508			-3.377
165804.000			-13.508			-3.377
165904.000			-13.509			-3.377
166005.000			-13.508			-3.377
166104.000			-13.507			-3.377
166203.000			-13.508			-3.377
166305.000			-13.508			-3.377
166404.000			-13.507			-3.377
166504.000			-13.506			-3.377
166605.000			-13.505			-3.376
166704.000			-13.506			-3.377
166804.000			-13.507			-3.377
166904.000			-13.506			-3.377
167004.000			-13.507			-3.377
167103.000			-13.506			-3.377
167204.000			-13.507			-3.377
167304.000			-13.506			-3.377
167405.000			-13.506			-3.376
167504.000			-13.505			-3.376
167604.000			-13.505			-3.376
167705.000			-13.505			-3.376
167804.000			-13.505			-3.376
167904.000			-13.504			-3.376
168004.000			-13.504			-3.376
168104.000			-13.504			-3.376
168204.000			-13.504			-3.376
168305.000			-13.504			-3.376
168404.000			-13.504			-3.376
168504.000			-13.504			-3.376
168605.000			-13.503			-3.376
168703.000			-13.504			-3.376
168804.000			-13.503			-3.376
168904.000			-13.502			-3.375
169004.000			-13.503			-3.376
169104.000			-13.504			-3.376
169205.000			-13.503			-3.376
169304.000			-13.502			-3.376
169404.000			-13.502			-3.375
169505.000			-13.502			-3.376
169603.000			-13.502			-3.376
169704.000			-13.501			-3.375
169805.000			-13.501			-3.375
169904.000			-13.500			-3.375
170004.000			-13.500			-3.375
170104.000			-13.500			-3.375
170204.000			-13.501			-3.375
170305.000			-13.501			-3.375
170404.000			-13.501			-3.375
170503.000			-13.501			-3.375
170605.000			-13.500			-3.375
170704.000			-13.499			-3.375
170804.000			-13.499			-3.375
170905.000			-13.500			-3.375
171004.000			-13.499			-3.375
171104.000			-13.498			-3.374
171205.000			-13.498			-3.374
171304.000			-13.498			-3.374
171403.000			-13.498			-3.374
171505.000			-13.498			-3.375
171604.000			-13.498			-3.374
171704.000			-13.497			-3.374
171805.000			-13.497			-3.374
171904.000			-13.497			-3.374
172004.000			-13.497			-3.374
172105.000			-13.497			-3.374
172204.000			-13.496			-3.374
172303.000			-13.496			-3.374
172405.000			-13.496			-3.374
172504.000			-13.496			-3.374
172604.000			-13.496			-3.374
172705.000			-13.495			-3.374
172804.000			-13.495			-3.374
172904.000			-13.495			-3.374
173005.000			-13.495			-3.374
173104.000			-13.495			-3.374
173203.000			-13.494			-3.374
173305.000			-13.494			-3.374
173404.000			-13.494			-3.373
173505.000			-13.493			-3.373
173604.000			-13.493			-3.373
173704.000			-13.493			-3.373
173805.000			-13.493			-3.373
173904.000			-13.493			-3.373
174004.000			-13.493			-3.373
174104.000			-13.493			-3.373
174204.000			-13.493			-3.373
174303.000			-13.493			-3.373
174405.000			-13.492			-3.373
174504.000			-13.492			-3.373
174604.000			-13.493			-3.373
174705.000			-13.492			-3.373
174804.000			-13.492			-3.373
174904.000			-13.492			-3.373
175004.000			-13.491			-3.373
175104.000			-13.492			-3.373
175203.000			-13.491			-3.373
175305.000			-13.491			-3.373
175404.000			-13.489			-3.372
175504.000			-13.490			-3.373
175605.000			-13.491			-3.373
175704.000			-13.490			-3.372
175804.000			-13.490			-3.372
175904.000			-13.489			-3.372
176004.000			-13.489			-3.372
176103.000			-13.488			-3.372
176205.000			-13.488			-3.372
176304.000			-13.489			-3.372
176404.000			-13.488			-3.372
176505.000			-13.488			-3.372
176604.000			-13.487			-3.372
176705.000			-13.487			-3.372
176804.000			-13.487			-3.372
176904.000			-13.486			-3.372
177004.000			-13.486			-3.372
177104.000			-13.486			-3.371
177204.000			-13.485			-3.371
177305.000			-13.486			-3.371
177404.000			-13.486			-3.372
177504.000			-13.486			-3.372
177605.000			-13.485			-3.371
177704.000			-13.483			-3.371
177804.000			-13.483			-3.371
177904.000			-13.485			-3.371
178004.000			-13.483			-3.371
178104.000			-13.484			-3.371
178205.000			-13.484			-3.371
178304.000			-13.484			-3.371
178404.000			-13.484			-3.371
178505.000			-13.483			-3.371
178604.000			-13.483			-3.371
178704.000			-13.484			-3.371
178804.000			-13.483			-3.371
178904.000			-13.482			-3.371
179003.000			-13.483			-3.371
179105.000			-13.483			-3.371
179204.000			-13.483			-3.371
179304.000			-13.483			-3.371
179405.000			-13.483			-3.371
179504.000			-13.482			-3.371
179604.000			-13.482			-3.371
179703.000			-13.483			-3.371
179804.000			-13.483			-3.371
179903.000			-13.482			-3.370
180004.000			-13.482			-3.371
180104.000			-13.481			-3.370
180205.000			-13.482			-3.371
180304.000			-13.482			-3.371
180404.000			-13.481			-3.370
180505.000			-13.482			-3.370
180603.000			-13.482			-3.370
180704.000			-13.480			-3.370
180804.000			-13.479			-3.370
180904.000			-13.482			-3.371
181004.000			-13.482			-3.370
181105.000			-13.481			-3.370
181204.000			-13.481			-3.370
181304.000			-13.480			-3.370
181405.000			-13.481			-3.370
181503.000			-13.480			-3.370
181604.000			-13.480			-3.370
181704.000			-13.480			-3.370
181804.000			-13.480			-3.370
181904.000			-13.480			-3.370
182005.000			-13.480			-3.370
182104.000			-13.480			-3.370
182204.000			-13.479			-3.370
182305.000			-13.478			-3.370
182403.000			-13.477			-3.369
182504.000			-13.478			-3.370
182604.000			-13.480			-3.370
182704.000			-13.479			-3.370
182804.000			-13.478			-3.369
182904.000			-13.478			-3.370
183004.000			-13.478			-3.369
183105.000			-13.477			-3.369
183204.000			-13.478			-3.369
183303.000			-13.477			-3.369
183405.000			-13.477			-3.369
183503.000			-13.477			-3.369
183604.000			-13.477			-3.369
183705.000			-13.477			-3.369
183804.000			-13.476			-3.369
183904.000			-13.476			-3.369
184005.000			-13.476			-3.369
184104.000			-13.477			-3.369
184204.000			-13.475			-3.369
184305.000			-13.475			-3.369
184403.000			-13.476			-3.369
184504.000			-13.476			-3.369
184605.000			-13.476			-3.369
184704.000			-13.476			-3.369
184804.000			-13.475			-3.369
184905.000			-13.475			-3.369
185004.000			-13.474			-3.368
185104.000			-13.474			-3.368
185205.000			-13.474			-3.369
185303.000			-13.474			-3.368
185404.000			-13.474			-3.368
185505.000			-13.474			-3.368
185604.000			-13.473			-3.368
185704.000			-13.473			-3.368
185805.000			-13.472			-3.368
185904.000			-13.473			-3.368
186004.000			-13.473			-3.368
186105.000			-13.472			-3.368
186203.000			-13.473			-3.368
186305.000			-13.472			-3.368
186404.000			-13.472			-3.368
186504.000			-13.472			-3.368
186605.000			-13.471			-3.368
186704.000			-13.471			-3.368
186804.000			-13.472			-3.368
186905.000			-13.472			-3.368
187004.000			-13.471			-3.368
187103.000			-13.471			-3.368
187205.000			-13.471			-3.368
187304.000			-13.471			-3.368
187404.000			-13.470			-3.368
187505.000			-13.470			-3.368
187604.000			-13.470			-3.368
187704.000			-13.470			-3.367
187805.000			-13.470			-3.367
187904.000			-13.470			-3.368
188003.000			-13.471			-3.368
188105.000			-13.470			-3.367
188203.000			-13.469			-3.367
188304.000			-13.470			-3.368
188405.000			-13.469			-3.367
188504.000			-13.469			-3.367
188604.000			-13.469			-3.367
188705.000			-13.469			-3.367
188804.000			-13.468			-3.367
188903.000			-13.467			-3.367
189005.000			-13.468			-3.367
189103.000			-13.468			-3.367
189204.000			-13.467			-3.367
189305.000			-13.468			-3.367
189404.000			-13.468			-3.367
189505.000			-13.467			-3.367
189604.000			-13.466			-3.367
189704.000			-13.467			-3.367
189805.000			-13.467			-3.367
189904.000			-13.467			-3.367
190003.000			-13.467			-3.367
190105.000			-13.468			-3.367
190204.000			-13.466			-3.366
190304.000			-13.465			-3.366
190405.000			-13.466			-3.367
190504.000			-13.466			-3.366
190604.000			-13.465			-3.366
190705.000			-13.465			-3.366
190804.000			-13.464			-3.366
190903.000			-13.465			-3.366
191005.000			-13.464			-3.366
191104.000			-13.465			-3.366
191204.000			-13.465			-3.366
191305.000			-13.465			-3.366
191404.000			-13.465			-3.366
191504.000			-13.464			-3.366
191605.000			-13.463			-3.366
191704.000			-13.463			-3.366
191803.000			-13.462			-3.366
191905.000			-13.462			-3.366
192004.000			-13.462			-3.365
192104.000			-13.462			-3.365
192205.000			-13.461			-3.365
192304.000			-13.460			-3.365
192404.000			-13.460			-3.365
192504.000			-13.460			-3.365
192604.000			-13.459			-3.365
192703.000			-13.458			-3.365
192804.000			-13.458			-3.365
192904.000			-13.458			-3.364
193005.000			-13.459			-3.365
193104.000			-13.458			-3.365
193204.000			-13.459			-3.365
193305.000			-13.459			-3.365
193404.000			-13.459			-3.365
193504.000			-13.458			-3.364
193604.000			-13.457			-3.364
193704.000			-13.457			-3.364
193804.000			-13.458			-3.364
193905.000			-13.458			-3.364
194004.000			-13.457			-3.364
194104.000			-13.456			-3.364
194205.000			-13.457			-3.364
194304.000			-13.457			-3.364
194404.000			-13.457			-3.364
194504.000			-13.456			-3.364
194604.000			-13.457			-3.364
194704.000			-13.456			-3.364
194805.000			-13.457			-3.364
194904.000			-13.456			-3.364
195004.000			-13.456			-3.364
195105.000			-13.456			-3.364
195204.000			-13.456			-3.364
195304.000			-13.456			-3.364
195404.000			-13.456			-3.364
195504.000			-13.456			-3.364
195604.000			-13.455			-3.364
195704.000			-13.456			-3.364
195804.000			-13.456			-3.364
195905.000			-13.456			-3.364
196004.000			-13.456			-3.364
196104.000			-13.455			-3.364
196205.000			-13.456			-3.364
196303.000			-13.456			-3.364
196404.000			-13.455			-3.364
196504.000			-13.455			-3.364
196604.000			-13.456			-3.364
196704.000			-13.455			-3.364
196805.000			-13.454			-3.363
196904.000			-13.455			-3.364
197004.000			-13.455			-3.364
197105.000			-13.455			-3.364
197204.000			-13.455			-3.364
197304.000			-13.454			-3.364
197404.000			-13.454			-3.363
197504.000			-13.454			-3.363
197604.000			-13.454			-3.363
197705.000			-13.453			-3.363
197804.000			-13.453			-3.363
197904.000			-13.453			-3.363
198005.000			-13.453			-3.363
198104.000			-13.453			-3.363
198204.000			-13.453			-3.363
198304.000			-13.453			-3.363
198404.000			-13.453			-3.363
198504.000			-13.453			-3.363
198605.000			-13.453			-3.363
198704.000			-13.453			-3.363
198804.000			-13.453			-3.363
198905.000			-13.452			-3.363
199004.000			-13.450			-3.363
199105.000			-13.451			-3.363
199203.000			-13.450			-3.363
199304.000			-13.451			-3.363
199405.000			-13.450			-3.363
199504.000			-13.449			-3.362
199604.000			-13.449			-3.362
199705.000			-13.448			-3.362
199804.000			-13.448			-3.362
199904.000			-13.447			-3.362
200005.000			-13.447			-3.362
200103.000			-13.447			-3.362
200204.000			-13.447			-3.362
200305.000			-13.448			-3.362
200404.000			-13.448			-3.362
200504.000			-13.448			-3.362
200605.000			-13.447			-3.362
200704.000			-13.447			-3.362
200804.000			-13.447			-3.362
200905.000			-13.446			-3.361
201003.000			-13.445			-3.361
201104.000			-13.446			-3.362
201205.000			-13.447			-3.362
201304.000			-13.446			-3.362
201404.000			-13.447			-3.362
201505.000			-13.446			-3.362
201604.000			-13.446			-3.362
201703.000			-13.446			-3.362
201805.000			-13.446			-3.362
201903.000			-13.445			-3.361
202004.000			-13.445			-3.361
202105.000			-13.446			-3.361
202204.000			-13.445			-3.361
202305.000			-13.445			-3.361
202404.000			-13.443			-3.361
202504.000			-13.444			-3.361
202604.000			-13.443			-3.361
202704.000			-13.442			-3.360
202804.000			-13.441			-3.360
202905.000			-13.441			-3.360
203004.000			-13.442			-3.360
203104.000			-13.442			-3.360
203205.000			-13.441			-3.360
203304.000			-13.440			-3.360
203404.000			-13.440			-3.360
203504.000			-13.439			-3.360
203604.000			-13.439			-3.360
203704.000			-13.439			-3.360
203805.000			-13.439			-3.360
203904.000			-13.440			-3.360
204004.000			-13.440			-3.360
204105.000			-13.439			-3.360
204204.000			-13.439			-3.360
204304.000			-13.438			-3.359
204404.000			-13.438			-3.359
204504.000			-13.438			-3.360
204604.000			-13.438			-3.359
204705.000			-13.439			-3.360
204804.000			-13.439			-3.360
204904.000			-13.439			-3.360
205005.000			-13.438			-3.359
205103.000			-13.437			-3.359
205204.000			-13.437			-3.359
205303.000			-13.438			-3.360
205404.000			-13.438			-3.360
205505.000			-13.438			-3.359
205604.000			-13.437			-3.359
205704.000			-13.437			-3.359
205805.000			-13.436			-3.359
205904.000			-13.435			-3.359
206003.000			-13.435			-3.359
206105.000			-13.435			-3.359
206204.000			-13.436			-3.359
206304.000			-13.436			-3.359
206405.000			-13.435			-3.359
206504.000			-13.435			-3.359
206604.000			-13.434			-3.359
206705.000			-13.434			-3.358
206804.000			-13.435			-3.359
206903.000			-13.434			-3.358
207005.000			-13.434			-3.359
207104.000			-13.435			-3.359
207204.000			-13.434			-3.359
207305.000			-13.434			-3.358
207404.000			-13.435			-3.359
207504.000			-13.435			-3.359
207604.000			-13.435			-3.359
207704.000			-13.435			-3.359
207803.000			-13.435			-3.359
207905.000			-13.435			-3.359
208004.000			-13.435			-3.359
208104.000			-13.434			-3.359
208205.000			-13.434			-3.359
208304.000			-13.434			-3.359
208404.000			-13.433			-3.358
208503.000			-13.433			-3.358
208604.000			-13.433			-3.358
208703.000			-13.433			-3.358
208804.000			-13.432			-3.358
208904.000			-13.432			-3.358
209005.000			-13.432			-3.358
209104.000			-13.431			-3.358
209204.000			-13.430			-3.358
209305.000			-13.430			-3.357
209403.000			-13.430			-3.358
209504.000			-13.430			-3.358
209605.000			-13.429			-3.357
209704.000			-13.429			-3.357
209804.000			-13.429			-3.357
209905.000			-13.429			-3.357
210004.000			-13.427			-3.357
210104.000			-13.427			-3.357
210205.000			-13.426			-3.357
210303.000			-13.427			-3.357
210404.000			-13.427			-3.357
210505.000			-13.426			-3.357
210604.000			-13.426			-3.356
210704.000			-13.426			-3.356
210805.000			-13.426			-3.357
210904.000			-13.425			-3.356
211003.000			-13.426			-3.356
211105.000			-13.425			-3.356
211203.000			-13.425			-3.356
211304.000			-13.425			-3.356
211405.000			-13.426			-3.356
211504.000			-13.425			-3.356
211604.000			-13.425			-3.356
211704.000			-13.424			-3.356
211804.000			-13.424			-3.356
211903.000			-13.423			-3.356
212004.000			-13.424			-3.356
212104.000			-13.423			-3.356
212205.000			-13.423			-3.356
212304.000			-13.423			-3.356
212404.000			-13.423			-3.356
212505.000			-13.423			-3.356
212604.000			-13.422			-3.356
212704.000			-13.423			-3.356
212804.000			-13.423			-3.356
212904.000			-13.423			-3.356
213004.000			-13.423			-3.356
213105.000			-13.423			-3.356
213204.000			-13.422			-3.356
213304.000			-13.421			-3.355
213405.000			-13.422			-3.356
213503.000			-13.421			-3.355
213604.000			-13.421			-3.355
213705.000			-13.422			-3.355
213804.000			-13.421			-3.355
213904.000			-13.420			-3.355
214005.000			-13.420			-3.355
214104.000			-13.420			-3.355
214204.000			-13.421			-3.355
214305.000			-13.421			-3.355
214403.000			-13.421			-3.355
214504.000			-13.421			-3.355
214605.000			-13.420			-3.355
214704.000			-13.420			-3.355
214804.000			-13.419			-3.355
214904.000			-13.420			-3.355
215004.000			-13.418			-3.354
215103.000			-13.418			-3.354
215204.000			-13.418			-3.355
215303.000			-13.418			-3.354
215405.000			-13.419			-3.355
215504.000			-13.419			-3.355
215604.000			-13.418			-3.355
215705.000			-13.418			-3.355
215804.000			-13.418			-3.354
215904.000			-13.419			-3.355
216004.000			-13.419			-3.355
216104.000			-13.418			-3.354
216204.000			-13.418			-3.354
216305.000			-13.417			-3.354
216404.000			-13.418			-3.354
216504.000			-13.417			-3.354
216605.000			-13.417			-3.354
216704.000			-13.418			-3.354
216804.000			-13.418			-3.355
216904.000			-13.417			-3.354
217004.000			-13.417			-3.354
217104.000			-13.416			-3.354
217205.000			-13.416			-3.354
217304.000			-13.416			-3.354
217404.000			-13.417			-3.354
217505.000			-13.417			-3.354
217604.000			-13.416			-3.354
217704.000			-13.417			-3.354
217804.000			-13.417			-3.354
217904.000			-13.417			-3.354
218004.000			-13.417			-3.354
218104.000			-13.417			-3.354
218204.000			-13.417			-3.354
218305.000			-13.417			-3.354
218404.000			-13.416			-3.354
218504.000			-13.417			-3.354
218605.000			-13.418			-3.354
218703.000			-13.418			-3.354
218804.000			-13.417			-3.354
218905.000			-13.417			-3.354
219004.000			-13.417			-3.354
219104.000			-13.417			-3.354
219205.000			-13.416			-3.354
219304.000			-13.416			-3.354
219404.000			-13.416			-3.354
219505.000			-13.418			-3.355
219603.000			-13.418			-3.355
219704.000			-13.418			-3.354
219805.000			-13.418			-3.354
219904.000			-13.418			-3.354
220004.000			-13.418			-3.354
220105.000			-13.417			-3.354
220204.000			-13.418			-3.354
220304.000			-13.417			-3.354
220405.000			-13.417			-3.354
220503.000			-13.418			-3.354
220604.000			-13.418			-3.354
220705.000			-13.416			-3.354
220804.000			-13.417			-3.354
220904.000			-13.417			-3.354
221005.000			-13.417			-3.354
221104.000			-13.416			-3.354
221203.000			-13.416			-3.354
221305.000			-13.416			-3.354
221404.000			-13.417			-3.354
221505.000			-13.416			-3.354
221604.000			-13.416			-3.354
221704.000			-13.416			-3.354
221805.000			-13.416			-3.354
221904.000			-13.417			-3.354
222004.000			-13.417			-3.354
222104.000			-13.417			-3.354
222204.000			-13.418			-3.354
222304.000			-13.417			-3.354
222405.000			-13.417			-3.354
222504.000			-13.416			-3.354
222604.000			-13.416			-3.354
222705.000			-13.416			-3.354
222804.000			-13.415			-3.354
222904.000			-13.415			-3.354
223004.000			-13.415			-3.354
223104.000			-13.415			-3.354
223204.000			-13.414			-3.354
223305.000			-13.414			-3.353
223404.000			-13.413			-3.353
223504.000			-13.413			-3.353
223605.000			-13.412			-3.353
223703.000			-13.413			-3.353
223804.000			-13.413			-3.353
223905.000			-13.413			-3.353
224004.000			-13.412			-3.353
224104.000			-13.412			-3.353
224205.000			-13.412			-3.353
224304.000			-13.411			-3.353
224403.000			-13.409			-3.352
224505.000			-13.409			-3.352
224603.000			-13.408			-3.352
224705.000			-13.409			-3.352
224804.000			-13.409			-3.352
224904.000			-13.409			-3.352
225005.000			-13.407			-3.352
225104.000			-13.408			-3.352
225204.000			-13.407			-3.352
225304.000			-13.408			-3.352
225404.000			-13.408			-3.352
225503.000			-13.408			-3.352
225605.000			-13.408			-3.352
225704.000			-13.408			-3.352
225804.000			-13.408			-3.352
225905.000			-13.408			-3.352
226004.000			-13.408			-3.352
226104.000			-13.408			-3.352
226204.000			-13.409			-3.352
226304.000			-13.408			-3.352
226404.000			-13.409			-3.352
226505.000			-13.409			-3.352
226604.000			-13.408			-3.352
226704.000			-13.408			-3.352
226805.000			-13.407			-3.352
226904.000			-13.407			-3.352
227004.000			-13.407			-3.352
227104.000			-13.407			-3.352
227204.000			-13.406			-3.352
227304.000			-13.407			-3.352
227405.000			-13.407			-3.352
227504.000			-13.407			-3.352
227604.000			-13.406			-3.351
227705.000			-13.405			-3.351
227804.000			-13.406			-3.351
227905.000			-13.405			-3.351
228003.000			-13.406			-3.351
228104.000			-13.406			-3.351
228205.000			-13.405			-3.351
228304.000			-13.404			-3.351
228404.000			-13.405			-3.351
228505.000			-13.405			-3.351
228604.000			-13.403			-3.351
228704.000			-13.404			-3.351
228805.000			-13.404			-3.351
228903.000			-13.404			-3.351
229004.000			-13.403			-3.351
229105.000			-13.402			-3.350
229204.000			-13.402			-3.351
229304.000			-13.401			-3.350
229405.000			-13.401			-3.350
229504.000			-13.401			-3.350
229603.000			-13.401			-3.350
229705.000			-13.401			-3.350
229803.000			-13.400			-3.350
229904.000			-13.400			-3.350
230005.000			-13.400			-3.350
230104.000			-13.401			-3.350
230204.000			-13.400			-3.350
230305.000			-13.400			-3.350
230404.000			-13.400			-3.350
230503.000			-13.400			-3.350
230605.000			-13.400			-3.350
230704.000			-13.399			-3.350
230804.000			-13.399			-3.350
230905.000			-13.398			-3.350
231004.000			-13.397			-3.349
231105.000			-13.398			-3.349
231204.000			-13.399			-3.350
231304.000			-13.399			-3.350
231404.000			-13.399			-3.350
231504.000			-13.399			-3.350
231604.000			-13.398			-3.350
231705.000			-13.398			-3.349
231804.000			-13.397			-3.349
231904.000			-13.398			-3.349
232005.000			-13.399			-3.350
232104.000			-13.399			-3.350
232204.000			-13.398			-3.349
232304.000			-13.397			-3.349
232404.000			-13.398			-3.350
232504.000			-13.399			-3.350
232605.000			-13.397			-3.349
232704.000			-13.398			-3.349
232804.000			-13.398			-3.350
232905.000			-13.398			-3.349
233004.000			-13.398			-3.349
233104.000			-13.398			-3.349
233204.000			-13.397			-3.349
233304.000			-13.398			-3.349
233404.000			-13.397			-3.349
233505.000			-13.398			-3.349
233604.000			-13.399			-3.350
233704.000			-13.397			-3.349
233805.000			-13.397			-3.349
233904.000			-13.397			-3.349
234004.000			-13.398			-3.349
234103.000			-13.397			-3.349
234204.000			-13.396			-3.349
234305.000			-13.396			-3.349
234404.000			-13.397			-3.349
234504.000			-13.397			-3.349
234605.000			-13.398			-3.349
234704.000			-13.397			-3.349
234804.000			-13.397			-3.349
234905.000			-13.397			-3.349
235003.000			-13.398			-3.349
235104.000			-13.399			-3.350
235205.000			-13.396			-3.349
235304.000			-13.397			-3.349
235404.000			-13.397			-3.349
235505.000			-13.397			-3.349
235604.000			-13.397			-3.349
235704.000			-13.397			-3.349
235805.000			-13.398			-3.349
235903.000			-13.398			-3.349
236004.000			-13.397			-3.349
236104.000			-13.397			-3.349
236204.000			-13.398			-3.349
236304.000			-13.396			-3.349
236405.000			-13.396			-3.349
236504.000			-13.396			-3.349
236604.000			-13.397			-3.349
236705.000			-13.397			-3.349
236804.000			-13.397			-3.349
236904.000			-13.396			-3.349
237004.000			-13.396			-3.349
237104.000			-13.396			-3.349
237204.000			-13.396			-3.349
237304.000			-13.395			-3.349
237404.000			-13.395			-3.349
237505.000			-13.395			-3.349
237604.000			-13.395			-3.349
237704.000			-13.396			-3.349
237805.000			-13.396			-3.349
237903.000			-13.396			-3.349
238004.000			-13.395			-3.349
238105.000			-13.395			-3.349
238204.000			-13.395			-3.349
238304.000			-13.396			-3.349
238405.000			-13.395			-3.349
238504.000			-13.395			-3.349
238604.000			-13.395			-3.349
238705.000			-13.395			-3.349
238803.000			-13.394			-3.348
238904.000			-13.394			-3.348
239005.000			-13.394			-3.348
239104.000			-13.394			-3.348
239204.000			-13.394			-3.348
239305.000			-13.394			-3.349
239404.000			-13.394			-3.348
239504.000			-13.394			-3.349
239605.000			-13.394			-3.349
239703.000			-13.394			-3.348
239804.000			-13.394			-3.348
239904.000			-13.394			-3.348
240004.000			-13.394			-3.348
240104.000			-13.394			-3.348
240205.000			-13.393			-3.348
240304.000			-13.394			-3.348
240404.000			-13.393			-3.348
240505.000			-13.392			-3.348
240603.000			-13.392			-3.348
240705.000			-13.392			-3.348
240803.000			-13.392			-3.348
240904.000			-13.392			-3.348
241005.000			-13.392			-3.348
241104.000			-13.392			-3.348
241204.000			-13.392			-3.348
241305.000			-13.391			-3.348
241404.000			-13.391			-3.348
241503.000			-13.392			-3.348
241605.000			-13.392			-3.348
241704.000			-13.391			-3.348
241804.000			-13.390			-3.348
241905.000			-13.390			-3.347
242004.000			-13.389			-3.347
242104.000			-13.389			-3.347
242205.000			-13.390			-3.348
242304.000			-13.391			-3.348
242403.000			-13.390			-3.348
242505.000			-13.391			-3.348
242604.000			-13.390			-3.348
242704.000			-13.390			-3.347
242805.000			-13.389			-3.347
242904.000			-13.389			-3.347
243004.000			-13.389			-3.347
243105.000			-13.389			-3.347
243204.000			-13.389			-3.347
243303.000			-13.390			-3.347
243405.000			-13.389			-3.347
243503.000			-13.389			-3.347
243604.000			-13.388			-3.347
243705.000			-13.388			-3.347
243804.000			-13.389			-3.347
243905.000			-13.389			-3.347
244004.000			-13.388			-3.347
244104.000			-13.388			-3.347
244205.000			-13.388			-3.347
244304.000			-13.388			-3.347
244403.000			-13.389			-3.347
244505.000			-13.388			-3.347
244604.000			-13.388			-3.347
244704.000			-13.388			-3.347
244805.000			-13.387			-3.347
244904.000			-13.386			-3.347
245004.000			-13.387			-3.347
245105.000			-13.388			-3.347
245204.000			-13.388			-3.347
245303.000			-13.388			-3.347
245405.000			-13.387			-3.347
245504.000			-13.387			-3.347
245604.000			-13.387			-3.347
245705.000			-13.386			-3.347
245804.000			-13.386			-3.347
245904.000			-13.386			-3.346
246005.000			-13.385			-3.346
246104.000			-13.386			-3.346
246203.000			-13.386			-3.346
246305.000			-13.385			-3.346
246404.000			-13.386			-3.347
246504.000			-13.385			-3.346
246605.000			-13.384			-3.346
246704.000			-13.384			-3.346
246804.000			-13.384			-3.346
246904.000			-13.384			-3.346
247004.000			-13.384			-3.346
247103.000			-13.383			-3.346
247204.000			-13.383			-3.346
247304.000			-13.384			-3.346
247405.000			-13.383			-3.346
247504.000			-13.383			-3.346
247604.000			-13.384			-3.346
247705.000			-13.384			-3.346
247804.000			-13.383			-3.346
247904.000			-13.383			-3.346
248004.000			-13.382			-3.346
248104.000			-13.382			-3.346
248204.000			-13.383			-3.346
248305.000			-13.382			-3.346
248404.000			-13.382			-3.345
248504.000			-13.382			-3.346
248605.000			-13.383			-3.346
248704.000			-13.381			-3.345
248804.000			-13.382			-3.345
248904.000			-13.382			-3.345
249004.000			-13.381			-3.345
249104.000			-13.382			-3.345
249205.000			-13.381			-3.345
249304.000			-13.381			-3.345
249404.000			-13.380			-3.345
249505.000			-13.380			-3.345
249604.000			-13.380			-3.345
249704.000			-13.380			-3.345
249804.000			-13.380			-3.345
249904.000			-13.379			-3.345
250004.000			-13.380			-3.345
250104.000			-13.380			-3.345
250204.000			-13.379			-3.345
250305.000			-13.379			-3.345
250404.000			-13.380			-3.345
250504.000			-13.379			-3.345
250605.000			-13.379			-3.345
250703.000			-13.379			-3.345
250804.000			-13.379			-3.345
250905.000			-13.378			-3.345
251004.000			-13.378			-3.345
251104.000			-13.378			-3.345
251205.000			-13.378			-3.345
251304.000			-13.379			-3.345
251404.000			-13.378			-3.345
251505.000			-13.378			-3.344
251603.000			-13.378			-3.345
251704.000			-13.378			-3.345
251805.000			-13.377			-3.344
251904.000			-13.377			-3.344
252004.000			-13.377			-3.344
252105.000			-13.377			-3.344
252204.000			-13.377			-3.344
252304.000			-13.377			-3.344
252405.000			-13.378			-3.344
252503.000			-13.377			-3.344
252604.000			-13.377			-3.344
252705.000			-13.376			-3.344
252804.000			-13.377			-3.344
252904.000			-13.376			-3.344
253005.000			-13.376			-3.344
253104.000			-13.376			-3.344
253204.000			-13.376			-3.344
253305.000			-13.376			-3.344
253403.000			-13.375			-3.344
253505.000			-13.376			-3.344
253604.000			-13.375			-3.344
253704.000			-13.375			-3.344
253805.000			-13.375			-3.344
253904.000			-13.375			-3.344
254004.000			-13.375			-3.344
254105.000			-13.375			-3.344
254204.000			-13.374			-3.344
254303.000			-13.375			-3.344
254405.000			-13.374			-3.344
254504.000			-13.375			-3.344
254604.000			-13.374			-3.344
254705.000			-13.373			-3.343
254804.000			-13.373			-3.343
254904.000			-13.374			-3.344
255005.000			-13.374			-3.344
255104.000			-13.374			-3.343
255203.000			-13.374			-3.343
255305.000			-13.374			-3.343
255404.000			-13.373			-3.343
255504.000			-13.373			-3.343
255605.000			-13.373			-3.343
255704.000			-13.373			-3.343
255804.000			-13.373			-3.343
255905.000			-13.373			-3.343
256004.000			-13.373			-3.343
256103.000			-13.372			-3.343
256205.000			-13.371			-3.343
256303.000			-13.372			-3.343
256404.000			-13.372			-3.343
256505.000			-13.372			-3.343
256604.000			-13.371			-3.343
256705.000			-13.372			-3.343
256804.000			-13.372			-3.343
256904.000			-13.372			-3.343
257005.000			-13.372			-3.343
257104.000			-13.372			-3.343
257203.000			-13.371			-3.343
257305.000			-13.371			-3.343
257404.000			-13.371			-3.343
257504.000			-13.371			-3.343
257605.000			-13.370			-3.342
257704.000			-13.370			-3.342
257804.000			-13.371			-3.343
257905.000			-13.370			-3.343
258004.000			-13.369			-3.342
258103.000			-13.369			-3.342
258205.000			-13.370			-3.342
258304.000			-13.370			-3.342
258404.000			-13.370			-3.342
258505.000			-13.368			-3.342
258604.000			-13.368			-3.342
258704.000			-13.368			-3.342
258805.000			-13.368			-3.342
258904.000			-13.368			-3.342
259003.000			-13.368			-3.342
259105.000			-13.368			-3.342
259204.000			-13.368			-3.342
259304.000			-13.367			-3.342
259405.000			-13.368			-3.342
259504.000			-13.367			-3.342
259604.000			-13.368			-3.342
259704.000			-13.368			-3.342
259804.000			-13.367			-3.342
259903.000			-13.367			-3.342
260004.000			-13.367			-3.342
260103.000			-13.367			-3.342
260205.000			-13.367			-3.342
260304.000			-13.366			-3.342
260404.000			-13.365			-3.341
260505.000			-13.365			-3.341
260604.000			-13.366			-3.341
260704.000			-13.365			-3.341
260804.000			-13.365			-3.341
260904.000			-13.365			-3.341
261003.000			-13.365			-3.341
261105.000			-13.366			-3.341
261204.000			-13.366			-3.341
261304.000			-13.366			-3.341
261405.000			-13.365			-3.341
261504.000			-13.365			-3.341
261604.000			-13.365			-3.341
261704.000			-13.365			-3.341
261804.000			-13.364			-3.341
261903.000			-13.364			-3.341
262005.000			-13.364			-3.341
262104.000			-13.364			-3.341
262204.000			-13.364			-3.341
262305.000			-13.363			-3.341
262404.000			-13.363			-3.341
262504.000			-13.363			-3.341
262604.000			-13.364			-3.341
262704.000			-13.362			-3.341
262804.000			-13.362			-3.340
262904.000			-13.363			-3.341
263004.000			-13.364			-3.341
263105.000			-13.363			-3.341
263204.000			-13.363			-3.341
263304.000			-13.363			-3.341
263405.000			-13.362			-3.341
263503.000			-13.362			-3.340
263604.000			-13.362			-3.341
263705.000			-13.363			-3.341
263804.000			-13.363			-3.341
263904.000			-13.363			-3.341
264005.000			-13.361			-3.340
264104.000			-13.361			-3.340
264204.000			-13.361			-3.340
264305.000			-13.361			-3.340
264403.000			-13.362			-3.340
264504.000			-13.362			-3.340
264605.000			-13.361			-3.340
264704.000			-13.361			-3.340
264804.000			-13.361			-3.340
264905.000			-13.362			-3.340
265004.000			-13.361			-3.340
265104.000			-13.360			-3.340
265205.000			-13.360			-3.340
265303.000			-13.360			-3.340
265404.000			-13.359			-3.340
265505.000			-13.359			-3.340
265604.000			-13.360			-3.340
265704.000			-13.360			-3.340
265805.000			-13.359			-3.340
265904.000			-13.360			-3.340
266004.000			-13.360			-3.340
266105.000			-13.359			-3.340
266203.000			-13.359			-3.340
266305.000			-13.359			-3.340
266404.000			-13.359			-3.340
266504.000			-13.358			-3.340
266605.000			-13.359			-3.340
266704.000			-13.359			-3.340
266804.000			-13.358			-3.340
266905.000			-13.359			-3.340
267004.000			-13.358			-3.340
267103.000			-13.358			-3.340
267205.000			-13.358			-3.339
267304.000			-13.357			-3.339
267404.000			-13.356			-3.339
267505.000			-13.358			-3.339
267604.000			-13.358			-3.340
267704.000			-13.358			-3.339
267805.000			-13.357			-3.339
267904.000			-13.357			-3.339
268003.000			-13.358			-3.339
268105.000			-13.357			-3.339
268204.000			-13.356			-3.339
268304.000			-13.356			-3.339
268405.000			-13.356			-3.339
268504.000			-13.356			-3.339
268604.000			-13.357			-3.339
268705.000			-13.356			-3.339
268804.000			-13.356			-3.339
268903.000			-13.355			-3.339
269005.000			-13.355			-3.339
269103.000			-13.355			-3.339
269204.000			-13.356			-3.339
269305.000			-13.355			-3.339
269404.000			-13.355			-3.339
269505.000			-13.355			-3.339
269604.000			-13.355			-3.339
269704.000			-13.355			-3.339
269804.000			-13.355			-3.339
269904.000			-13.355			-3.339
270003.000			-13.355			-3.339
270105.000			-13.355			-3.339
270204.000			-13.356			-3.339
270304.000			-13.355			-3.339
270405.000			-13.354			-3.339
270504.000			-13.353			-3.338
270604.000			-13.354			-3.338
270704.000			-13.354			-3.338
270804.000			-13.354			-3.338
270903.000			-13.355			-3.339
271005.000			-13.355			-3.339
271104.000			-13.354			-3.338
271204.000			-13.353			-3.338
271305.000			-13.352			-3.338
271404.000			-13.353			-3.338
271504.000			-13.353			-3.338
271604.000			-13.353			-3.338
271704.000			-13.353			-3.338
271804.000			-13.353			-3.338
271905.000			-13.352			-3.338
272004.000			-13.352			-3.338
272104.000			-13.353			-3.338
272205.000			-13.353			-3.338
272304.000			-13.351			-3.338
272404.000			-13.352			-3.338
272503.000			-13.352			-3.338
272604.000			-13.353			-3.338
272705.000			-13.353			-3.338
272804.000			-13.353			-3.338
272904.000			-13.352			-3.338
273005.000			-13.353			-3.338
273104.000			-13.352			-3.338
273204.000			-13.352			-3.338
273305.000			-13.351			-3.338
273403.000			-13.352			-3.338
273504.000			-13.352			-3.338
273605.000			-13.350			-3.337
273704.000			-13.350			-3.338
273804.000			-13.351			-3.338
273905.000			-13.351			-3.338
274004.000			-13.352			-3.338
274103.000			-13.351			-3.338
274205.000			-13.351			-3.338
274303.000			-13.350			-3.337
274404.000			-13.350			-3.338
274505.000			-13.350			-3.337
274604.000			-13.349			-3.337
274704.000			-13.349			-3.337
274805.000			-13.349			-3.337
274904.000			-13.349			-3.337
275003.000			-13.347			-3.337
275105.000			-13.347			-3.337
275204.000			-13.348			-3.337
275304.000			-13.349			-3.337
275405.000			-13.348			-3.337
275504.000			-13.348			-3.337
275604.000			-13.348			-3.337
275704.000			-13.348			-3.337
275804.000			-13.348			-3.337
275903.000			-13.348			-3.337
276004.000			-13.348			-3.337
276103.000			-13.347			-3.337
276205.000			-13.347			-3.337
276304.000			-13.348			-3.337
276404.000			-13.347			-3.337
276505.000			-13.347			-3.337
276604.000			-13.347			-3.337
276704.000			-13.346			-3.337
276804.000			-13.346			-3.336
276904.000			-13.346			-3.336
277003.000			-13.346			-3.336
277105.000			-13.346			-3.337
277204.000			-13.346			-3.337
277304.000			-13.346			-3.337
277405.000			-13.345			-3.336
277504.000			-13.346			-3.336
277604.000			-13.346			-3.336
277704.000			-13.346			-3.337
277804.000			-13.346			-3.336
277903.000			-13.344			-3.336
278005.000			-13.344			-3.336
278104.000			-13.345			-3.336
278204.000			-13.344			-3.336
278305.000			-13.343			-3.336
278404.000			-13.344			-3.336
278504.000			-13.345			-3.336
278604.000			-13.344			-3.336
278704.000			-13.345			-3.336
278803.000			-13.344			-3.336
278905.000			-13.344			-3.336
279004.000			-13.344			-3.336
279105.000			-13.344			-3.336
279204.000			-13.343			-3.336
279304.000			-13.343			-3.336
279405.000			-13.343			-3.336
279503.000			-13.343			-3.336
279604.000			-13.343			-3.336
279704.000			-13.343			-3.336
279804.000			-13.343			-3.336
279904.000			-13.343			-3.336
280005.000			-13.343			-3.336
280104.000			-13.342			-3.336
280204.000			-13.342			-3.335
280305.000			-13.342			-3.336
280403.000			-13.343			-3.336
280504.000			-13.342			-3.336
280605.000			-13.341			-3.335
280704.000			-13.341			-3.335
280804.000			-13.341			-3.335
280905.000			-13.341			-3.335
281004.000			-13.341			-3.335
281104.000			-13.341			-3.335
281205.000			-13.341			-3.335
281303.000			-13.340			-3.335
281404.000			-13.340			-3.335
281505.000			-13.340			-3.335
281604.000			-13.339			-3.335
281704.000			-13.340			-3.335
281805.000			-13.341			-3.335
281904.000			-13.341			-3.335
282003.000			-13.340			-3.335
282105.000			-13.340			-3.335
282204.000			-13.341			-3.335
282305.000			-13.340			-3.335
282404.000			-13.340			-3.335
282504.000			-13.339			-3.335
282605.000			-13.339			-3.335
282704.000			-13.339			-3.335
282804.000			-13.339			-3.335
282904.000			-13.339			-3.335
283004.000			-13.339			-3.335
283104.000			-13.339			-3.335
283205.000			-13.339			-3.335
283304.000			-13.339			-3.335
283404.000			-13.339			-3.335
283505.000			-13.338			-3.334
283604.000			-13.337			-3.334
283704.000			-13.338			-3.334
283804.000			-13.339			-3.335
283904.000			-13.338			-3.335
284004.000			-13.337			-3.334
284105.000			-13.337			-3.334
284204.000			-13.337			-3.334
284304.000			-13.337			-3.334
284405.000			-13.337			-3.334
284504.000			-13.337			-3.334
284604.000			-13.337			-3.334
284704.000			-13.337			-3.334
284804.000			-13.337			-3.334
284904.000			-13.336			-3.334
285005.000			-13.336			-3.334
285104.000			-13.337			-3.334
285204.000			-13.336			-3.334
285305.000			-13.336			-3.334
285403.000			-13.336			-3.334
285505.000			-13.337			-3.334
285603.000			-13.337			-3.334
285704.000			-13.337			-3.334
285805.000			-13.336			-3.334
285904.000			-13.336			-3.334
286004.000			-13.336			-3.334
286105.000			-13.335			-3.334
286204.000			-13.335			-3.334
286303.000			-13.334			-3.334
286405.000			-13.334			-3.333
286503.000			-13.335			-3.334
286604.000			-13.334			-3.333
286705.000			-13.335			-3.334
286804.000			-13.335			-3.334
286904.000			-13.335			-3.334
287005.000			-13.335			-3.334
287104.000			-13.334			-3.333
287204.000			-13.335			-3.334
287305.000			-13.334			-3.334
287403.000			-13.335			-3.334
287504.000			-13.335			-3.334
287605.000			-13.335			-3.334
287704.000			-13.334			-3.333
287804.000			-13.333			-3.333
287905.000			-13.334			-3.333
288004.000			-13.334			-3.334
288104.000			-13.333			-3.333
288205.000			-13.333			-3.333
288303.000			-13.333			-3.333
288404.000			-13.334			-3.333
288505.000			-13.334			-3.333
288604.000			-13.333			-3.333
288705.000			-13.333			-3.333
288804.000			-13.333			-3.333
288904.000			-13.332			-3.333
289005.000			-13.333			-3.333
289104.000			-13.332			-3.333
289203.000			-13.331			-3.333
289305.000			-13.331			-3.333
289404.000			-13.332			-3.333
289504.000			-13.332			-3.333
289605.000			-13.332			-3.333
289704.000			-13.332			-3.333
289804.000			-13.331			-3.333
289905.000			-13.331			-3.333
290004.000			-13.332			-3.333
290103.000			-13.332			-3.333
290205.000			-13.331			-3.333
290304.000			-13.331			-3.333
290404.000			-13.331			-3.333
290505.000			-13.330			-3.333
290604.000			-13.331			-3.333
290704.000			-13.330			-3.333
290804.000			-13.330			-3.332
290904.000			-13.330			-3.333
291004.000			-13.329			-3.332
291105.000			-13.329			-3.332
291204.000			-13.330			-3.333
291304.000			-13.331			-3.333
291405.000			-13.331			-3.333
291504.000			-13.332			-3.333
291604.000			-13.330			-3.333
291703.000			-13.330			-3.332
291804.000			-13.329			-3.332
291905.000			-13.329			-3.332
292004.000			-13.330			-3.332
292104.000			-13.329			-3.332
292205.000			-13.330			-3.332
292304.000			-13.329			-3.332
292404.000			-13.330			-3.332
292505.000			-13.329			-3.332
292603.000			-13.328			-3.332
292704.000			-13.328			-3.332
292805.000			-13.329			-3.332
292904.000			-13.328			-3.332
293004.000			-13.329			-3.332
293105.000			-13.327			-3.332
293204.000			-13.326			-3.332
293304.000			-13.328			-3.332
293405.000			-13.329			-3.332
293503.000			-13.329			-3.332
293604.000			-13.328			-3.332
293705.000			-13.328			-3.332
293804.000			-13.328			-3.332
293904.000			-13.327			-3.332
294005.000			-13.326			-3.332
294104.000			-13.327			-3.332
294204.000			-13.327			-3.332
294305.000			-13.326			-3.332
294403.000			-13.327			-3.332
294504.000			-13.327			-3.332
294605.000			-13.327			-3.332
294704.000			-13.327			-3.332
294804.000			-13.326			-3.332
294904.000			-13.326			-3.331
295004.000			-13.326			-3.331
295105.000			-13.324			-3.331
295204.000			-13.324			-3.331
295303.000			-13.326			-3.331
295405.000			-13.326			-3.331
295504.000			-13.326			-3.331
295604.000			-13.325			-3.331
295705.000			-13.325			-3.331
295804.000			-13.326			-3.331
295904.000			-13.325			-3.331
296005.000			-13.323			-3.331
296104.000			-13.324			-3.331
296203.000			-13.324			-3.331
296305.000			-13.323			-3.331
296404.000			-13.324			-3.331
296504.000			-13.324			-3.331
296605.000			-13.324			-3.331
296704.000			-13.324			-3.331
296804.000			-13.324			-3.331
296904.000			-13.324			-3.331
297004.000			-13.323			-3.331
297103.000			-13.323			-3.331
297205.000			-13.323			-3.331
297304.000			-13.323			-3.331
297404.000			-13.323			-3.331
297505.000			-13.323			-3.331
297604.000			-13.323			-3.331
297704.000			-13.322			-3.331
297804.000			-13.322			-3.331
297904.000			-13.322			-3.330
298003.000			-13.322			-3.331
298105.000			-13.323			-3.331
298204.000			-13.322			-3.331
298305.000			-13.322			-3.331
298404.000			-13.322			-3.331
298504.000			-13.322			-3.331
298605.000			-13.322			-3.330
298703.000			-13.322			-3.330
298804.000			-13.321			-3.330
298904.000			-13.322			-3.330
299004.000			-13.322			-3.330
299104.000			-13.322			-3.330
299205.000			-13.321			-3.330
299304.000			-13.321			-3.330
299404.000			-13.321			-3.330
299505.000			-13.322			-3.330
299603.000			-13.321			-3.330
299704.000			-13.322			-3.330
299804.000			-13.321			-3.330
299904.000			-13.321			-3.330
