# Acquired on 08/01/2024 13:48:13 
# SPIDER: Creep_-2mm_07714532C-2
# CREEP MEASUREMENT

# time [ms]		force [N]		stiffness [N/mm]
0.000			2.165			-1.082
100.000			2.660			-1.330
202.000			2.896			-1.448
301.000			2.947			-1.474
400.000			2.937			-1.468
501.000			2.929			-1.464
600.000			2.923			-1.462
700.000			2.919			-1.459
801.000			2.914			-1.457
901.000			2.909			-1.454
1002.000			2.905			-1.452
1100.000			2.897			-1.448
1200.000			2.895			-1.448
1301.000			2.893			-1.446
1400.000			2.891			-1.445
1500.000			2.888			-1.444
1602.000			2.885			-1.442
1701.000			2.883			-1.442
1800.000			2.878			-1.439
1901.000			2.876			-1.438
2000.000			2.875			-1.438
2100.000			2.873			-1.436
2201.000			2.871			-1.435
2300.000			2.869			-1.435
2401.000			2.867			-1.434
2502.000			2.865			-1.432
2600.000			2.864			-1.432
2700.000			2.862			-1.431
2801.000			2.860			-1.430
2900.000			2.860			-1.430
3000.000			2.859			-1.429
3101.000			2.857			-1.428
3201.000			2.855			-1.427
3300.000			2.854			-1.427
3401.000			2.853			-1.427
3500.000			2.854			-1.427
3600.000			2.852			-1.426
3701.000			2.850			-1.425
3800.000			2.849			-1.424
3901.000			2.848			-1.424
4002.000			2.847			-1.424
4100.000			2.847			-1.423
4200.000			2.846			-1.423
4300.000			2.843			-1.422
4400.000			2.843			-1.421
4501.000			2.842			-1.421
4600.000			2.842			-1.421
4701.000			2.839			-1.420
4802.000			2.838			-1.419
4900.000			2.838			-1.419
5000.000			2.837			-1.419
5101.000			2.837			-1.418
5200.000			2.836			-1.418
5300.000			2.835			-1.417
5402.000			2.834			-1.417
5501.000			2.833			-1.417
5600.000			2.834			-1.417
5701.000			2.834			-1.417
5800.000			2.833			-1.416
5900.000			2.832			-1.416
6001.000			2.830			-1.415
6100.000			2.830			-1.415
6201.000			2.829			-1.414
6302.000			2.828			-1.414
6400.000			2.827			-1.414
6500.000			2.826			-1.413
6601.000			2.826			-1.413
6700.000			2.827			-1.413
6800.000			2.827			-1.413
6902.000			2.826			-1.413
7001.000			2.825			-1.413
7100.000			2.824			-1.412
7201.000			2.823			-1.411
7300.000			2.822			-1.411
7400.000			2.822			-1.411
7500.000			2.821			-1.411
7600.000			2.820			-1.410
7702.000			2.820			-1.410
7801.000			2.820			-1.410
7900.000			2.820			-1.410
8001.000			2.819			-1.409
8100.000			2.819			-1.410
8200.000			2.819			-1.409
8301.000			2.817			-1.408
8401.000			2.816			-1.408
8501.000			2.814			-1.407
8601.000			2.815			-1.407
8700.000			2.815			-1.407
8800.000			2.815			-1.407
8901.000			2.814			-1.407
9000.000			2.814			-1.407
9100.000			2.814			-1.407
9202.000			2.814			-1.407
9301.000			2.813			-1.407
9400.000			2.812			-1.406
9501.000			2.812			-1.406
9600.000			2.812			-1.406
9700.000			2.812			-1.406
9801.000			2.811			-1.405
9901.000			2.810			-1.405
10001.000			2.810			-1.405
10101.000			2.811			-1.405
10200.000			2.810			-1.405
10300.000			2.810			-1.405
10401.000			2.809			-1.405
10500.000			2.808			-1.404
10600.000			2.807			-1.404
10702.000			2.808			-1.404
10801.000			2.808			-1.404
10901.000			2.807			-1.403
11000.000			2.806			-1.403
11100.000			2.806			-1.403
11201.000			2.805			-1.402
11300.000			2.804			-1.402
11400.000			2.804			-1.402
11502.000			2.805			-1.403
11601.000			2.805			-1.403
11700.000			2.804			-1.402
11801.000			2.804			-1.402
11900.000			2.803			-1.402
12000.000			2.803			-1.402
12101.000			2.803			-1.401
12201.000			2.802			-1.401
12301.000			2.802			-1.401
12401.000			2.803			-1.401
12500.000			2.803			-1.401
12600.000			2.801			-1.400
12701.000			2.801			-1.400
12800.000			2.800			-1.400
12900.000			2.800			-1.400
13002.000			2.800			-1.400
13101.000			2.799			-1.400
13201.000			2.799			-1.400
13301.000			2.799			-1.399
13400.000			2.798			-1.399
13500.000			2.798			-1.399
13601.000			2.798			-1.399
13700.000			2.796			-1.398
13800.000			2.796			-1.398
13902.000			2.797			-1.398
14001.000			2.796			-1.398
14101.000			2.798			-1.399
14200.000			2.796			-1.398
14300.000			2.796			-1.398
14401.000			2.796			-1.398
14500.000			2.795			-1.398
14600.000			2.795			-1.398
14702.000			2.796			-1.398
14801.000			2.796			-1.398
14900.000			2.795			-1.397
15001.000			2.794			-1.397
15100.000			2.793			-1.397
15200.000			2.794			-1.397
15301.000			2.794			-1.397
15400.000			2.794			-1.397
15501.000			2.793			-1.396
15602.000			2.792			-1.396
15701.000			2.792			-1.396
15800.000			2.792			-1.396
15901.000			2.791			-1.396
16000.000			2.791			-1.396
16100.000			2.791			-1.395
16201.000			2.791			-1.395
16301.000			2.791			-1.395
16401.000			2.790			-1.395
16502.000			2.790			-1.395
16600.000			2.791			-1.395
16700.000			2.791			-1.395
16801.000			2.790			-1.395
16900.000			2.790			-1.395
17000.000			2.790			-1.395
17100.000			2.788			-1.394
17201.000			2.788			-1.394
17302.000			2.788			-1.394
17400.000			2.788			-1.394
17500.000			2.789			-1.394
17601.000			2.788			-1.394
17700.000			2.788			-1.394
17800.000			2.787			-1.393
17901.000			2.788			-1.394
18001.000			2.787			-1.394
18101.000			2.786			-1.393
18201.000			2.785			-1.393
18300.000			2.785			-1.393
18400.000			2.786			-1.393
18501.000			2.787			-1.393
18600.000			2.786			-1.393
18700.000			2.786			-1.393
18801.000			2.786			-1.393
18901.000			2.786			-1.393
19001.000			2.786			-1.393
19101.000			2.785			-1.393
19200.000			2.784			-1.392
19300.000			2.784			-1.392
19401.000			2.785			-1.392
19500.000			2.784			-1.392
19600.000			2.784			-1.392
19702.000			2.783			-1.392
19801.000			2.783			-1.392
19900.000			2.783			-1.391
20001.000			2.784			-1.392
20100.000			2.783			-1.392
20200.000			2.783			-1.392
20300.000			2.783			-1.391
20400.000			2.782			-1.391
20502.000			2.782			-1.391
20601.000			2.783			-1.391
20700.000			2.782			-1.391
20801.000			2.782			-1.391
20900.000			2.782			-1.391
21000.000			2.781			-1.390
21101.000			2.781			-1.390
21200.000			2.780			-1.390
21301.000			2.780			-1.390
21402.000			2.781			-1.390
21500.000			2.781			-1.390
21600.000			2.780			-1.390
21701.000			2.779			-1.390
21800.000			2.779			-1.390
21900.000			2.780			-1.390
22001.000			2.779			-1.390
22101.000			2.779			-1.389
22201.000			2.778			-1.389
22301.000			2.778			-1.389
22400.000			2.779			-1.390
22500.000			2.779			-1.389
22601.000			2.779			-1.389
22700.000			2.779			-1.390
22800.000			2.778			-1.389
22902.000			2.778			-1.389
23001.000			2.778			-1.389
23100.000			2.778			-1.389
23201.000			2.778			-1.389
23300.000			2.778			-1.389
23400.000			2.778			-1.389
23500.000			2.778			-1.389
23600.000			2.777			-1.388
23702.000			2.777			-1.389
23801.000			2.776			-1.388
23900.000			2.776			-1.388
24001.000			2.776			-1.388
24100.000			2.776			-1.388
24200.000			2.776			-1.388
24301.000			2.776			-1.388
24400.000			2.775			-1.388
24501.000			2.776			-1.388
24602.000			2.776			-1.388
24701.000			2.776			-1.388
24800.000			2.776			-1.388
24901.000			2.774			-1.387
25000.000			2.774			-1.387
25100.000			2.775			-1.387
25201.000			2.774			-1.387
25301.000			2.774			-1.387
25401.000			2.775			-1.387
25502.000			2.775			-1.387
25600.000			2.775			-1.388
25700.000			2.773			-1.387
25801.000			2.772			-1.386
25900.000			2.773			-1.386
26000.000			2.773			-1.386
26101.000			2.773			-1.386
26201.000			2.773			-1.386
26301.000			2.773			-1.386
26401.000			2.773			-1.386
26500.000			2.773			-1.386
26600.000			2.773			-1.387
26700.000			2.774			-1.387
26800.000			2.774			-1.387
26901.000			2.773			-1.387
27001.000			2.773			-1.387
27101.000			2.773			-1.387
27201.000			2.771			-1.385
27300.000			2.772			-1.386
27400.000			2.773			-1.386
27501.000			2.772			-1.386
27600.000			2.772			-1.386
27700.000			2.771			-1.386
27802.000			2.770			-1.385
27901.000			2.771			-1.386
28000.000			2.770			-1.385
28101.000			2.770			-1.385
28200.000			2.771			-1.385
28300.000			2.770			-1.385
28401.000			2.770			-1.385
28500.000			2.769			-1.384
28601.000			2.768			-1.384
28702.000			2.769			-1.385
28800.000			2.769			-1.384
28900.000			2.768			-1.384
29001.000			2.768			-1.384
29100.000			2.769			-1.384
29200.000			2.769			-1.384
29301.000			2.769			-1.384
29401.000			2.770			-1.385
29501.000			2.769			-1.384
29602.000			2.768			-1.384
29700.000			2.768			-1.384
29800.000			2.768			-1.384
29900.000			2.768			-1.384
30000.000			2.768			-1.384
30101.000			2.768			-1.384
30200.000			2.768			-1.384
30301.000			2.767			-1.383
30402.000			2.767			-1.383
30500.000			2.768			-1.384
30600.000			2.767			-1.384
30701.000			2.767			-1.383
30800.000			2.767			-1.384
30900.000			2.767			-1.383
31001.000			2.767			-1.383
31101.000			2.767			-1.384
31201.000			2.768			-1.384
31301.000			2.768			-1.384
31400.000			2.767			-1.383
31500.000			2.766			-1.383
31601.000			2.766			-1.383
31700.000			2.766			-1.383
31800.000			2.767			-1.384
31902.000			2.767			-1.383
32001.000			2.765			-1.383
32100.000			2.765			-1.382
32201.000			2.765			-1.383
32300.000			2.766			-1.383
32400.000			2.765			-1.382
32501.000			2.765			-1.382
32600.000			2.766			-1.383
32701.000			2.765			-1.383
32802.000			2.765			-1.382
32900.000			2.765			-1.382
33000.000			2.765			-1.383
33100.000			2.764			-1.382
33200.000			2.764			-1.382
33301.000			2.764			-1.382
33400.000			2.764			-1.382
33501.000			2.764			-1.382
33602.000			2.764			-1.382
33700.000			2.764			-1.382
33800.000			2.764			-1.382
33901.000			2.764			-1.382
34000.000			2.762			-1.381
34100.000			2.763			-1.382
34201.000			2.764			-1.382
34301.000			2.763			-1.382
34401.000			2.763			-1.381
34501.000			2.763			-1.382
34600.000			2.763			-1.381
34700.000			2.763			-1.382
34801.000			2.763			-1.382
34900.000			2.763			-1.381
35000.000			2.762			-1.381
35102.000			2.762			-1.381
35201.000			2.762			-1.381
35300.000			2.761			-1.381
35401.000			2.762			-1.381
35500.000			2.762			-1.381
35600.000			2.762			-1.381
35701.000			2.761			-1.381
35800.000			2.761			-1.380
35901.000			2.760			-1.380
36002.000			2.762			-1.381
36100.000			2.761			-1.380
36200.000			2.761			-1.380
36300.000			2.761			-1.380
36400.000			2.760			-1.380
36501.000			2.761			-1.380
36600.000			2.761			-1.380
36701.000			2.762			-1.381
36802.000			2.761			-1.381
36900.000			2.761			-1.380
37000.000			2.760			-1.380
37101.000			2.760			-1.380
37200.000			2.760			-1.380
37300.000			2.760			-1.380
37401.000			2.760			-1.380
37501.000			2.760			-1.380
37601.000			2.760			-1.380
37702.000			2.760			-1.380
37800.000			2.759			-1.379
37900.000			2.758			-1.379
38001.000			2.759			-1.379
38100.000			2.759			-1.379
38200.000			2.759			-1.379
38301.000			2.759			-1.379
38401.000			2.759			-1.379
38501.000			2.759			-1.379
38601.000			2.759			-1.380
38700.000			2.759			-1.379
38800.000			2.758			-1.379
38901.000			2.759			-1.379
39000.000			2.758			-1.379
39100.000			2.758			-1.379
39202.000			2.757			-1.378
39301.000			2.758			-1.379
39400.000			2.759			-1.380
39500.000			2.759			-1.380
39600.000			2.758			-1.379
39701.000			2.757			-1.379
39800.000			2.758			-1.379
39900.000			2.759			-1.380
40002.000			2.758			-1.379
40101.000			2.758			-1.379
40201.000			2.757			-1.379
40301.000			2.758			-1.379
40400.000			2.758			-1.379
40500.000			2.757			-1.378
40601.000			2.758			-1.379
40700.000			2.757			-1.379
40801.000			2.757			-1.378
40902.000			2.757			-1.378
41001.000			2.756			-1.378
41100.000			2.756			-1.378
41201.000			2.756			-1.378
41300.000			2.756			-1.378
41400.000			2.756			-1.378
41501.000			2.756			-1.378
41601.000			2.755			-1.378
41701.000			2.757			-1.378
41801.000			2.756			-1.378
41900.000			2.755			-1.377
42000.000			2.755			-1.378
42101.000			2.757			-1.378
42200.000			2.756			-1.378
42300.000			2.756			-1.378
42402.000			2.756			-1.378
42501.000			2.756			-1.378
42602.000			2.756			-1.378
42700.000			2.755			-1.378
42800.000			2.755			-1.377
42901.000			2.755			-1.377
43000.000			2.755			-1.378
43100.000			2.755			-1.377
43202.000			2.756			-1.378
43301.000			2.756			-1.378
43401.000			2.755			-1.378
43501.000			2.754			-1.377
43600.000			2.754			-1.377
43700.000			2.755			-1.377
43801.000			2.755			-1.377
43900.000			2.754			-1.377
44000.000			2.753			-1.377
44102.000			2.755			-1.377
44201.000			2.755			-1.377
44300.000			2.755			-1.377
44401.000			2.754			-1.377
44500.000			2.755			-1.377
44600.000			2.754			-1.377
44701.000			2.754			-1.377
44800.000			2.754			-1.377
44901.000			2.753			-1.377
45002.000			2.754			-1.377
45100.000			2.753			-1.377
45200.000			2.754			-1.377
45301.000			2.754			-1.377
45400.000			2.753			-1.376
45500.000			2.753			-1.376
45601.000			2.752			-1.376
45701.000			2.753			-1.377
45802.000			2.753			-1.376
45900.000			2.752			-1.376
46000.000			2.752			-1.376
46101.000			2.754			-1.377
46200.000			2.754			-1.377
46300.000			2.753			-1.376
46401.000			2.752			-1.376
46501.000			2.753			-1.377
46601.000			2.753			-1.376
46701.000			2.752			-1.376
46800.000			2.753			-1.377
46900.000			2.753			-1.377
47001.000			2.753			-1.376
47100.000			2.752			-1.376
47200.000			2.752			-1.376
47302.000			2.752			-1.376
47401.000			2.752			-1.376
47500.000			2.751			-1.376
47601.000			2.751			-1.376
47700.000			2.752			-1.376
47800.000			2.751			-1.376
47901.000			2.751			-1.376
48000.000			2.751			-1.375
48101.000			2.751			-1.375
48202.000			2.752			-1.376
48300.000			2.751			-1.375
48400.000			2.752			-1.376
48501.000			2.751			-1.376
48600.000			2.751			-1.375
48700.000			2.751			-1.375
48801.000			2.751			-1.375
48901.000			2.751			-1.375
49002.000			2.750			-1.375
49100.000			2.751			-1.375
49200.000			2.750			-1.375
49301.000			2.750			-1.375
49400.000			2.750			-1.375
49500.000			2.750			-1.375
49601.000			2.751			-1.376
49701.000			2.750			-1.375
49801.000			2.750			-1.375
49901.000			2.751			-1.375
50000.000			2.751			-1.375
50100.000			2.750			-1.375
50201.000			2.749			-1.375
50300.000			2.749			-1.375
50400.000			2.750			-1.375
50502.000			2.749			-1.375
50601.000			2.750			-1.375
50700.000			2.749			-1.375
50801.000			2.750			-1.375
50900.000			2.750			-1.375
51000.000			2.750			-1.375
51101.000			2.749			-1.375
51200.000			2.749			-1.375
51301.000			2.750			-1.375
51402.000			2.750			-1.375
51500.000			2.749			-1.375
51600.000			2.749			-1.374
51701.000			2.749			-1.375
51800.000			2.748			-1.374
51900.000			2.748			-1.374
52001.000			2.748			-1.374
52101.000			2.749			-1.375
52202.000			2.749			-1.375
52300.000			2.749			-1.374
52400.000			2.748			-1.374
52501.000			2.749			-1.374
52600.000			2.749			-1.374
52700.000			2.749			-1.375
52801.000			2.749			-1.375
52901.000			2.750			-1.375
53001.000			2.750			-1.375
53102.000			2.749			-1.375
53200.000			2.749			-1.374
53300.000			2.747			-1.374
53401.000			2.748			-1.374
53500.000			2.747			-1.373
53600.000			2.747			-1.373
53701.000			2.748			-1.374
53801.000			2.748			-1.374
53901.000			2.748			-1.374
54001.000			2.748			-1.374
54100.000			2.748			-1.374
54200.000			2.748			-1.374
54301.000			2.748			-1.374
54400.000			2.747			-1.374
54500.000			2.747			-1.374
54602.000			2.747			-1.374
54701.000			2.748			-1.374
54800.000			2.747			-1.374
54901.000			2.748			-1.374
55000.000			2.747			-1.373
55100.000			2.747			-1.373
55201.000			2.747			-1.374
55300.000			2.746			-1.373
55402.000			2.747			-1.373
55501.000			2.747			-1.374
55600.000			2.747			-1.374
55701.000			2.746			-1.373
55800.000			2.746			-1.373
55900.000			2.746			-1.373
56001.000			2.746			-1.373
56100.000			2.748			-1.374
56201.000			2.747			-1.373
56302.000			2.746			-1.373
56400.000			2.746			-1.373
56500.000			2.745			-1.372
56601.000			2.746			-1.373
56700.000			2.746			-1.373
56800.000			2.746			-1.373
56901.000			2.746			-1.373
57001.000			2.746			-1.373
57101.000			2.746			-1.373
57201.000			2.746			-1.373
57300.000			2.746			-1.373
57400.000			2.746			-1.373
57501.000			2.745			-1.373
57600.000			2.745			-1.372
57700.000			2.745			-1.373
57802.000			2.745			-1.373
57901.000			2.745			-1.372
58000.000			2.745			-1.372
58101.000			2.744			-1.372
58200.000			2.745			-1.373
58300.000			2.745			-1.373
58401.000			2.745			-1.372
58500.000			2.745			-1.372
58602.000			2.745			-1.372
58701.000			2.744			-1.372
58801.000			2.744			-1.372
58901.000			2.744			-1.372
59000.000			2.744			-1.372
59100.000			2.744			-1.372
59201.000			2.745			-1.372
59300.000			2.744			-1.372
59400.000			2.744			-1.372
59502.000			2.745			-1.372
59601.000			2.744			-1.372
59700.000			2.744			-1.372
59801.000			2.745			-1.372
59900.000			2.743			-1.372
60000.000			2.744			-1.372
60101.000			2.743			-1.372
60200.000			2.743			-1.372
60301.000			2.744			-1.372
60402.000			2.744			-1.372
60500.000			2.744			-1.372
60600.000			2.744			-1.372
60701.000			2.743			-1.372
60800.000			2.743			-1.372
60900.000			2.744			-1.372
61001.000			2.744			-1.372
61101.000			2.743			-1.372
61201.000			2.743			-1.372
61301.000			2.743			-1.372
61400.000			2.743			-1.372
61500.000			2.744			-1.372
61601.000			2.743			-1.372
61700.000			2.744			-1.372
61800.000			2.743			-1.371
61902.000			2.742			-1.371
62001.000			2.742			-1.371
62101.000			2.743			-1.371
62200.000			2.742			-1.371
62300.000			2.743			-1.371
62401.000			2.743			-1.371
62500.000			2.742			-1.371
62600.000			2.742			-1.371
62702.000			2.742			-1.371
62801.000			2.741			-1.371
62900.000			2.742			-1.371
63001.000			2.742			-1.371
63100.000			2.742			-1.371
63200.000			2.742			-1.371
63301.000			2.742			-1.371
63401.000			2.741			-1.370
63501.000			2.742			-1.371
63602.000			2.742			-1.371
63700.000			2.742			-1.371
63800.000			2.741			-1.371
63901.000			2.742			-1.371
64000.000			2.742			-1.371
64100.000			2.742			-1.371
64201.000			2.742			-1.371
64301.000			2.742			-1.371
64401.000			2.742			-1.371
64501.000			2.741			-1.370
64600.000			2.741			-1.370
64700.000			2.741			-1.370
64801.000			2.742			-1.371
64900.000			2.742			-1.371
65000.000			2.742			-1.371
65102.000			2.742			-1.371
65201.000			2.741			-1.371
65301.000			2.740			-1.370
65400.000			2.740			-1.370
65500.000			2.741			-1.370
65601.000			2.741			-1.370
65700.000			2.741			-1.370
65800.000			2.740			-1.370
65902.000			2.740			-1.370
66001.000			2.741			-1.370
66100.000			2.740			-1.370
66201.000			2.741			-1.370
66300.000			2.740			-1.370
66400.000			2.739			-1.370
66501.000			2.739			-1.370
66600.000			2.739			-1.369
66701.000			2.740			-1.370
66802.000			2.740			-1.370
66901.000			2.740			-1.370
67000.000			2.739			-1.370
67101.000			2.740			-1.370
67200.000			2.739			-1.370
67300.000			2.740			-1.370
67401.000			2.741			-1.370
67500.000			2.740			-1.370
67601.000			2.739			-1.369
67702.000			2.739			-1.369
67800.000			2.739			-1.370
67900.000			2.740			-1.370
68001.000			2.740			-1.370
68100.000			2.740			-1.370
68200.000			2.740			-1.370
68300.000			2.740			-1.370
68401.000			2.739			-1.369
68502.000			2.739			-1.370
68601.000			2.739			-1.369
68700.000			2.739			-1.369
68801.000			2.740			-1.370
68900.000			2.740			-1.370
69000.000			2.739			-1.369
69101.000			2.739			-1.370
69200.000			2.739			-1.370
69301.000			2.739			-1.369
69402.000			2.739			-1.369
69500.000			2.738			-1.369
69600.000			2.738			-1.369
69701.000			2.739			-1.369
69800.000			2.739			-1.369
69900.000			2.739			-1.369
70001.000			2.738			-1.369
70101.000			2.739			-1.369
70201.000			2.739			-1.369
70301.000			2.738			-1.369
70400.000			2.738			-1.369
70500.000			2.738			-1.369
70601.000			2.738			-1.369
70700.000			2.739			-1.369
70800.000			2.738			-1.369
70901.000			2.738			-1.369
71001.000			2.738			-1.369
71101.000			2.738			-1.369
71201.000			2.737			-1.369
71300.000			2.737			-1.368
71400.000			2.737			-1.368
71500.000			2.737			-1.369
71600.000			2.738			-1.369
71701.000			2.737			-1.369
71801.000			2.737			-1.368
71901.000			2.736			-1.368
72001.000			2.737			-1.368
72100.000			2.737			-1.369
72200.000			2.737			-1.369
72301.000			2.736			-1.368
72400.000			2.736			-1.368
72500.000			2.736			-1.368
72602.000			2.736			-1.368
72701.000			2.737			-1.368
72800.000			2.737			-1.369
72901.000			2.737			-1.368
73000.000			2.736			-1.368
73100.000			2.737			-1.369
73201.000			2.737			-1.369
73300.000			2.737			-1.369
73401.000			2.738			-1.369
73502.000			2.737			-1.369
73600.000			2.736			-1.368
73700.000			2.736			-1.368
73801.000			2.736			-1.368
73900.000			2.736			-1.368
74000.000			2.736			-1.368
74101.000			2.737			-1.368
74201.000			2.736			-1.368
74301.000			2.736			-1.368
74402.000			2.736			-1.368
74500.000			2.736			-1.368
74600.000			2.736			-1.368
74700.000			2.736			-1.368
74800.000			2.736			-1.368
74901.000			2.736			-1.368
75000.000			2.736			-1.368
75101.000			2.736			-1.368
75202.000			2.736			-1.368
75300.000			2.736			-1.368
75400.000			2.735			-1.368
75501.000			2.735			-1.367
75600.000			2.735			-1.368
75700.000			2.736			-1.368
75801.000			2.736			-1.368
75901.000			2.736			-1.368
76001.000			2.736			-1.368
76101.000			2.736			-1.368
76200.000			2.736			-1.368
76300.000			2.734			-1.367
76401.000			2.734			-1.367
76500.000			2.734			-1.367
76600.000			2.735			-1.367
76701.000			2.735			-1.367
76801.000			2.735			-1.368
76901.000			2.735			-1.368
77001.000			2.735			-1.368
77100.000			2.735			-1.367
77200.000			2.736			-1.368
77301.000			2.735			-1.367
77400.000			2.735			-1.368
77500.000			2.735			-1.367
77602.000			2.733			-1.367
77701.000			2.734			-1.367
77800.000			2.735			-1.368
77900.000			2.735			-1.367
78000.000			2.735			-1.368
78101.000			2.734			-1.367
78200.000			2.734			-1.367
78300.000			2.735			-1.367
78402.000			2.735			-1.367
78501.000			2.734			-1.367
78600.000			2.735			-1.367
78701.000			2.736			-1.368
78800.000			2.734			-1.367
78900.000			2.733			-1.367
79001.000			2.733			-1.367
79100.000			2.734			-1.367
79200.000			2.735			-1.368
79302.000			2.734			-1.367
79401.000			2.734			-1.367
79500.000			2.734			-1.367
79601.000			2.734			-1.367
79700.000			2.734			-1.367
79800.000			2.734			-1.367
79901.000			2.735			-1.367
80000.000			2.735			-1.368
80101.000			2.734			-1.367
80202.000			2.734			-1.367
80300.000			2.735			-1.367
80400.000			2.735			-1.367
80501.000			2.734			-1.367
80600.000			2.733			-1.366
80700.000			2.733			-1.367
80801.000			2.733			-1.367
80901.000			2.734			-1.367
81002.000			2.733			-1.366
81100.000			2.734			-1.367
81200.000			2.733			-1.367
81301.000			2.733			-1.367
81400.000			2.734			-1.367
81500.000			2.734			-1.367
81601.000			2.734			-1.367
81701.000			2.733			-1.366
81801.000			2.733			-1.366
81901.000			2.733			-1.367
82000.000			2.734			-1.367
82100.000			2.734			-1.367
82201.000			2.733			-1.366
82300.000			2.733			-1.366
82400.000			2.732			-1.366
82502.000			2.732			-1.366
82601.000			2.732			-1.366
82701.000			2.733			-1.366
82801.000			2.733			-1.366
82900.000			2.731			-1.365
83000.000			2.731			-1.366
83101.000			2.732			-1.366
83200.000			2.732			-1.366
83300.000			2.732			-1.366
83402.000			2.733			-1.366
83501.000			2.733			-1.367
83600.000			2.732			-1.366
83701.000			2.732			-1.366
83800.000			2.733			-1.366
83900.000			2.733			-1.366
84001.000			2.733			-1.367
84100.000			2.732			-1.366
84202.000			2.731			-1.366
84301.000			2.731			-1.366
84400.000			2.731			-1.365
84501.000			2.730			-1.365
84600.000			2.732			-1.366
84700.000			2.732			-1.366
84801.000			2.732			-1.366
84900.000			2.731			-1.366
85001.000			2.732			-1.366
85102.000			2.732			-1.366
85200.000			2.731			-1.365
85300.000			2.731			-1.366
85401.000			2.731			-1.366
85500.000			2.732			-1.366
85600.000			2.732			-1.366
85701.000			2.731			-1.366
85801.000			2.731			-1.366
85901.000			2.732			-1.366
86001.000			2.732			-1.366
86100.000			2.731			-1.365
86200.000			2.730			-1.365
86301.000			2.731			-1.366
86400.000			2.731			-1.365
86500.000			2.731			-1.366
86602.000			2.731			-1.365
86701.000			2.730			-1.365
86800.000			2.730			-1.365
86901.000			2.730			-1.365
87000.000			2.732			-1.366
87100.000			2.731			-1.366
87201.000			2.731			-1.366
87300.000			2.731			-1.366
87400.000			2.731			-1.365
87502.000			2.732			-1.366
87601.000			2.731			-1.366
87701.000			2.731			-1.366
87800.000			2.730			-1.365
87900.000			2.730			-1.365
88001.000			2.730			-1.365
88100.000			2.730			-1.365
88200.000			2.731			-1.365
88302.000			2.730			-1.365
88401.000			2.731			-1.365
88500.000			2.730			-1.365
88601.000			2.730			-1.365
88700.000			2.730			-1.365
88800.000			2.730			-1.365
88901.000			2.731			-1.365
89000.000			2.730			-1.365
89100.000			2.729			-1.364
89202.000			2.729			-1.365
89301.000			2.730			-1.365
89400.000			2.730			-1.365
89501.000			2.730			-1.365
89600.000			2.730			-1.365
89700.000			2.729			-1.365
89801.000			2.729			-1.365
89900.000			2.729			-1.365
90001.000			2.729			-1.365
90102.000			2.730			-1.365
90200.000			2.731			-1.366
90300.000			2.731			-1.365
90401.000			2.730			-1.365
90500.000			2.729			-1.364
90600.000			2.729			-1.365
90700.000			2.729			-1.365
90801.000			2.729			-1.365
90902.000			2.729			-1.365
91001.000			2.729			-1.365
91100.000			2.730			-1.365
91201.000			2.730			-1.365
91300.000			2.730			-1.365
91400.000			2.729			-1.365
91501.000			2.729			-1.364
91601.000			2.729			-1.365
91701.000			2.729			-1.365
91802.000			2.729			-1.365
91900.000			2.729			-1.364
92000.000			2.729			-1.365
92101.000			2.729			-1.364
92200.000			2.729			-1.365
92300.000			2.729			-1.364
92401.000			2.728			-1.364
92501.000			2.728			-1.364
92601.000			2.729			-1.365
92701.000			2.730			-1.365
92800.000			2.729			-1.365
92900.000			2.729			-1.364
93001.000			2.729			-1.364
93100.000			2.729			-1.364
93200.000			2.729			-1.364
93302.000			2.729			-1.365
93401.000			2.729			-1.365
93501.000			2.729			-1.364
93601.000			2.729			-1.364
93700.000			2.728			-1.364
93800.000			2.729			-1.364
93900.000			2.728			-1.364
94000.000			2.728			-1.364
94101.000			2.729			-1.365
94201.000			2.729			-1.365
94301.000			2.728			-1.364
94401.000			2.728			-1.364
94500.000			2.729			-1.364
94600.000			2.729			-1.365
94701.000			2.729			-1.364
94800.000			2.728			-1.364
94900.000			2.728			-1.364
95002.000			2.728			-1.364
95101.000			2.729			-1.364
95200.000			2.728			-1.364
95301.000			2.727			-1.364
95400.000			2.728			-1.364
95500.000			2.728			-1.364
95601.000			2.728			-1.364
95700.000			2.728			-1.364
95800.000			2.729			-1.364
95902.000			2.728			-1.364
96001.000			2.728			-1.364
96100.000			2.728			-1.364
96201.000			2.728			-1.364
96300.000			2.728			-1.364
96400.000			2.727			-1.364
96501.000			2.726			-1.363
96600.000			2.727			-1.364
96701.000			2.727			-1.364
96802.000			2.727			-1.363
96900.000			2.727			-1.363
97000.000			2.727			-1.363
97100.000			2.727			-1.363
97200.000			2.727			-1.363
97301.000			2.727			-1.363
97400.000			2.727			-1.363
97500.000			2.727			-1.363
97602.000			2.727			-1.363
97701.000			2.727			-1.363
97800.000			2.726			-1.363
97901.000			2.727			-1.363
98000.000			2.727			-1.363
98100.000			2.728			-1.364
98201.000			2.729			-1.364
98300.000			2.728			-1.364
98401.000			2.728			-1.364
98502.000			2.727			-1.363
98601.000			2.728			-1.364
98700.000			2.727			-1.364
98801.000			2.727			-1.363
98900.000			2.727			-1.364
99000.000			2.728			-1.364
99101.000			2.727			-1.364
99200.000			2.726			-1.363
99301.000			2.726			-1.363
99402.000			2.726			-1.363
99500.000			2.726			-1.363
99600.000			2.727			-1.364
99701.000			2.726			-1.363
99800.000			2.726			-1.363
99900.000			2.726			-1.363
100001.000			2.727			-1.363
100101.000			2.726			-1.363
100202.000			2.726			-1.363
100301.000			2.727			-1.363
100400.000			2.727			-1.363
100501.000			2.727			-1.363
100600.000			2.727			-1.363
100700.000			2.726			-1.363
100801.000			2.726			-1.363
100900.000			2.725			-1.362
101001.000			2.725			-1.363
101102.000			2.727			-1.363
101200.000			2.726			-1.363
101300.000			2.727			-1.363
101401.000			2.727			-1.363
101500.000			2.725			-1.362
101600.000			2.725			-1.362
101701.000			2.725			-1.363
101801.000			2.726			-1.363
101901.000			2.726			-1.363
102001.000			2.726			-1.363
102100.000			2.726			-1.363
102200.000			2.726			-1.363
102301.000			2.726			-1.363
102400.000			2.726			-1.363
102500.000			2.726			-1.363
102601.000			2.725			-1.362
102701.000			2.725			-1.362
102801.000			2.726			-1.363
102901.000			2.725			-1.363
103000.000			2.726			-1.363
103100.000			2.726			-1.363
103201.000			2.725			-1.363
103300.000			2.725			-1.363
103400.000			2.725			-1.362
103502.000			2.725			-1.362
103601.000			2.724			-1.362
103701.000			2.724			-1.362
103800.000			2.725			-1.363
103900.000			2.726			-1.363
104001.000			2.725			-1.362
104100.000			2.725			-1.362
104200.000			2.726			-1.363
104302.000			2.726			-1.363
104401.000			2.726			-1.363
104500.000			2.726			-1.363
104601.000			2.726			-1.363
104700.000			2.725			-1.362
104800.000			2.724			-1.362
104901.000			2.725			-1.362
105000.000			2.724			-1.362
105100.000			2.725			-1.363
105202.000			2.726			-1.363
105301.000			2.725			-1.362
105400.000			2.725			-1.363
105501.000			2.725			-1.363
105600.000			2.725			-1.363
105700.000			2.725			-1.362
105801.000			2.725			-1.363
105900.000			2.724			-1.362
106001.000			2.724			-1.362
106102.000			2.725			-1.363
106200.000			2.725			-1.362
106300.000			2.724			-1.362
106401.000			2.723			-1.362
106500.000			2.724			-1.362
106600.000			2.724			-1.362
106700.000			2.724			-1.362
106801.000			2.725			-1.362
106902.000			2.724			-1.362
107001.000			2.724			-1.362
107100.000			2.723			-1.362
107201.000			2.724			-1.362
107300.000			2.724			-1.362
107400.000			2.725			-1.362
107501.000			2.725			-1.362
107600.000			2.724			-1.362
107701.000			2.724			-1.362
107802.000			2.725			-1.362
107900.000			2.725			-1.362
108000.000			2.725			-1.363
108101.000			2.725			-1.363
108200.000			2.725			-1.362
108300.000			2.724			-1.362
108401.000			2.724			-1.362
108501.000			2.724			-1.362
108601.000			2.724			-1.362
108701.000			2.725			-1.362
108800.000			2.725			-1.363
108900.000			2.724			-1.362
109001.000			2.724			-1.362
109100.000			2.724			-1.362
109200.000			2.724			-1.362
109301.000			2.723			-1.362
109401.000			2.722			-1.361
109501.000			2.722			-1.361
109601.000			2.724			-1.362
109700.000			2.724			-1.362
109800.000			2.722			-1.361
109900.000			2.722			-1.361
110000.000			2.723			-1.362
110101.000			2.724			-1.362
110201.000			2.724			-1.362
110301.000			2.723			-1.362
110401.000			2.723			-1.362
110500.000			2.723			-1.361
110600.000			2.723			-1.361
110701.000			2.724			-1.362
110800.000			2.724			-1.362
110900.000			2.724			-1.362
111001.000			2.724			-1.362
111101.000			2.723			-1.362
111201.000			2.722			-1.361
111301.000			2.722			-1.361
111400.000			2.721			-1.361
111500.000			2.722			-1.361
111601.000			2.722			-1.361
111700.000			2.723			-1.362
111800.000			2.724			-1.362
111902.000			2.723			-1.362
112001.000			2.724			-1.362
112100.000			2.724			-1.362
112201.000			2.722			-1.361
112300.000			2.722			-1.361
112400.000			2.723			-1.362
112501.000			2.724			-1.362
112600.000			2.724			-1.362
112701.000			2.723			-1.361
112802.000			2.723			-1.361
112900.000			2.724			-1.362
113000.000			2.723			-1.361
113100.000			2.722			-1.361
113200.000			2.724			-1.362
113301.000			2.723			-1.362
113400.000			2.722			-1.361
113501.000			2.722			-1.361
113602.000			2.723			-1.361
113700.000			2.721			-1.361
113800.000			2.721			-1.361
113901.000			2.721			-1.361
114000.000			2.721			-1.361
114100.000			2.721			-1.361
114201.000			2.721			-1.360
114301.000			2.722			-1.361
114401.000			2.722			-1.361
114502.000			2.722			-1.361
114600.000			2.722			-1.361
114700.000			2.722			-1.361
114801.000			2.721			-1.361
114900.000			2.722			-1.361
115000.000			2.723			-1.361
115101.000			2.723			-1.362
115201.000			2.723			-1.361
115301.000			2.722			-1.361
115401.000			2.721			-1.360
115500.000			2.722			-1.361
115600.000			2.722			-1.361
115701.000			2.721			-1.361
115800.000			2.721			-1.361
115900.000			2.722			-1.361
116002.000			2.722			-1.361
116101.000			2.722			-1.361
116200.000			2.722			-1.361
116300.000			2.722			-1.361
116400.000			2.722			-1.361
116501.000			2.721			-1.360
116600.000			2.722			-1.361
116700.000			2.722			-1.361
116801.000			2.721			-1.361
116901.000			2.722			-1.361
117001.000			2.721			-1.360
117101.000			2.721			-1.360
117200.000			2.721			-1.360
117300.000			2.721			-1.361
117401.000			2.722			-1.361
117500.000			2.721			-1.361
117600.000			2.720			-1.360
117702.000			2.721			-1.360
117801.000			2.720			-1.360
117900.000			2.720			-1.360
118001.000			2.721			-1.360
118100.000			2.720			-1.360
118200.000			2.720			-1.360
118301.000			2.721			-1.360
118400.000			2.721			-1.361
118501.000			2.721			-1.361
118602.000			2.721			-1.360
118701.000			2.722			-1.361
118800.000			2.722			-1.361
118901.000			2.721			-1.360
119000.000			2.721			-1.360
119100.000			2.720			-1.360
119201.000			2.720			-1.360
119300.000			2.721			-1.360
119402.000			2.720			-1.360
119501.000			2.721			-1.360
119600.000			2.721			-1.360
119701.000			2.721			-1.360
119800.000			2.720			-1.360
119900.000			2.720			-1.360
120001.000			2.720			-1.360
120100.000			2.720			-1.360
120201.000			2.720			-1.360
120302.000			2.721			-1.360
120400.000			2.720			-1.360
120500.000			2.720			-1.360
120601.000			2.721			-1.360
120700.000			2.720			-1.360
120800.000			2.720			-1.360
120901.000			2.720			-1.360
121001.000			2.720			-1.360
121101.000			2.720			-1.360
121201.000			2.720			-1.360
121300.000			2.719			-1.360
121400.000			2.719			-1.360
121501.000			2.719			-1.360
121600.000			2.720			-1.360
121700.000			2.719			-1.360
121801.000			2.720			-1.360
121901.000			2.719			-1.360
122001.000			2.719			-1.360
122101.000			2.720			-1.360
122200.000			2.721			-1.360
122300.000			2.720			-1.360
122401.000			2.718			-1.359
122500.000			2.717			-1.359
122600.000			2.719			-1.359
122702.000			2.720			-1.360
122801.000			2.720			-1.360
122901.000			2.720			-1.360
123000.000			2.719			-1.359
123100.000			2.719			-1.360
123201.000			2.720			-1.360
123300.000			2.719			-1.360
123400.000			2.720			-1.360
123502.000			2.720			-1.360
123601.000			2.720			-1.360
123701.000			2.719			-1.360
123801.000			2.719			-1.360
123900.000			2.720			-1.360
124000.000			2.721			-1.360
124101.000			2.720			-1.360
124200.000			2.719			-1.360
124300.000			2.719			-1.360
124402.000			2.719			-1.360
124501.000			2.718			-1.359
124600.000			2.719			-1.359
124701.000			2.719			-1.359
124800.000			2.719			-1.359
124900.000			2.719			-1.359
125001.000			2.719			-1.359
125100.000			2.719			-1.360
125201.000			2.720			-1.360
125302.000			2.719			-1.359
125401.000			2.719			-1.359
125500.000			2.719			-1.360
125601.000			2.720			-1.360
125700.000			2.720			-1.360
125800.000			2.720			-1.360
125900.000			2.720			-1.360
126000.000			2.719			-1.359
126102.000			2.720			-1.360
126201.000			2.720			-1.360
126301.000			2.719			-1.359
126401.000			2.718			-1.359
126500.000			2.718			-1.359
126600.000			2.719			-1.359
126701.000			2.718			-1.359
126800.000			2.718			-1.359
126900.000			2.718			-1.359
127002.000			2.718			-1.359
127101.000			2.717			-1.359
127200.000			2.718			-1.359
127301.000			2.718			-1.359
127400.000			2.718			-1.359
127500.000			2.719			-1.359
127601.000			2.718			-1.359
127700.000			2.718			-1.359
127800.000			2.718			-1.359
127902.000			2.718			-1.359
128001.000			2.718			-1.359
128100.000			2.718			-1.359
128201.000			2.718			-1.359
128300.000			2.718			-1.359
128400.000			2.718			-1.359
128501.000			2.717			-1.359
128600.000			2.718			-1.359
128701.000			2.718			-1.359
128802.000			2.718			-1.359
128901.000			2.718			-1.359
129000.000			2.718			-1.359
129100.000			2.718			-1.359
129200.000			2.718			-1.359
129301.000			2.718			-1.359
129400.000			2.717			-1.359
129500.000			2.717			-1.359
129602.000			2.719			-1.359
129701.000			2.717			-1.359
129800.000			2.717			-1.358
129901.000			2.717			-1.359
130000.000			2.718			-1.359
130100.000			2.717			-1.359
130201.000			2.718			-1.359
130300.000			2.718			-1.359
130400.000			2.718			-1.359
130502.000			2.717			-1.359
130601.000			2.718			-1.359
130700.000			2.717			-1.358
130801.000			2.717			-1.358
130900.000			2.718			-1.359
131000.000			2.717			-1.359
131101.000			2.719			-1.359
131200.000			2.718			-1.359
131301.000			2.717			-1.359
131402.000			2.717			-1.359
131501.000			2.718			-1.359
131600.000			2.718			-1.359
131701.000			2.717			-1.359
131800.000			2.717			-1.359
131900.000			2.717			-1.358
132001.000			2.716			-1.358
132100.000			2.716			-1.358
132200.000			2.716			-1.358
132302.000			2.718			-1.359
132401.000			2.718			-1.359
132501.000			2.717			-1.358
132600.000			2.717			-1.359
132700.000			2.717			-1.359
132801.000			2.717			-1.359
132900.000			2.717			-1.359
133000.000			2.717			-1.358
133101.000			2.717			-1.359
133201.000			2.718			-1.359
133301.000			2.719			-1.359
133401.000			2.718			-1.359
133500.000			2.717			-1.359
133600.000			2.717			-1.359
133701.000			2.717			-1.359
133800.000			2.717			-1.359
133900.000			2.718			-1.359
134001.000			2.717			-1.359
134101.000			2.717			-1.359
134201.000			2.717			-1.359
134301.000			2.717			-1.358
134400.000			2.717			-1.358
134500.000			2.718			-1.359
134601.000			2.718			-1.359
134700.000			2.716			-1.358
134800.000			2.715			-1.358
134901.000			2.716			-1.358
135001.000			2.716			-1.358
135101.000			2.718			-1.359
135202.000			2.717			-1.358
135300.000			2.716			-1.358
135400.000			2.716			-1.358
135500.000			2.716			-1.358
135600.000			2.716			-1.358
135701.000			2.716			-1.358
135800.000			2.717			-1.358
135900.000			2.716			-1.358
136002.000			2.716			-1.358
136101.000			2.717			-1.358
136200.000			2.717			-1.359
136301.000			2.717			-1.358
136400.000			2.717			-1.359
136500.000			2.717			-1.358
136601.000			2.716			-1.358
136700.000			2.716			-1.358
136800.000			2.716			-1.358
136902.000			2.716			-1.358
137001.000			2.716			-1.358
137101.000			2.716			-1.358
137201.000			2.717			-1.358
137300.000			2.716			-1.358
137400.000			2.716			-1.358
137501.000			2.716			-1.358
137600.000			2.716			-1.358
137700.000			2.716			-1.358
137801.000			2.716			-1.358
137901.000			2.716			-1.358
138001.000			2.716			-1.358
138101.000			2.716			-1.358
138200.000			2.716			-1.358
138300.000			2.715			-1.358
138401.000			2.716			-1.358
138500.000			2.716			-1.358
138600.000			2.716			-1.358
138700.000			2.715			-1.358
138801.000			2.715			-1.358
138902.000			2.716			-1.358
139001.000			2.716			-1.358
139100.000			2.717			-1.358
139201.000			2.717			-1.358
139300.000			2.717			-1.358
139400.000			2.717			-1.358
139501.000			2.715			-1.358
139600.000			2.716			-1.358
139700.000			2.716			-1.358
139802.000			2.716			-1.358
139901.000			2.716			-1.358
140000.000			2.716			-1.358
140101.000			2.715			-1.357
140200.000			2.715			-1.357
140300.000			2.715			-1.358
140401.000			2.715			-1.358
140500.000			2.715			-1.357
140600.000			2.715			-1.358
140702.000			2.715			-1.358
140801.000			2.715			-1.358
140901.000			2.715			-1.358
141001.000			2.716			-1.358
141100.000			2.715			-1.357
141200.000			2.714			-1.357
141301.000			2.714			-1.357
141400.000			2.715			-1.357
141500.000			2.715			-1.357
141602.000			2.715			-1.357
141701.000			2.715			-1.358
141802.000			2.716			-1.358
141900.000			2.716			-1.358
142000.000			2.716			-1.358
142101.000			2.716			-1.358
142200.000			2.716			-1.358
142300.000			2.715			-1.357
142401.000			2.715			-1.357
142501.000			2.715			-1.357
142601.000			2.716			-1.358
142702.000			2.715			-1.358
142800.000			2.714			-1.357
142900.000			2.714			-1.357
143001.000			2.714			-1.357
143100.000			2.714			-1.357
143200.000			2.714			-1.357
143301.000			2.715			-1.357
143401.000			2.714			-1.357
143501.000			2.714			-1.357
143602.000			2.715			-1.357
143700.000			2.715			-1.357
143800.000			2.715			-1.357
143901.000			2.715			-1.357
144000.000			2.715			-1.357
144100.000			2.716			-1.358
144201.000			2.714			-1.357
144300.000			2.715			-1.357
144401.000			2.715			-1.358
144502.000			2.715			-1.357
144600.000			2.714			-1.357
144700.000			2.715			-1.357
144801.000			2.714			-1.357
144900.000			2.715			-1.357
145000.000			2.716			-1.358
145100.000			2.716			-1.358
145200.000			2.715			-1.357
145302.000			2.714			-1.357
145401.000			2.713			-1.357
145501.000			2.713			-1.357
145601.000			2.715			-1.358
145700.000			2.716			-1.358
145800.000			2.716			-1.358
145901.000			2.715			-1.358
146000.000			2.715			-1.358
146100.000			2.715			-1.357
146202.000			2.715			-1.358
146301.000			2.716			-1.358
146401.000			2.716			-1.358
146501.000			2.714			-1.357
146600.000			2.714			-1.357
146700.000			2.715			-1.357
146801.000			2.715			-1.357
146900.000			2.715			-1.358
147000.000			2.714			-1.357
147101.000			2.714			-1.357
147201.000			2.715			-1.358
147301.000			2.715			-1.357
147401.000			2.714			-1.357
147500.000			2.714			-1.357
147600.000			2.714			-1.357
147701.000			2.713			-1.356
147800.000			2.713			-1.356
147900.000			2.713			-1.357
148001.000			2.713			-1.357
148101.000			2.714			-1.357
148202.000			2.714			-1.357
148301.000			2.713			-1.356
148400.000			2.713			-1.357
148501.000			2.713			-1.356
148600.000			2.713			-1.357
148700.000			2.713			-1.357
148801.000			2.712			-1.356
148900.000			2.713			-1.357
149000.000			2.712			-1.356
149102.000			2.713			-1.357
149201.000			2.712			-1.356
149300.000			2.712			-1.356
149401.000			2.713			-1.356
149500.000			2.713			-1.356
149600.000			2.712			-1.356
149701.000			2.713			-1.356
149800.000			2.713			-1.356
149900.000			2.713			-1.356
150002.000			2.712			-1.356
150101.000			2.713			-1.356
150201.000			2.713			-1.356
150301.000			2.713			-1.356
150400.000			2.713			-1.356
150500.000			2.712			-1.356
150601.000			2.713			-1.356
150700.000			2.713			-1.356
150800.000			2.712			-1.356
150902.000			2.713			-1.356
151001.000			2.713			-1.357
151101.000			2.713			-1.356
151201.000			2.713			-1.357
151300.000			2.714			-1.357
151400.000			2.713			-1.357
151500.000			2.714			-1.357
151600.000			2.714			-1.357
151701.000			2.714			-1.357
151801.000			2.714			-1.357
151901.000			2.714			-1.357
152002.000			2.715			-1.357
152100.000			2.713			-1.357
152200.000			2.713			-1.357
152301.000			2.713			-1.357
152400.000			2.713			-1.356
152500.000			2.714			-1.357
152601.000			2.714			-1.357
152700.000			2.714			-1.357
152801.000			2.714			-1.357
152902.000			2.713			-1.357
153000.000			2.714			-1.357
153100.000			2.713			-1.357
153201.000			2.712			-1.356
153300.000			2.713			-1.356
153400.000			2.714			-1.357
153501.000			2.715			-1.357
153600.000			2.713			-1.357
153701.000			2.712			-1.356
153802.000			2.712			-1.356
153901.000			2.711			-1.356
154000.000			2.712			-1.356
154101.000			2.713			-1.357
154200.000			2.713			-1.357
154300.000			2.712			-1.356
154401.000			2.712			-1.356
154500.000			2.712			-1.356
154602.000			2.711			-1.356
154701.000			2.712			-1.356
154801.000			2.713			-1.356
154901.000			2.712			-1.356
155000.000			2.712			-1.356
155100.000			2.712			-1.356
155201.000			2.712			-1.356
155300.000			2.711			-1.355
155400.000			2.711			-1.355
155502.000			2.712			-1.356
155601.000			2.712			-1.356
155701.000			2.712			-1.356
155801.000			2.712			-1.356
155900.000			2.712			-1.356
156000.000			2.711			-1.356
156101.000			2.712			-1.356
156200.000			2.712			-1.356
156300.000			2.713			-1.356
156401.000			2.712			-1.356
156501.000			2.711			-1.356
156601.000			2.711			-1.355
156701.000			2.712			-1.356
156800.000			2.712			-1.356
156900.000			2.712			-1.356
157001.000			2.711			-1.356
157100.000			2.711			-1.356
157200.000			2.711			-1.355
157301.000			2.711			-1.355
157401.000			2.712			-1.356
157501.000			2.712			-1.356
157601.000			2.711			-1.356
157700.000			2.711			-1.355
157800.000			2.711			-1.356
157900.000			2.711			-1.356
158000.000			2.711			-1.356
158101.000			2.711			-1.355
158200.000			2.711			-1.356
158301.000			2.712			-1.356
158402.000			2.711			-1.356
158500.000			2.711			-1.355
158600.000			2.711			-1.355
158701.000			2.711			-1.356
158800.000			2.711			-1.355
158900.000			2.711			-1.356
159001.000			2.710			-1.355
159100.000			2.711			-1.355
159201.000			2.712			-1.356
159302.000			2.711			-1.356
159401.000			2.712			-1.356
159500.000			2.712			-1.356
159601.000			2.710			-1.355
159700.000			2.710			-1.355
159800.000			2.710			-1.355
159901.000			2.710			-1.355
160000.000			2.711			-1.356
160100.000			2.711			-1.356
160202.000			2.711			-1.355
160301.000			2.710			-1.355
160400.000			2.710			-1.355
160501.000			2.709			-1.355
160600.000			2.710			-1.355
160700.000			2.710			-1.355
160801.000			2.710			-1.355
160900.000			2.711			-1.355
161000.000			2.710			-1.355
161102.000			2.710			-1.355
161201.000			2.710			-1.355
161301.000			2.710			-1.355
161400.000			2.710			-1.355
161500.000			2.709			-1.355
161601.000			2.710			-1.355
161700.000			2.710			-1.355
161800.000			2.710			-1.355
161901.000			2.711			-1.356
162001.000			2.711			-1.355
162101.000			2.711			-1.355
162202.000			2.710			-1.355
162300.000			2.709			-1.355
162400.000			2.710			-1.355
162501.000			2.709			-1.354
162600.000			2.709			-1.354
162700.000			2.709			-1.355
162801.000			2.710			-1.355
162901.000			2.711			-1.355
163001.000			2.710			-1.355
163102.000			2.710			-1.355
163200.000			2.709			-1.355
163300.000			2.709			-1.355
163401.000			2.710			-1.355
163500.000			2.710			-1.355
163600.000			2.710			-1.355
163701.000			2.710			-1.355
163800.000			2.709			-1.354
163901.000			2.709			-1.355
164002.000			2.710			-1.355
164100.000			2.710			-1.355
164200.000			2.710			-1.355
164300.000			2.710			-1.355
164400.000			2.709			-1.354
164501.000			2.709			-1.354
164600.000			2.709			-1.355
164700.000			2.710			-1.355
164802.000			2.710			-1.355
164901.000			2.710			-1.355
165001.000			2.710			-1.355
165101.000			2.709			-1.354
165200.000			2.710			-1.355
165300.000			2.710			-1.355
165401.000			2.710			-1.355
165500.000			2.710			-1.355
165600.000			2.710			-1.355
165701.000			2.711			-1.356
165801.000			2.710			-1.355
165901.000			2.709			-1.354
166001.000			2.709			-1.355
166100.000			2.708			-1.354
166200.000			2.708			-1.354
166301.000			2.709			-1.354
166400.000			2.708			-1.354
166500.000			2.709			-1.354
166601.000			2.710			-1.355
166701.000			2.710			-1.355
166801.000			2.710			-1.355
166902.000			2.709			-1.355
167000.000			2.709			-1.354
167100.000			2.709			-1.355
167201.000			2.709			-1.355
167300.000			2.710			-1.355
167400.000			2.709			-1.355
167500.000			2.709			-1.355
167600.000			2.709			-1.355
167702.000			2.709			-1.354
167801.000			2.708			-1.354
167901.000			2.708			-1.354
168001.000			2.708			-1.354
168100.000			2.708			-1.354
168200.000			2.707			-1.354
168301.000			2.708			-1.354
168400.000			2.709			-1.354
168500.000			2.709			-1.354
168601.000			2.709			-1.354
168701.000			2.708			-1.354
168801.000			2.708			-1.354
168901.000			2.708			-1.354
169000.000			2.708			-1.354
169100.000			2.708			-1.354
169201.000			2.707			-1.354
169300.000			2.708			-1.354
169400.000			2.708			-1.354
169501.000			2.709			-1.355
169601.000			2.708			-1.354
169701.000			2.708			-1.354
169802.000			2.708			-1.354
169900.000			2.709			-1.354
170000.000			2.709			-1.355
170101.000			2.708			-1.354
170200.000			2.709			-1.355
170300.000			2.708			-1.354
170401.000			2.708			-1.354
170500.000			2.708			-1.354
170602.000			2.708			-1.354
170701.000			2.708			-1.354
170801.000			2.709			-1.354
170901.000			2.708			-1.354
171000.000			2.709			-1.354
171100.000			2.708			-1.354
171201.000			2.708			-1.354
171300.000			2.708			-1.354
171400.000			2.707			-1.354
171502.000			2.707			-1.354
171601.000			2.708			-1.354
171701.000			2.708			-1.354
171801.000			2.708			-1.354
171900.000			2.708			-1.354
172000.000			2.708			-1.354
172101.000			2.708			-1.354
172200.000			2.707			-1.354
172300.000			2.707			-1.354
172401.000			2.707			-1.353
172501.000			2.707			-1.354
172601.000			2.709			-1.354
172701.000			2.708			-1.354
172800.000			2.708			-1.354
172900.000			2.708			-1.354
173001.000			2.707			-1.354
173100.000			2.707			-1.353
173200.000			2.707			-1.354
173301.000			2.709			-1.354
173400.000			2.708			-1.354
173501.000			2.708			-1.354
173602.000			2.707			-1.354
173700.000			2.707			-1.354
173800.000			2.708			-1.354
173900.000			2.708			-1.354
174000.000			2.707			-1.354
174101.000			2.707			-1.354
174200.000			2.707			-1.354
174300.000			2.709			-1.354
174402.000			2.709			-1.354
174501.000			2.708			-1.354
174601.000			2.707			-1.353
174701.000			2.709			-1.354
174800.000			2.708			-1.354
174900.000			2.708			-1.354
175001.000			2.708			-1.354
175100.000			2.708			-1.354
175200.000			2.708			-1.354
175301.000			2.708			-1.354
175401.000			2.708			-1.354
175501.000			2.709			-1.354
175601.000			2.709			-1.354
175700.000			2.708			-1.354
175800.000			2.708			-1.354
175901.000			2.708			-1.354
176000.000			2.708			-1.354
176100.000			2.708			-1.354
176201.000			2.708			-1.354
176300.000			2.708			-1.354
176401.000			2.708			-1.354
176502.000			2.708			-1.354
176601.000			2.708			-1.354
176700.000			2.708			-1.354
176801.000			2.708			-1.354
176900.000			2.709			-1.354
177000.000			2.709			-1.354
177100.000			2.708			-1.354
177200.000			2.709			-1.355
177302.000			2.709			-1.354
177401.000			2.707			-1.353
177501.000			2.709			-1.354
177601.000			2.709			-1.354
177700.000			2.709			-1.354
177800.000			2.708			-1.354
177901.000			2.707			-1.354
178000.000			2.708			-1.354
178100.000			2.707			-1.354
178201.000			2.707			-1.354
178301.000			2.708			-1.354
178401.000			2.708			-1.354
178502.000			2.707			-1.354
178600.000			2.708			-1.354
178700.000			2.708			-1.354
178801.000			2.708			-1.354
178900.000			2.707			-1.354
179000.000			2.707			-1.354
179101.000			2.707			-1.353
179200.000			2.707			-1.354
179301.000			2.707			-1.354
179402.000			2.708			-1.354
179500.000			2.707			-1.353
179600.000			2.707			-1.353
179701.000			2.706			-1.353
179800.000			2.707			-1.353
179900.000			2.708			-1.354
180001.000			2.709			-1.354
180100.000			2.708			-1.354
180202.000			2.708			-1.354
180301.000			2.707			-1.353
180401.000			2.708			-1.354
180501.000			2.707			-1.354
180600.000			2.707			-1.354
180700.000			2.707			-1.353
180801.000			2.707			-1.354
180900.000			2.707			-1.353
181000.000			2.707			-1.354
181101.000			2.706			-1.353
181201.000			2.706			-1.353
181301.000			2.706			-1.353
181401.000			2.707			-1.353
181500.000			2.707			-1.353
181600.000			2.707			-1.354
181701.000			2.707			-1.353
181800.000			2.706			-1.353
181900.000			2.707			-1.353
182001.000			2.706			-1.353
182101.000			2.707			-1.353
182201.000			2.707			-1.354
182301.000			2.707			-1.353
182400.000			2.706			-1.353
182500.000			2.707			-1.354
182601.000			2.707			-1.354
182700.000			2.707			-1.354
182800.000			2.706			-1.353
182901.000			2.706			-1.353
183001.000			2.707			-1.353
183101.000			2.707			-1.354
183202.000			2.707			-1.353
183300.000			2.707			-1.354
183400.000			2.707			-1.354
183500.000			2.707			-1.354
183600.000			2.707			-1.353
183701.000			2.707			-1.353
183800.000			2.708			-1.354
183900.000			2.707			-1.354
184002.000			2.706			-1.353
184101.000			2.708			-1.354
184200.000			2.707			-1.354
184301.000			2.707			-1.353
184400.000			2.706			-1.353
184500.000			2.706			-1.353
184601.000			2.706			-1.353
184700.000			2.706			-1.353
184800.000			2.705			-1.353
184902.000			2.706			-1.353
185001.000			2.706			-1.353
185101.000			2.707			-1.353
185201.000			2.706			-1.353
185300.000			2.705			-1.352
185400.000			2.705			-1.352
185501.000			2.706			-1.353
185600.000			2.706			-1.353
185700.000			2.706			-1.353
185801.000			2.706			-1.353
185901.000			2.706			-1.353
186001.000			2.707			-1.353
186101.000			2.707			-1.353
186200.000			2.707			-1.353
186300.000			2.706			-1.353
186401.000			2.707			-1.353
186500.000			2.707			-1.354
186600.000			2.707			-1.354
186700.000			2.707			-1.354
186800.000			2.707			-1.354
186902.000			2.706			-1.353
187001.000			2.707			-1.353
187100.000			2.707			-1.354
187201.000			2.707			-1.353
187300.000			2.706			-1.353
187400.000			2.707			-1.353
187501.000			2.707			-1.353
187600.000			2.708			-1.354
187700.000			2.706			-1.353
187802.000			2.706			-1.353
187901.000			2.707			-1.353
188001.000			2.706			-1.353
188101.000			2.707			-1.353
188200.000			2.706			-1.353
188300.000			2.705			-1.353
188401.000			2.705			-1.352
188500.000			2.705			-1.352
188600.000			2.705			-1.352
188701.000			2.706			-1.353
188801.000			2.706			-1.353
188901.000			2.706			-1.353
189001.000			2.706			-1.353
189100.000			2.706			-1.353
189200.000			2.705			-1.353
189301.000			2.705			-1.353
189400.000			2.705			-1.352
189500.000			2.706			-1.353
189601.000			2.706			-1.353
189701.000			2.707			-1.353
189802.000			2.707			-1.354
189901.000			2.707			-1.353
190000.000			2.706			-1.353
190101.000			2.706			-1.353
190200.000			2.706			-1.353
190300.000			2.706			-1.353
190401.000			2.705			-1.352
190500.000			2.705			-1.352
190600.000			2.705			-1.353
190702.000			2.705			-1.352
190801.000			2.706			-1.353
190901.000			2.706			-1.353
191001.000			2.704			-1.352
191100.000			2.706			-1.353
191200.000			2.706			-1.353
191301.000			2.705			-1.353
191400.000			2.705			-1.353
191500.000			2.705			-1.353
191602.000			2.706			-1.353
191701.000			2.706			-1.353
191801.000			2.706			-1.353
191901.000			2.705			-1.352
192000.000			2.705			-1.353
192100.000			2.706			-1.353
192201.000			2.706			-1.353
192300.000			2.706			-1.353
192400.000			2.705			-1.352
192501.000			2.705			-1.352
192601.000			2.705			-1.352
192701.000			2.706			-1.353
192801.000			2.705			-1.353
192900.000			2.705			-1.352
193000.000			2.705			-1.353
193100.000			2.705			-1.352
193200.000			2.705			-1.352
193301.000			2.705			-1.353
193400.000			2.705			-1.352
193501.000			2.706			-1.353
193602.000			2.705			-1.353
193701.000			2.704			-1.352
193800.000			2.704			-1.352
193901.000			2.705			-1.352
194000.000			2.706			-1.353
194100.000			2.706			-1.353
194201.000			2.706			-1.353
194300.000			2.705			-1.352
194400.000			2.705			-1.352
194502.000			2.705			-1.353
194601.000			2.705			-1.352
194700.000			2.705			-1.353
194801.000			2.706			-1.353
194900.000			2.706			-1.353
195000.000			2.705			-1.353
195101.000			2.705			-1.353
195200.000			2.705			-1.352
195300.000			2.705			-1.352
195402.000			2.705			-1.352
195501.000			2.705			-1.352
195601.000			2.704			-1.352
195701.000			2.704			-1.352
195800.000			2.704			-1.352
195900.000			2.704			-1.352
196001.000			2.704			-1.352
196100.000			2.705			-1.352
196200.000			2.705			-1.353
196300.000			2.705			-1.352
196401.000			2.704			-1.352
196502.000			2.705			-1.353
196600.000			2.705			-1.353
196700.000			2.704			-1.352
196801.000			2.705			-1.352
196900.000			2.705			-1.352
197000.000			2.705			-1.352
197101.000			2.704			-1.352
197200.000			2.704			-1.352
197300.000			2.704			-1.352
197402.000			2.705			-1.352
197501.000			2.705			-1.352
197600.000			2.705			-1.352
197701.000			2.705			-1.353
197800.000			2.704			-1.352
197900.000			2.704			-1.352
198001.000			2.705			-1.352
198100.000			2.705			-1.352
198200.000			2.704			-1.352
198302.000			2.704			-1.352
198401.000			2.704			-1.352
198501.000			2.704			-1.352
198601.000			2.704			-1.352
198700.000			2.703			-1.352
198800.000			2.703			-1.352
198901.000			2.705			-1.352
199000.000			2.704			-1.352
199100.000			2.703			-1.352
199201.000			2.704			-1.352
199301.000			2.704			-1.352
199402.000			2.704			-1.352
199501.000			2.704			-1.352
199600.000			2.703			-1.352
199701.000			2.704			-1.352
199800.000			2.704			-1.352
199900.000			2.703			-1.351
200001.000			2.702			-1.351
200100.000			2.702			-1.351
200200.000			2.703			-1.352
200302.000			2.704			-1.352
200401.000			2.703			-1.351
200500.000			2.704			-1.352
200601.000			2.704			-1.352
200700.000			2.705			-1.352
200800.000			2.704			-1.352
200901.000			2.703			-1.351
201000.000			2.704			-1.352
201100.000			2.704			-1.352
201202.000			2.703			-1.352
201301.000			2.703			-1.351
201400.000			2.703			-1.352
201501.000			2.704			-1.352
201600.000			2.704			-1.352
201700.000			2.703			-1.352
201801.000			2.703			-1.352
201900.000			2.703			-1.351
202000.000			2.703			-1.351
202102.000			2.703			-1.351
202201.000			2.703			-1.351
202300.000			2.703			-1.351
202401.000			2.702			-1.351
202500.000			2.702			-1.351
202600.000			2.703			-1.351
202700.000			2.703			-1.351
202800.000			2.704			-1.352
202901.000			2.703			-1.352
203001.000			2.703			-1.352
203101.000			2.703			-1.351
203201.000			2.703			-1.352
203300.000			2.703			-1.352
203400.000			2.703			-1.351
203501.000			2.703			-1.352
203600.000			2.703			-1.351
203700.000			2.704			-1.352
203801.000			2.703			-1.352
203901.000			2.702			-1.351
204001.000			2.702			-1.351
204101.000			2.702			-1.351
204200.000			2.703			-1.351
204300.000			2.702			-1.351
204401.000			2.702			-1.351
204500.000			2.702			-1.351
204600.000			2.701			-1.350
204701.000			2.702			-1.351
204801.000			2.702			-1.351
204901.000			2.703			-1.351
205002.000			2.703			-1.351
205100.000			2.704			-1.352
205200.000			2.703			-1.352
205301.000			2.703			-1.352
205400.000			2.703			-1.351
205500.000			2.703			-1.351
205601.000			2.702			-1.351
205701.000			2.703			-1.351
205802.000			2.702			-1.351
205901.000			2.702			-1.351
206000.000			2.703			-1.352
206101.000			2.704			-1.352
206200.000			2.703			-1.352
206300.000			2.702			-1.351
206401.000			2.703			-1.352
206500.000			2.703			-1.351
206601.000			2.703			-1.351
206702.000			2.703			-1.352
206801.000			2.702			-1.351
206900.000			2.702			-1.351
207001.000			2.703			-1.351
207100.000			2.702			-1.351
207200.000			2.702			-1.351
207301.000			2.703			-1.351
207400.000			2.702			-1.351
207501.000			2.703			-1.351
207602.000			2.702			-1.351
207701.000			2.703			-1.352
207800.000			2.703			-1.352
207901.000			2.703			-1.351
208000.000			2.702			-1.351
208100.000			2.702			-1.351
208201.000			2.702			-1.351
208300.000			2.703			-1.351
208401.000			2.704			-1.352
208502.000			2.703			-1.351
208601.000			2.702			-1.351
208700.000			2.702			-1.351
208801.000			2.702			-1.351
208900.000			2.702			-1.351
209000.000			2.703			-1.351
209100.000			2.702			-1.351
209200.000			2.700			-1.350
209302.000			2.702			-1.351
209401.000			2.702			-1.351
209501.000			2.702			-1.351
209601.000			2.702			-1.351
209700.000			2.701			-1.351
209800.000			2.702			-1.351
209901.000			2.702			-1.351
210000.000			2.703			-1.352
210100.000			2.702			-1.351
210202.000			2.702			-1.351
210301.000			2.703			-1.351
210401.000			2.702			-1.351
210501.000			2.703			-1.351
210600.000			2.703			-1.351
210700.000			2.702			-1.351
210801.000			2.703			-1.351
210900.000			2.702			-1.351
211000.000			2.702			-1.351
211102.000			2.702			-1.351
211201.000			2.702			-1.351
211301.000			2.703			-1.351
211401.000			2.702			-1.351
211500.000			2.702			-1.351
211600.000			2.702			-1.351
211701.000			2.702			-1.351
211800.000			2.702			-1.351
211900.000			2.703			-1.351
212002.000			2.702			-1.351
212101.000			2.702			-1.351
212202.000			2.702			-1.351
212300.000			2.703			-1.351
212400.000			2.702			-1.351
212501.000			2.701			-1.350
212600.000			2.701			-1.351
212700.000			2.702			-1.351
212801.000			2.703			-1.351
212901.000			2.703			-1.352
213001.000			2.702			-1.351
213101.000			2.702			-1.351
213200.000			2.702			-1.351
213300.000			2.702			-1.351
213401.000			2.702			-1.351
213500.000			2.702			-1.351
213600.000			2.702			-1.351
213701.000			2.702			-1.351
213801.000			2.702			-1.351
213901.000			2.703			-1.352
214001.000			2.703			-1.352
214100.000			2.702			-1.351
214200.000			2.700			-1.350
214301.000			2.702			-1.351
214400.000			2.703			-1.351
214500.000			2.702			-1.351
214601.000			2.702			-1.351
214701.000			2.702			-1.351
214801.000			2.702			-1.351
214901.000			2.702			-1.351
215000.000			2.700			-1.350
215100.000			2.701			-1.350
215201.000			2.702			-1.351
215300.000			2.703			-1.351
215400.000			2.702			-1.351
215500.000			2.702			-1.351
215601.000			2.702			-1.351
215702.000			2.702			-1.351
215800.000			2.702			-1.351
215900.000			2.702			-1.351
216001.000			2.702			-1.351
216100.000			2.702			-1.351
216200.000			2.702			-1.351
216301.000			2.702			-1.351
216400.000			2.702			-1.351
216501.000			2.702			-1.351
216602.000			2.702			-1.351
216700.000			2.702			-1.351
216800.000			2.702			-1.351
216901.000			2.701			-1.350
217000.000			2.700			-1.350
217100.000			2.701			-1.351
217201.000			2.701			-1.351
217300.000			2.700			-1.350
217401.000			2.702			-1.351
217502.000			2.701			-1.351
217601.000			2.700			-1.350
217700.000			2.701			-1.351
217801.000			2.702			-1.351
217900.000			2.702			-1.351
218000.000			2.702			-1.351
218101.000			2.703			-1.351
218200.000			2.702			-1.351
218301.000			2.702			-1.351
218402.000			2.702			-1.351
218500.000			2.701			-1.350
218600.000			2.702			-1.351
218700.000			2.702			-1.351
218800.000			2.702			-1.351
218901.000			2.702			-1.351
219000.000			2.702			-1.351
219100.000			2.702			-1.351
219202.000			2.703			-1.351
219301.000			2.702			-1.351
219401.000			2.702			-1.351
219501.000			2.703			-1.351
219600.000			2.701			-1.351
219700.000			2.702			-1.351
219801.000			2.701			-1.350
219900.000			2.701			-1.350
220000.000			2.701			-1.351
220102.000			2.702			-1.351
220201.000			2.702			-1.351
220301.000			2.701			-1.351
220401.000			2.701			-1.351
220500.000			2.701			-1.351
220600.000			2.701			-1.350
220701.000			2.700			-1.350
220800.000			2.701			-1.350
220900.000			2.702			-1.351
221002.000			2.701			-1.350
221101.000			2.702			-1.351
221200.000			2.702			-1.351
221301.000			2.701			-1.351
221400.000			2.702			-1.351
221500.000			2.701			-1.350
221601.000			2.700			-1.350
221700.000			2.701			-1.350
221800.000			2.701			-1.350
221902.000			2.701			-1.351
222001.000			2.701			-1.350
222101.000			2.701			-1.351
222200.000			2.701			-1.350
222300.000			2.701			-1.350
222401.000			2.700			-1.350
222500.000			2.701			-1.350
222600.000			2.701			-1.351
222701.000			2.701			-1.350
222801.000			2.701			-1.350
222901.000			2.701			-1.351
223001.000			2.702			-1.351
223100.000			2.702			-1.351
223200.000			2.700			-1.350
223301.000			2.701			-1.350
223400.000			2.701			-1.351
223500.000			2.701			-1.350
223601.000			2.701			-1.350
223701.000			2.702			-1.351
223801.000			2.701			-1.350
223901.000			2.701			-1.350
224000.000			2.700			-1.350
224100.000			2.700			-1.350
224201.000			2.700			-1.350
224300.000			2.701			-1.351
224400.000			2.701			-1.351
224501.000			2.701			-1.350
224601.000			2.700			-1.350
224701.000			2.701			-1.351
224801.000			2.701			-1.351
224900.000			2.701			-1.350
225000.000			2.702			-1.351
225100.000			2.701			-1.350
225200.000			2.701			-1.351
225301.000			2.701			-1.351
225400.000			2.702			-1.351
225501.000			2.701			-1.351
225602.000			2.700			-1.350
225700.000			2.699			-1.350
225800.000			2.700			-1.350
225901.000			2.701			-1.350
226000.000			2.701			-1.350
226100.000			2.700			-1.350
226201.000			2.701			-1.350
226300.000			2.700			-1.350
226401.000			2.700			-1.350
226502.000			2.700			-1.350
226600.000			2.701			-1.350
226700.000			2.700			-1.350
226801.000			2.700			-1.350
226900.000			2.699			-1.350
227000.000			2.700			-1.350
227101.000			2.701			-1.350
227200.000			2.701			-1.350
227300.000			2.700			-1.350
227402.000			2.700			-1.350
227501.000			2.700			-1.350
227600.000			2.700			-1.350
227701.000			2.701			-1.350
227800.000			2.700			-1.350
227900.000			2.700			-1.350
228001.000			2.700			-1.350
228100.000			2.700			-1.350
228200.000			2.700			-1.350
228302.000			2.700			-1.350
228401.000			2.701			-1.351
228501.000			2.700			-1.350
228600.000			2.700			-1.350
228700.000			2.699			-1.350
228801.000			2.701			-1.350
228900.000			2.701			-1.351
229000.000			2.701			-1.350
229101.000			2.700			-1.350
229201.000			2.699			-1.350
229301.000			2.700			-1.350
229401.000			2.700			-1.350
229500.000			2.700			-1.350
229600.000			2.700			-1.350
229701.000			2.700			-1.350
229800.000			2.700			-1.350
229900.000			2.699			-1.350
230001.000			2.700			-1.350
230101.000			2.701			-1.350
230201.000			2.701			-1.351
230302.000			2.700			-1.350
230400.000			2.701			-1.350
230500.000			2.700			-1.350
230601.000			2.699			-1.350
230700.000			2.699			-1.349
230800.000			2.700			-1.350
230901.000			2.701			-1.351
231001.000			2.700			-1.350
231101.000			2.698			-1.349
231202.000			2.698			-1.349
231300.000			2.700			-1.350
231400.000			2.700			-1.350
231500.000			2.699			-1.350
231600.000			2.699			-1.350
231701.000			2.699			-1.350
231800.000			2.699			-1.350
231900.000			2.700			-1.350
232002.000			2.700			-1.350
232101.000			2.700			-1.350
232201.000			2.699			-1.350
232301.000			2.700			-1.350
232400.000			2.700			-1.350
232500.000			2.699			-1.349
232601.000			2.699			-1.349
232700.000			2.700			-1.350
232800.000			2.700			-1.350
232901.000			2.699			-1.350
233001.000			2.699			-1.349
233101.000			2.699			-1.349
233201.000			2.699			-1.350
233300.000			2.699			-1.350
233400.000			2.700			-1.350
233501.000			2.699			-1.350
233600.000			2.698			-1.349
233700.000			2.698			-1.349
233801.000			2.699			-1.349
233901.000			2.700			-1.350
234001.000			2.700			-1.350
234102.000			2.699			-1.350
234200.000			2.699			-1.350
234300.000			2.700			-1.350
234401.000			2.700			-1.350
234500.000			2.699			-1.349
234600.000			2.699			-1.349
234700.000			2.699			-1.350
234800.000			2.699			-1.349
234901.000			2.699			-1.349
235001.000			2.699			-1.350
235101.000			2.699			-1.349
235201.000			2.698			-1.349
235300.000			2.698			-1.349
235400.000			2.698			-1.349
235501.000			2.699			-1.349
235600.000			2.699			-1.349
235700.000			2.699			-1.350
235801.000			2.699			-1.350
235901.000			2.698			-1.349
236001.000			2.698			-1.349
236102.000			2.699			-1.349
236200.000			2.698			-1.349
236300.000			2.697			-1.349
236401.000			2.697			-1.349
236500.000			2.698			-1.349
236600.000			2.698			-1.349
236701.000			2.699			-1.349
236800.000			2.699			-1.349
236901.000			2.699			-1.349
237002.000			2.699			-1.349
237101.000			2.699			-1.350
237200.000			2.698			-1.349
237301.000			2.698			-1.349
237400.000			2.699			-1.350
237500.000			2.699			-1.350
237601.000			2.699			-1.349
237700.000			2.699			-1.350
237800.000			2.699			-1.349
237900.000			2.698			-1.349
238001.000			2.698			-1.349
238102.000			2.699			-1.349
238200.000			2.699			-1.349
238300.000			2.698			-1.349
238401.000			2.697			-1.348
238500.000			2.698			-1.349
238600.000			2.698			-1.349
238701.000			2.698			-1.349
238800.000			2.698			-1.349
238900.000			2.698			-1.349
239002.000			2.699			-1.350
239101.000			2.698			-1.349
239200.000			2.698			-1.349
239301.000			2.698			-1.349
239400.000			2.698			-1.349
239500.000			2.698			-1.349
239601.000			2.698			-1.349
239700.000			2.698			-1.349
239800.000			2.699			-1.349
239901.000			2.699			-1.349
240001.000			2.698			-1.349
240101.000			2.698			-1.349
240201.000			2.699			-1.350
240300.000			2.699			-1.349
240400.000			2.697			-1.349
240501.000			2.697			-1.349
240600.000			2.698			-1.349
240700.000			2.699			-1.349
240801.000			2.698			-1.349
240901.000			2.698			-1.349
241002.000			2.698			-1.349
241101.000			2.698			-1.349
241200.000			2.698			-1.349
241301.000			2.697			-1.349
241400.000			2.698			-1.349
241500.000			2.698			-1.349
241601.000			2.698			-1.349
241700.000			2.698			-1.349
241800.000			2.698			-1.349
241902.000			2.698			-1.349
242001.000			2.697			-1.349
242101.000			2.697			-1.349
242201.000			2.697			-1.349
242300.000			2.697			-1.349
242400.000			2.697			-1.348
242501.000			2.698			-1.349
242600.000			2.698			-1.349
242700.000			2.698			-1.349
242801.000			2.698			-1.349
242901.000			2.698			-1.349
243001.000			2.698			-1.349
243101.000			2.698			-1.349
243200.000			2.698			-1.349
243300.000			2.698			-1.349
243401.000			2.697			-1.349
243500.000			2.698			-1.349
243600.000			2.698			-1.349
243701.000			2.698			-1.349
243801.000			2.697			-1.348
243901.000			2.697			-1.348
244002.000			2.697			-1.349
244100.000			2.697			-1.348
244200.000			2.697			-1.349
244300.000			2.697			-1.349
244400.000			2.697			-1.348
244501.000			2.696			-1.348
244600.000			2.698			-1.349
244700.000			2.697			-1.348
244802.000			2.697			-1.348
244901.000			2.697			-1.349
245001.000			2.697			-1.348
245101.000			2.697			-1.348
245200.000			2.697			-1.349
245300.000			2.698			-1.349
245401.000			2.697			-1.348
245500.000			2.697			-1.348
245600.000			2.697			-1.348
245701.000			2.697			-1.349
245801.000			2.696			-1.348
245901.000			2.697			-1.348
246002.000			2.696			-1.348
246100.000			2.697			-1.348
246200.000			2.698			-1.349
246301.000			2.697			-1.349
246400.000			2.698			-1.349
246500.000			2.698			-1.349
246601.000			2.698			-1.349
246700.000			2.698			-1.349
246801.000			2.697			-1.348
246902.000			2.697			-1.348
247001.000			2.697			-1.348
247100.000			2.698			-1.349
247201.000			2.698			-1.349
247300.000			2.697			-1.349
247400.000			2.697			-1.349
247500.000			2.697			-1.348
247600.000			2.696			-1.348
247701.000			2.696			-1.348
247801.000			2.696			-1.348
247901.000			2.697			-1.348
248002.000			2.697			-1.349
248100.000			2.697			-1.348
248200.000			2.698			-1.349
248301.000			2.697			-1.349
248400.000			2.697			-1.349
248500.000			2.698			-1.349
248601.000			2.696			-1.348
248700.000			2.696			-1.348
248801.000			2.696			-1.348
248902.000			2.696			-1.348
249001.000			2.697			-1.348
249100.000			2.697			-1.349
249201.000			2.697			-1.348
249300.000			2.696			-1.348
249400.000			2.696			-1.348
249501.000			2.696			-1.348
249600.000			2.698			-1.349
249700.000			2.698			-1.349
249802.000			2.697			-1.349
249901.000			2.697			-1.349
250001.000			2.697			-1.349
250102.000			2.698			-1.349
250200.000			2.697			-1.348
250300.000			2.696			-1.348
250401.000			2.696			-1.348
250500.000			2.696			-1.348
250600.000			2.697			-1.348
250700.000			2.697			-1.349
250800.000			2.696			-1.348
250902.000			2.697			-1.348
251001.000			2.697			-1.349
251100.000			2.696			-1.348
251201.000			2.696			-1.348
251300.000			2.696			-1.348
251400.000			2.697			-1.349
251501.000			2.697			-1.349
251600.000			2.698			-1.349
251700.000			2.696			-1.348
251802.000			2.696			-1.348
251901.000			2.696			-1.348
252001.000			2.695			-1.348
252101.000			2.696			-1.348
252200.000			2.696			-1.348
252300.000			2.696			-1.348
252401.000			2.697			-1.348
252500.000			2.696			-1.348
252600.000			2.697			-1.348
252701.000			2.697			-1.348
252801.000			2.696			-1.348
252901.000			2.696			-1.348
253002.000			2.696			-1.348
253100.000			2.696			-1.348
253200.000			2.696			-1.348
253301.000			2.695			-1.348
253400.000			2.696			-1.348
253500.000			2.697			-1.348
253601.000			2.697			-1.348
253700.000			2.696			-1.348
253802.000			2.696			-1.348
253901.000			2.696			-1.348
254001.000			2.696			-1.348
254101.000			2.696			-1.348
254200.000			2.697			-1.348
254300.000			2.696			-1.348
254401.000			2.696			-1.348
254500.000			2.694			-1.347
254600.000			2.695			-1.348
254701.000			2.696			-1.348
254801.000			2.695			-1.348
254901.000			2.695			-1.348
255002.000			2.696			-1.348
255100.000			2.695			-1.347
255200.000			2.696			-1.348
255301.000			2.696			-1.348
255400.000			2.695			-1.348
255500.000			2.695			-1.348
255601.000			2.696			-1.348
255700.000			2.696			-1.348
255801.000			2.696			-1.348
255902.000			2.696			-1.348
256001.000			2.696			-1.348
256100.000			2.695			-1.348
256201.000			2.695			-1.347
256300.000			2.695			-1.348
256400.000			2.695			-1.348
256501.000			2.695			-1.347
256600.000			2.696			-1.348
256700.000			2.695			-1.347
256802.000			2.695			-1.347
256901.000			2.696			-1.348
257002.000			2.695			-1.347
257100.000			2.695			-1.348
257200.000			2.695			-1.348
257301.000			2.695			-1.347
257400.000			2.695			-1.347
257500.000			2.695			-1.348
257601.000			2.695			-1.347
257700.000			2.695			-1.347
257801.000			2.695			-1.348
257902.000			2.695			-1.348
258001.000			2.695			-1.348
258100.000			2.696			-1.348
258201.000			2.696			-1.348
258300.000			2.695			-1.348
258400.000			2.694			-1.347
258501.000			2.695			-1.348
258600.000			2.696			-1.348
258700.000			2.695			-1.348
258802.000			2.695			-1.347
258901.000			2.695			-1.348
259001.000			2.695			-1.348
259101.000			2.694			-1.347
259200.000			2.695			-1.348
259300.000			2.695			-1.347
259401.000			2.695			-1.348
259500.000			2.695			-1.347
259600.000			2.695			-1.348
259701.000			2.695			-1.348
259801.000			2.695			-1.347
259901.000			2.695			-1.347
260001.000			2.695			-1.348
260100.000			2.696			-1.348
260200.000			2.695			-1.347
260300.000			2.695			-1.348
260400.000			2.696			-1.348
260501.000			2.696			-1.348
260600.000			2.695			-1.348
260700.000			2.696			-1.348
260802.000			2.696			-1.348
260901.000			2.695			-1.348
261000.000			2.696			-1.348
261101.000			2.695			-1.347
261200.000			2.694			-1.347
261300.000			2.693			-1.347
261401.000			2.695			-1.347
261500.000			2.695			-1.348
261600.000			2.695			-1.348
261702.000			2.694			-1.347
261801.000			2.695			-1.347
261901.000			2.695			-1.348
262001.000			2.695			-1.347
262100.000			2.694			-1.347
262200.000			2.694			-1.347
262301.000			2.695			-1.347
262400.000			2.695			-1.348
262500.000			2.695			-1.348
262601.000			2.695			-1.348
262701.000			2.695			-1.348
262801.000			2.695			-1.348
262901.000			2.695			-1.347
263000.000			2.695			-1.347
263100.000			2.694			-1.347
263201.000			2.694			-1.347
263300.000			2.694			-1.347
263400.000			2.694			-1.347
263500.000			2.694			-1.347
263601.000			2.694			-1.347
263702.000			2.695			-1.348
263801.000			2.694			-1.347
263900.000			2.694			-1.347
264001.000			2.695			-1.348
264100.000			2.695			-1.348
264200.000			2.694			-1.347
264301.000			2.695			-1.347
264400.000			2.695			-1.347
264500.000			2.695			-1.347
264602.000			2.695			-1.348
264701.000			2.694			-1.347
264801.000			2.694			-1.347
264901.000			2.694			-1.347
265000.000			2.695			-1.347
265100.000			2.695			-1.348
265201.000			2.695			-1.348
265300.000			2.695			-1.348
265400.000			2.695			-1.347
265501.000			2.694			-1.347
265601.000			2.695			-1.348
265701.000			2.694			-1.347
265801.000			2.693			-1.347
265900.000			2.694			-1.347
266000.000			2.695			-1.348
266101.000			2.695			-1.348
266200.000			2.696			-1.348
266300.000			2.695			-1.348
266401.000			2.694			-1.347
266501.000			2.694			-1.347
266602.000			2.694			-1.347
266701.000			2.694			-1.347
266800.000			2.694			-1.347
266901.000			2.694			-1.347
267000.000			2.695			-1.347
267100.000			2.694			-1.347
267201.000			2.694			-1.347
267300.000			2.694			-1.347
267400.000			2.694			-1.347
267502.000			2.695			-1.347
267601.000			2.694			-1.347
267701.000			2.694			-1.347
267801.000			2.693			-1.347
267900.000			2.694			-1.347
268000.000			2.694			-1.347
268101.000			2.694			-1.347
268200.000			2.694			-1.347
268300.000			2.695			-1.347
268401.000			2.695			-1.347
268501.000			2.694			-1.347
268601.000			2.693			-1.347
268702.000			2.693			-1.347
268800.000			2.694			-1.347
268900.000			2.695			-1.347
269001.000			2.695			-1.347
269100.000			2.694			-1.347
269200.000			2.693			-1.347
269301.000			2.693			-1.346
269400.000			2.693			-1.346
269501.000			2.694			-1.347
269602.000			2.694			-1.347
269701.000			2.693			-1.346
269800.000			2.693			-1.346
269900.000			2.694			-1.347
270000.000			2.693			-1.347
270101.000			2.694			-1.347
270200.000			2.694			-1.347
270300.000			2.693			-1.347
270401.000			2.693			-1.347
270501.000			2.693			-1.347
270601.000			2.694			-1.347
270701.000			2.695			-1.347
270800.000			2.694			-1.347
270900.000			2.693			-1.347
271001.000			2.693			-1.347
271100.000			2.694			-1.347
271200.000			2.693			-1.347
271301.000			2.693			-1.346
271401.000			2.693			-1.346
271501.000			2.693			-1.346
271602.000			2.693			-1.347
271700.000			2.694			-1.347
271800.000			2.694			-1.347
271901.000			2.694			-1.347
272000.000			2.693			-1.347
272100.000			2.693			-1.347
272201.000			2.692			-1.346
272300.000			2.693			-1.346
272401.000			2.693			-1.347
272502.000			2.693			-1.347
272600.000			2.693			-1.346
272700.000			2.693			-1.347
272801.000			2.694			-1.347
272900.000			2.693			-1.347
273000.000			2.693			-1.346
273100.000			2.694			-1.347
273200.000			2.693			-1.347
273302.000			2.694			-1.347
273401.000			2.693			-1.347
273501.000			2.693			-1.347
273601.000			2.693			-1.347
273700.000			2.694			-1.347
273800.000			2.694			-1.347
273901.000			2.694			-1.347
274000.000			2.693			-1.347
274100.000			2.693			-1.347
274201.000			2.693			-1.347
274301.000			2.694			-1.347
274401.000			2.694			-1.347
274501.000			2.694			-1.347
274600.000			2.693			-1.346
274700.000			2.694			-1.347
274801.000			2.694			-1.347
274900.000			2.694			-1.347
275000.000			2.694			-1.347
275101.000			2.695			-1.347
275200.000			2.695			-1.348
275301.000			2.694			-1.347
275402.000			2.693			-1.347
275500.000			2.693			-1.347
275600.000			2.693			-1.346
275701.000			2.693			-1.346
275800.000			2.693			-1.347
275900.000			2.694			-1.347
276001.000			2.693			-1.347
276100.000			2.693			-1.347
276200.000			2.693			-1.346
276302.000			2.693			-1.347
276401.000			2.693			-1.347
276501.000			2.692			-1.346
276600.000			2.693			-1.346
276700.000			2.693			-1.346
276801.000			2.693			-1.347
276900.000			2.693			-1.347
277000.000			2.693			-1.346
277101.000			2.693			-1.346
277201.000			2.692			-1.346
277301.000			2.693			-1.346
277402.000			2.693			-1.346
277500.000			2.693			-1.347
277600.000			2.694			-1.347
277701.000			2.693			-1.346
277800.000			2.692			-1.346
277900.000			2.693			-1.346
278001.000			2.693			-1.346
278100.000			2.693			-1.346
278201.000			2.692			-1.346
278302.000			2.693			-1.346
278401.000			2.693			-1.346
278500.000			2.693			-1.346
278601.000			2.693			-1.346
278700.000			2.693			-1.347
278800.000			2.693			-1.346
278901.000			2.693			-1.346
279000.000			2.693			-1.346
279100.000			2.693			-1.346
279202.000			2.693			-1.347
279301.000			2.693			-1.347
279402.000			2.693			-1.346
279500.000			2.692			-1.346
279600.000			2.693			-1.347
279701.000			2.692			-1.346
279800.000			2.694			-1.347
279900.000			2.693			-1.346
280001.000			2.691			-1.346
280100.000			2.693			-1.346
280201.000			2.693			-1.347
280302.000			2.692			-1.346
280401.000			2.691			-1.346
280500.000			2.693			-1.346
280601.000			2.693			-1.346
280700.000			2.692			-1.346
280800.000			2.692			-1.346
280901.000			2.693			-1.347
281000.000			2.692			-1.346
281100.000			2.691			-1.346
281202.000			2.692			-1.346
281301.000			2.692			-1.346
281400.000			2.692			-1.346
281501.000			2.691			-1.346
281600.000			2.692			-1.346
281700.000			2.692			-1.346
281801.000			2.691			-1.346
281900.000			2.692			-1.346
282000.000			2.691			-1.345
282102.000			2.692			-1.346
282201.000			2.692			-1.346
282301.000			2.693			-1.346
282401.000			2.692			-1.346
282500.000			2.692			-1.346
282600.000			2.692			-1.346
282700.000			2.692			-1.346
282800.000			2.692			-1.346
282901.000			2.692			-1.346
283000.000			2.691			-1.346
283101.000			2.692			-1.346
283202.000			2.692			-1.346
283300.000			2.691			-1.346
283400.000			2.692			-1.346
283501.000			2.691			-1.346
283600.000			2.692			-1.346
283700.000			2.692			-1.346
283801.000			2.692			-1.346
283900.000			2.692			-1.346
284001.000			2.692			-1.346
284102.000			2.692			-1.346
284201.000			2.692			-1.346
284300.000			2.692			-1.346
284401.000			2.691			-1.346
284500.000			2.691			-1.345
284600.000			2.692			-1.346
284701.000			2.693			-1.346
284800.000			2.692			-1.346
284900.000			2.693			-1.347
285002.000			2.693			-1.346
285101.000			2.692			-1.346
285200.000			2.692			-1.346
285301.000			2.692			-1.346
285400.000			2.691			-1.346
285500.000			2.691			-1.346
285601.000			2.692			-1.346
285700.000			2.692			-1.346
285800.000			2.691			-1.346
285900.000			2.693			-1.346
286001.000			2.692			-1.346
286102.000			2.692			-1.346
286200.000			2.692			-1.346
286300.000			2.692			-1.346
286401.000			2.691			-1.346
286500.000			2.691			-1.345
286600.000			2.691			-1.346
286701.000			2.693			-1.346
286800.000			2.693			-1.346
286900.000			2.692			-1.346
287002.000			2.692			-1.346
287101.000			2.692			-1.346
287200.000			2.691			-1.346
287301.000			2.692			-1.346
287400.000			2.692			-1.346
287500.000			2.693			-1.346
287601.000			2.692			-1.346
287700.000			2.692			-1.346
287800.000			2.690			-1.345
287902.000			2.691			-1.346
288001.000			2.691			-1.346
288101.000			2.692			-1.346
288201.000			2.692			-1.346
288300.000			2.693			-1.346
288400.000			2.692			-1.346
288501.000			2.691			-1.345
288600.000			2.691			-1.345
288700.000			2.691			-1.346
288801.000			2.690			-1.345
288901.000			2.691			-1.345
289002.000			2.692			-1.346
289101.000			2.692			-1.346
289200.000			2.692			-1.346
289301.000			2.691			-1.346
289400.000			2.691			-1.345
289500.000			2.691			-1.346
289601.000			2.691			-1.346
289700.000			2.692			-1.346
289800.000			2.692			-1.346
289902.000			2.692			-1.346
290001.000			2.692			-1.346
290101.000			2.691			-1.345
290201.000			2.691			-1.346
290300.000			2.691			-1.346
290400.000			2.691			-1.346
290501.000			2.690			-1.345
290600.000			2.691			-1.345
290700.000			2.691			-1.345
290801.000			2.692			-1.346
290901.000			2.691			-1.345
291001.000			2.691			-1.345
291101.000			2.692			-1.346
291200.000			2.691			-1.346
291300.000			2.690			-1.345
291401.000			2.691			-1.346
291500.000			2.691			-1.345
291600.000			2.691			-1.345
291701.000			2.691			-1.346
291801.000			2.691			-1.346
291901.000			2.692			-1.346
292001.000			2.691			-1.346
292100.000			2.691			-1.346
292200.000			2.692			-1.346
292300.000			2.691			-1.345
292400.000			2.691			-1.346
292501.000			2.692			-1.346
292600.000			2.691			-1.345
292701.000			2.690			-1.345
292802.000			2.690			-1.345
292901.000			2.690			-1.345
293000.000			2.690			-1.345
293101.000			2.690			-1.345
293200.000			2.690			-1.345
293300.000			2.690			-1.345
293401.000			2.689			-1.345
293500.000			2.690			-1.345
293600.000			2.691			-1.345
293702.000			2.691			-1.345
293801.000			2.691			-1.345
293901.000			2.690			-1.345
294001.000			2.690			-1.345
294100.000			2.690			-1.345
294200.000			2.690			-1.345
294301.000			2.690			-1.345
294400.000			2.690			-1.345
294500.000			2.690			-1.345
294601.000			2.691			-1.345
294701.000			2.691			-1.345
294801.000			2.691			-1.345
294901.000			2.691			-1.345
295000.000			2.690			-1.345
295100.000			2.689			-1.345
295201.000			2.690			-1.345
295300.000			2.691			-1.345
295400.000			2.691			-1.345
295500.000			2.690			-1.345
295600.000			2.690			-1.345
295702.000			2.691			-1.345
295801.000			2.690			-1.345
295901.000			2.689			-1.345
296001.000			2.690			-1.345
296100.000			2.690			-1.345
296200.000			2.690			-1.345
296301.000			2.690			-1.345
296400.000			2.690			-1.345
296500.000			2.690			-1.345
296601.000			2.690			-1.345
296701.000			2.690			-1.345
296801.000			2.690			-1.345
296901.000			2.690			-1.345
297000.000			2.691			-1.345
297100.000			2.691			-1.345
297201.000			2.690			-1.345
297300.000			2.690			-1.345
297400.000			2.689			-1.345
297501.000			2.690			-1.345
297601.000			2.690			-1.345
297701.000			2.690			-1.345
297802.000			2.691			-1.345
297901.000			2.691			-1.345
298000.000			2.691			-1.345
298101.000			2.691			-1.345
298200.000			2.689			-1.345
298300.000			2.689			-1.344
298401.000			2.690			-1.345
298500.000			2.691			-1.345
298600.000			2.690			-1.345
298702.000			2.690			-1.345
298801.000			2.690			-1.345
298902.000			2.690			-1.345
299000.000			2.690			-1.345
299100.000			2.690			-1.345
299201.000			2.690			-1.345
299300.000			2.690			-1.345
299400.000			2.690			-1.345
299501.000			2.689			-1.345
299600.000			2.691			-1.345
299701.000			2.690			-1.345
299802.000			2.690			-1.345
299901.000			2.691			-1.345
